timestamp,RAW_TP9,RAW_AF7,RAW_AF8,RAW_TP10,Delta_Aggregate,Theta_Aggregate,Alpha_Aggregate,Beta_Aggregate,Gamma_Aggregate
1751988911.53,816.337,813.1135,781.685,842.9304,0.5663131825000001,0.3216930625,0.49565520500000004,0.237116676,-0.08707653750000001
1751988911.5310001,789.34064,820.3663,784.5055,819.5604,0.5663131825000001,0.3216930625,0.49565520500000004,0.237116676,-0.08707653750000001
1751988911.5310001,789.7436,818.7546,776.8498,823.5897,0.5663131825000001,0.3216930625,0.49565520500000004,0.237116676,-0.08707653750000001
1751988911.5310001,828.8278,816.7399,774.43225,862.674,0.5663131825000001,0.3216930625,0.49565520500000004,0.237116676,-0.08707653750000001
1751988911.5310001,834.87177,817.9487,774.43225,861.8681,0.5663131825000001,0.3216930625,0.49565520500000004,0.237116676,-0.08707653750000001
1751988911.5310001,807.8755,828.022,778.86444,831.6484,0.5663131825000001,0.3216930625,0.49565520500000004,0.237116676,-0.08707653750000001
1751988911.5310001,790.54944,823.9927,779.2674,819.15753,0.5663131825000001,0.3216930625,0.49565520500000004,0.237116676,-0.08707653750000001
1751988911.5310001,810.293,814.7253,778.86444,855.42126,0.5663131825000001,0.3216930625,0.49565520500000004,0.237116676,-0.08707653750000001
1751988911.532,828.8278,817.5458,780.4762,880.0,0.5663131825000001,0.3216930625,0.49565520500000004,0.237116676,-0.08707653750000001
1751988911.532,803.44324,819.9634,777.6557,850.18317,0.5663131825000001,0.3216930625,0.49565520500000004,0.237116676,-0.08707653750000001
1751988911.532,766.3736,815.9341,772.4176,807.8755,0.5663131825000001,0.3216930625,0.49565520500000004,0.237116676,-0.08707653750000001
1751988911.532,801.02563,815.12823,771.2088,834.87177,0.5679587575,0.350014005,0.48236054000000006,0.231240640375,-0.0903734925
1751988911.535,840.5128,822.381,774.0293,881.2088,0.5679587575,0.350014005,0.48236054000000006,0.231240640375,-0.0903734925
1751988911.535,817.9487,827.619,778.86444,856.63007,0.5679587575,0.350014005,0.48236054000000006,0.231240640375,-0.0903734925
1751988911.535,777.6557,824.7985,778.0586,805.05493,0.5679587575,0.350014005,0.48236054000000006,0.231240640375,-0.0903734925
1751988911.535,808.2784,827.2161,775.64105,828.4249,0.5679587575,0.350014005,0.48236054000000006,0.231240640375,-0.0903734925
1751988911.535,854.21246,830.84247,780.4762,882.01465,0.5679587575,0.350014005,0.48236054000000006,0.231240640375,-0.0903734925
1751988911.535,840.10986,826.8132,784.90845,870.7326,0.5679587575,0.350014005,0.48236054000000006,0.231240640375,-0.0903734925
1751988911.536,790.54944,823.9927,778.86444,820.3663,0.5679587575,0.350014005,0.48236054000000006,0.231240640375,-0.0903734925
1751988911.536,777.25275,820.3663,770.80585,816.7399,0.5679587575,0.350014005,0.48236054000000006,0.231240640375,-0.0903734925
1751988911.536,823.5897,821.1722,771.6117,873.5531,0.5679587575,0.350014005,0.48236054000000006,0.231240640375,-0.0903734925
1751988911.536,830.4396,820.3663,772.8205,882.4176,0.5679587575,0.350014005,0.48236054000000006,0.231240640375,-0.0903734925
1751988911.536,790.14655,817.1429,772.01465,825.6044,0.5679587575,0.350014005,0.48236054000000006,0.231240640375,-0.0903734925
1751988911.536,777.25275,819.9634,772.01465,807.8755,0.5679587575,0.350014005,0.48236054000000006,0.231240640375,-0.0903734925
1751988911.537,824.7985,827.619,777.25275,865.89746,0.5679587575,0.350014005,0.48236054000000006,0.231240640375,-0.0903734925
1751988911.537,846.55676,827.2161,776.8498,901.3553,0.5679587575,0.350014005,0.48236054000000006,0.231240640375,-0.0903734925
1751988911.537,794.9817,817.9487,773.6264,835.2747,0.5679587575,0.350014005,0.48236054000000006,0.231240640375,-0.0903734925
1751988911.537,768.3883,817.9487,777.25275,790.9524,0.5679587575,0.350014005,0.48236054000000006,0.231240640375,-0.0903734925
1751988911.537,805.05493,819.15753,778.46155,849.3773,0.5679587575,0.350014005,0.48236054000000006,0.231240640375,-0.0903734925
1751988911.537,832.8571,817.1429,780.87915,887.25275,0.5679587575,0.350014005,0.48236054000000006,0.231240640375,-0.0903734925
1751988911.537,815.5311,820.7692,785.31134,862.27106,0.5679587575,0.350014005,0.48236054000000006,0.231240640375,-0.0903734925
1751988911.537,774.83514,823.5897,782.0879,815.5311,0.5679587575,0.350014005,0.48236054000000006,0.231240640375,-0.0903734925
1751988911.5379999,799.41394,827.619,777.25275,844.1392,0.5679587575,0.350014005,0.48236054000000006,0.231240640375,-0.0903734925
1751988911.5379999,837.6923,828.8278,776.4469,886.4469,0.5679587575,0.350014005,0.48236054000000006,0.231240640375,-0.0903734925
1751988911.5379999,812.71063,820.7692,773.6264,849.3773,0.5679587575,0.350014005,0.48236054000000006,0.231240640375,-0.0903734925
1751988911.5379999,780.4762,823.5897,772.01465,811.0989,0.5679587575,0.350014005,0.48236054000000006,0.231240640375,-0.0903734925
1751988911.5619998,790.54944,828.8278,777.6557,823.1868,0.5679587575,0.350014005,0.48236054000000006,0.231240640375,-0.0903734925
1751988911.5619998,821.978,823.1868,781.685,857.8388,0.568515375,0.35597870750000005,0.48236054000000006,0.228563356,-0.091632155
1751988911.563,817.1429,819.9634,781.685,859.85345,0.568515375,0.35597870750000005,0.48236054000000006,0.228563356,-0.091632155
1751988911.563,792.96704,825.6044,782.8938,836.08057,0.568515375,0.35597870750000005,0.48236054000000006,0.228563356,-0.091632155
1751988911.563,780.07324,827.2161,780.07324,820.7692,0.568515375,0.35597870750000005,0.48236054000000006,0.228563356,-0.091632155
1751988911.563,805.4579,821.1722,779.67035,847.3626,0.568515375,0.35597870750000005,0.48236054000000006,0.228563356,-0.091632155
1751988911.563,826.4103,820.3663,782.0879,865.09155,0.568515375,0.35597870750000005,0.48236054000000006,0.228563356,-0.091632155
1751988911.563,803.0403,826.8132,782.8938,842.52747,0.568515375,0.35597870750000005,0.48236054000000006,0.228563356,-0.091632155
1751988911.564,776.8498,827.2161,779.67035,807.8755,0.568515375,0.35597870750000005,0.48236054000000006,0.228563356,-0.091632155
1751988911.564,798.60803,821.978,776.8498,821.1722,0.568515375,0.35597870750000005,0.48236054000000006,0.228563356,-0.091632155
1751988911.564,837.28937,830.0366,784.90845,864.2857,0.568515375,0.35597870750000005,0.48236054000000006,0.228563356,-0.091632155
1751988911.564,817.9487,831.2454,788.5348,851.39197,0.568515375,0.35597870750000005,0.48236054000000006,0.228563356,-0.091632155
1751988911.609,775.2381,828.8278,789.34064,811.50183,0.568515375,0.35597870750000005,0.48236054000000006,0.228563356,-0.091632155
1751988911.61,796.1905,831.2454,791.75824,829.2308,0.568515375,0.35597870750000005,0.48236054000000006,0.228563356,-0.091632155
1751988911.61,837.28937,828.4249,788.1319,870.7326,0.568515375,0.35597870750000005,0.48236054000000006,0.228563356,-0.091632155
1751988911.61,827.619,823.5897,786.52014,876.77655,0.568515375,0.35597870750000005,0.48236054000000006,0.228563356,-0.091632155
1751988911.611,784.5055,825.2015,787.326,831.6484,0.568515375,0.35597870750000005,0.48236054000000006,0.228563356,-0.091632155
1751988911.611,785.31134,827.2161,787.326,816.337,0.568515375,0.35597870750000005,0.48236054000000006,0.228563356,-0.091632155
1751988911.611,827.2161,820.3663,781.28204,859.85345,0.568515375,0.35597870750000005,0.48236054000000006,0.228563356,-0.091632155
1751988911.611,841.31866,817.5458,775.64105,890.4762,0.568515375,0.35597870750000005,0.48236054000000006,0.228563356,-0.091632155
1751988911.611,804.65204,815.12823,773.6264,846.55676,0.568515375,0.35597870750000005,0.48236054000000006,0.228563356,-0.091632155
1751988911.611,771.6117,809.89014,776.04395,788.5348,0.568515375,0.35597870750000005,0.48236054000000006,0.228563356,-0.091632155
1751988911.612,820.3663,820.7692,779.2674,847.3626,0.568515375,0.35597870750000005,0.48236054000000006,0.228563356,-0.091632155
1751988911.612,853.8095,828.8278,779.67035,873.95605,0.568515375,0.35597870750000005,0.48236054000000006,0.228563356,-0.091632155
1751988911.6579998,825.2015,831.2454,787.326,833.2601,0.568515375,0.35597870750000005,0.48236054000000006,0.228563356,-0.091632155
1751988911.6579998,793.7729,832.8571,789.34064,813.5165,0.568515375,0.35597870750000005,0.48236054000000006,0.228563356,-0.091632155
1751988911.6579998,820.3663,828.022,782.8938,850.989,0.568515375,0.35597870750000005,0.48236054000000006,0.228563356,-0.091632155
1751988911.6590002,844.5421,824.3956,785.7143,887.25275,0.5654982024999999,0.35586297499999997,0.48181544,0.228703770455,-0.0934791
1751988911.66,815.5311,823.5897,788.5348,859.0476,0.5654982024999999,0.35586297499999997,0.48181544,0.228703770455,-0.0934791
1751988911.66,780.4762,821.1722,783.69965,818.7546,0.5654982024999999,0.35586297499999997,0.48181544,0.228703770455,-0.0934791
1751988911.661,797.3993,821.1722,782.8938,840.9158,0.5654982024999999,0.35586297499999997,0.48181544,0.228703770455,-0.0934791
1751988911.661,838.49817,820.7692,783.69965,885.2381,0.5654982024999999,0.35586297499999997,0.48181544,0.228703770455,-0.0934791
1751988911.661,827.619,814.3223,779.2674,868.71796,0.5654982024999999,0.35586297499999997,0.48181544,0.228703770455,-0.0934791
1751988911.661,788.5348,817.1429,783.2967,825.2015,0.5654982024999999,0.35586297499999997,0.48181544,0.228703770455,-0.0934791
1751988911.661,788.5348,826.8132,788.93774,819.5604,0.5654982024999999,0.35586297499999997,0.48181544,0.228703770455,-0.0934791
1751988911.6620002,828.8278,829.2308,784.90845,862.674,0.5654982024999999,0.35586297499999997,0.48181544,0.228703770455,-0.0934791
1751988911.717,838.9011,826.4103,782.49084,867.1062,0.5654982024999999,0.35586297499999997,0.48181544,0.228703770455,-0.0934791
1751988911.717,809.0842,826.8132,783.2967,837.28937,0.5654982024999999,0.35586297499999997,0.48181544,0.228703770455,-0.0934791
1751988911.717,786.9231,826.0073,781.28204,833.2601,0.5654982024999999,0.35586297499999997,0.48181544,0.228703770455,-0.0934791
1751988911.7180002,811.9048,824.3956,782.49084,857.8388,0.5654982024999999,0.35586297499999997,0.48181544,0.228703770455,-0.0934791
1751988911.7180002,836.8865,825.6044,788.5348,875.9707,0.5654982024999999,0.35586297499999997,0.48181544,0.228703770455,-0.0934791
1751988911.7180002,818.7546,826.8132,787.326,858.6447,0.5654982024999999,0.35586297499999997,0.48181544,0.228703770455,-0.0934791
1751988911.7180002,783.2967,825.2015,782.0879,827.619,0.5654982024999999,0.35586297499999997,0.48181544,0.228703770455,-0.0934791
1751988911.719,788.93774,817.9487,780.87915,833.2601,0.5654982024999999,0.35586297499999997,0.48181544,0.228703770455,-0.0934791
1751988911.719,814.7253,817.9487,782.49084,855.82416,0.5654982024999999,0.35586297499999997,0.48181544,0.228703770455,-0.0934791
1751988911.719,820.3663,827.2161,785.31134,855.0183,0.5654982024999999,0.35586297499999997,0.48181544,0.228703770455,-0.0934791
1751988911.719,788.1319,827.2161,787.72894,810.293,0.5654982024999999,0.35586297499999997,0.48181544,0.228703770455,-0.0934791
1751988911.72,792.1612,823.5897,788.1319,813.91943,0.5654982024999999,0.35586297499999997,0.48181544,0.228703770455,-0.0934791
1751988911.784,830.4396,821.978,787.72894,854.21246,0.5654982024999999,0.35586297499999997,0.48181544,0.228703770455,-0.0934791
1751988911.7849998,836.4835,823.1868,784.5055,864.2857,0.5654982024999999,0.35586297499999997,0.48181544,0.228703770455,-0.0934791
1751988911.7849998,801.4286,821.1722,782.49084,830.0366,0.5654982024999999,0.35586297499999997,0.48181544,0.228703770455,-0.0934791
1751988911.7859998,774.43225,819.5604,781.685,803.0403,0.5654982024999999,0.35586297499999997,0.48181544,0.228703770455,-0.0934791
1751988911.7859998,809.89014,819.5604,779.67035,846.1539,0.5654982024999999,0.35586297499999997,0.48181544,0.228703770455,-0.0934791
1751988911.7859998,840.9158,822.7839,782.8938,879.59705,0.5596048899999999,0.3539625325,0.479113825,0.233370788,-0.09411945749999999
1751988911.788,813.5165,823.5897,786.52014,841.31866,0.5596048899999999,0.3539625325,0.479113825,0.233370788,-0.09411945749999999
1751988911.788,772.8205,819.15753,785.7143,789.34064,0.5596048899999999,0.3539625325,0.479113825,0.233370788,-0.09411945749999999
1751988911.788,802.6374,819.5604,783.2967,836.08057,0.5596048899999999,0.3539625325,0.479113825,0.233370788,-0.09411945749999999
1751988911.788,844.94507,828.4249,790.14655,898.93774,0.5596048899999999,0.3539625325,0.479113825,0.233370788,-0.09411945749999999
1751988911.788,819.9634,827.2161,790.14655,869.12085,0.5596048899999999,0.3539625325,0.479113825,0.233370788,-0.09411945749999999
1751988911.789,767.98535,819.9634,780.4762,805.8608,0.5596048899999999,0.3539625325,0.479113825,0.233370788,-0.09411945749999999
1751988911.8140001,779.67035,815.9341,778.0586,815.5311,0.5596048899999999,0.3539625325,0.479113825,0.233370788,-0.09411945749999999
1751988911.8140001,832.4542,818.3516,781.28204,864.68866,0.5596048899999999,0.3539625325,0.479113825,0.233370788,-0.09411945749999999
1751988911.815,841.31866,824.7985,784.90845,862.674,0.5596048899999999,0.3539625325,0.479113825,0.233370788,-0.09411945749999999
1751988911.815,785.31134,821.1722,780.07324,814.7253,0.5596048899999999,0.3539625325,0.479113825,0.233370788,-0.09411945749999999
1751988911.815,774.0293,817.5458,772.8205,820.7692,0.5596048899999999,0.3539625325,0.479113825,0.233370788,-0.09411945749999999
1751988911.815,829.6337,825.2015,776.4469,886.04395,0.5596048899999999,0.3539625325,0.479113825,0.233370788,-0.09411945749999999
1751988911.815,840.5128,826.0073,779.67035,886.8498,0.5596048899999999,0.3539625325,0.479113825,0.233370788,-0.09411945749999999
1751988911.816,785.7143,816.337,773.6264,808.2784,0.5596048899999999,0.3539625325,0.479113825,0.233370788,-0.09411945749999999
1751988911.816,765.16486,815.9341,771.6117,791.75824,0.5596048899999999,0.3539625325,0.479113825,0.233370788,-0.09411945749999999
1751988911.816,808.68134,817.5458,769.59705,847.76556,0.5596048899999999,0.3539625325,0.479113825,0.233370788,-0.09411945749999999
1751988911.816,834.0659,816.7399,772.8205,872.74725,0.5596048899999999,0.3539625325,0.479113825,0.233370788,-0.09411945749999999
1751988911.816,803.8461,812.71063,776.4469,834.0659,0.5596048899999999,0.3539625325,0.479113825,0.233370788,-0.09411945749999999
1751988911.8409998,774.43225,817.1429,779.67035,800.2198,0.5596048899999999,0.3539625325,0.479113825,0.233370788,-0.09411945749999999
1751988911.8409998,806.6667,826.4103,782.0879,832.8571,0.5596048899999999,0.3539625325,0.479113825,0.233370788,-0.09411945749999999
1751988911.8409998,838.0952,826.4103,779.2674,858.24176,0.5596048899999999,0.3539625325,0.479113825,0.233370788,-0.09411945749999999
1751988911.8409998,830.4396,827.2161,782.0879,842.1245,0.5596048899999999,0.3539625325,0.479113825,0.233370788,-0.09411945749999999
1751988911.8419998,797.3993,828.8278,782.8938,818.3516,0.5596048899999999,0.3539625325,0.479113825,0.233370788,-0.09411945749999999
1751988911.8419998,799.41394,825.6044,779.2674,836.8865,0.5596048899999999,0.3539625325,0.479113825,0.233370788,-0.09411945749999999
1751988911.8419998,834.4689,822.7839,777.6557,874.7619,0.5596048899999999,0.3539625325,0.479113825,0.233370788,-0.09411945749999999
1751988911.8419998,836.8865,823.9927,776.4469,867.50916,0.5534799625,0.3508757025,0.477352365,0.2416735125,-0.09245401500000001
1751988911.8430002,790.54944,819.9634,773.6264,821.5751,0.5534799625,0.3508757025,0.477352365,0.2416735125,-0.09245401500000001
1751988911.8430002,782.0879,820.3663,777.25275,828.8278,0.5534799625,0.3508757025,0.477352365,0.2416735125,-0.09245401500000001
1751988911.8430002,814.3223,818.3516,779.67035,861.06226,0.5534799625,0.3508757025,0.477352365,0.2416735125,-0.09245401500000001
1751988911.8430002,827.619,817.9487,781.685,864.68866,0.5534799625,0.3508757025,0.477352365,0.2416735125,-0.09245401500000001
1751988911.895,803.44324,821.5751,779.67035,835.6777,0.5534799625,0.3508757025,0.477352365,0.2416735125,-0.09245401500000001
1751988911.895,777.25275,818.7546,775.64105,808.2784,0.5534799625,0.3508757025,0.477352365,0.2416735125,-0.09245401500000001
1751988911.896,811.50183,818.3516,777.6557,846.1539,0.5534799625,0.3508757025,0.477352365,0.2416735125,-0.09245401500000001
1751988911.896,842.9304,823.5897,781.685,871.9414,0.5534799625,0.3508757025,0.477352365,0.2416735125,-0.09245401500000001
1751988911.896,816.337,827.2161,782.49084,850.18317,0.5534799625,0.3508757025,0.477352365,0.2416735125,-0.09245401500000001
1751988911.8969998,769.19415,821.1722,776.4469,815.12823,0.5534799625,0.3508757025,0.477352365,0.2416735125,-0.09245401500000001
1751988911.8969998,786.9231,815.9341,775.2381,838.0952,0.5534799625,0.3508757025,0.477352365,0.2416735125,-0.09245401500000001
1751988911.8969998,827.619,813.91943,780.4762,883.22345,0.5534799625,0.3508757025,0.477352365,0.2416735125,-0.09245401500000001
1751988911.8979998,836.08057,817.5458,784.5055,894.5055,0.5534799625,0.3508757025,0.477352365,0.2416735125,-0.09245401500000001
1751988911.8979998,788.1319,817.9487,781.28204,834.87177,0.5534799625,0.3508757025,0.477352365,0.2416735125,-0.09245401500000001
1751988911.8979998,777.25275,819.15753,779.2674,811.9048,0.5534799625,0.3508757025,0.477352365,0.2416735125,-0.09245401500000001
1751988911.8979998,842.1245,827.619,780.07324,880.0,0.5534799625,0.3508757025,0.477352365,0.2416735125,-0.09245401500000001
1751988911.9689999,864.2857,829.6337,774.0293,891.28204,0.5534799625,0.3508757025,0.477352365,0.2416735125,-0.09245401500000001
1751988911.9689999,830.84247,833.2601,770.80585,849.7802,0.5534799625,0.3508757025,0.477352365,0.2416735125,-0.09245401500000001
1751988911.9699998,813.91943,834.4689,772.01465,840.10986,0.5534799625,0.3508757025,0.477352365,0.2416735125,-0.09245401500000001
1751988911.9699998,865.89746,833.663,769.19415,886.8498,0.5534799625,0.3508757025,0.477352365,0.2416735125,-0.09245401500000001
1751988911.9699998,891.28204,838.9011,770.0,903.7729,0.5534799625,0.3508757025,0.477352365,0.2416735125,-0.09245401500000001
1751988911.971,847.3626,834.87177,766.77655,852.6007,0.5534799625,0.3508757025,0.477352365,0.2416735125,-0.09245401500000001
1751988911.971,807.47253,830.84247,767.1795,818.3516,0.5534799625,0.3508757025,0.477352365,0.2416735125,-0.09245401500000001
1751988911.971,850.18317,834.0659,772.01465,853.00366,0.5534799625,0.3508757025,0.477352365,0.2416735125,-0.09245401500000001
1751988911.972,884.83514,831.6484,770.0,893.69965,0.5534799625,0.3508757025,0.477352365,0.2416735125,-0.09245401500000001
1751988911.972,838.0952,824.3956,769.19415,861.06226,0.5473220075,0.34678870500000003,0.477352365,0.250622095,-0.08892515250000001
1751988911.973,796.5934,825.6044,772.01465,813.5165,0.5473220075,0.34678870500000003,0.477352365,0.250622095,-0.08892515250000001
1751988911.973,824.3956,829.2308,775.2381,848.1685,0.5473220075,0.34678870500000003,0.477352365,0.250622095,-0.08892515250000001
1751988911.9980001,859.85345,827.619,776.4469,892.49084,0.5473220075,0.34678870500000003,0.477352365,0.250622095,-0.08892515250000001
1751988911.9980001,845.34796,826.8132,776.04395,879.19415,0.5473220075,0.34678870500000003,0.477352365,0.250622095,-0.08892515250000001
1751988911.9980001,804.65204,822.7839,775.64105,834.87177,0.5473220075,0.34678870500000003,0.477352365,0.250622095,-0.08892515250000001
1751988911.999,808.2784,823.5897,775.2381,843.73627,0.5473220075,0.34678870500000003,0.477352365,0.250622095,-0.08892515250000001
1751988911.999,844.5421,825.2015,783.2967,887.6557,0.5473220075,0.34678870500000003,0.477352365,0.250622095,-0.08892515250000001
1751988912.0,838.0952,823.1868,786.1172,876.77655,0.5473220075,0.34678870500000003,0.477352365,0.250622095,-0.08892515250000001
1751988912.0,801.02563,823.5897,785.31134,837.28937,0.5473220075,0.34678870500000003,0.477352365,0.250622095,-0.08892515250000001
1751988912.0,800.6227,830.84247,788.5348,834.87177,0.5473220075,0.34678870500000003,0.477352365,0.250622095,-0.08892515250000001
1751988912.0,835.6777,834.4689,783.69965,867.9121,0.5473220075,0.34678870500000003,0.477352365,0.250622095,-0.08892515250000001
1751988912.0,838.49817,832.4542,783.69965,866.30035,0.5473220075,0.34678870500000003,0.477352365,0.250622095,-0.08892515250000001
1751988912.0,816.337,831.2454,786.1172,836.8865,0.5473220075,0.34678870500000003,0.477352365,0.250622095,-0.08892515250000001
1751988912.001,793.36993,826.0073,779.2674,804.65204,0.5473220075,0.34678870500000003,0.477352365,0.250622095,-0.08892515250000001
1751988912.023,819.5604,826.0073,780.07324,834.87177,0.5473220075,0.34678870500000003,0.477352365,0.250622095,-0.08892515250000001
1751988912.023,851.79486,831.6484,782.0879,873.95605,0.5473220075,0.34678870500000003,0.477352365,0.250622095,-0.08892515250000001
1751988912.023,839.304,832.8571,778.86444,855.0183,0.5473220075,0.34678870500000003,0.477352365,0.250622095,-0.08892515250000001
1751988912.024,790.9524,826.8132,777.25275,808.68134,0.5473220075,0.34678870500000003,0.477352365,0.250622095,-0.08892515250000001
1751988912.024,791.3553,823.9927,778.46155,826.4103,0.5473220075,0.34678870500000003,0.477352365,0.250622095,-0.08892515250000001
1751988912.024,840.9158,828.4249,778.86444,886.4469,0.5473220075,0.34678870500000003,0.477352365,0.250622095,-0.08892515250000001
1751988912.024,848.5714,831.2454,781.685,896.1172,0.5473220075,0.34678870500000003,0.477352365,0.250622095,-0.08892515250000001
1751988912.024,808.2784,830.4396,784.90845,855.42126,0.5473220075,0.34678870500000003,0.477352365,0.250622095,-0.08892515250000001
1751988912.024,796.5934,828.022,788.1319,832.4542,0.5473220075,0.34678870500000003,0.477352365,0.250622095,-0.08892515250000001
1751988912.0249999,838.0952,828.8278,786.52014,877.98535,0.5473220075,0.34678870500000003,0.477352365,0.250622095,-0.08892515250000001
1751988912.0249999,839.304,825.2015,784.10254,874.7619,0.5473220075,0.34678870500000003,0.477352365,0.250622095,-0.08892515250000001
1751988912.0249999,792.5641,820.7692,782.0879,831.2454,0.5418589174999999,0.34260157,0.477328875,0.25665235,-0.0853054675
1751988912.1020002,775.2381,817.9487,782.0879,827.619,0.5418589174999999,0.34260157,0.477328875,0.25665235,-0.0853054675
1751988912.1020002,822.381,823.1868,780.87915,882.8205,0.5418589174999999,0.34260157,0.477328875,0.25665235,-0.0853054675
1751988912.1020002,846.55676,826.8132,779.67035,915.05493,0.5418589174999999,0.34260157,0.477328875,0.25665235,-0.0853054675
1751988912.1020002,799.81683,816.337,777.6557,859.45056,0.5418589174999999,0.34260157,0.477328875,0.25665235,-0.0853054675
1751988912.1030002,773.22345,813.1135,776.04395,819.15753,0.5418589174999999,0.34260157,0.477328875,0.25665235,-0.0853054675
1751988912.1030002,808.68134,815.9341,775.64105,854.61536,0.5418589174999999,0.34260157,0.477328875,0.25665235,-0.0853054675
1751988912.1030002,842.52747,820.3663,778.86444,901.3553,0.5418589174999999,0.34260157,0.477328875,0.25665235,-0.0853054675
1751988912.1030002,830.0366,820.3663,782.49084,876.3736,0.5418589174999999,0.34260157,0.477328875,0.25665235,-0.0853054675
1751988912.1030002,779.2674,816.337,782.8938,806.26373,0.5418589174999999,0.34260157,0.477328875,0.25665235,-0.0853054675
1751988912.1030002,798.20514,825.6044,788.1319,838.49817,0.5418589174999999,0.34260157,0.477328875,0.25665235,-0.0853054675
1751988912.104,848.97437,833.663,790.9524,895.7143,0.5418589174999999,0.34260157,0.477328875,0.25665235,-0.0853054675
1751988912.104,838.9011,825.2015,780.07324,878.7912,0.5418589174999999,0.34260157,0.477328875,0.25665235,-0.0853054675
1751988912.129,799.81683,823.9927,775.64105,814.7253,0.5418589174999999,0.34260157,0.477328875,0.25665235,-0.0853054675
1751988912.1299999,804.2491,834.4689,784.90845,813.1135,0.5418589174999999,0.34260157,0.477328875,0.25665235,-0.0853054675
1751988912.1299999,846.9597,832.0513,785.7143,873.95605,0.5418589174999999,0.34260157,0.477328875,0.25665235,-0.0853054675
1751988912.1299999,859.45056,831.2454,788.5348,887.6557,0.5418589174999999,0.34260157,0.477328875,0.25665235,-0.0853054675
1751988912.131,828.4249,837.6923,790.9524,845.7509,0.5418589174999999,0.34260157,0.477328875,0.25665235,-0.0853054675
1751988912.131,805.8608,838.9011,788.5348,826.0073,0.5418589174999999,0.34260157,0.477328875,0.25665235,-0.0853054675
1751988912.131,836.08057,836.8865,788.93774,867.1062,0.5418589174999999,0.34260157,0.477328875,0.25665235,-0.0853054675
1751988912.132,846.55676,827.2161,782.8938,875.16486,0.5418589174999999,0.34260157,0.477328875,0.25665235,-0.0853054675
1751988912.132,812.71063,820.7692,781.28204,845.34796,0.5418589174999999,0.34260157,0.477328875,0.25665235,-0.0853054675
1751988912.132,787.72894,825.2015,787.326,820.3663,0.5418589174999999,0.34260157,0.477328875,0.25665235,-0.0853054675
1751988912.132,813.1135,823.5897,785.31134,850.58606,0.5418589174999999,0.34260157,0.477328875,0.25665235,-0.0853054675
1751988912.133,832.4542,814.3223,784.5055,873.1502,0.5418589174999999,0.34260157,0.477328875,0.25665235,-0.0853054675
1751988912.1820002,823.5897,817.1429,788.5348,852.6007,0.5418589174999999,0.34260157,0.477328875,0.25665235,-0.0853054675
1751988912.183,802.6374,827.2161,789.34064,839.304,0.538090435,0.33948999999999996,0.4751785275,0.257947025,-0.08305407249999998
1751988912.184,798.20514,825.2015,787.326,836.4835,0.538090435,0.33948999999999996,0.4751785275,0.257947025,-0.08305407249999998
1751988912.185,821.978,823.5897,790.54944,857.4359,0.538090435,0.33948999999999996,0.4751785275,0.257947025,-0.08305407249999998
1751988912.185,819.15753,829.2308,792.5641,875.56775,0.538090435,0.33948999999999996,0.4751785275,0.257947025,-0.08305407249999998
1751988912.185,788.1319,831.2454,782.0879,852.1978,0.538090435,0.33948999999999996,0.4751785275,0.257947025,-0.08305407249999998
1751988912.185,782.8938,829.2308,777.6557,826.4103,0.538090435,0.33948999999999996,0.4751785275,0.257947025,-0.08305407249999998
1751988912.1859999,818.7546,829.2308,783.69965,850.989,0.538090435,0.33948999999999996,0.4751785275,0.257947025,-0.08305407249999998
1751988912.1859999,843.3333,833.663,782.49084,887.6557,0.538090435,0.33948999999999996,0.4751785275,0.257947025,-0.08305407249999998
1751988912.1859999,817.9487,838.49817,780.07324,864.68866,0.538090435,0.33948999999999996,0.4751785275,0.257947025,-0.08305407249999998
1751988912.1859999,792.1612,836.08057,784.10254,827.2161,0.538090435,0.33948999999999996,0.4751785275,0.257947025,-0.08305407249999998
1751988912.1859999,824.3956,832.8571,786.9231,853.8095,0.538090435,0.33948999999999996,0.4751785275,0.257947025,-0.08305407249999998
1751988912.212,845.7509,831.6484,788.1319,884.83514,0.538090435,0.33948999999999996,0.4751785275,0.257947025,-0.08305407249999998
1751988912.212,821.5751,828.022,790.54944,863.0769,0.538090435,0.33948999999999996,0.4751785275,0.257947025,-0.08305407249999998
1751988912.212,788.1319,828.8278,791.75824,815.12823,0.538090435,0.33948999999999996,0.4751785275,0.257947025,-0.08305407249999998
1751988912.2129998,803.0403,831.2454,791.75824,834.0659,0.538090435,0.33948999999999996,0.4751785275,0.257947025,-0.08305407249999998
1751988912.2129998,844.5421,829.2308,786.1172,880.40295,0.538090435,0.33948999999999996,0.4751785275,0.257947025,-0.08305407249999998
1751988912.2129998,837.6923,828.022,782.49084,863.47986,0.538090435,0.33948999999999996,0.4751785275,0.257947025,-0.08305407249999998
1751988912.2129998,786.1172,828.4249,782.8938,812.3077,0.538090435,0.33948999999999996,0.4751785275,0.257947025,-0.08305407249999998
1751988912.2129998,780.87915,828.8278,783.2967,805.05493,0.538090435,0.33948999999999996,0.4751785275,0.257947025,-0.08305407249999998
1751988912.2140002,836.08057,832.4542,787.72894,861.06226,0.538090435,0.33948999999999996,0.4751785275,0.257947025,-0.08305407249999998
1751988912.2140002,840.9158,833.663,791.3553,877.5824,0.538090435,0.33948999999999996,0.4751785275,0.257947025,-0.08305407249999998
1751988912.2140002,784.90845,827.619,792.1612,815.5311,0.538090435,0.33948999999999996,0.4751785275,0.257947025,-0.08305407249999998
1751988912.2140002,779.2674,823.1868,793.7729,805.05493,0.538090435,0.33948999999999996,0.4751785275,0.257947025,-0.08305407249999998
1751988912.2649999,830.0366,821.978,788.5348,857.03296,0.538090435,0.33948999999999996,0.4751785275,0.257947025,-0.08305407249999998
1751988912.2659998,850.58606,829.2308,789.34064,891.685,0.538090435,0.33948999999999996,0.4751785275,0.257947025,-0.08305407249999998
1751988912.2659998,821.1722,834.0659,793.7729,867.9121,0.538090435,0.33948999999999996,0.4751785275,0.257947025,-0.08305407249999998
1751988912.2659998,788.1319,827.619,787.72894,826.4103,0.537284125,0.33794499499999997,0.47302954750000004,0.25497471,-0.082429295
1751988912.268,818.7546,824.7985,790.14655,863.0769,0.537284125,0.33794499499999997,0.47302954750000004,0.25497471,-0.082429295
1751988912.268,846.9597,828.4249,798.20514,901.3553,0.537284125,0.33794499499999997,0.47302954750000004,0.25497471,-0.082429295
1751988912.268,807.8755,823.9927,792.1612,859.45056,0.537284125,0.33794499499999997,0.47302954750000004,0.25497471,-0.082429295
1751988912.268,761.9414,822.7839,786.52014,799.41394,0.537284125,0.33794499499999997,0.47302954750000004,0.25497471,-0.082429295
1751988912.268,791.75824,827.619,790.14655,832.0513,0.537284125,0.33794499499999997,0.47302954750000004,0.25497471,-0.082429295
1751988912.269,828.8278,825.6044,791.3553,883.22345,0.537284125,0.33794499499999997,0.47302954750000004,0.25497471,-0.082429295
1751988912.269,817.9487,826.0073,787.72894,854.61536,0.537284125,0.33794499499999997,0.47302954750000004,0.25497471,-0.082429295
1751988912.269,790.14655,831.6484,787.326,817.9487,0.537284125,0.33794499499999997,0.47302954750000004,0.25497471,-0.082429295
1751988912.318,794.57874,833.2601,788.1319,830.84247,0.537284125,0.33794499499999997,0.47302954750000004,0.25497471,-0.082429295
1751988912.319,834.87177,830.4396,788.93774,863.0769,0.537284125,0.33794499499999997,0.47302954750000004,0.25497471,-0.082429295
1751988912.319,839.304,830.4396,788.5348,873.1502,0.537284125,0.33794499499999997,0.47302954750000004,0.25497471,-0.082429295
1751988912.319,810.696,834.87177,783.2967,848.5714,0.537284125,0.33794499499999997,0.47302954750000004,0.25497471,-0.082429295
1751988912.319,799.81683,830.84247,781.28204,825.6044,0.537284125,0.33794499499999997,0.47302954750000004,0.25497471,-0.082429295
1751988912.32,839.707,828.022,784.10254,859.0476,0.537284125,0.33794499499999997,0.47302954750000004,0.25497471,-0.082429295
1751988912.32,862.27106,830.84247,781.28204,870.32965,0.537284125,0.33794499499999997,0.47302954750000004,0.25497471,-0.082429295
1751988912.32,829.2308,830.4396,784.90845,851.39197,0.537284125,0.33794499499999997,0.47302954750000004,0.25497471,-0.082429295
1751988912.32,793.36993,828.8278,784.5055,830.4396,0.537284125,0.33794499499999997,0.47302954750000004,0.25497471,-0.082429295
1751988912.3209999,801.4286,821.978,776.4469,826.0073,0.537284125,0.33794499499999997,0.47302954750000004,0.25497471,-0.082429295
1751988912.3209999,836.8865,822.381,774.43225,850.989,0.537284125,0.33794499499999997,0.47302954750000004,0.25497471,-0.082429295
1751988912.3209999,832.4542,830.0366,777.6557,851.39197,0.537284125,0.33794499499999997,0.47302954750000004,0.25497471,-0.082429295
1751988912.3769999,788.93774,828.4249,779.2674,811.9048,0.537284125,0.33794499499999997,0.47302954750000004,0.25497471,-0.082429295
1751988912.3769999,794.9817,819.15753,777.25275,819.9634,0.537284125,0.33794499499999997,0.47302954750000004,0.25497471,-0.082429295
1751988912.3769999,835.6777,816.7399,771.2088,861.4652,0.537284125,0.33794499499999997,0.47302954750000004,0.25497471,-0.082429295
1751988912.3779998,834.0659,816.7399,769.19415,871.13556,0.537284125,0.33794499499999997,0.47302954750000004,0.25497471,-0.082429295
1751988912.3779998,783.2967,815.5311,771.2088,822.381,0.537284125,0.33794499499999997,0.47302954750000004,0.25497471,-0.082429295
1751988912.3779998,770.40295,815.9341,771.6117,801.02563,0.459575805,0.3288039035,0.396225245,0.24319208999999997,-0.0716909175
1751988912.38,808.68134,817.1429,772.4176,840.5128,0.459575805,0.3288039035,0.396225245,0.24319208999999997,-0.0716909175
1751988912.38,825.6044,820.3663,774.83514,857.03296,0.459575805,0.3288039035,0.396225245,0.24319208999999997,-0.0716909175
1751988912.381,792.96704,819.15753,773.6264,847.76556,0.459575805,0.3288039035,0.396225245,0.24319208999999997,-0.0716909175
1751988912.381,751.8681,812.71063,772.8205,807.0696,0.459575805,0.3288039035,0.396225245,0.24319208999999997,-0.0716909175
1751988912.381,791.75824,813.91943,777.25275,834.0659,0.459575805,0.3288039035,0.396225245,0.24319208999999997,-0.0716909175
1751988912.381,824.7985,815.9341,776.8498,882.8205,0.459575805,0.3288039035,0.396225245,0.24319208999999997,-0.0716909175
1751988912.409,799.011,818.7546,778.46155,859.45056,0.459575805,0.3288039035,0.396225245,0.24319208999999997,-0.0716909175
1751988912.409,768.7912,821.978,782.49084,818.7546,0.459575805,0.3288039035,0.396225245,0.24319208999999997,-0.0716909175
1751988912.409,801.02563,820.7692,786.52014,838.49817,0.459575805,0.3288039035,0.396225245,0.24319208999999997,-0.0716909175
1751988912.4099998,845.34796,822.7839,786.1172,886.4469,0.459575805,0.3288039035,0.396225245,0.24319208999999997,-0.0716909175
1751988912.4099998,831.2454,824.3956,783.69965,882.01465,0.459575805,0.3288039035,0.396225245,0.24319208999999997,-0.0716909175
1751988912.4099998,790.9524,826.4103,784.5055,831.2454,0.459575805,0.3288039035,0.396225245,0.24319208999999997,-0.0716909175
1751988912.4099998,801.4286,828.022,783.2967,842.1245,0.459575805,0.3288039035,0.396225245,0.24319208999999997,-0.0716909175
1751988912.411,834.4689,826.4103,778.46155,881.2088,0.459575805,0.3288039035,0.396225245,0.24319208999999997,-0.0716909175
1751988912.411,828.022,821.5751,768.3883,859.0476,0.459575805,0.3288039035,0.396225245,0.24319208999999997,-0.0716909175
1751988912.411,810.696,829.6337,764.35895,826.4103,0.459575805,0.3288039035,0.396225245,0.24319208999999997,-0.0716909175
1751988912.411,804.65204,833.2601,772.01465,814.7253,0.459575805,0.3288039035,0.396225245,0.24319208999999997,-0.0716909175
1751988912.411,828.8278,826.0073,782.49084,851.79486,0.459575805,0.3288039035,0.396225245,0.24319208999999997,-0.0716909175
1751988912.4689999,829.2308,819.15753,784.5055,859.45056,0.459575805,0.3288039035,0.396225245,0.24319208999999997,-0.0716909175
1751988912.47,802.23444,819.9634,783.2967,828.022,0.459575805,0.3288039035,0.396225245,0.24319208999999997,-0.0716909175
1751988912.47,802.6374,824.7985,788.93774,832.0513,0.459575805,0.3288039035,0.396225245,0.24319208999999997,-0.0716909175
1751988912.47,825.2015,821.5751,787.326,858.24176,0.459575805,0.3288039035,0.396225245,0.24319208999999997,-0.0716909175
1751988912.47,836.8865,819.15753,784.90845,860.65936,0.459575805,0.3288039035,0.396225245,0.24319208999999997,-0.0716909175
1751988912.471,823.1868,821.978,790.14655,844.5421,0.459575805,0.3288039035,0.396225245,0.24319208999999997,-0.0716909175
1751988912.471,792.1612,823.5897,794.57874,823.5897,0.459575805,0.3288039035,0.396225245,0.24319208999999997,-0.0716909175
1751988912.471,805.05493,821.978,797.3993,836.4835,0.47417311,0.33115761825,0.4354310025,0.24710955,-0.06641863249999999
1751988912.473,830.0366,819.9634,794.17584,855.0183,0.47417311,0.33115761825,0.4354310025,0.24710955,-0.06641863249999999
1751988912.473,830.0366,822.381,792.96704,851.79486,0.47417311,0.33115761825,0.4354310025,0.24710955,-0.06641863249999999
1751988912.473,782.49084,818.7546,790.14655,809.4872,0.47417311,0.33115761825,0.4354310025,0.24710955,-0.06641863249999999
1751988912.473,779.67035,820.7692,788.5348,813.1135,0.47417311,0.33115761825,0.4354310025,0.24710955,-0.06641863249999999
1751988912.5,834.0659,827.619,789.34064,852.6007,0.47417311,0.33115761825,0.4354310025,0.24710955,-0.06641863249999999
1751988912.501,845.7509,826.0073,788.93774,863.8828,0.47417311,0.33115761825,0.4354310025,0.24710955,-0.06641863249999999
1751988912.501,804.65204,821.1722,787.72894,832.4542,0.47417311,0.33115761825,0.4354310025,0.24710955,-0.06641863249999999
1751988912.501,774.83514,817.1429,787.326,801.8315,0.47417311,0.33115761825,0.4354310025,0.24710955,-0.06641863249999999
1751988912.501,820.7692,819.15753,786.52014,846.9597,0.47417311,0.33115761825,0.4354310025,0.24710955,-0.06641863249999999
1751988912.502,853.4066,826.4103,790.9524,875.9707,0.47417311,0.33115761825,0.4354310025,0.24710955,-0.06641863249999999
1751988912.502,813.91943,826.0073,793.7729,848.1685,0.47417311,0.33115761825,0.4354310025,0.24710955,-0.06641863249999999
1751988912.502,764.35895,813.91943,788.93774,805.8608,0.47417311,0.33115761825,0.4354310025,0.24710955,-0.06641863249999999
1751988912.502,807.8755,817.9487,789.34064,837.28937,0.47417311,0.33115761825,0.4354310025,0.24710955,-0.06641863249999999
1751988912.502,859.0476,828.4249,793.7729,893.2967,0.47417311,0.33115761825,0.4354310025,0.24710955,-0.06641863249999999
1751988912.502,827.2161,824.3956,791.75824,864.68866,0.47417311,0.33115761825,0.4354310025,0.24710955,-0.06641863249999999
1751988912.503,770.40295,817.1429,786.9231,797.8022,0.47417311,0.33115761825,0.4354310025,0.24710955,-0.06641863249999999
1751988912.5609999,792.96704,822.381,794.57874,826.0073,0.47417311,0.33115761825,0.4354310025,0.24710955,-0.06641863249999999
1751988912.5609999,838.49817,826.0073,798.60803,894.10254,0.47417311,0.33115761825,0.4354310025,0.24710955,-0.06641863249999999
1751988912.5619998,822.7839,817.1429,790.54944,874.7619,0.47417311,0.33115761825,0.4354310025,0.24710955,-0.06641863249999999
1751988912.5619998,784.5055,818.3516,792.5641,823.5897,0.47417311,0.33115761825,0.4354310025,0.24710955,-0.06641863249999999
1751988912.563,781.28204,817.9487,795.78754,826.0073,0.47417311,0.33115761825,0.4354310025,0.24710955,-0.06641863249999999
1751988912.563,825.6044,816.7399,796.5934,877.1795,0.47417311,0.33115761825,0.4354310025,0.24710955,-0.06641863249999999
1751988912.564,834.87177,823.5897,794.57874,885.2381,0.47417311,0.33115761825,0.4354310025,0.24710955,-0.06641863249999999
1751988912.564,776.4469,821.978,788.5348,819.15753,0.47417311,0.33115761825,0.4354310025,0.24710955,-0.06641863249999999
1751988912.564,762.3443,821.1722,792.5641,805.8608,0.47417311,0.33115761825,0.4354310025,0.24710955,-0.06641863249999999
1751988912.5649998,815.12823,821.978,795.38464,853.4066,0.46883874999999997,0.314742506,0.456236475,0.25234401900000003,-0.0657797825
1751988912.5660002,833.663,819.15753,793.7729,851.79486,0.46883874999999997,0.314742506,0.456236475,0.25234401900000003,-0.0657797825
1751988912.5660002,807.0696,816.337,784.10254,823.9927,0.46883874999999997,0.314742506,0.456236475,0.25234401900000003,-0.0657797825
1751988912.591,778.0586,819.9634,782.49084,804.65204,0.46883874999999997,0.314742506,0.456236475,0.25234401900000003,-0.0657797825
1751988912.592,806.26373,826.0073,787.326,834.0659,0.46883874999999997,0.314742506,0.456236475,0.25234401900000003,-0.0657797825
1751988912.592,847.3626,830.4396,786.1172,861.4652,0.46883874999999997,0.314742506,0.456236475,0.25234401900000003,-0.0657797825
1751988912.592,832.8571,830.84247,787.72894,844.1392,0.46883874999999997,0.314742506,0.456236475,0.25234401900000003,-0.0657797825
1751988912.593,791.3553,824.7985,787.326,819.5604,0.46883874999999997,0.314742506,0.456236475,0.25234401900000003,-0.0657797825
1751988912.593,805.8608,825.6044,784.5055,829.6337,0.46883874999999997,0.314742506,0.456236475,0.25234401900000003,-0.0657797825
1751988912.593,844.5421,825.2015,782.0879,853.4066,0.46883874999999997,0.314742506,0.456236475,0.25234401900000003,-0.0657797825
1751988912.593,838.49817,819.15753,782.49084,848.1685,0.46883874999999997,0.314742506,0.456236475,0.25234401900000003,-0.0657797825
1751988912.593,806.26373,823.9927,783.69965,834.4689,0.46883874999999997,0.314742506,0.456236475,0.25234401900000003,-0.0657797825
1751988912.5939999,797.8022,828.022,781.28204,839.707,0.46883874999999997,0.314742506,0.456236475,0.25234401900000003,-0.0657797825
1751988912.5939999,811.50183,816.337,778.86444,855.42126,0.46883874999999997,0.314742506,0.456236475,0.25234401900000003,-0.0657797825
1751988912.5939999,824.3956,811.50183,781.685,862.674,0.46883874999999997,0.314742506,0.456236475,0.25234401900000003,-0.0657797825
1751988912.652,803.8461,818.3516,781.685,837.6923,0.46883874999999997,0.314742506,0.456236475,0.25234401900000003,-0.0657797825
1751988912.6529999,772.01465,817.1429,772.8205,803.8461,0.46883874999999997,0.314742506,0.456236475,0.25234401900000003,-0.0657797825
1751988912.6529999,799.81683,811.9048,776.4469,834.0659,0.46883874999999997,0.314742506,0.456236475,0.25234401900000003,-0.0657797825
1751988912.6529999,836.8865,814.7253,784.90845,868.315,0.46883874999999997,0.314742506,0.456236475,0.25234401900000003,-0.0657797825
1751988912.6529999,823.5897,821.5751,782.8938,853.4066,0.46883874999999997,0.314742506,0.456236475,0.25234401900000003,-0.0657797825
1751988912.654,780.07324,821.978,778.86444,805.4579,0.46883874999999997,0.314742506,0.456236475,0.25234401900000003,-0.0657797825
1751988912.654,796.5934,818.7546,779.67035,827.619,0.46883874999999997,0.314742506,0.456236475,0.25234401900000003,-0.0657797825
1751988912.654,839.707,820.7692,787.72894,885.2381,0.46883874999999997,0.314742506,0.456236475,0.25234401900000003,-0.0657797825
1751988912.654,838.0952,826.0073,788.93774,885.64105,0.46883874999999997,0.314742506,0.456236475,0.25234401900000003,-0.0657797825
1751988912.655,787.72894,820.7692,781.685,832.4542,0.46883874999999997,0.314742506,0.456236475,0.25234401900000003,-0.0657797825
1751988912.655,783.69965,818.3516,785.31134,823.1868,0.46883874999999997,0.314742506,0.456236475,0.25234401900000003,-0.0657797825
1751988912.655,834.87177,826.8132,790.54944,876.77655,0.441038605,0.2763589875,0.46782421750000003,0.25898597749999996,-0.06836305250000002
1751988912.684,827.619,825.6044,790.14655,863.47986,0.441038605,0.2763589875,0.46782421750000003,0.25898597749999996,-0.06836305250000002
1751988912.684,782.49084,820.3663,783.69965,804.2491,0.441038605,0.2763589875,0.46782421750000003,0.25898597749999996,-0.06836305250000002
1751988912.685,794.9817,828.4249,780.87915,816.337,0.441038605,0.2763589875,0.46782421750000003,0.25898597749999996,-0.06836305250000002
1751988912.685,839.304,833.663,789.34064,871.53845,0.441038605,0.2763589875,0.46782421750000003,0.25898597749999996,-0.06836305250000002
1751988912.685,834.0659,823.1868,794.17584,869.5238,0.441038605,0.2763589875,0.46782421750000003,0.25898597749999996,-0.06836305250000002
1751988912.685,798.60803,816.7399,797.3993,826.8132,0.441038605,0.2763589875,0.46782421750000003,0.25898597749999996,-0.06836305250000002
1751988912.685,767.5824,814.7253,797.8022,792.1612,0.441038605,0.2763589875,0.46782421750000003,0.25898597749999996,-0.06836305250000002
1751988912.686,800.6227,813.5165,791.75824,814.3223,0.441038605,0.2763589875,0.46782421750000003,0.25898597749999996,-0.06836305250000002
1751988912.686,826.0073,813.91943,787.326,850.989,0.441038605,0.2763589875,0.46782421750000003,0.25898597749999996,-0.06836305250000002
1751988912.686,779.67035,811.50183,787.326,819.15753,0.441038605,0.2763589875,0.46782421750000003,0.25898597749999996,-0.06836305250000002
1751988912.686,739.3773,812.3077,787.72894,773.6264,0.441038605,0.2763589875,0.46782421750000003,0.25898597749999996,-0.06836305250000002
1751988912.686,759.12085,815.5311,783.69965,782.0879,0.441038605,0.2763589875,0.46782421750000003,0.25898597749999996,-0.06836305250000002
1751988912.745,792.1612,816.7399,784.90845,815.9341,0.441038605,0.2763589875,0.46782421750000003,0.25898597749999996,-0.06836305250000002
1751988912.7459998,784.90845,818.3516,785.7143,821.978,0.441038605,0.2763589875,0.46782421750000003,0.25898597749999996,-0.06836305250000002
1751988912.747,748.6447,821.1722,786.1172,774.0293,0.441038605,0.2763589875,0.46782421750000003,0.25898597749999996,-0.06836305250000002
1751988912.747,757.1062,820.3663,784.5055,784.10254,0.441038605,0.2763589875,0.46782421750000003,0.25898597749999996,-0.06836305250000002
1751988912.747,797.3993,819.9634,777.25275,833.663,0.441038605,0.2763589875,0.46782421750000003,0.25898597749999996,-0.06836305250000002
1751988912.748,790.54944,814.3223,773.6264,826.0073,0.441038605,0.2763589875,0.46782421750000003,0.25898597749999996,-0.06836305250000002
1751988912.748,759.5238,811.0989,777.6557,788.1319,0.441038605,0.2763589875,0.46782421750000003,0.25898597749999996,-0.06836305250000002
1751988912.7489998,756.30035,812.71063,780.07324,789.34064,0.441038605,0.2763589875,0.46782421750000003,0.25898597749999996,-0.06836305250000002
1751988912.7489998,792.5641,811.50183,778.0586,836.4835,0.441038605,0.2763589875,0.46782421750000003,0.25898597749999996,-0.06836305250000002
1751988912.7489998,807.8755,811.0989,778.86444,848.97437,0.441038605,0.2763589875,0.46782421750000003,0.25898597749999996,-0.06836305250000002
1751988912.7489998,781.685,813.5165,781.28204,811.50183,0.441038605,0.2763589875,0.46782421750000003,0.25898597749999996,-0.06836305250000002
1751988912.7489998,751.4652,813.91943,776.4469,786.52014,0.441038605,0.2763589875,0.46782421750000003,0.25898597749999996,-0.06836305250000002
1751988912.775,778.0586,807.47253,772.4176,825.2015,0.441038605,0.2763589875,0.46782421750000003,0.25898597749999996,-0.06836305250000002
1751988912.775,813.1135,807.47253,777.6557,859.0476,0.39632873999999996,0.22118755,0.4668379775,0.26594626,-0.0723441025
1751988912.776,809.4872,818.7546,782.49084,856.63007,0.39632873999999996,0.22118755,0.4668379775,0.26594626,-0.0723441025
1751988912.776,776.8498,819.9634,779.67035,807.47253,0.39632873999999996,0.22118755,0.4668379775,0.26594626,-0.0723441025
1751988912.777,792.1612,819.15753,781.28204,816.7399,0.39632873999999996,0.22118755,0.4668379775,0.26594626,-0.0723441025
1751988912.777,836.08057,816.337,781.28204,873.1502,0.39632873999999996,0.22118755,0.4668379775,0.26594626,-0.0723441025
1751988912.777,830.0366,811.9048,770.80585,870.32965,0.39632873999999996,0.22118755,0.4668379775,0.26594626,-0.0723441025
1751988912.777,794.9817,815.5311,765.16486,825.6044,0.39632873999999996,0.22118755,0.4668379775,0.26594626,-0.0723441025
1751988912.777,776.04395,816.7399,767.1795,796.99634,0.39632873999999996,0.22118755,0.4668379775,0.26594626,-0.0723441025
1751988912.7779999,819.15753,818.7546,772.4176,840.10986,0.39632873999999996,0.22118755,0.4668379775,0.26594626,-0.0723441025
1751988912.7779999,845.7509,822.381,774.0293,869.5238,0.39632873999999996,0.22118755,0.4668379775,0.26594626,-0.0723441025
1751988912.7779999,809.0842,822.7839,770.80585,824.7985,0.39632873999999996,0.22118755,0.4668379775,0.26594626,-0.0723441025
1751988912.848,786.1172,821.5751,771.2088,803.8461,0.39632873999999996,0.22118755,0.4668379775,0.26594626,-0.0723441025
1751988912.849,819.9634,821.5751,770.0,842.9304,0.39632873999999996,0.22118755,0.4668379775,0.26594626,-0.0723441025
1751988912.849,846.9597,819.5604,771.6117,876.77655,0.39632873999999996,0.22118755,0.4668379775,0.26594626,-0.0723441025
1751988912.849,811.9048,817.9487,774.83514,846.55676,0.39632873999999996,0.22118755,0.4668379775,0.26594626,-0.0723441025
1751988912.85,775.64105,821.1722,780.87915,799.011,0.39632873999999996,0.22118755,0.4668379775,0.26594626,-0.0723441025
1751988912.85,802.6374,819.15753,786.52014,826.8132,0.39632873999999996,0.22118755,0.4668379775,0.26594626,-0.0723441025
1751988912.85,841.31866,819.5604,785.31134,881.2088,0.39632873999999996,0.22118755,0.4668379775,0.26594626,-0.0723441025
1751988912.85,822.381,819.9634,782.8938,846.55676,0.39632873999999996,0.22118755,0.4668379775,0.26594626,-0.0723441025
1751988912.85,767.1795,821.1722,777.6557,776.04395,0.39632873999999996,0.22118755,0.4668379775,0.26594626,-0.0723441025
1751988912.851,788.1319,829.2308,774.0293,815.5311,0.39632873999999996,0.22118755,0.4668379775,0.26594626,-0.0723441025
1751988912.851,830.84247,826.8132,775.2381,870.32965,0.39632873999999996,0.22118755,0.4668379775,0.26594626,-0.0723441025
1751988912.851,818.7546,822.7839,770.40295,861.06226,0.39632873999999996,0.22118755,0.4668379775,0.26594626,-0.0723441025
1751988912.8769999,782.8938,823.9927,768.7912,808.2784,0.39632873999999996,0.22118755,0.4668379775,0.26594626,-0.0723441025
1751988912.8769999,785.7143,827.619,773.22345,806.6667,0.39632873999999996,0.22118755,0.4668379775,0.26594626,-0.0723441025
1751988912.878,824.3956,825.2015,776.04395,865.09155,0.39632873999999996,0.22118755,0.4668379775,0.26594626,-0.0723441025
1751988912.878,832.8571,824.7985,778.0586,869.5238,0.3446699,0.1630682825,0.4449892625,0.271801235,-0.07534495250000002
1751988912.879,804.2491,827.2161,775.2381,826.4103,0.3446699,0.1630682825,0.4449892625,0.271801235,-0.07534495250000002
1751988912.88,788.1319,825.2015,772.8205,816.337,0.3446699,0.1630682825,0.4449892625,0.271801235,-0.07534495250000002
1751988912.88,812.71063,813.1135,765.56775,861.4652,0.3446699,0.1630682825,0.4449892625,0.271801235,-0.07534495250000002
1751988912.88,824.3956,805.05493,763.95605,872.74725,0.3446699,0.1630682825,0.4449892625,0.271801235,-0.07534495250000002
1751988912.88,798.20514,809.89014,764.7619,834.4689,0.3446699,0.1630682825,0.4449892625,0.271801235,-0.07534495250000002
1751988912.881,774.43225,812.3077,762.74725,811.0989,0.3446699,0.1630682825,0.4449892625,0.271801235,-0.07534495250000002
1751988912.881,800.6227,813.91943,765.9707,825.6044,0.3446699,0.1630682825,0.4449892625,0.271801235,-0.07534495250000002
1751988912.881,829.6337,816.7399,767.5824,853.00366,0.3446699,0.1630682825,0.4449892625,0.271801235,-0.07534495250000002
1751988912.932,819.5604,819.9634,769.59705,860.65936,0.3446699,0.1630682825,0.4449892625,0.271801235,-0.07534495250000002
1751988912.932,785.7143,817.5458,770.0,821.978,0.3446699,0.1630682825,0.4449892625,0.271801235,-0.07534495250000002
1751988912.932,785.31134,814.7253,772.4176,829.2308,0.3446699,0.1630682825,0.4449892625,0.271801235,-0.07534495250000002
1751988912.9329998,812.3077,807.47253,771.2088,842.9304,0.3446699,0.1630682825,0.4449892625,0.271801235,-0.07534495250000002
1751988912.9329998,823.1868,812.71063,773.6264,838.0952,0.3446699,0.1630682825,0.4449892625,0.271801235,-0.07534495250000002
1751988912.9329998,789.34064,819.5604,774.83514,809.4872,0.3446699,0.1630682825,0.4449892625,0.271801235,-0.07534495250000002
1751988912.9329998,771.6117,810.293,768.3883,791.3553,0.3446699,0.1630682825,0.4449892625,0.271801235,-0.07534495250000002
1751988912.9329998,819.5604,810.696,767.1795,846.55676,0.3446699,0.1630682825,0.4449892625,0.271801235,-0.07534495250000002
1751988912.934,852.6007,817.1429,771.2088,875.56775,0.3446699,0.1630682825,0.4449892625,0.271801235,-0.07534495250000002
1751988912.934,834.0659,824.3956,776.8498,857.4359,0.3446699,0.1630682825,0.4449892625,0.271801235,-0.07534495250000002
1751988912.934,793.7729,825.2015,772.8205,822.381,0.3446699,0.1630682825,0.4449892625,0.271801235,-0.07534495250000002
1751988912.934,819.5604,821.1722,772.01465,838.9011,0.3446699,0.1630682825,0.4449892625,0.271801235,-0.07534495250000002
1751988912.981,864.2857,826.8132,777.6557,886.4469,0.3446699,0.1630682825,0.4449892625,0.271801235,-0.07534495250000002
1751988912.982,840.5128,827.619,773.6264,863.8828,0.3446699,0.1630682825,0.4449892625,0.271801235,-0.07534495250000002
1751988912.982,793.7729,826.4103,770.40295,808.68134,0.3446699,0.1630682825,0.4449892625,0.271801235,-0.07534495250000002
1751988912.982,802.6374,825.2015,770.40295,824.7985,0.3446699,0.1630682825,0.4449892625,0.271801235,-0.07534495250000002
1751988912.982,851.79486,826.0073,771.6117,874.35895,0.3446699,0.1630682825,0.4449892625,0.271801235,-0.07534495250000002
1751988912.982,849.3773,823.9927,765.16486,874.35895,0.31208090625,0.12862368500000002,0.4382676525,0.27582616,-0.074428635
1751988912.984,794.17584,819.15753,763.5531,820.7692,0.31208090625,0.12862368500000002,0.4382676525,0.27582616,-0.074428635
1751988912.984,784.5055,819.15753,770.80585,820.3663,0.31208090625,0.12862368500000002,0.4382676525,0.27582616,-0.074428635
1751988912.984,838.9011,823.5897,770.80585,871.53845,0.31208090625,0.12862368500000002,0.4382676525,0.27582616,-0.074428635
1751988912.984,854.61536,824.3956,769.59705,875.16486,0.31208090625,0.12862368500000002,0.4382676525,0.27582616,-0.074428635
1751988912.984,805.8608,822.7839,770.40295,837.28937,0.31208090625,0.12862368500000002,0.4382676525,0.27582616,-0.074428635
1751988912.985,782.49084,820.7692,765.16486,792.96704,0.31208090625,0.12862368500000002,0.4382676525,0.27582616,-0.074428635
1751988913.006,824.7985,821.1722,759.92676,837.28937,0.31208090625,0.12862368500000002,0.4382676525,0.27582616,-0.074428635
1751988913.006,855.82416,828.8278,763.5531,908.20514,0.31208090625,0.12862368500000002,0.4382676525,0.27582616,-0.074428635
1751988913.006,811.50183,827.2161,770.80585,859.45056,0.31208090625,0.12862368500000002,0.4382676525,0.27582616,-0.074428635
1751988913.007,765.16486,825.6044,778.86444,807.8755,0.31208090625,0.12862368500000002,0.4382676525,0.27582616,-0.074428635
1751988913.007,803.0403,829.2308,778.46155,859.45056,0.31208090625,0.12862368500000002,0.4382676525,0.27582616,-0.074428635
1751988913.007,838.9011,829.6337,781.28204,891.28204,0.31208090625,0.12862368500000002,0.4382676525,0.27582616,-0.074428635
1751988913.007,806.6667,830.4396,779.67035,840.5128,0.31208090625,0.12862368500000002,0.4382676525,0.27582616,-0.074428635
1751988913.007,772.01465,831.2454,773.22345,792.1612,0.31208090625,0.12862368500000002,0.4382676525,0.27582616,-0.074428635
1751988913.007,798.20514,834.0659,775.64105,817.9487,0.31208090625,0.12862368500000002,0.4382676525,0.27582616,-0.074428635
1751988913.008,831.2454,831.6484,777.25275,853.00366,0.31208090625,0.12862368500000002,0.4382676525,0.27582616,-0.074428635
1751988913.008,821.1722,824.7985,775.64105,834.4689,0.31208090625,0.12862368500000002,0.4382676525,0.27582616,-0.074428635
1751988913.008,796.5934,828.022,776.4469,813.91943,0.31208090625,0.12862368500000002,0.4382676525,0.27582616,-0.074428635
1751988913.059,794.9817,830.0366,782.0879,822.7839,0.31208090625,0.12862368500000002,0.4382676525,0.27582616,-0.074428635
1751988913.06,832.4542,822.381,784.90845,849.7802,0.31208090625,0.12862368500000002,0.4382676525,0.27582616,-0.074428635
1751988913.06,844.94507,819.5604,781.28204,851.79486,0.31208090625,0.12862368500000002,0.4382676525,0.27582616,-0.074428635
1751988913.06,807.0696,823.5897,779.2674,834.0659,0.31208090625,0.12862368500000002,0.4382676525,0.27582616,-0.074428635
1751988913.06,788.5348,826.8132,777.25275,811.0989,0.31208090625,0.12862368500000002,0.4382676525,0.27582616,-0.074428635
1751988913.06,822.7839,829.6337,778.0586,846.9597,0.31208090625,0.12862368500000002,0.4382676525,0.27582616,-0.074428635
1751988913.0609999,842.9304,828.022,782.0879,874.7619,0.31208090625,0.12862368500000002,0.4382676525,0.27582616,-0.074428635
1751988913.0609999,813.5165,826.8132,783.2967,849.3773,0.31581136499999996,0.13349941,0.4281994175,0.2780780525,-0.06756918999999999
1751988913.062,780.4762,828.022,786.9231,826.4103,0.31581136499999996,0.13349941,0.4281994175,0.2780780525,-0.06756918999999999
1751988913.062,796.99634,828.4249,791.75824,834.0659,0.31581136499999996,0.13349941,0.4281994175,0.2780780525,-0.06756918999999999
1751988913.062,840.10986,830.4396,790.54944,863.47986,0.31581136499999996,0.13349941,0.4281994175,0.2780780525,-0.06756918999999999
1751988913.062,835.2747,830.4396,786.9231,848.1685,0.31581136499999996,0.13349941,0.4281994175,0.2780780525,-0.06756918999999999
1751988913.111,798.60803,829.2308,785.7143,801.8315,0.31581136499999996,0.13349941,0.4281994175,0.2780780525,-0.06756918999999999
1751988913.111,809.89014,828.022,786.52014,826.8132,0.31581136499999996,0.13349941,0.4281994175,0.2780780525,-0.06756918999999999
1751988913.112,840.10986,828.4249,783.2967,865.4945,0.31581136499999996,0.13349941,0.4281994175,0.2780780525,-0.06756918999999999
1751988913.112,845.34796,832.4542,783.2967,869.12085,0.31581136499999996,0.13349941,0.4281994175,0.2780780525,-0.06756918999999999
1751988913.113,807.0696,830.0366,784.90845,836.08057,0.31581136499999996,0.13349941,0.4281994175,0.2780780525,-0.06756918999999999
1751988913.113,790.54944,827.2161,786.52014,820.7692,0.31581136499999996,0.13349941,0.4281994175,0.2780780525,-0.06756918999999999
1751988913.1139998,830.84247,830.4396,786.9231,863.47986,0.31581136499999996,0.13349941,0.4281994175,0.2780780525,-0.06756918999999999
1751988913.1139998,848.5714,835.6777,788.1319,879.19415,0.31581136499999996,0.13349941,0.4281994175,0.2780780525,-0.06756918999999999
1751988913.115,803.44324,831.2454,783.69965,831.2454,0.31581136499999996,0.13349941,0.4281994175,0.2780780525,-0.06756918999999999
1751988913.115,767.1795,823.9927,780.87915,804.65204,0.31581136499999996,0.13349941,0.4281994175,0.2780780525,-0.06756918999999999
1751988913.116,810.696,824.3956,784.5055,858.6447,0.31581136499999996,0.13349941,0.4281994175,0.2780780525,-0.06756918999999999
1751988913.116,840.5128,824.7985,783.69965,882.4176,0.31581136499999996,0.13349941,0.4281994175,0.2780780525,-0.06756918999999999
1751988913.148,814.3223,823.1868,779.2674,841.7216,0.31581136499999996,0.13349941,0.4281994175,0.2780780525,-0.06756918999999999
1751988913.149,786.52014,825.2015,778.0586,803.8461,0.31581136499999996,0.13349941,0.4281994175,0.2780780525,-0.06756918999999999
1751988913.149,813.91943,827.2161,780.07324,831.6484,0.31581136499999996,0.13349941,0.4281994175,0.2780780525,-0.06756918999999999
1751988913.149,850.58606,827.619,780.87915,862.674,0.31581136499999996,0.13349941,0.4281994175,0.2780780525,-0.06756918999999999
1751988913.15,843.73627,830.84247,781.685,854.61536,0.31581136499999996,0.13349941,0.4281994175,0.2780780525,-0.06756918999999999
1751988913.15,800.6227,828.4249,778.0586,827.2161,0.31581136499999996,0.13349941,0.4281994175,0.2780780525,-0.06756918999999999
1751988913.15,801.4286,826.4103,777.25275,833.2601,0.31581136499999996,0.13349941,0.4281994175,0.2780780525,-0.06756918999999999
1751988913.15,840.5128,825.6044,780.4762,880.80585,0.31581136499999996,0.13349941,0.4281994175,0.2780780525,-0.06756918999999999
1751988913.15,826.0073,812.71063,775.2381,859.45056,0.31581136499999996,0.13349941,0.4281994175,0.2780780525,-0.06756918999999999
1751988913.151,786.1172,810.293,776.04395,815.5311,0.34273837375,0.1628716575,0.43564965,0.2790073825,-0.05502707000000001
1751988913.152,782.8938,818.3516,782.8938,803.44324,0.34273837375,0.1628716575,0.43564965,0.2790073825,-0.05502707000000001
1751988913.152,813.5165,814.7253,784.90845,832.8571,0.34273837375,0.1628716575,0.43564965,0.2790073825,-0.05502707000000001
1751988913.202,823.1868,808.68134,784.10254,859.0476,0.34273837375,0.1628716575,0.43564965,0.2790073825,-0.05502707000000001
1751988913.202,796.1905,813.1135,782.0879,840.10986,0.34273837375,0.1628716575,0.43564965,0.2790073825,-0.05502707000000001
1751988913.203,784.90845,825.6044,787.72894,824.7985,0.34273837375,0.1628716575,0.43564965,0.2790073825,-0.05502707000000001
1751988913.203,814.7253,827.619,793.36993,859.85345,0.34273837375,0.1628716575,0.43564965,0.2790073825,-0.05502707000000001
1751988913.203,834.0659,826.4103,792.5641,889.2674,0.34273837375,0.1628716575,0.43564965,0.2790073825,-0.05502707000000001
1751988913.203,824.3956,826.0073,787.326,865.4945,0.34273837375,0.1628716575,0.43564965,0.2790073825,-0.05502707000000001
1751988913.204,799.81683,824.7985,782.49084,825.2015,0.34273837375,0.1628716575,0.43564965,0.2790073825,-0.05502707000000001
1751988913.204,802.23444,822.7839,781.685,827.2161,0.34273837375,0.1628716575,0.43564965,0.2790073825,-0.05502707000000001
1751988913.204,830.4396,816.337,779.67035,855.82416,0.34273837375,0.1628716575,0.43564965,0.2790073825,-0.05502707000000001
1751988913.205,838.9011,820.3663,781.28204,859.45056,0.34273837375,0.1628716575,0.43564965,0.2790073825,-0.05502707000000001
1751988913.205,796.1905,818.3516,776.4469,815.5311,0.34273837375,0.1628716575,0.43564965,0.2790073825,-0.05502707000000001
1751988913.205,788.5348,813.91943,768.3883,805.05493,0.34273837375,0.1628716575,0.43564965,0.2790073825,-0.05502707000000001
1751988913.264,828.4249,813.1135,771.6117,847.76556,0.34273837375,0.1628716575,0.43564965,0.2790073825,-0.05502707000000001
1751988913.2649999,840.10986,820.3663,780.07324,852.6007,0.34273837375,0.1628716575,0.43564965,0.2790073825,-0.05502707000000001
1751988913.2649999,806.6667,823.1868,780.87915,809.0842,0.34273837375,0.1628716575,0.43564965,0.2790073825,-0.05502707000000001
1751988913.2649999,786.52014,816.337,773.6264,803.0403,0.34273837375,0.1628716575,0.43564965,0.2790073825,-0.05502707000000001
1751988913.2649999,820.7692,817.5458,777.25275,850.18317,0.34273837375,0.1628716575,0.43564965,0.2790073825,-0.05502707000000001
1751988913.2659998,844.1392,821.978,785.31134,877.98535,0.34273837375,0.1628716575,0.43564965,0.2790073825,-0.05502707000000001
1751988913.2659998,825.6044,822.7839,782.8938,855.82416,0.34273837375,0.1628716575,0.43564965,0.2790073825,-0.05502707000000001
1751988913.2659998,778.0586,815.12823,778.86444,788.5348,0.34273837375,0.1628716575,0.43564965,0.2790073825,-0.05502707000000001
1751988913.2659998,801.8315,815.12823,780.87915,806.6667,0.34273837375,0.1628716575,0.43564965,0.2790073825,-0.05502707000000001
1751988913.2659998,839.707,823.1868,784.90845,870.7326,0.34273837375,0.1628716575,0.43564965,0.2790073825,-0.05502707000000001
1751988913.267,820.3663,822.381,783.2967,846.9597,0.34273837375,0.1628716575,0.43564965,0.2790073825,-0.05502707000000001
1751988913.267,792.5641,823.1868,782.49084,811.50183,0.37253970999999997,0.19468488250000002,0.45151887,0.27899883999999997,-0.040043675000000015
1751988913.315,788.93774,826.0073,786.9231,828.4249,0.37253970999999997,0.19468488250000002,0.45151887,0.27899883999999997,-0.040043675000000015
1751988913.316,818.3516,826.8132,787.72894,866.30035,0.37253970999999997,0.19468488250000002,0.45151887,0.27899883999999997,-0.040043675000000015
1751988913.316,817.5458,826.4103,786.52014,858.24176,0.37253970999999997,0.19468488250000002,0.45151887,0.27899883999999997,-0.040043675000000015
1751988913.316,768.7912,826.0073,788.1319,798.60803,0.37253970999999997,0.19468488250000002,0.45151887,0.27899883999999997,-0.040043675000000015
1751988913.316,763.5531,826.0073,789.34064,793.36993,0.37253970999999997,0.19468488250000002,0.45151887,0.27899883999999997,-0.040043675000000015
1751988913.316,819.9634,826.8132,788.1319,848.97437,0.37253970999999997,0.19468488250000002,0.45151887,0.27899883999999997,-0.040043675000000015
1751988913.317,826.4103,823.9927,785.31134,855.0183,0.37253970999999997,0.19468488250000002,0.45151887,0.27899883999999997,-0.040043675000000015
1751988913.317,777.6557,818.7546,778.86444,808.68134,0.37253970999999997,0.19468488250000002,0.45151887,0.27899883999999997,-0.040043675000000015
1751988913.317,761.53845,822.7839,779.2674,775.64105,0.37253970999999997,0.19468488250000002,0.45151887,0.27899883999999997,-0.040043675000000015
1751988913.317,807.8755,823.9927,784.90845,835.2747,0.37253970999999997,0.19468488250000002,0.45151887,0.27899883999999997,-0.040043675000000015
1751988913.317,823.1868,815.5311,777.6557,863.8828,0.37253970999999997,0.19468488250000002,0.45151887,0.27899883999999997,-0.040043675000000015
1751988913.318,783.2967,810.293,776.8498,810.696,0.37253970999999997,0.19468488250000002,0.45151887,0.27899883999999997,-0.040043675000000015
1751988913.3409998,763.1502,815.5311,780.07324,788.93774,0.37253970999999997,0.19468488250000002,0.45151887,0.27899883999999997,-0.040043675000000015
1751988913.3420002,798.60803,815.5311,780.07324,824.3956,0.37253970999999997,0.19468488250000002,0.45151887,0.27899883999999997,-0.040043675000000015
1751988913.3420002,833.2601,816.337,777.6557,857.8388,0.37253970999999997,0.19468488250000002,0.45151887,0.27899883999999997,-0.040043675000000015
1751988913.3420002,817.5458,817.9487,773.6264,842.9304,0.37253970999999997,0.19468488250000002,0.45151887,0.27899883999999997,-0.040043675000000015
1751988913.3420002,787.326,819.5604,773.6264,810.696,0.37253970999999997,0.19468488250000002,0.45151887,0.27899883999999997,-0.040043675000000015
1751988913.3420002,801.8315,821.978,775.64105,820.7692,0.37253970999999997,0.19468488250000002,0.45151887,0.27899883999999997,-0.040043675000000015
1751988913.3420002,841.7216,821.978,774.83514,864.2857,0.37253970999999997,0.19468488250000002,0.45151887,0.27899883999999997,-0.040043675000000015
1751988913.3430002,836.4835,816.7399,771.6117,851.39197,0.37253970999999997,0.19468488250000002,0.45151887,0.27899883999999997,-0.040043675000000015
1751988913.3430002,800.2198,817.5458,771.6117,810.696,0.37253970999999997,0.19468488250000002,0.45151887,0.27899883999999997,-0.040043675000000015
1751988913.3430002,792.1612,821.5751,776.8498,818.3516,0.37253970999999997,0.19468488250000002,0.45151887,0.27899883999999997,-0.040043675000000015
1751988913.3430002,817.5458,818.7546,780.4762,847.76556,0.37253970999999997,0.19468488250000002,0.45151887,0.27899883999999997,-0.040043675000000015
1751988913.3430002,835.6777,825.6044,779.2674,857.4359,0.37253970999999997,0.19468488250000002,0.45151887,0.27899883999999997,-0.040043675000000015
1751988913.386,807.0696,830.0366,782.0879,825.6044,0.37253970999999997,0.19468488250000002,0.45151887,0.27899883999999997,-0.040043675000000015
1751988913.386,788.5348,832.8571,784.10254,809.0842,0.3995413925,0.21714586249999998,0.466224485,0.278401515,-0.026910315000000018
1751988913.387,818.3516,830.4396,782.8938,842.52747,0.3995413925,0.21714586249999998,0.466224485,0.278401515,-0.026910315000000018
1751988913.388,837.6923,823.5897,781.28204,861.06226,0.3995413925,0.21714586249999998,0.466224485,0.278401515,-0.026910315000000018
1751988913.388,817.1429,820.7692,782.0879,837.6923,0.3995413925,0.21714586249999998,0.466224485,0.278401515,-0.026910315000000018
1751988913.388,772.8205,816.7399,780.4762,803.0403,0.3995413925,0.21714586249999998,0.466224485,0.278401515,-0.026910315000000018
1751988913.388,784.10254,814.3223,777.6557,832.4542,0.3995413925,0.21714586249999998,0.466224485,0.278401515,-0.026910315000000018
1751988913.388,825.2015,814.7253,780.07324,873.5531,0.3995413925,0.21714586249999998,0.466224485,0.278401515,-0.026910315000000018
1751988913.389,816.7399,819.5604,782.0879,866.30035,0.3995413925,0.21714586249999998,0.466224485,0.278401515,-0.026910315000000018
1751988913.389,772.4176,816.337,776.4469,813.5165,0.3995413925,0.21714586249999998,0.466224485,0.278401515,-0.026910315000000018
1751988913.389,777.6557,813.1135,774.0293,804.65204,0.3995413925,0.21714586249999998,0.466224485,0.278401515,-0.026910315000000018
1751988913.389,826.4103,817.5458,778.0586,858.6447,0.3995413925,0.21714586249999998,0.466224485,0.278401515,-0.026910315000000018
1751988913.445,827.2161,819.15753,773.6264,861.8681,0.3995413925,0.21714586249999998,0.466224485,0.278401515,-0.026910315000000018
1751988913.445,780.07324,817.1429,768.7912,807.47253,0.3995413925,0.21714586249999998,0.466224485,0.278401515,-0.026910315000000018
1751988913.445,761.53845,812.71063,767.1795,781.685,0.3995413925,0.21714586249999998,0.466224485,0.278401515,-0.026910315000000018
1751988913.446,815.12823,815.5311,766.77655,848.5714,0.3995413925,0.21714586249999998,0.466224485,0.278401515,-0.026910315000000018
1751988913.446,842.1245,820.7692,771.6117,875.16486,0.3995413925,0.21714586249999998,0.466224485,0.278401515,-0.026910315000000018
1751988913.446,806.26373,822.381,779.67035,831.2454,0.3995413925,0.21714586249999998,0.466224485,0.278401515,-0.026910315000000018
1751988913.446,777.25275,817.9487,778.46155,794.57874,0.3995413925,0.21714586249999998,0.466224485,0.278401515,-0.026910315000000018
1751988913.446,810.293,819.5604,781.28204,839.304,0.3995413925,0.21714586249999998,0.466224485,0.278401515,-0.026910315000000018
1751988913.447,846.55676,821.5751,781.28204,885.64105,0.3995413925,0.21714586249999998,0.466224485,0.278401515,-0.026910315000000018
1751988913.447,817.1429,818.3516,772.01465,835.2747,0.3995413925,0.21714586249999998,0.466224485,0.278401515,-0.026910315000000018
1751988913.447,779.2674,825.6044,776.04395,807.47253,0.3995413925,0.21714586249999998,0.466224485,0.278401515,-0.026910315000000018
1751988913.447,798.60803,825.6044,780.07324,838.49817,0.3995413925,0.21714586249999998,0.466224485,0.278401515,-0.026910315000000018
1751988913.4689999,842.1245,823.9927,778.46155,878.3883,0.3995413925,0.21714586249999998,0.466224485,0.278401515,-0.026910315000000018
1751988913.47,833.663,825.2015,779.2674,859.85345,0.3995413925,0.21714586249999998,0.466224485,0.278401515,-0.026910315000000018
1751988913.47,786.52014,820.3663,778.0586,805.05493,0.3995413925,0.21714586249999998,0.466224485,0.278401515,-0.026910315000000018
1751988913.47,800.6227,820.3663,784.5055,842.9304,0.42231472000000003,0.2296868,0.476930725,0.27746905,-0.0187184725
1751988913.472,843.73627,821.5751,784.10254,889.67035,0.42231472000000003,0.2296868,0.476930725,0.27746905,-0.0187184725
1751988913.472,823.1868,819.15753,773.22345,857.4359,0.42231472000000003,0.2296868,0.476930725,0.27746905,-0.0187184725
1751988913.472,777.25275,815.12823,775.64105,811.0989,0.42231472000000003,0.2296868,0.476930725,0.27746905,-0.0187184725
1751988913.472,766.3736,818.3516,783.69965,802.6374,0.42231472000000003,0.2296868,0.476930725,0.27746905,-0.0187184725
1751988913.472,794.17584,819.9634,784.10254,831.6484,0.42231472000000003,0.2296868,0.476930725,0.27746905,-0.0187184725
1751988913.473,800.6227,808.68134,776.04395,828.4249,0.42231472000000003,0.2296868,0.476930725,0.27746905,-0.0187184725
1751988913.473,780.07324,813.5165,770.0,806.26373,0.42231472000000003,0.2296868,0.476930725,0.27746905,-0.0187184725
1751988913.473,746.63007,820.7692,770.0,774.83514,0.42231472000000003,0.2296868,0.476930725,0.27746905,-0.0187184725
1751988913.524,763.95605,821.978,774.0293,790.54944,0.42231472000000003,0.2296868,0.476930725,0.27746905,-0.0187184725
1751988913.5249999,799.011,822.7839,774.43225,818.3516,0.42231472000000003,0.2296868,0.476930725,0.27746905,-0.0187184725
1751988913.5249999,786.52014,820.7692,770.0,817.1429,0.42231472000000003,0.2296868,0.476930725,0.27746905,-0.0187184725
1751988913.526,749.85345,823.9927,769.19415,780.07324,0.42231472000000003,0.2296868,0.476930725,0.27746905,-0.0187184725
1751988913.526,768.3883,826.4103,772.4176,784.5055,0.42231472000000003,0.2296868,0.476930725,0.27746905,-0.0187184725
1751988913.526,811.9048,823.9927,775.64105,842.9304,0.42231472000000003,0.2296868,0.476930725,0.27746905,-0.0187184725
1751988913.527,812.3077,819.15753,778.46155,856.2271,0.42231472000000003,0.2296868,0.476930725,0.27746905,-0.0187184725
1751988913.527,780.07324,815.12823,781.28204,833.2601,0.42231472000000003,0.2296868,0.476930725,0.27746905,-0.0187184725
1751988913.528,758.315,809.0842,774.83514,799.81683,0.42231472000000003,0.2296868,0.476930725,0.27746905,-0.0187184725
1751988913.528,803.0403,812.3077,770.80585,826.8132,0.42231472000000003,0.2296868,0.476930725,0.27746905,-0.0187184725
1751988913.529,828.022,819.5604,772.4176,858.6447,0.42231472000000003,0.2296868,0.476930725,0.27746905,-0.0187184725
1751988913.529,790.54944,821.1722,775.2381,808.68134,0.42231472000000003,0.2296868,0.476930725,0.27746905,-0.0187184725
1751988913.5779998,776.4469,824.7985,774.0293,789.7436,0.42231472000000003,0.2296868,0.476930725,0.27746905,-0.0187184725
1751988913.579,821.1722,828.4249,769.59705,858.6447,0.42231472000000003,0.2296868,0.476930725,0.27746905,-0.0187184725
1751988913.579,855.82416,829.6337,774.43225,894.10254,0.42231472000000003,0.2296868,0.476930725,0.27746905,-0.0187184725
1751988913.579,830.0366,826.0073,777.25275,855.42126,0.42231472000000003,0.2296868,0.476930725,0.27746905,-0.0187184725
1751988913.579,794.57874,830.84247,774.0293,807.8755,0.42231472000000003,0.2296868,0.476930725,0.27746905,-0.0187184725
1751988913.58,812.71063,833.2601,773.6264,831.2454,0.6564424575000001,0.4417695475,0.75296587,0.43287068500000003,0.02396707749999999
1751988913.582,852.1978,826.4103,775.2381,881.2088,0.6564424575000001,0.4417695475,0.75296587,0.43287068500000003,0.02396707749999999
1751988913.582,836.4835,822.7839,774.43225,867.1062,0.6564424575000001,0.4417695475,0.75296587,0.43287068500000003,0.02396707749999999
1751988913.582,782.49084,823.1868,776.4469,792.1612,0.6564424575000001,0.4417695475,0.75296587,0.43287068500000003,0.02396707749999999
1751988913.5830002,786.52014,826.0073,776.4469,796.1905,0.6564424575000001,0.4417695475,0.75296587,0.43287068500000003,0.02396707749999999
1751988913.5830002,826.0073,824.7985,775.2381,858.24176,0.6564424575000001,0.4417695475,0.75296587,0.43287068500000003,0.02396707749999999
1751988913.5830002,828.022,821.978,776.04395,857.03296,0.6564424575000001,0.4417695475,0.75296587,0.43287068500000003,0.02396707749999999
1751988913.632,792.96704,821.978,774.43225,813.91943,0.6564424575000001,0.4417695475,0.75296587,0.43287068500000003,0.02396707749999999
1751988913.632,788.93774,825.6044,775.64105,811.9048,0.6564424575000001,0.4417695475,0.75296587,0.43287068500000003,0.02396707749999999
1751988913.633,832.8571,827.619,775.2381,865.4945,0.6564424575000001,0.4417695475,0.75296587,0.43287068500000003,0.02396707749999999
1751988913.633,858.24176,829.6337,774.43225,892.0879,0.6564424575000001,0.4417695475,0.75296587,0.43287068500000003,0.02396707749999999
1751988913.633,818.7546,827.2161,778.0586,851.39197,0.6564424575000001,0.4417695475,0.75296587,0.43287068500000003,0.02396707749999999
1751988913.633,786.9231,823.9927,782.8938,823.9927,0.6564424575000001,0.4417695475,0.75296587,0.43287068500000003,0.02396707749999999
1751988913.6339998,818.3516,821.978,784.10254,863.47986,0.6564424575000001,0.4417695475,0.75296587,0.43287068500000003,0.02396707749999999
1751988913.6339998,835.6777,817.1429,780.87915,877.98535,0.6564424575000001,0.4417695475,0.75296587,0.43287068500000003,0.02396707749999999
1751988913.6339998,816.337,812.3077,779.2674,844.1392,0.6564424575000001,0.4417695475,0.75296587,0.43287068500000003,0.02396707749999999
1751988913.6339998,793.7729,818.7546,778.0586,825.2015,0.6564424575000001,0.4417695475,0.75296587,0.43287068500000003,0.02396707749999999
1751988913.6339998,813.91943,826.0073,774.0293,833.663,0.6564424575000001,0.4417695475,0.75296587,0.43287068500000003,0.02396707749999999
1751988913.6339998,839.304,826.0073,773.22345,853.4066,0.6564424575000001,0.4417695475,0.75296587,0.43287068500000003,0.02396707749999999
1751988913.682,828.8278,823.9927,777.25275,862.27106,0.6564424575000001,0.4417695475,0.75296587,0.43287068500000003,0.02396707749999999
1751988913.683,794.57874,821.978,778.0586,827.619,0.6564424575000001,0.4417695475,0.75296587,0.43287068500000003,0.02396707749999999
1751988913.683,784.5055,817.9487,773.22345,818.3516,0.6564424575000001,0.4417695475,0.75296587,0.43287068500000003,0.02396707749999999
1751988913.683,817.9487,817.9487,773.22345,852.6007,0.6564424575000001,0.4417695475,0.75296587,0.43287068500000003,0.02396707749999999
1751988913.683,827.619,824.3956,777.6557,851.79486,0.6564424575000001,0.4417695475,0.75296587,0.43287068500000003,0.02396707749999999
1751988913.683,800.6227,831.2454,776.8498,832.8571,0.6564424575000001,0.4417695475,0.75296587,0.43287068500000003,0.02396707749999999
1751988913.684,788.1319,827.2161,773.22345,826.4103,0.6564424575000001,0.4417695475,0.75296587,0.43287068500000003,0.02396707749999999
1751988913.684,808.68134,819.15753,774.0293,833.663,0.665362,0.44289845175,0.7749631450000001,0.43771059500000004,0.015689267500000006
1751988913.685,828.4249,825.6044,778.0586,858.6447,0.665362,0.44289845175,0.7749631450000001,0.43771059500000004,0.015689267500000006
1751988913.685,801.8315,823.1868,774.43225,835.2747,0.665362,0.44289845175,0.7749631450000001,0.43771059500000004,0.015689267500000006
1751988913.685,771.2088,813.91943,770.0,783.69965,0.665362,0.44289845175,0.7749631450000001,0.43771059500000004,0.015689267500000006
1751988913.686,801.02563,813.5165,771.6117,819.15753,0.665362,0.44289845175,0.7749631450000001,0.43771059500000004,0.015689267500000006
1751988913.732,832.8571,819.15753,774.83514,878.3883,0.665362,0.44289845175,0.7749631450000001,0.43771059500000004,0.015689267500000006
1751988913.732,813.1135,822.381,774.43225,857.8388,0.665362,0.44289845175,0.7749631450000001,0.43771059500000004,0.015689267500000006
1751988913.733,778.46155,823.5897,771.2088,804.2491,0.665362,0.44289845175,0.7749631450000001,0.43771059500000004,0.015689267500000006
1751988913.733,798.60803,822.7839,771.2088,828.8278,0.665362,0.44289845175,0.7749631450000001,0.43771059500000004,0.015689267500000006
1751988913.733,832.0513,818.7546,773.22345,872.74725,0.665362,0.44289845175,0.7749631450000001,0.43771059500000004,0.015689267500000006
1751988913.733,825.2015,818.7546,771.6117,867.1062,0.665362,0.44289845175,0.7749631450000001,0.43771059500000004,0.015689267500000006
1751988913.7340002,775.64105,816.337,769.19415,812.3077,0.665362,0.44289845175,0.7749631450000001,0.43771059500000004,0.015689267500000006
1751988913.7340002,768.3883,812.71063,771.6117,804.65204,0.665362,0.44289845175,0.7749631450000001,0.43771059500000004,0.015689267500000006
1751988913.7340002,829.6337,818.3516,776.4469,866.30035,0.665362,0.44289845175,0.7749631450000001,0.43771059500000004,0.015689267500000006
1751988913.7340002,842.52747,821.5751,778.46155,875.9707,0.665362,0.44289845175,0.7749631450000001,0.43771059500000004,0.015689267500000006
1751988913.7340002,794.9817,817.5458,776.4469,832.0513,0.665362,0.44289845175,0.7749631450000001,0.43771059500000004,0.015689267500000006
1751988913.7340002,776.8498,814.3223,777.6557,816.337,0.665362,0.44289845175,0.7749631450000001,0.43771059500000004,0.015689267500000006
1751988913.756,826.8132,817.9487,778.46155,862.674,0.665362,0.44289845175,0.7749631450000001,0.43771059500000004,0.015689267500000006
1751988913.757,858.6447,823.1868,779.2674,888.86444,0.665362,0.44289845175,0.7749631450000001,0.43771059500000004,0.015689267500000006
1751988913.757,818.7546,820.3663,778.46155,842.9304,0.665362,0.44289845175,0.7749631450000001,0.43771059500000004,0.015689267500000006
1751988913.757,780.07324,822.381,778.0586,800.6227,0.665362,0.44289845175,0.7749631450000001,0.43771059500000004,0.015689267500000006
1751988913.757,818.3516,828.4249,782.8938,840.5128,0.665362,0.44289845175,0.7749631450000001,0.43771059500000004,0.015689267500000006
1751988913.757,849.3773,829.2308,783.69965,871.53845,0.665362,0.44289845175,0.7749631450000001,0.43771059500000004,0.015689267500000006
1751988913.757,822.7839,826.8132,782.8938,840.5128,0.665362,0.44289845175,0.7749631450000001,0.43771059500000004,0.015689267500000006
1751988913.7580001,786.1172,826.4103,780.4762,797.3993,0.665362,0.44289845175,0.7749631450000001,0.43771059500000004,0.015689267500000006
1751988913.7580001,804.2491,827.2161,781.685,820.7692,0.665362,0.44289845175,0.7749631450000001,0.43771059500000004,0.015689267500000006
1751988913.7580001,840.9158,826.8132,780.87915,865.89746,0.663253765,0.44622342,0.8195118499999999,0.43882682,0.010537367500000006
1751988913.759,824.3956,823.9927,778.0586,842.1245,0.663253765,0.44622342,0.8195118499999999,0.43882682,0.010537367500000006
1751988913.759,787.326,824.3956,781.685,805.8608,0.663253765,0.44622342,0.8195118499999999,0.43882682,0.010537367500000006
1751988913.81,787.326,825.2015,775.64105,802.6374,0.663253765,0.44622342,0.8195118499999999,0.43882682,0.010537367500000006
1751988913.81,829.6337,824.3956,775.64105,843.3333,0.663253765,0.44622342,0.8195118499999999,0.43882682,0.010537367500000006
1751988913.81,841.31866,825.6044,776.4469,855.0183,0.663253765,0.44622342,0.8195118499999999,0.43882682,0.010537367500000006
1751988913.81,812.71063,827.2161,777.6557,829.6337,0.663253765,0.44622342,0.8195118499999999,0.43882682,0.010537367500000006
1751988913.811,783.69965,823.9927,776.8498,807.47253,0.663253765,0.44622342,0.8195118499999999,0.43882682,0.010537367500000006
1751988913.811,813.91943,824.3956,778.0586,838.49817,0.663253765,0.44622342,0.8195118499999999,0.43882682,0.010537367500000006
1751988913.811,843.73627,822.381,782.8938,857.03296,0.663253765,0.44622342,0.8195118499999999,0.43882682,0.010537367500000006
1751988913.811,826.0073,825.2015,787.72894,836.8865,0.663253765,0.44622342,0.8195118499999999,0.43882682,0.010537367500000006
1751988913.811,788.93774,824.7985,787.72894,818.7546,0.663253765,0.44622342,0.8195118499999999,0.43882682,0.010537367500000006
1751988913.812,799.81683,820.3663,784.10254,828.4249,0.663253765,0.44622342,0.8195118499999999,0.43882682,0.010537367500000006
1751988913.812,839.707,823.1868,783.69965,859.45056,0.663253765,0.44622342,0.8195118499999999,0.43882682,0.010537367500000006
1751988913.812,829.6337,820.3663,781.685,852.1978,0.663253765,0.44622342,0.8195118499999999,0.43882682,0.010537367500000006
1751988913.8700001,783.69965,816.7399,780.4762,799.011,0.663253765,0.44622342,0.8195118499999999,0.43882682,0.010537367500000006
1751988913.8700001,787.72894,819.9634,784.10254,797.3993,0.663253765,0.44622342,0.8195118499999999,0.43882682,0.010537367500000006
1751988913.8700001,832.0513,819.15753,784.5055,849.3773,0.663253765,0.44622342,0.8195118499999999,0.43882682,0.010537367500000006
1751988913.871,831.2454,814.7253,781.685,856.2271,0.663253765,0.44622342,0.8195118499999999,0.43882682,0.010537367500000006
1751988913.871,793.36993,811.50183,778.0586,811.9048,0.663253765,0.44622342,0.8195118499999999,0.43882682,0.010537367500000006
1751988913.871,786.1172,805.8608,778.46155,790.9524,0.663253765,0.44622342,0.8195118499999999,0.43882682,0.010537367500000006
1751988913.871,822.381,810.293,786.1172,830.84247,0.663253765,0.44622342,0.8195118499999999,0.43882682,0.010537367500000006
1751988913.872,843.73627,824.7985,788.1319,861.4652,0.663253765,0.44622342,0.8195118499999999,0.43882682,0.010537367500000006
1751988913.872,808.68134,825.6044,788.1319,828.022,0.663253765,0.44622342,0.8195118499999999,0.43882682,0.010537367500000006
1751988913.872,764.35895,821.1722,789.7436,782.0879,0.663253765,0.44622342,0.8195118499999999,0.43882682,0.010537367500000006
1751988913.872,799.011,825.2015,786.9231,825.2015,0.663253765,0.44622342,0.8195118499999999,0.43882682,0.010537367500000006
1751988913.873,829.2308,824.7985,784.5055,855.82416,0.6578375399999999,0.45599023475,0.853335545,0.4390344,0.010007140999999997
1751988913.923,805.05493,822.381,787.72894,834.87177,0.6578375399999999,0.45599023475,0.853335545,0.4390344,0.010007140999999997
1751988913.924,771.2088,824.3956,786.9231,803.8461,0.6578375399999999,0.45599023475,0.853335545,0.4390344,0.010007140999999997
1751988913.924,791.3553,828.022,784.5055,825.2015,0.6578375399999999,0.45599023475,0.853335545,0.4390344,0.010007140999999997
1751988913.924,829.2308,829.6337,784.5055,860.2564,0.6578375399999999,0.45599023475,0.853335545,0.4390344,0.010007140999999997
1751988913.925,827.2161,829.2308,787.72894,847.76556,0.6578375399999999,0.45599023475,0.853335545,0.4390344,0.010007140999999997
1751988913.925,799.011,826.8132,793.36993,803.44324,0.6578375399999999,0.45599023475,0.853335545,0.4390344,0.010007140999999997
1751988913.925,804.65204,828.022,789.7436,817.9487,0.6578375399999999,0.45599023475,0.853335545,0.4390344,0.010007140999999997
1751988913.925,845.7509,825.6044,786.52014,873.1502,0.6578375399999999,0.45599023475,0.853335545,0.4390344,0.010007140999999997
1751988913.925,846.55676,821.1722,783.2967,859.45056,0.6578375399999999,0.45599023475,0.853335545,0.4390344,0.010007140999999997
1751988913.926,805.05493,820.3663,781.28204,814.7253,0.6578375399999999,0.45599023475,0.853335545,0.4390344,0.010007140999999997
1751988913.926,790.9524,820.7692,783.2967,809.0842,0.6578375399999999,0.45599023475,0.853335545,0.4390344,0.010007140999999997
1751988913.926,833.2601,825.6044,790.9524,849.3773,0.6578375399999999,0.45599023475,0.853335545,0.4390344,0.010007140999999997
1751988913.948,852.6007,827.2161,789.7436,865.89746,0.6578375399999999,0.45599023475,0.853335545,0.4390344,0.010007140999999997
1751988913.949,817.5458,824.7985,783.69965,834.0659,0.6578375399999999,0.45599023475,0.853335545,0.4390344,0.010007140999999997
1751988913.949,795.78754,825.6044,781.28204,815.5311,0.6578375399999999,0.45599023475,0.853335545,0.4390344,0.010007140999999997
1751988913.949,813.5165,820.7692,772.8205,836.4835,0.6578375399999999,0.45599023475,0.853335545,0.4390344,0.010007140999999997
1751988913.949,832.4542,812.71063,770.40295,852.6007,0.6578375399999999,0.45599023475,0.853335545,0.4390344,0.010007140999999997
1751988913.949,825.2015,819.9634,773.6264,844.5421,0.6578375399999999,0.45599023475,0.853335545,0.4390344,0.010007140999999997
1751988913.949,790.54944,823.1868,774.0293,819.15753,0.6578375399999999,0.45599023475,0.853335545,0.4390344,0.010007140999999997
1751988913.95,793.36993,816.7399,773.22345,826.8132,0.6578375399999999,0.45599023475,0.853335545,0.4390344,0.010007140999999997
1751988913.95,819.5604,814.3223,775.2381,844.1392,0.6578375399999999,0.45599023475,0.853335545,0.4390344,0.010007140999999997
1751988913.95,826.4103,814.7253,779.67035,844.1392,0.6578375399999999,0.45599023475,0.853335545,0.4390344,0.010007140999999997
1751988913.95,788.5348,816.337,784.10254,804.2491,0.6578375399999999,0.45599023475,0.853335545,0.4390344,0.010007140999999997
1751988913.95,782.8938,818.3516,787.326,799.81683,0.6578375399999999,0.45599023475,0.853335545,0.4390344,0.010007140999999997
1751988914.001,829.6337,818.7546,785.31134,852.6007,0.6578375399999999,0.45599023475,0.853335545,0.4390344,0.010007140999999997
1751988914.001,852.1978,826.4103,787.72894,877.98535,0.6342110425,0.46611081625,0.85666145,0.440772435,0.012134060000000002
1751988914.003,820.7692,830.4396,786.52014,843.3333,0.6342110425,0.46611081625,0.85666145,0.440772435,0.012134060000000002
1751988914.003,794.57874,831.6484,782.8938,811.9048,0.6342110425,0.46611081625,0.85666145,0.440772435,0.012134060000000002
1751988914.003,829.2308,828.022,784.10254,844.94507,0.6342110425,0.46611081625,0.85666145,0.440772435,0.012134060000000002
1751988914.003,850.989,830.0366,790.54944,881.2088,0.6342110425,0.46611081625,0.85666145,0.440772435,0.012134060000000002
1751988914.003,817.5458,831.2454,785.7143,850.58606,0.6342110425,0.46611081625,0.85666145,0.440772435,0.012134060000000002
1751988914.004,775.2381,823.1868,776.4469,799.81683,0.6342110425,0.46611081625,0.85666145,0.440772435,0.012134060000000002
1751988914.004,802.23444,821.5751,782.49084,826.4103,0.6342110425,0.46611081625,0.85666145,0.440772435,0.012134060000000002
1751988914.004,850.58606,826.0073,788.5348,871.13556,0.6342110425,0.46611081625,0.85666145,0.440772435,0.012134060000000002
1751988914.004,834.87177,826.4103,788.1319,860.65936,0.6342110425,0.46611081625,0.85666145,0.440772435,0.012134060000000002
1751988914.004,779.2674,817.1429,784.90845,792.96704,0.6342110425,0.46611081625,0.85666145,0.440772435,0.012134060000000002
1751988914.049,790.9524,818.3516,784.90845,803.8461,0.6342110425,0.46611081625,0.85666145,0.440772435,0.012134060000000002
1751988914.05,840.10986,826.0073,784.10254,877.5824,0.6342110425,0.46611081625,0.85666145,0.440772435,0.012134060000000002
1751988914.05,836.4835,822.381,778.0586,866.7033,0.6342110425,0.46611081625,0.85666145,0.440772435,0.012134060000000002
1751988914.05,789.34064,817.9487,774.83514,801.8315,0.6342110425,0.46611081625,0.85666145,0.440772435,0.012134060000000002
1751988914.05,780.07324,823.1868,778.46155,798.20514,0.6342110425,0.46611081625,0.85666145,0.440772435,0.012134060000000002
1751988914.051,827.619,826.4103,784.90845,859.0476,0.6342110425,0.46611081625,0.85666145,0.440772435,0.012134060000000002
1751988914.051,830.0366,818.7546,782.8938,867.50916,0.6342110425,0.46611081625,0.85666145,0.440772435,0.012134060000000002
1751988914.051,793.36993,818.3516,779.2674,818.7546,0.6342110425,0.46611081625,0.85666145,0.440772435,0.012134060000000002
1751988914.051,780.07324,824.3956,781.28204,797.3993,0.6342110425,0.46611081625,0.85666145,0.440772435,0.012134060000000002
1751988914.051,818.3516,826.0073,780.87915,846.9597,0.6342110425,0.46611081625,0.85666145,0.440772435,0.012134060000000002
1751988914.052,839.304,820.7692,776.8498,872.74725,0.6342110425,0.46611081625,0.85666145,0.440772435,0.012134060000000002
1751988914.052,804.65204,818.7546,774.0293,824.3956,0.6342110425,0.46611081625,0.85666145,0.440772435,0.012134060000000002
1751988914.099,776.4469,823.5897,774.43225,791.75824,0.6342110425,0.46611081625,0.85666145,0.440772435,0.012134060000000002
1751988914.099,805.05493,821.1722,776.04395,817.5458,0.6342110425,0.46611081625,0.85666145,0.440772435,0.012134060000000002
1751988914.099,845.7509,817.9487,774.43225,850.989,0.6342110425,0.46611081625,0.85666145,0.440772435,0.012134060000000002
1751988914.099,829.2308,820.7692,774.43225,840.10986,0.6296592925,0.478441004,0.8570067049999999,0.4399125825,0.016476635000000017
1751988914.1009998,787.326,826.0073,773.6264,801.4286,0.6296592925,0.478441004,0.8570067049999999,0.4399125825,0.016476635000000017
1751988914.1009998,791.3553,825.2015,769.19415,811.0989,0.6296592925,0.478441004,0.8570067049999999,0.4399125825,0.016476635000000017
1751988914.1009998,828.022,822.381,770.0,853.00366,0.6296592925,0.478441004,0.8570067049999999,0.4399125825,0.016476635000000017
1751988914.1009998,824.7985,820.7692,772.01465,857.03296,0.6296592925,0.478441004,0.8570067049999999,0.4399125825,0.016476635000000017
1751988914.1009998,788.93774,827.2161,774.0293,830.0366,0.6296592925,0.478441004,0.8570067049999999,0.4399125825,0.016476635000000017
1751988914.1020002,778.46155,831.6484,772.4176,823.5897,0.6296592925,0.478441004,0.8570067049999999,0.4399125825,0.016476635000000017
1751988914.1020002,811.50183,824.3956,769.19415,846.1539,0.6296592925,0.478441004,0.8570067049999999,0.4399125825,0.016476635000000017
1751988914.1020002,838.49817,829.6337,775.64105,868.315,0.6296592925,0.478441004,0.8570067049999999,0.4399125825,0.016476635000000017
1751988914.144,809.0842,829.2308,774.43225,847.3626,0.6296592925,0.478441004,0.8570067049999999,0.4399125825,0.016476635000000017
1751988914.145,778.46155,823.1868,769.19415,816.337,0.6296592925,0.478441004,0.8570067049999999,0.4399125825,0.016476635000000017
1751988914.145,810.293,823.1868,771.2088,834.4689,0.6296592925,0.478441004,0.8570067049999999,0.4399125825,0.016476635000000017
1751988914.145,838.0952,822.381,771.2088,857.8388,0.6296592925,0.478441004,0.8570067049999999,0.4399125825,0.016476635000000017
1751988914.145,826.8132,823.9927,773.6264,855.82416,0.6296592925,0.478441004,0.8570067049999999,0.4399125825,0.016476635000000017
1751988914.146,790.9524,823.5897,776.04395,821.1722,0.6296592925,0.478441004,0.8570067049999999,0.4399125825,0.016476635000000017
1751988914.146,796.99634,821.978,775.2381,827.619,0.6296592925,0.478441004,0.8570067049999999,0.4399125825,0.016476635000000017
1751988914.146,838.9011,823.9927,777.25275,859.45056,0.6296592925,0.478441004,0.8570067049999999,0.4399125825,0.016476635000000017
1751988914.146,840.5128,828.8278,778.46155,864.68866,0.6296592925,0.478441004,0.8570067049999999,0.4399125825,0.016476635000000017
1751988914.147,790.54944,829.2308,779.2674,823.9927,0.6296592925,0.478441004,0.8570067049999999,0.4399125825,0.016476635000000017
1751988914.147,776.8498,823.5897,776.8498,803.0403,0.6296592925,0.478441004,0.8570067049999999,0.4399125825,0.016476635000000017
1751988914.147,828.4249,827.2161,782.0879,860.65936,0.6296592925,0.478441004,0.8570067049999999,0.4399125825,0.016476635000000017
1751988914.197,841.7216,832.0513,787.72894,870.32965,0.6296592925,0.478441004,0.8570067049999999,0.4399125825,0.016476635000000017
1751988914.1980002,795.38464,824.7985,780.87915,825.2015,0.6296592925,0.478441004,0.8570067049999999,0.4399125825,0.016476635000000017
1751988914.1980002,778.46155,818.3516,782.0879,811.0989,0.6296592925,0.478441004,0.8570067049999999,0.4399125825,0.016476635000000017
1751988914.1980002,825.2015,819.15753,787.326,851.79486,0.6296592925,0.478441004,0.8570067049999999,0.4399125825,0.016476635000000017
1751988914.1990001,849.7802,822.7839,789.34064,872.3443,0.6296592925,0.478441004,0.8570067049999999,0.4399125825,0.016476635000000017
1751988914.1990001,817.5458,828.022,792.5641,843.3333,0.6194450875,0.481089714,0.8555455375000001,0.43565309750000003,0.019282763749999987
1751988914.201,788.1319,830.84247,790.9524,810.293,0.6194450875,0.481089714,0.8555455375000001,0.43565309750000003,0.019282763749999987
1751988914.201,813.5165,831.6484,789.7436,844.5421,0.6194450875,0.481089714,0.8555455375000001,0.43565309750000003,0.019282763749999987
1751988914.202,850.58606,837.6923,791.3553,892.49084,0.6194450875,0.481089714,0.8555455375000001,0.43565309750000003,0.019282763749999987
1751988914.202,826.8132,830.4396,790.14655,857.8388,0.6194450875,0.481089714,0.8555455375000001,0.43565309750000003,0.019282763749999987
1751988914.202,784.90845,822.381,788.93774,805.05493,0.6194450875,0.481089714,0.8555455375000001,0.43565309750000003,0.019282763749999987
1751988914.203,805.4579,829.2308,789.7436,825.2015,0.6194450875,0.481089714,0.8555455375000001,0.43565309750000003,0.019282763749999987
1751988914.2289999,840.9158,827.619,788.93774,867.50916,0.6194450875,0.481089714,0.8555455375000001,0.43565309750000003,0.019282763749999987
1751988914.2289999,840.10986,825.2015,782.0879,862.674,0.6194450875,0.481089714,0.8555455375000001,0.43565309750000003,0.019282763749999987
1751988914.23,811.0989,824.3956,775.64105,817.9487,0.6194450875,0.481089714,0.8555455375000001,0.43565309750000003,0.019282763749999987
1751988914.23,803.44324,823.9927,773.6264,814.3223,0.6194450875,0.481089714,0.8555455375000001,0.43565309750000003,0.019282763749999987
1751988914.23,836.08057,825.6044,774.0293,857.03296,0.6194450875,0.481089714,0.8555455375000001,0.43565309750000003,0.019282763749999987
1751988914.23,836.8865,823.9927,779.2674,857.4359,0.6194450875,0.481089714,0.8555455375000001,0.43565309750000003,0.019282763749999987
1751988914.231,801.4286,823.9927,781.685,819.5604,0.6194450875,0.481089714,0.8555455375000001,0.43565309750000003,0.019282763749999987
1751988914.231,790.9524,826.4103,785.31134,813.5165,0.6194450875,0.481089714,0.8555455375000001,0.43565309750000003,0.019282763749999987
1751988914.231,825.2015,828.022,789.34064,850.58606,0.6194450875,0.481089714,0.8555455375000001,0.43565309750000003,0.019282763749999987
1751988914.231,835.6777,823.9927,787.326,854.61536,0.6194450875,0.481089714,0.8555455375000001,0.43565309750000003,0.019282763749999987
1751988914.232,815.5311,829.2308,784.10254,835.6777,0.6194450875,0.481089714,0.8555455375000001,0.43565309750000003,0.019282763749999987
1751988914.232,785.31134,832.4542,783.69965,803.44324,0.6194450875,0.481089714,0.8555455375000001,0.43565309750000003,0.019282763749999987
1751988914.2819998,799.81683,828.022,784.10254,818.3516,0.6194450875,0.481089714,0.8555455375000001,0.43565309750000003,0.019282763749999987
1751988914.2819998,833.663,830.4396,783.69965,862.27106,0.6194450875,0.481089714,0.8555455375000001,0.43565309750000003,0.019282763749999987
1751988914.283,830.84247,833.2601,784.90845,854.21246,0.6194450875,0.481089714,0.8555455375000001,0.43565309750000003,0.019282763749999987
1751988914.283,796.5934,833.2601,787.72894,811.0989,0.6194450875,0.481089714,0.8555455375000001,0.43565309750000003,0.019282763749999987
1751988914.283,793.36993,830.4396,788.1319,821.1722,0.6194450875,0.481089714,0.8555455375000001,0.43565309750000003,0.019282763749999987
1751988914.283,835.6777,831.2454,788.1319,869.12085,0.6194450875,0.481089714,0.8555455375000001,0.43565309750000003,0.019282763749999987
1751988914.283,853.8095,837.28937,791.3553,873.1502,0.6194450875,0.481089714,0.8555455375000001,0.43565309750000003,0.019282763749999987
1751988914.284,815.5311,832.0513,791.3553,830.4396,0.6023441375,0.4726100215,0.8516693625,0.42906403000000004,0.019155080000000005
1751988914.2849998,787.326,824.3956,790.9524,811.50183,0.6023441375,0.4726100215,0.8516693625,0.42906403000000004,0.019155080000000005
1751988914.2849998,824.7985,829.6337,792.96704,850.58606,0.6023441375,0.4726100215,0.8516693625,0.42906403000000004,0.019155080000000005
1751988914.2849998,850.58606,833.2601,792.96704,871.13556,0.6023441375,0.4726100215,0.8516693625,0.42906403000000004,0.019155080000000005
1751988914.2849998,813.1135,823.1868,791.3553,830.84247,0.6023441375,0.4726100215,0.8516693625,0.42906403000000004,0.019155080000000005
1751988914.333,776.8498,818.3516,789.7436,796.99634,0.6023441375,0.4726100215,0.8516693625,0.42906403000000004,0.019155080000000005
1751988914.333,819.15753,822.7839,784.90845,845.34796,0.6023441375,0.4726100215,0.8516693625,0.42906403000000004,0.019155080000000005
1751988914.333,852.6007,824.7985,786.9231,884.83514,0.6023441375,0.4726100215,0.8516693625,0.42906403000000004,0.019155080000000005
1751988914.334,822.381,824.3956,791.3553,857.03296,0.6023441375,0.4726100215,0.8516693625,0.42906403000000004,0.019155080000000005
1751988914.334,785.7143,824.3956,786.9231,811.9048,0.6023441375,0.4726100215,0.8516693625,0.42906403000000004,0.019155080000000005
1751988914.334,814.7253,828.022,786.9231,840.5128,0.6023441375,0.4726100215,0.8516693625,0.42906403000000004,0.019155080000000005
1751988914.334,851.39197,829.2308,790.54944,897.72894,0.6023441375,0.4726100215,0.8516693625,0.42906403000000004,0.019155080000000005
1751988914.335,833.2601,825.2015,785.7143,875.56775,0.6023441375,0.4726100215,0.8516693625,0.42906403000000004,0.019155080000000005
1751988914.335,780.4762,817.1429,780.4762,799.41394,0.6023441375,0.4726100215,0.8516693625,0.42906403000000004,0.019155080000000005
1751988914.335,787.326,819.15753,781.28204,804.2491,0.6023441375,0.4726100215,0.8516693625,0.42906403000000004,0.019155080000000005
1751988914.335,833.2601,819.9634,777.6557,855.82416,0.6023441375,0.4726100215,0.8516693625,0.42906403000000004,0.019155080000000005
1751988914.335,836.4835,823.1868,777.6557,865.09155,0.6023441375,0.4726100215,0.8516693625,0.42906403000000004,0.019155080000000005
1751988914.359,798.60803,824.7985,779.2674,822.7839,0.6023441375,0.4726100215,0.8516693625,0.42906403000000004,0.019155080000000005
1751988914.36,786.52014,823.1868,778.0586,807.0696,0.6023441375,0.4726100215,0.8516693625,0.42906403000000004,0.019155080000000005
1751988914.36,828.022,823.9927,780.07324,853.4066,0.6023441375,0.4726100215,0.8516693625,0.42906403000000004,0.019155080000000005
1751988914.36,846.1539,822.7839,786.52014,863.0769,0.6023441375,0.4726100215,0.8516693625,0.42906403000000004,0.019155080000000005
1751988914.36,811.50183,823.9927,786.1172,826.8132,0.6023441375,0.4726100215,0.8516693625,0.42906403000000004,0.019155080000000005
1751988914.36,783.69965,825.6044,783.2967,805.8608,0.6023441375,0.4726100215,0.8516693625,0.42906403000000004,0.019155080000000005
1751988914.3609998,814.3223,821.5751,782.8938,843.3333,0.6023441375,0.4726100215,0.8516693625,0.42906403000000004,0.019155080000000005
1751988914.3609998,839.707,822.7839,781.28204,865.89746,0.6023441375,0.4726100215,0.8516693625,0.42906403000000004,0.019155080000000005
1751988914.3609998,818.7546,828.022,783.2967,834.87177,0.6023441375,0.4726100215,0.8516693625,0.42906403000000004,0.019155080000000005
1751988914.3609998,783.2967,828.4249,786.52014,802.6374,0.5892513075000001,0.46084105249999996,0.8493995974999999,0.4225577305,0.010781696499999993
1751988914.362,796.99634,827.2161,788.5348,820.7692,0.5892513075000001,0.46084105249999996,0.8493995974999999,0.4225577305,0.010781696499999993
1751988914.362,823.9927,826.0073,786.9231,848.1685,0.5892513075000001,0.46084105249999996,0.8493995974999999,0.4225577305,0.010781696499999993
1751988914.437,825.2015,832.4542,791.75824,842.52747,0.5892513075000001,0.46084105249999996,0.8493995974999999,0.4225577305,0.010781696499999993
1751988914.437,796.1905,831.6484,796.1905,807.8755,0.5892513075000001,0.46084105249999996,0.8493995974999999,0.4225577305,0.010781696499999993
1751988914.4380002,793.7729,826.4103,791.75824,821.5751,0.5892513075000001,0.46084105249999996,0.8493995974999999,0.4225577305,0.010781696499999993
1751988914.4380002,834.4689,823.9927,787.326,867.50916,0.5892513075000001,0.46084105249999996,0.8493995974999999,0.4225577305,0.010781696499999993
1751988914.4380002,837.6923,820.7692,784.10254,870.32965,0.5892513075000001,0.46084105249999996,0.8493995974999999,0.4225577305,0.010781696499999993
1751988914.4380002,799.81683,825.6044,785.31134,843.3333,0.5892513075000001,0.46084105249999996,0.8493995974999999,0.4225577305,0.010781696499999993
1751988914.4390001,783.69965,826.4103,788.93774,834.0659,0.5892513075000001,0.46084105249999996,0.8493995974999999,0.4225577305,0.010781696499999993
1751988914.4390001,809.4872,820.3663,787.326,849.7802,0.5892513075000001,0.46084105249999996,0.8493995974999999,0.4225577305,0.010781696499999993
1751988914.4390001,834.0659,825.6044,788.5348,865.4945,0.5892513075000001,0.46084105249999996,0.8493995974999999,0.4225577305,0.010781696499999993
1751988914.4390001,805.8608,826.0073,785.31134,832.4542,0.5892513075000001,0.46084105249999996,0.8493995974999999,0.4225577305,0.010781696499999993
1751988914.44,768.3883,820.3663,780.4762,791.75824,0.5892513075000001,0.46084105249999996,0.8493995974999999,0.4225577305,0.010781696499999993
1751988914.44,797.8022,817.9487,785.31134,821.5751,0.5892513075000001,0.46084105249999996,0.8493995974999999,0.4225577305,0.010781696499999993
1751988914.463,837.28937,817.5458,789.7436,859.0476,0.5892513075000001,0.46084105249999996,0.8493995974999999,0.4225577305,0.010781696499999993
1751988914.464,823.1868,816.337,788.93774,846.1539,0.5892513075000001,0.46084105249999996,0.8493995974999999,0.4225577305,0.010781696499999993
1751988914.464,780.4762,819.5604,791.75824,801.8315,0.5892513075000001,0.46084105249999996,0.8493995974999999,0.4225577305,0.010781696499999993
1751988914.464,785.7143,820.7692,794.57874,810.293,0.5892513075000001,0.46084105249999996,0.8493995974999999,0.4225577305,0.010781696499999993
1751988914.464,821.1722,819.5604,792.5641,860.65936,0.5892513075000001,0.46084105249999996,0.8493995974999999,0.4225577305,0.010781696499999993
1751988914.465,820.3663,823.5897,787.72894,869.92676,0.5892513075000001,0.46084105249999996,0.8493995974999999,0.4225577305,0.010781696499999993
1751988914.465,783.2967,823.1868,785.7143,826.0073,0.5892513075000001,0.46084105249999996,0.8493995974999999,0.4225577305,0.010781696499999993
1751988914.465,777.6557,820.7692,788.5348,814.3223,0.5892513075000001,0.46084105249999996,0.8493995974999999,0.4225577305,0.010781696499999993
1751988914.465,820.3663,816.337,787.72894,862.27106,0.5892513075000001,0.46084105249999996,0.8493995974999999,0.4225577305,0.010781696499999993
1751988914.465,844.5421,815.5311,786.9231,890.07324,0.5892513075000001,0.46084105249999996,0.8493995974999999,0.4225577305,0.010781696499999993
1751988914.4659998,798.20514,814.7253,782.8938,837.28937,0.5892513075000001,0.46084105249999996,0.8493995974999999,0.4225577305,0.010781696499999993
1751988914.4659998,774.83514,820.7692,788.1319,809.0842,0.5672971950000001,0.43994136375,0.8446300725,0.41856387249999993,-0.00039728249999998466
1751988914.516,823.5897,827.2161,797.3993,855.82416,0.5672971950000001,0.43994136375,0.8446300725,0.41856387249999993,-0.00039728249999998466
1751988914.516,842.9304,825.2015,792.96704,873.5531,0.5672971950000001,0.43994136375,0.8446300725,0.41856387249999993,-0.00039728249999998466
1751988914.517,809.4872,826.4103,788.5348,839.707,0.5672971950000001,0.43994136375,0.8446300725,0.41856387249999993,-0.00039728249999998466
1751988914.517,770.0,826.0073,788.93774,797.8022,0.5672971950000001,0.43994136375,0.8446300725,0.41856387249999993,-0.00039728249999998466
1751988914.517,801.02563,826.4103,790.14655,830.84247,0.5672971950000001,0.43994136375,0.8446300725,0.41856387249999993,-0.00039728249999998466
1751988914.517,842.52747,829.2308,794.57874,873.1502,0.5672971950000001,0.43994136375,0.8446300725,0.41856387249999993,-0.00039728249999998466
1751988914.5180001,824.7985,826.0073,794.57874,850.989,0.5672971950000001,0.43994136375,0.8446300725,0.41856387249999993,-0.00039728249999998466
1751988914.5180001,780.4762,820.3663,790.14655,803.0403,0.5672971950000001,0.43994136375,0.8446300725,0.41856387249999993,-0.00039728249999998466
1751988914.5180001,801.02563,826.0073,789.7436,824.3956,0.5672971950000001,0.43994136375,0.8446300725,0.41856387249999993,-0.00039728249999998466
1751988914.5180001,844.5421,826.4103,788.1319,872.74725,0.5672971950000001,0.43994136375,0.8446300725,0.41856387249999993,-0.00039728249999998466
1751988914.5180001,836.4835,821.1722,788.5348,857.8388,0.5672971950000001,0.43994136375,0.8446300725,0.41856387249999993,-0.00039728249999998466
1751988914.519,803.0403,823.5897,790.54944,818.7546,0.5672971950000001,0.43994136375,0.8446300725,0.41856387249999993,-0.00039728249999998466
1751988914.5649998,790.14655,828.022,791.3553,811.9048,0.5672971950000001,0.43994136375,0.8446300725,0.41856387249999993,-0.00039728249999998466
1751988914.5649998,821.5751,828.022,791.3553,846.55676,0.5672971950000001,0.43994136375,0.8446300725,0.41856387249999993,-0.00039728249999998466
1751988914.5660002,837.6923,825.2015,786.9231,861.06226,0.5672971950000001,0.43994136375,0.8446300725,0.41856387249999993,-0.00039728249999998466
1751988914.5660002,804.2491,821.1722,782.8938,829.2308,0.5672971950000001,0.43994136375,0.8446300725,0.41856387249999993,-0.00039728249999998466
1751988914.5660002,772.8205,821.978,781.685,798.60803,0.5672971950000001,0.43994136375,0.8446300725,0.41856387249999993,-0.00039728249999998466
1751988914.5660002,812.3077,828.022,784.10254,838.9011,0.5672971950000001,0.43994136375,0.8446300725,0.41856387249999993,-0.00039728249999998466
1751988914.5660002,840.9158,828.8278,782.0879,871.9414,0.5672971950000001,0.43994136375,0.8446300725,0.41856387249999993,-0.00039728249999998466
1751988914.5660002,816.337,825.2015,780.07324,842.9304,0.5672971950000001,0.43994136375,0.8446300725,0.41856387249999993,-0.00039728249999998466
1751988914.5670002,787.72894,824.7985,782.8938,811.9048,0.5672971950000001,0.43994136375,0.8446300725,0.41856387249999993,-0.00039728249999998466
1751988914.5670002,794.57874,817.9487,779.2674,810.696,0.5672971950000001,0.43994136375,0.8446300725,0.41856387249999993,-0.00039728249999998466
1751988914.5670002,828.8278,816.7399,778.46155,844.94507,0.5672971950000001,0.43994136375,0.8446300725,0.41856387249999993,-0.00039728249999998466
1751988914.5670002,836.8865,823.5897,784.10254,854.61536,0.5672971950000001,0.43994136375,0.8446300725,0.41856387249999993,-0.00039728249999998466
1751988914.616,794.9817,825.6044,787.326,809.89014,0.5672971950000001,0.43994136375,0.8446300725,0.41856387249999993,-0.00039728249999998466
1751988914.6169999,787.72894,826.8132,787.72894,809.4872,0.5429162775,0.412999405,0.8393255449999999,0.4122962845,-0.011029374250000015
1751988914.6179998,825.6044,820.3663,781.685,846.9597,0.5429162775,0.412999405,0.8393255449999999,0.4122962845,-0.011029374250000015
1751988914.6179998,841.7216,823.1868,784.5055,863.47986,0.5429162775,0.412999405,0.8393255449999999,0.4122962845,-0.011029374250000015
1751988914.619,808.68134,827.2161,788.5348,829.6337,0.5429162775,0.412999405,0.8393255449999999,0.4122962845,-0.011029374250000015
1751988914.619,780.87915,823.1868,784.10254,797.8022,0.5429162775,0.412999405,0.8393255449999999,0.4122962845,-0.011029374250000015
1751988914.619,818.7546,824.3956,782.8938,846.1539,0.5429162775,0.412999405,0.8393255449999999,0.4122962845,-0.011029374250000015
1751988914.619,840.5128,823.9927,784.10254,878.3883,0.5429162775,0.412999405,0.8393255449999999,0.4122962845,-0.011029374250000015
1751988914.619,799.81683,814.7253,780.4762,833.2601,0.5429162775,0.412999405,0.8393255449999999,0.4122962845,-0.011029374250000015
1751988914.62,758.71796,807.8755,774.83514,778.86444,0.5429162775,0.412999405,0.8393255449999999,0.4122962845,-0.011029374250000015
1751988914.62,794.17584,810.293,775.2381,812.71063,0.5429162775,0.412999405,0.8393255449999999,0.4122962845,-0.011029374250000015
1751988914.62,834.4689,815.12823,777.6557,855.82416,0.5429162775,0.412999405,0.8393255449999999,0.4122962845,-0.011029374250000015
1751988914.648,816.337,817.1429,774.0293,835.6777,0.5429162775,0.412999405,0.8393255449999999,0.4122962845,-0.011029374250000015
1751988914.648,775.64105,814.7253,768.7912,794.17584,0.5429162775,0.412999405,0.8393255449999999,0.4122962845,-0.011029374250000015
1751988914.649,799.011,819.9634,772.8205,826.0073,0.5429162775,0.412999405,0.8393255449999999,0.4122962845,-0.011029374250000015
1751988914.649,842.52747,823.9927,775.64105,871.53845,0.5429162775,0.412999405,0.8393255449999999,0.4122962845,-0.011029374250000015
1751988914.649,832.4542,825.6044,776.04395,856.63007,0.5429162775,0.412999405,0.8393255449999999,0.4122962845,-0.011029374250000015
1751988914.649,789.7436,824.7985,777.6557,817.1429,0.5429162775,0.412999405,0.8393255449999999,0.4122962845,-0.011029374250000015
1751988914.649,784.90845,818.7546,780.87915,819.9634,0.5429162775,0.412999405,0.8393255449999999,0.4122962845,-0.011029374250000015
1751988914.6499999,829.2308,821.1722,777.6557,869.92676,0.5429162775,0.412999405,0.8393255449999999,0.4122962845,-0.011029374250000015
1751988914.6499999,831.6484,820.3663,774.83514,864.2857,0.5429162775,0.412999405,0.8393255449999999,0.4122962845,-0.011029374250000015
1751988914.6499999,796.99634,819.5604,777.6557,815.12823,0.5429162775,0.412999405,0.8393255449999999,0.4122962845,-0.011029374250000015
1751988914.6499999,784.5055,821.978,773.22345,803.44324,0.5429162775,0.412999405,0.8393255449999999,0.4122962845,-0.011029374250000015
1751988914.6499999,816.337,820.7692,773.22345,841.7216,0.5429162775,0.412999405,0.8393255449999999,0.4122962845,-0.011029374250000015
1751988914.725,830.0366,815.5311,776.8498,858.24176,0.5429162775,0.412999405,0.8393255449999999,0.4122962845,-0.011029374250000015
1751988914.726,807.0696,817.5458,777.25275,841.7216,0.5429162775,0.412999405,0.8393255449999999,0.4122962845,-0.011029374250000015
1751988914.726,789.7436,827.619,779.2674,825.2015,0.5429162775,0.412999405,0.8393255449999999,0.4122962845,-0.011029374250000015
1751988914.726,809.0842,828.022,784.10254,845.7509,0.51180452125,0.3800295225,0.8230692875,0.40489673275000004,-0.027218547999999995
1751988914.727,831.2454,821.5751,784.90845,865.89746,0.51180452125,0.3800295225,0.8230692875,0.40489673275000004,-0.027218547999999995
1751988914.728,821.1722,825.6044,781.685,856.63007,0.51180452125,0.3800295225,0.8230692875,0.40489673275000004,-0.027218547999999995
1751988914.728,792.96704,830.84247,780.87915,829.2308,0.51180452125,0.3800295225,0.8230692875,0.40489673275000004,-0.027218547999999995
1751988914.728,812.71063,826.8132,778.86444,828.8278,0.51180452125,0.3800295225,0.8230692875,0.40489673275000004,-0.027218547999999995
1751988914.728,839.304,823.1868,777.6557,846.9597,0.51180452125,0.3800295225,0.8230692875,0.40489673275000004,-0.027218547999999995
1751988914.7289999,835.6777,824.7985,780.07324,855.42126,0.51180452125,0.3800295225,0.8230692875,0.40489673275000004,-0.027218547999999995
1751988914.7289999,792.5641,822.381,777.6557,817.1429,0.51180452125,0.3800295225,0.8230692875,0.40489673275000004,-0.027218547999999995
1751988914.7289999,775.2381,817.5458,773.6264,801.02563,0.51180452125,0.3800295225,0.8230692875,0.40489673275000004,-0.027218547999999995
1751988914.754,818.7546,815.9341,777.6557,845.34796,0.51180452125,0.3800295225,0.8230692875,0.40489673275000004,-0.027218547999999995
1751988914.755,832.8571,818.7546,787.326,862.674,0.51180452125,0.3800295225,0.8230692875,0.40489673275000004,-0.027218547999999995
1751988914.755,803.0403,816.7399,787.326,829.6337,0.51180452125,0.3800295225,0.8230692875,0.40489673275000004,-0.027218547999999995
1751988914.755,778.46155,814.7253,783.2967,805.05493,0.51180452125,0.3800295225,0.8230692875,0.40489673275000004,-0.027218547999999995
1751988914.756,818.3516,820.7692,781.28204,846.55676,0.51180452125,0.3800295225,0.8230692875,0.40489673275000004,-0.027218547999999995
1751988914.756,857.8388,824.3956,780.07324,884.83514,0.51180452125,0.3800295225,0.8230692875,0.40489673275000004,-0.027218547999999995
1751988914.756,827.2161,823.5897,779.67035,856.2271,0.51180452125,0.3800295225,0.8230692875,0.40489673275000004,-0.027218547999999995
1751988914.756,775.2381,817.1429,775.2381,796.5934,0.51180452125,0.3800295225,0.8230692875,0.40489673275000004,-0.027218547999999995
1751988914.756,798.60803,815.12823,776.8498,817.9487,0.51180452125,0.3800295225,0.8230692875,0.40489673275000004,-0.027218547999999995
1751988914.757,838.9011,816.7399,778.86444,865.09155,0.51180452125,0.3800295225,0.8230692875,0.40489673275000004,-0.027218547999999995
1751988914.757,819.5604,814.3223,774.83514,850.58606,0.51180452125,0.3800295225,0.8230692875,0.40489673275000004,-0.027218547999999995
1751988914.757,782.0879,814.7253,774.83514,801.8315,0.51180452125,0.3800295225,0.8230692875,0.40489673275000004,-0.027218547999999995
1751988914.799,794.9817,820.3663,779.2674,809.0842,0.51180452125,0.3800295225,0.8230692875,0.40489673275000004,-0.027218547999999995
1751988914.799,844.1392,830.84247,782.8938,875.16486,0.51180452125,0.3800295225,0.8230692875,0.40489673275000004,-0.027218547999999995
1751988914.8,844.5421,828.8278,780.4762,873.1502,0.51180452125,0.3800295225,0.8230692875,0.40489673275000004,-0.027218547999999995
1751988914.8,797.3993,820.3663,777.6557,815.12823,0.51180452125,0.3800295225,0.8230692875,0.40489673275000004,-0.027218547999999995
1751988914.8,788.93774,821.978,783.69965,806.26373,0.51180452125,0.3800295225,0.8230692875,0.40489673275000004,-0.027218547999999995
1751988914.8,836.08057,825.2015,788.1319,853.00366,0.475665211,0.34414890000000004,0.80928518,0.396605298,-0.047947780699999984
1751988914.8009999,849.7802,828.022,784.5055,867.50916,0.475665211,0.34414890000000004,0.80928518,0.396605298,-0.047947780699999984
1751988914.8019998,811.50183,828.8278,778.0586,827.2161,0.475665211,0.34414890000000004,0.80928518,0.396605298,-0.047947780699999984
1751988914.8019998,787.72894,825.2015,775.2381,802.6374,0.475665211,0.34414890000000004,0.80928518,0.396605298,-0.047947780699999984
1751988914.8019998,822.7839,826.8132,776.04395,854.61536,0.475665211,0.34414890000000004,0.80928518,0.396605298,-0.047947780699999984
1751988914.8019998,848.5714,826.4103,772.8205,881.6117,0.475665211,0.34414890000000004,0.80928518,0.396605298,-0.047947780699999984
1751988914.8019998,826.8132,827.2161,770.80585,843.73627,0.475665211,0.34414890000000004,0.80928518,0.396605298,-0.047947780699999984
1751988914.849,789.34064,830.84247,774.43225,801.8315,0.475665211,0.34414890000000004,0.80928518,0.396605298,-0.047947780699999984
1751988914.849,801.4286,826.0073,774.43225,819.5604,0.475665211,0.34414890000000004,0.80928518,0.396605298,-0.047947780699999984
1751988914.85,841.31866,823.9927,774.83514,861.4652,0.475665211,0.34414890000000004,0.80928518,0.396605298,-0.047947780699999984
1751988914.85,831.6484,828.4249,781.28204,854.61536,0.475665211,0.34414890000000004,0.80928518,0.396605298,-0.047947780699999984
1751988914.85,791.75824,828.4249,785.31134,814.3223,0.475665211,0.34414890000000004,0.80928518,0.396605298,-0.047947780699999984
1751988914.85,792.96704,824.7985,788.1319,819.15753,0.475665211,0.34414890000000004,0.80928518,0.396605298,-0.047947780699999984
1751988914.85,827.2161,821.5751,786.9231,865.4945,0.475665211,0.34414890000000004,0.80928518,0.396605298,-0.047947780699999984
1751988914.851,831.6484,820.7692,782.0879,859.85345,0.475665211,0.34414890000000004,0.80928518,0.396605298,-0.047947780699999984
1751988914.851,806.26373,823.1868,783.2967,823.5897,0.475665211,0.34414890000000004,0.80928518,0.396605298,-0.047947780699999984
1751988914.851,786.1172,819.15753,778.86444,815.9341,0.475665211,0.34414890000000004,0.80928518,0.396605298,-0.047947780699999984
1751988914.851,808.2784,811.50183,770.0,829.6337,0.475665211,0.34414890000000004,0.80928518,0.396605298,-0.047947780699999984
1751988914.851,833.663,811.9048,774.43225,852.6007,0.475665211,0.34414890000000004,0.80928518,0.396605298,-0.047947780699999984
1751988914.8990002,807.47253,817.1429,780.07324,834.0659,0.475665211,0.34414890000000004,0.80928518,0.396605298,-0.047947780699999984
1751988914.8990002,780.4762,821.5751,783.2967,809.0842,0.475665211,0.34414890000000004,0.80928518,0.396605298,-0.047947780699999984
1751988914.9,820.3663,829.2308,786.1172,853.00366,0.475665211,0.34414890000000004,0.80928518,0.396605298,-0.047947780699999984
1751988914.9,854.61536,828.8278,780.4762,879.19415,0.475665211,0.34414890000000004,0.80928518,0.396605298,-0.047947780699999984
1751988914.9,832.4542,823.9927,779.2674,857.4359,0.475665211,0.34414890000000004,0.80928518,0.396605298,-0.047947780699999984
1751988914.9,787.326,817.9487,783.2967,815.5311,0.475665211,0.34414890000000004,0.80928518,0.396605298,-0.047947780699999984
1751988914.901,797.8022,815.9341,780.07324,815.9341,0.475665211,0.34414890000000004,0.80928518,0.396605298,-0.047947780699999984
1751988914.901,837.28937,821.978,776.4469,848.5714,0.436153643,0.313706575,0.79950244,0.388498764125,-0.07025838250000001
1751988914.9020002,834.0659,821.978,776.04395,848.97437,0.436153643,0.313706575,0.79950244,0.388498764125,-0.07025838250000001
1751988914.9020002,796.1905,818.7546,773.22345,810.293,0.436153643,0.313706575,0.79950244,0.388498764125,-0.07025838250000001
1751988914.9020002,788.93774,817.1429,772.01465,795.38464,0.436153643,0.313706575,0.79950244,0.388498764125,-0.07025838250000001
1751988914.903,833.663,820.3663,775.2381,849.7802,0.436153643,0.313706575,0.79950244,0.388498764125,-0.07025838250000001
1751988914.925,834.4689,821.978,777.25275,861.8681,0.436153643,0.313706575,0.79950244,0.388498764125,-0.07025838250000001
1751988914.925,800.2198,825.6044,777.6557,821.978,0.436153643,0.313706575,0.79950244,0.388498764125,-0.07025838250000001
1751988914.926,794.9817,829.2308,777.25275,811.50183,0.436153643,0.313706575,0.79950244,0.388498764125,-0.07025838250000001
1751988914.926,828.4249,827.2161,780.87915,854.21246,0.436153643,0.313706575,0.79950244,0.388498764125,-0.07025838250000001
1751988914.926,850.18317,828.4249,782.49084,874.7619,0.436153643,0.313706575,0.79950244,0.388498764125,-0.07025838250000001
1751988914.926,822.381,828.022,778.86444,843.3333,0.436153643,0.313706575,0.79950244,0.388498764125,-0.07025838250000001
1751988914.926,784.5055,826.0073,776.8498,808.68134,0.436153643,0.313706575,0.79950244,0.388498764125,-0.07025838250000001
1751988914.926,810.293,823.9927,776.04395,837.6923,0.436153643,0.313706575,0.79950244,0.388498764125,-0.07025838250000001
1751988914.927,849.3773,822.381,773.6264,884.0293,0.436153643,0.313706575,0.79950244,0.388498764125,-0.07025838250000001
1751988914.927,820.7692,818.3516,770.80585,852.6007,0.436153643,0.313706575,0.79950244,0.388498764125,-0.07025838250000001
1751988914.927,780.07324,821.978,772.8205,809.4872,0.436153643,0.313706575,0.79950244,0.388498764125,-0.07025838250000001
1751988914.927,797.3993,826.8132,777.25275,830.0366,0.436153643,0.313706575,0.79950244,0.388498764125,-0.07025838250000001
1751988914.9699998,838.0952,824.3956,781.685,868.315,0.436153643,0.313706575,0.79950244,0.388498764125,-0.07025838250000001
1751988914.9699998,851.39197,831.6484,783.69965,884.83514,0.436153643,0.313706575,0.79950244,0.388498764125,-0.07025838250000001
1751988914.9699998,813.1135,832.4542,784.10254,850.989,0.436153643,0.313706575,0.79950244,0.388498764125,-0.07025838250000001
1751988914.971,802.23444,829.2308,786.1172,842.1245,0.436153643,0.313706575,0.79950244,0.388498764125,-0.07025838250000001
1751988914.971,843.3333,830.0366,787.326,880.0,0.436153643,0.313706575,0.79950244,0.388498764125,-0.07025838250000001
1751988914.971,848.1685,827.2161,782.8938,876.3736,0.436153643,0.313706575,0.79950244,0.388498764125,-0.07025838250000001
1751988914.971,806.26373,822.7839,776.8498,835.2747,0.436153643,0.313706575,0.79950244,0.388498764125,-0.07025838250000001
1751988914.972,793.36993,825.6044,779.67035,822.7839,0.436153643,0.313706575,0.79950244,0.388498764125,-0.07025838250000001
1751988914.972,823.5897,823.5897,782.49084,861.4652,0.436153643,0.313706575,0.79950244,0.388498764125,-0.07025838250000001
