timestamp,TP9,AF7,AF8,TP10,Valence,Arousal
0.0,0.00015281699779507124,2.6381789781032965e-05,1.709890740825506e-05,3.2727051149767236e-05,7.2,7.3333
0.00390625,0.00012597553502098106,1.8072518941023812e-05,2.5391391842526824e-05,3.126663385061411e-05,7.2,7.3333
0.0078125,0.00010838338180819401,1.4161286404211423e-05,2.00365284122987e-05,2.6381789781032965e-05,7.2,7.3333
0.01171875,8.78871804028381e-05,2.149694571145183e-05,2.1983751477836202e-05,2.5391391842526824e-05,7.2,7.3333
0.015625,0.00011180780857862202,3.3700662682535974e-05,3.761189521934837e-05,2.3444168776989324e-05,7.2,7.3333
0.01953125,0.00010643615874265651,3.3700662682535974e-05,3.6134691514457854e-05,2.1983751477836202e-05,7.2,7.3333
0.0234375,8.446275363241008e-05,1.8072518941023812e-05,3.0276235912107963e-05,2.490458607614245e-05,7.2,7.3333
0.02734375,0.00013035678691844044,2.7355401313801717e-05,2.490458607614245e-05,2.4417780309758076e-05,7.2,7.3333
0.03125,6.591377529259167e-05,4.296675864957649e-05,3.51610799816891e-05,2.5391391842526824e-05,7.2,7.3333
0.03515625,7.128542512855719e-05,4.8338408485542e-05,3.8098700985732744e-05,2.247055724422058e-05,7.2,7.3333
0.0390625,0.00018504689681086433,3.6621497280842224e-05,3.418746844892036e-05,2.247055724422058e-05,7.2,7.3333
0.04296875,0.0001523301920286869,1.612529587548631e-05,3.6621497280842224e-05,2.8815818612954842e-05,7.2,7.3333
0.046875,8.05515210955977e-05,1.3674480637827049e-05,1.9532936240176937e-05,2.930262437933921e-05,7.2,7.3333
0.05078125,9.617966483710986e-05,1.1727257572289548e-05,1.8559324707408188e-05,3.076304167849234e-05,7.2,7.3333
0.0546875,0.00016404710323338664,2.7355401313801717e-05,2.686859554741734e-05,2.490458607614245e-05,7.2,7.3333
0.05859375,0.00014744534795910574,2.978943014572359e-05,2.6381789781032965e-05,2.39309745433737e-05,7.2,7.3333
0.0625,0.0001367188346929121,2.686859554741734e-05,2.8815818612954842e-05,3.2727051149767236e-05,7.2,7.3333
0.06640625,6.786099835812916e-05,3.7125089452964e-05,3.4674274215304726e-05,3.175343961699848e-05,7.2,7.3333
0.0703125,7.81602503547716e-06,2.784220708018609e-05,4.442717594872962e-05,3.224024538338285e-05,7.2,7.3333
0.07421875,0.000142577290295262,2.5894984014648593e-05,6.151573698939491e-05,3.51610799816891e-05,7.2,7.3333
0.078125,0.00019238255611810472,4.004592405127024e-05,6.688738682536042e-05,3.3213856916151605e-05,7.2,7.3333
0.08203125,0.00015281699779507124,4.442717594872962e-05,3.858550675211712e-05,3.175343961699848e-05,7.2,7.3333
0.0859375,8.05515210955977e-05,3.175343961699848e-05,1.5151684342717566e-05,2.978943014572359e-05,7.2,7.3333
0.08984375,8.348914209964134e-05,2.930262437933921e-05,1.1727257572289548e-05,3.0276235912107963e-05,7.2,7.3333
0.09375,0.00016063946286869603,4.053272981765462e-05,2.5391391842526824e-05,2.930262437933921e-05,7.2,7.3333
0.09765625,0.00016015265710231163,3.907231251850149e-05,2.6381789781032965e-05,2.5894984014648593e-05,7.2,7.3333
0.1015625,0.00012206430248416868,2.5894984014648593e-05,1.612529587548631e-05,2.784220708018609e-05,7.2,7.3333
0.10546875,7.909110379644456e-05,2.149694571145183e-05,2.1010139945067454e-05,3.4674274215304726e-05,7.2,7.3333
0.109375,9.277202447241925e-05,3.564788574807348e-05,2.0523334178683078e-05,3.2727051149767236e-05,7.2,7.3333
0.11328125,8.446275363241008e-05,4.3940370182345236e-05,2.930262437933921e-05,2.978943014572359e-05,7.2,7.3333
0.1171875,0.00010740977027542527,3.224024538338285e-05,5.02856315510795e-05,3.4674274215304726e-05,7.2,7.3333
0.12109375,0.00015184338626230247,2.39309745433737e-05,4.540078748149836e-05,3.418746844892036e-05,7.2,7.3333
0.125,2.8815818612954842e-05,2.149694571145183e-05,3.6134691514457854e-05,3.3700662682535974e-05,7.2,7.3333
0.12890625,4.053272981765462e-05,3.3213856916151605e-05,3.076304167849234e-05,3.564788574807348e-05,7.2,7.3333
0.1328125,0.00017381679137254893,4.442717594872962e-05,2.490458607614245e-05,3.564788574807348e-05,7.2,7.3333
0.13671875,0.00017578080084382382,3.6134691514457854e-05,2.7355401313801717e-05,2.8815818612954842e-05,7.2,7.3333
0.140625,0.00012840956385290294,3.2727051149767236e-05,2.978943014572359e-05,2.00365284122987e-05,7.2,7.3333
0.14453125,7.909110379644456e-05,2.6381789781032965e-05,2.247055724422058e-05,1.8559324707408188e-05,7.2,7.3333
0.1484375,0.00010203812043945976,2.1983751477836202e-05,1.9532936240176937e-05,2.5391391842526824e-05,7.2,7.3333
0.15234375,0.00012206430248416868,3.9559118284885865e-05,2.3444168776989324e-05,2.8815818612954842e-05,7.2,7.3333
0.15625,0.00013280760215609973,3.2727051149767236e-05,2.149694571145183e-05,2.0523334178683078e-05,7.2,7.3333
0.16015625,6.34629600549324e-05,1.5151684342717566e-05,2.784220708018609e-05,2.0523334178683078e-05,7.2,7.3333
0.1640625,9.839579003585185e-07,2.1983751477836202e-05,3.6621497280842224e-05,2.6381789781032965e-05,7.2,7.3333
0.16796875,9.617966483710986e-05,2.490458607614245e-05,1.9532936240176937e-05,2.978943014572359e-05,7.2,7.3333
0.171875,0.0001577018418646524,2.978943014572359e-05,6.3556077363240315e-06,3.858550675211712e-05,7.2,7.3333
0.17578125,0.00016503750117189282,3.2727051149767236e-05,2.39309745433737e-05,3.858550675211712e-05,7.2,7.3333
0.1796875,0.00011571904111543442,3.3213856916151605e-05,2.5894984014648593e-05,3.564788574807348e-05,7.2,7.3333
0.18359375,8.592317093156321e-05,2.490458607614245e-05,9.293228740367673e-06,3.6134691514457854e-05,7.2,7.3333
0.1875,0.0001352416309880216,1.563849010910194e-05,1.563849010910194e-05,3.51610799816891e-05,7.2,7.3333
0.19140625,0.00014549812489356823,2.1010139945067454e-05,1.4161286404211423e-05,2.978943014572359e-05,7.2,7.3333
0.1953125,0.00014158689235675587,2.39309745433737e-05,2.6381789781032965e-05,2.5894984014648593e-05,7.2,7.3333
0.19921875,0.0001235247197833218,2.3444168776989324e-05,3.7125089452964e-05,2.686859554741734e-05,7.2,7.3333
0.203125,9.471924753795672e-05,2.8815818612954842e-05,2.1983751477836202e-05,2.295736301060495e-05,7.2,7.3333
0.20703125,7.811749226367581e-05,2.0523334178683078e-05,1.3674480637827049e-05,1.8559324707408188e-05,7.2,7.3333
0.2109375,9.374563600518799e-05,2.5894984014648593e-05,2.784220708018609e-05,3.0276235912107963e-05,7.2,7.3333
0.21484375,0.00014892255166399626,3.126663385061411e-05,4.2479952883192115e-05,3.51610799816891e-05,7.2,7.3333
0.21875,8.202872480048822e-05,3.175343961699848e-05,3.6621497280842224e-05,2.784220708018609e-05,7.2,7.3333
0.22265625,6.93214156572823e-05,2.5391391842526824e-05,2.0523334178683078e-05,2.295736301060495e-05,7.2,7.3333
0.2265625,0.0001533038035614556,1.1727257572289548e-05,1.1727257572289548e-05,2.247055724422058e-05,7.2,7.3333
0.23046875,0.00013329440792248407,8.78963656824591e-06,1.9532936240176937e-05,3.224024538338285e-05,7.2,7.3333
0.234375,0.00012889636961928733,6.84241350270841e-06,1.2214063338673923e-05,2.930262437933921e-05,7.2,7.3333
0.23828125,0.0001235247197833218,1.0753646039520798e-05,5.381996203555289e-06,2.490458607614245e-05,7.2,7.3333
0.2421875,0.00015038296896314937,-2.4404688700694945e-06,-3.900886169222616e-06,2.5894984014648593e-05,7.2,7.3333
0.24609375,0.00014306409606164633,4.89519043717091e-06,-1.936876697947724e-06,3.0276235912107963e-05,7.2,7.3333
0.25,0.0001445245133607995,1.9532936240176937e-05,1.4161286404211423e-05,4.101953558403899e-05,7.2,7.3333
0.25390625,0.00010643615874265651,-1.9529029910734783e-05,-2.6361097045853426e-05,3.858550675211712e-05,7.2,7.3333
0.2578125,5.857811598535127e-05,-4.051203708247507e-05,-6.248544219272151e-05,1.8559324707408188e-05,7.2,7.3333
0.26171875,0.00015135658049591813,-4.2962852320134344e-05,-6.785709202868702e-05,1.466487857633319e-05,7.2,7.3333
0.265625,0.000202622263617914,-5.760059812314037e-05,-8.445884730296794e-05,2.3444168776989324e-05,7.2,7.3333
0.26953125,0.00019481658495002662,-7.030790726634628e-05,-9.617575850766772e-05,1.9532936240176937e-05,7.2,7.3333
0.2734375,0.00018261286797894246,-8.494565306935232e-05,-0.00011034348495002675,1.4161286404211423e-05,7.2,7.3333
0.27734375,0.00019187896394598297,-9.228131237659273e-05,-0.00011962636732280467,2.7355401313801717e-05,7.2,7.3333
0.28125,0.00022118802836346981,-0.00010448502934767685,-0.00012791885175707641,4.004592405127024e-05,7.2,7.3333
0.28515625,0.00020361266155642012,-0.00012499801715877017,-0.00014989225686732284,4.199314711680774e-05,7.2,7.3333
0.2890625,0.000202622263617914,-0.0001284056575234608,-0.00015037906263370724,5.2232854616617e-05,7.2,7.3333
0.29296875,0.00020507307885557326,-0.00011425471748683915,-0.00012791885175707641,4.979882578469513e-05,7.2,7.3333
0.296875,0.00021190514599069192,-0.00010839626188448926,-0.00011474152325322352,4.734801054703586e-05,7.2,7.3333
0.30078125,0.0001625866859342335,-9.765296221255823e-05,-9.960018527809572e-05,4.785160271915763e-05,7.2,7.3333
0.3046875,0.0001445245133607995,-8.299843000381482e-05,-8.543245883573668e-05,3.9559118284885865e-05,7.2,7.3333
0.30859375,0.00019627700224917973,-6.151183065995274e-05,-8.251162423743043e-05,4.004592405127024e-05,7.2,7.3333
0.3125,0.00010009089737392224,-4.0998842848859455e-05,-7.274193609826816e-05,5.077243731746388e-05,7.2,7.3333
0.31640625,0.00010838338180819401,-2.8308320111390927e-05,-5.516656929121849e-05,4.6861204780651486e-05,7.2,7.3333
0.3203125,0.00021727679582665742,-1.9042224144350414e-05,-3.075913534905018e-05,5.125924308384825e-05,7.2,7.3333
0.32421875,0.00018016205274128317,-1.3670574308384899e-05,-1.1706564837110008e-05,5.02856315510795e-05,7.2,7.3333
0.328125,0.00013280760215609973,-9.632651651789744e-07,1.4707636667428971e-06,4.345356441596087e-05,7.2,7.3333
0.33203125,0.00011424183741054391,8.302830801861532e-06,1.6612101641870687e-05,5.2232854616617e-05,7.2,7.3333
0.3359375,0.00014158689235675587,2.8329012846570463e-05,2.686859554741734e-05,4.637439901426711e-05,7.2,7.3333
0.33984375,0.00014695854219272137,3.51610799816891e-05,3.0276235912107963e-05,4.004592405127024e-05,7.2,7.3333
0.34375,0.00013280760215609973,1.3674480637827049e-05,1.2214063338673923e-05,3.3700662682535974e-05,7.2,7.3333
0.34765625,8.348914209964134e-05,-1.2680176369878758e-05,-2.6847902812237806e-05,2.149694571145183e-05,7.2,7.3333
0.3515625,6.443657158770115e-05,-2.0502641443503535e-05,-2.976873741054405e-05,1.7585713174639436e-05,7.2,7.3333
0.35546875,0.00018847132358129235,-3.661759095140007e-05,-3.759120248416883e-05,4.199314711680774e-05,7.2,7.3333
0.359375,0.00024656907383840683,-9.813976797894261e-05,-9.862657374532699e-05,3.907231251850149e-05,7.2,7.3333
0.36328125,0.00022410886296177606,-0.0001425733839658198,-0.0001469714222690166,1.7585713174639436e-05,7.2,7.3333
0.3671875,0.00018847132358129235,-0.00015769793553521022,-0.00017089205044480053,1.466487857633319e-05,7.2,7.3333
0.37109375,0.00020409946732280452,-0.0001772373118135348,-0.0001830957674158847,1.0753646039520798e-05,7.2,7.3333
0.375,0.00026659525588311575,-0.0001830957674158847,-0.00019237864978866257,3.418746844892036e-05,7.2,7.3333
0.37890625,0.0002495066948424505,-0.00020604278405889984,-0.00022655577186999316,4.345356441596087e-05,7.2,7.3333
0.3828125,0.00022070122259708542,-0.00023144061593957427,-0.00023827268307469296,4.345356441596087e-05,7.2,7.3333
0.38671875,0.00019725061378194847,-0.0002128748511940185,-0.00022752938340276193,6.005531969024179e-05,7.2,7.3333
0.390625,0.00018309967374532683,-0.000210927628128481,-0.000218246501029984,7.128542512855719e-05,7.2,7.3333
0.39453125,0.00019824101172045462,-0.00020213155152208747,-0.0002031219494605936,6.73741925917448e-05,7.2,7.3333
0.3984375,0.0001894449351140611,-0.00016746762367437254,-0.00018406937894865344,6.54269695262073e-05,7.2,7.3333
0.40234375,0.00022264844566262295,-0.00015183947993286035,-0.0001528298778713665,7.860429803006019e-05,7.2,7.3333
0.40625,0.0001372056404592965,-0.00012791885175707641,-0.00011863596938429853,6.200254275577928e-05,7.2,7.3333
0.41015625,0.00010057770314030662,-9.716615644617386e-05,-9.27681181429771e-05,4.199314711680774e-05,7.2,7.3333
0.4140625,0.00022167483412985418,-6.63966747295339e-05,-7.908719746700242e-05,4.931202001831075e-05,7.2,7.3333
0.41796875,0.00020898431139238565,-2.7821514345006548e-05,-4.833450215609986e-05,4.053272981765462e-05,7.2,7.3333
0.421875,0.0001445245133607995,-2.4404688700694945e-06,-8.298924472419379e-06,2.6381789781032965e-05,7.2,7.3333
0.42578125,0.00010594935297627214,1.8072518941023812e-05,1.1240451805905174e-05,2.8329012846570463e-05,7.2,7.3333
0.4296875,0.00013280760215609973,4.588759324788274e-05,2.39309745433737e-05,2.7355401313801717e-05,7.2,7.3333
0.43359375,0.00013183399062333096,6.200254275577928e-05,6.34629600549324e-05,2.1983751477836202e-05,7.2,7.3333
0.4375,0.00011571904111543442,6.443657158770115e-05,8.397594786602571e-05,1.563849010910194e-05,7.2,7.3333
0.44140625,5.4683669854276266e-05,7.51798712596322e-05,8.446275363241008e-05,1.1240451805905174e-05,7.2,7.3333
0.4453125,4.540078748149836e-05,9.814367430838475e-05,9.423244177157237e-05,1.0753646039520798e-05,7.2,7.3333
0.44921875,6.34629600549324e-05,0.00011863987571374066,9.715327636987863e-05,5.8688019699396605e-06,7.2,7.3333
0.453125,5.7604504452582516e-05,0.00013134718485694656,0.00010789657604180963,4.408384670786539e-06,7.2,7.3333
0.45703125,8.983440346837559e-05,0.00014549812489356823,0.00013378121368886847,8.302830801861532e-06,7.2,7.3333
0.4609375,8.78963656824591e-06,0.0001596658513359273,0.00014501131912718386,3.921578904402161e-06,7.2,7.3333
0.46484375,-1.0732953304341257e-05,0.00015818864763103674,0.00013963966929121834,2.9311809658960184e-06,7.2,7.3333
0.46875,7.225903666132594e-05,0.0001542942014999618,0.00014695854219272137,6.84241350270841e-06,7.2,7.3333
0.47265625,6.394976582131678e-05,0.00016552430693827716,0.0001625866859342335,6.84241350270841e-06,7.2,7.3333
0.4765625,6.494016375982292e-05,0.0001596658513359273,0.0001762676066102082,-4.7645939879460283e-07,7.2,7.3333
0.48046875,-2.4404688700694945e-06,0.00015672823033188363,0.00018358647951171122,-2.927274636453866e-06,7.2,7.3333
0.484375,-2.8308320111390927e-05,0.00017332998560616456,0.0001762676066102082,2.444375199511647e-06,7.2,7.3333
0.48828125,2.930262437933921e-05,0.00017332998560616456,0.00017527720867170204,4.89519043717091e-06,7.2,7.3333
0.4921875,4.3940370182345236e-05,0.0001816392564461737,0.00019041854664682983,-9.632651651789744e-07,7.2,7.3333
0.49609375,8.154191903410383e-05,0.00019481658495002662,0.00018798451781490796,-4.7645939879460283e-07,7.2,7.3333
0.5,5.381996203555289e-06,0.00018309967374532683,0.00017870163544213006,6.84241350270841e-06,7.2,7.3333
0.50390625,-1.9042224144350414e-05,0.00016990555883573654,0.00018115245067978935,1.3674480637827049e-05,7.2,7.3333
0.5078125,6.980822142366667e-05,0.0001704091510078583,0.0001816392564461737,5.8688019699396605e-06,7.2,7.3333
0.51171875,6.297615428854803e-05,0.00016649791847104592,0.00017772802390936132,4.971521339741472e-07,7.2,7.3333
0.515625,7.323264819409468e-05,0.00016307349170061793,0.00017724121814297693,9.839579003585185e-07,7.2,7.3333
0.51953125,8.886079193560685e-05,0.00016063946286869603,0.00018798451781490796,3.434773138017789e-06,7.2,7.3333
0.5234375,7.371945396047906e-05,0.0001596658513359273,0.00017772802390936132,8.302830801861532e-06,7.2,7.3333
0.52734375,4.2479952883192115e-05,0.00016209988016784916,0.0001542942014999618,3.921578904402161e-06,7.2,7.3333
0.53125,4.588759324788274e-05,0.0001625866859342335,0.0001533038035614556,8.302830801861532e-06,7.2,7.3333
0.53515625,3.175343961699848e-05,0.0001694187530693522,0.0001625866859342335,1.3187674871442673e-05,7.2,7.3333
0.5390625,-1.6104603140306772e-05,0.00018261286797894246,0.00016161307440146477,9.780034506752053e-06,7.2,7.3333
0.54296875,6.591377529259167e-05,0.0001694187530693522,0.00014695854219272137,9.293228740367673e-06,7.2,7.3333
0.546875,0.00010106450890669099,0.0001552678130327305,0.00014794894013122752,1.2700869105058299e-05,7.2,7.3333
0.55078125,5.077243731746388e-05,0.00014598493065995263,0.00015624142456549926,1.612529587548631e-05,7.2,7.3333
0.5546875,4.442717594872962e-05,0.00013329440792248407,0.00015038296896314937,1.8559324707408188e-05,7.2,7.3333
0.55859375,6.297615428854803e-05,0.00014355090182803076,0.00013817925199206523,1.8559324707408188e-05,7.2,7.3333
0.5625,6.640058105897604e-05,0.00014843574589761186,0.0001372056404592965,1.9532936240176937e-05,7.2,7.3333
0.56640625,4.3940370182345236e-05,0.0001293831753856717,0.00013817925199206523,2.5391391842526824e-05,7.2,7.3333
0.5703125,8.006471532921333e-05,0.00011424183741054391,0.00012986998115205607,1.6612101641870687e-05,7.2,7.3333
0.57421875,6.93214156572823e-05,0.00012449833131609054,0.0001347548252216372,1.0753646039520798e-05,7.2,7.3333
0.578125,6.297615428854803e-05,0.0001293831753856717,0.0001406132808239871,1.3674480637827049e-05,7.2,7.3333
0.58203125,6.054212545662616e-05,0.00012303791401693743,0.00013232079638971533,1.3674480637827049e-05,7.2,7.3333
0.5859375,3.858550675211712e-05,0.00010643615874265651,0.0001274359523201342,1.8072518941023812e-05,7.2,7.3333
0.58984375,8.592317093156321e-05,9.666647060349424e-05,0.00011863987571374066,2.00365284122987e-05,7.2,7.3333
0.59375,1.466487857633319e-05,8.983440346837559e-05,0.00012109069095139993,2.1983751477836202e-05,7.2,7.3333
0.59765625,1.466487857633319e-05,9.715327636987863e-05,0.0001162058468818188,2.5391391842526824e-05,7.2,7.3333
0.6015625,0.00013329440792248407,0.00010155131467307537,9.666647060349424e-05,2.3444168776989324e-05,7.2,7.3333
0.60546875,9.228521870603486e-05,9.423244177157237e-05,0.00010009089737392224,2.1010139945067454e-05,7.2,7.3333
0.609375,6.688738682536042e-05,9.423244177157237e-05,0.00010155131467307537,2.1983751477836202e-05,7.2,7.3333
0.61328125,7.714388073090709e-05,8.934759770199121e-05,8.78871804028381e-05,2.247055724422058e-05,7.2,7.3333
0.6171875,0.00011571904111543442,9.374563600518799e-05,0.00010594935297627214,2.3444168776989324e-05,7.2,7.3333
0.62109375,6.34629600549324e-05,9.423244177157237e-05,0.00010740977027542527,2.247055724422058e-05,7.2,7.3333
0.625,3.4674274215304726e-05,8.640997669794758e-05,7.225903666132594e-05,2.1010139945067454e-05,7.2,7.3333
0.62890625,4.734801054703586e-05,6.786099835812916e-05,6.834780412451355e-05,2.295736301060495e-05,7.2,7.3333
0.6328125,1.466487857633319e-05,6.494016375982292e-05,8.543636516517884e-05,2.1010139945067454e-05,7.2,7.3333
0.63671875,0.00010057770314030662,7.909110379644456e-05,9.080801500114434e-05,1.6612101641870687e-05,7.2,7.3333
0.640625,0.00014110008659037144,7.714388073090709e-05,8.154191903410383e-05,1.612529587548631e-05,7.2,7.3333
0.64453125,0.00010009089737392224,5.711769868619814e-05,6.786099835812916e-05,1.5151684342717566e-05,7.2,7.3333
0.6484375,6.34629600549324e-05,4.882521425192638e-05,5.6630892919813764e-05,2.1010139945067454e-05,7.2,7.3333
0.65234375,8.05515210955977e-05,6.102893122301053e-05,6.883460989089792e-05,2.8329012846570463e-05,7.2,7.3333
0.65625,0.00012646234078736543,7.274584242771031e-05,8.837398616922247e-05,2.978943014572359e-05,7.2,7.3333
0.66015625,0.00010594935297627214,6.102893122301053e-05,7.371945396047906e-05,2.930262437933921e-05,7.2,7.3333
0.6640625,7.371945396047906e-05,5.2719660383001383e-05,6.54269695262073e-05,3.564788574807348e-05,7.2,7.3333
0.66796875,5.41968640878919e-05,5.9568513923857405e-05,7.909110379644456e-05,2.5894984014648593e-05,7.2,7.3333
0.671875,8.397594786602571e-05,9.228521870603486e-05,0.00011132100281223765,2.5391391842526824e-05,7.2,7.3333
0.67578125,9.032120923475998e-05,9.228521870603486e-05,0.00010400212991073465,3.0276235912107963e-05,7.2,7.3333
0.6796875,7.177223089494156e-05,6.297615428854803e-05,5.02856315510795e-05,2.8815818612954842e-05,7.2,7.3333
0.68359375,8.154191903410383e-05,1.8072518941023812e-05,3.4674274215304726e-05,2.8329012846570463e-05,7.2,7.3333
0.6875,1.612529587548631e-05,-9.27253600518813e-06,2.784220708018609e-05,2.295736301060495e-05,7.2,7.3333
0.69140625,4.442717594872962e-05,1.5151684342717566e-05,1.8072518941023812e-05,2.490458607614245e-05,7.2,7.3333
0.6953125,0.0001552678130327305,2.6381789781032965e-05,2.490458607614245e-05,2.8329012846570463e-05,7.2,7.3333
0.69921875,0.00014158689235675587,2.978943014572359e-05,3.9559118284885865e-05,2.7355401313801717e-05,7.2,7.3333
0.703125,0.00010400212991073465,3.4674274215304726e-05,5.320646614938575e-05,2.490458607614245e-05,7.2,7.3333
0.70703125,7.225903666132594e-05,3.6134691514457854e-05,4.2479952883192115e-05,2.6381789781032965e-05,7.2,7.3333
0.7109375,9.423244177157237e-05,4.150634135042337e-05,3.761189521934837e-05,2.8815818612954842e-05,7.2,7.3333
0.71484375,0.00011669265264820317,5.2719660383001383e-05,4.491398171511399e-05,2.490458607614245e-05,7.2,7.3333
0.71875,0.00010986058551308453,6.443657158770115e-05,5.125924308384825e-05,2.4417780309758076e-05,7.2,7.3333
0.72265625,5.2719660383001383e-05,4.053272981765462e-05,5.3710058321507514e-05,2.784220708018609e-05,7.2,7.3333
0.7265625,-8.298924472419379e-06,2.1983751477836202e-05,4.345356441596087e-05,2.39309745433737e-05,7.2,7.3333
0.73046875,8.446275363241008e-05,3.3700662682535974e-05,3.3700662682535974e-05,2.3444168776989324e-05,7.2,7.3333
0.734375,0.00014355090182803076,4.637439901426711e-05,3.0276235912107963e-05,2.5391391842526824e-05,7.2,7.3333
0.73828125,0.00011669265264820317,5.1746048850232625e-05,3.9559118284885865e-05,2.4417780309758076e-05,7.2,7.3333
0.7421875,8.494955939879446e-05,4.637439901426711e-05,5.02856315510795e-05,2.6381789781032965e-05,7.2,7.3333
0.74609375,0.00010057770314030662,3.761189521934837e-05,4.199314711680774e-05,2.784220708018609e-05,7.2,7.3333
0.75,0.00010351532414435026,4.2479952883192115e-05,3.6621497280842224e-05,2.930262437933921e-05,7.2,7.3333
0.75390625,0.00010351532414435026,4.931202001831075e-05,4.8338408485542e-05,2.8815818612954842e-05,7.2,7.3333
0.7578125,0.00012206430248416868,4.734801054703586e-05,4.637439901426711e-05,2.6381789781032965e-05,7.2,7.3333
0.76171875,8.934759770199121e-05,4.8338408485542e-05,4.101953558403899e-05,2.3444168776989324e-05,7.2,7.3333
0.765625,6.591377529259167e-05,4.882521425192638e-05,3.51610799816891e-05,2.8329012846570463e-05,7.2,7.3333
0.76953125,4.2479952883192115e-05,3.8098700985732744e-05,4.3940370182345236e-05,2.686859554741734e-05,7.2,7.3333
0.7734375,7.274584242771031e-05,2.930262437933921e-05,4.785160271915763e-05,2.8329012846570463e-05,7.2,7.3333
0.77734375,0.0001386660577584496,4.540078748149836e-05,3.4674274215304726e-05,3.3213856916151605e-05,7.2,7.3333
0.78125,3.858550675211712e-05,4.442717594872962e-05,3.224024538338285e-05,2.784220708018609e-05,7.2,7.3333
0.78515625,8.302830801861532e-06,2.5391391842526824e-05,3.8098700985732744e-05,3.418746844892036e-05,7.2,7.3333
0.7890625,0.00013280760215609973,3.3700662682535974e-05,4.053272981765462e-05,3.6621497280842224e-05,7.2,7.3333
0.79296875,0.00013915286352483397,4.053272981765462e-05,3.907231251850149e-05,2.8329012846570463e-05,7.2,7.3333
0.796875,8.543636516517884e-05,5.02856315510795e-05,4.931202001831075e-05,3.51610799816891e-05,7.2,7.3333
0.80078125,8.348914209964134e-05,5.2232854616617e-05,6.151573698939491e-05,3.7125089452964e-05,7.2,7.3333
0.8046875,0.0001030117319722285,3.6621497280842224e-05,5.809131021896689e-05,3.175343961699848e-05,7.2,7.3333
0.80859375,7.568346343175395e-05,3.224024538338285e-05,3.9559118284885865e-05,3.175343961699848e-05,7.2,7.3333
0.8125,0.00010986058551308453,2.6381789781032965e-05,3.418746844892036e-05,3.418746844892036e-05,7.2,7.3333
0.81640625,7.957790956282895e-05,2.784220708018609e-05,3.3700662682535974e-05,2.5894984014648593e-05,7.2,7.3333
0.8203125,7.329219269092782e-06,1.8072518941023812e-05,2.930262437933921e-05,2.3444168776989324e-05,7.2,7.3333
0.82421875,0.00010106450890669099,7.329219269092782e-06,1.3187674871442673e-05,2.6381789781032965e-05,7.2,7.3333
0.828125,0.00014695854219272137,2.1010139945067454e-05,1.0266840273136424e-05,2.4417780309758076e-05,7.2,7.3333
0.83203125,0.00011961348724650941,1.8072518941023812e-05,1.7585713174639436e-05,2.784220708018609e-05,7.2,7.3333
0.8359375,9.032120923475998e-05,2.7355401313801717e-05,2.978943014572359e-05,2.5894984014648593e-05,7.2,7.3333
0.83984375,7.371945396047906e-05,4.588759324788274e-05,4.637439901426711e-05,2.3444168776989324e-05,7.2,7.3333
0.84375,9.91172858411535e-05,3.175343961699848e-05,4.442717594872962e-05,2.0523334178683078e-05,7.2,7.3333
0.84765625,9.569285907072549e-05,2.295736301060495e-05,3.9559118284885865e-05,2.295736301060495e-05,7.2,7.3333
0.8515625,8.202872480048822e-05,2.1010139945067454e-05,3.3213856916151605e-05,2.686859554741734e-05,7.2,7.3333
0.85546875,8.983440346837559e-05,3.564788574807348e-05,3.3700662682535974e-05,2.8815818612954842e-05,7.2,7.3333
0.859375,0.00011961348724650941,5.02856315510795e-05,3.3213856916151605e-05,3.175343961699848e-05,7.2,7.3333
0.86328125,7.225903666132594e-05,4.199314711680774e-05,2.784220708018609e-05,3.224024538338285e-05,7.2,7.3333
0.8671875,5.857811598535127e-05,2.00365284122987e-05,2.7355401313801717e-05,2.5894984014648593e-05,7.2,7.3333
0.87109375,0.00013035678691844044,2.784220708018609e-05,2.686859554741734e-05,2.784220708018609e-05,7.2,7.3333
0.875,5.125924308384825e-05,4.588759324788274e-05,3.076304167849234e-05,3.076304167849234e-05,7.2,7.3333
0.87890625,4.199314711680774e-05,3.907231251850149e-05,3.564788574807348e-05,2.8329012846570463e-05,7.2,7.3333
0.8828125,0.00014794894013122752,3.8098700985732744e-05,2.978943014572359e-05,2.1983751477836202e-05,7.2,7.3333
0.88671875,0.0001254719428488593,3.3700662682535974e-05,2.295736301060495e-05,2.3444168776989324e-05,7.2,7.3333
0.890625,0.00010986058551308453,3.8098700985732744e-05,2.490458607614245e-05,2.930262437933921e-05,7.2,7.3333
0.89453125,0.00010252492620584414,4.150634135042337e-05,4.053272981765462e-05,2.784220708018609e-05,7.2,7.3333
0.8984375,0.0001030117319722285,4.6861204780651486e-05,5.517047562066064e-05,2.1983751477836202e-05,7.2,7.3333
0.90234375,9.325883023880362e-05,4.540078748149836e-05,3.907231251850149e-05,1.9532936240176937e-05,7.2,7.3333
0.90625,0.0001030117319722285,1.7585713174639436e-05,5.381996203555289e-06,2.1010139945067454e-05,7.2,7.3333
0.91015625,6.834780412451355e-05,7.329219269092782e-06,7.329219269092782e-06,1.8559324707408188e-05,7.2,7.3333
0.9140625,2.8329012846570463e-05,1.709890740825506e-05,1.4161286404211423e-05,1.3674480637827049e-05,7.2,7.3333
0.91796875,0.00011424183741054391,3.076304167849234e-05,1.0753646039520798e-05,1.466487857633319e-05,7.2,7.3333
0.921875,0.00014012647505760273,2.930262437933921e-05,1.6612101641870687e-05,2.7355401313801717e-05,7.2,7.3333
0.92578125,0.00011669265264820317,2.149694571145183e-05,2.0523334178683078e-05,2.978943014572359e-05,7.2,7.3333
0.9296875,6.640058105897604e-05,2.149694571145183e-05,1.466487857633319e-05,2.1010139945067454e-05,7.2,7.3333
0.93359375,6.494016375982292e-05,2.1983751477836202e-05,1.0753646039520798e-05,2.1983751477836202e-05,7.2,7.3333
0.9375,0.00012109069095139993,2.5391391842526824e-05,2.247055724422058e-05,2.0523334178683078e-05,7.2,7.3333
0.94140625,9.960409160753787e-05,2.7355401313801717e-05,1.5151684342717566e-05,1.7585713174639436e-05,7.2,7.3333
0.9453125,9.617966483710986e-05,1.7585713174639436e-05,-3.900886169222616e-06,2.247055724422058e-05,7.2,7.3333
0.94921875,6.394976582131678e-05,1.6612101641870687e-05,1.034636758976859e-08,2.8329012846570463e-05,7.2,7.3333
0.953125,7.420625972686343e-05,2.8329012846570463e-05,1.4161286404211423e-05,2.4417780309758076e-05,7.2,7.3333
0.95703125,7.763068649729144e-05,2.784220708018609e-05,1.563849010910194e-05,2.0523334178683078e-05,7.2,7.3333
0.9609375,6.688738682536042e-05,2.247055724422058e-05,1.4161286404211423e-05,1.7585713174639436e-05,7.2,7.3333
0.96484375,9.325883023880362e-05,1.9532936240176937e-05,8.78963656824591e-06,1.5151684342717566e-05,7.2,7.3333
0.96875,5.381996203555289e-06,1.0266840273136424e-05,4.89519043717091e-06,2.39309745433737e-05,7.2,7.3333
0.97265625,2.149694571145183e-05,1.6612101641870687e-05,2.9311809658960184e-06,1.9532936240176937e-05,7.2,7.3333
0.9765625,0.00013280760215609973,3.418746844892036e-05,2.39309745433737e-05,1.9532936240176937e-05,7.2,7.3333
0.98046875,0.00011278142011139079,3.076304167849234e-05,3.224024538338285e-05,2.7355401313801717e-05,7.2,7.3333
0.984375,7.079861936217282e-05,2.1983751477836202e-05,7.81602503547716e-06,1.8072518941023812e-05,7.2,7.3333
0.98828125,3.126663385061411e-05,5.8688019699396605e-06,-2.927274636453866e-06,1.0266840273136424e-05,7.2,7.3333
0.9921875,6.443657158770115e-05,1.709890740825506e-05,1.1727257572289548e-05,1.8072518941023812e-05,7.2,7.3333
0.99609375,8.348914209964134e-05,2.1983751477836202e-05,1.1727257572289548e-05,2.295736301060495e-05,7.2,7.3333
1.0,7.714388073090709e-05,1.1240451805905174e-05,-1.936876697947724e-06,1.9532936240176937e-05,7.2,7.3333
1.00390625,3.224024538338285e-05,1.3187674871442673e-05,6.84241350270841e-06,2.0523334178683078e-05,7.2,7.3333
1.0078125,-2.4404688700694945e-06,1.0266840273136424e-05,7.329219269092782e-06,2.8329012846570463e-05,7.2,7.3333
1.01171875,9.228521870603486e-05,1.904613047379256e-05,9.293228740367673e-06,2.8815818612954842e-05,7.2,7.3333
1.015625,0.00013329440792248407,2.5391391842526824e-05,1.1240451805905174e-05,2.3444168776989324e-05,7.2,7.3333
1.01953125,0.00010740977027542527,-1.1706564837110008e-05,1.0266840273136424e-05,2.149694571145183e-05,7.2,7.3333
1.0234375,4.150634135042337e-05,-4.874497701991366e-06,6.3556077363240315e-06,1.563849010910194e-05,7.2,7.3333
1.02734375,3.4674274215304726e-05,2.5894984014648593e-05,-8.785730238803758e-06,2.149694571145183e-05,7.2,7.3333
1.03125,9.471924753795672e-05,2.3444168776989324e-05,-5.848109234760116e-06,2.686859554741734e-05,7.2,7.3333
1.03515625,9.863048007476913e-05,2.7355401313801717e-05,8.302830801861532e-06,2.8329012846570463e-05,7.2,7.3333
1.0390625,9.617966483710986e-05,2.784220708018609e-05,8.78963656824591e-06,2.8815818612954842e-05,7.2,7.3333
1.04296875,7.128542512855719e-05,3.761189521934837e-05,3.921578904402161e-06,1.8559324707408188e-05,7.2,7.3333
1.046875,5.809131021896689e-05,3.076304167849234e-05,9.839579003585185e-07,1.709890740825506e-05,7.2,7.3333
1.05078125,5.125924308384825e-05,-3.4140804028382445e-06,-5.848109234760116e-06,1.904613047379256e-05,7.2,7.3333
1.0546875,7.274584242771031e-05,1.9532936240176937e-05,8.302830801861532e-06,2.247055724422058e-05,7.2,7.3333
1.05859375,0.0001386660577584496,3.907231251850149e-05,1.1727257572289548e-05,3.3213856916151605e-05,7.2,7.3333
1.0625,4.004592405127024e-05,1.0266840273136424e-05,-5.361303468375745e-06,3.2727051149767236e-05,7.2,7.3333
1.06640625,1.2214063338673923e-05,-3.900886169222616e-06,-2.4404688700694945e-06,2.3444168776989324e-05,7.2,7.3333
1.0703125,0.00012011707941863119,9.839579003585185e-07,9.839579003585185e-07,2.6381789781032965e-05,7.2,7.3333
1.07421875,0.00011571904111543442,3.076304167849234e-05,9.839579003585185e-07,2.4417780309758076e-05,7.2,7.3333
1.078125,0.00010740977027542527,2.7355401313801717e-05,1.3187674871442673e-05,1.709890740825506e-05,7.2,7.3333
1.08203125,4.588759324788274e-05,2.444375199511647e-06,-1.936876697947724e-06,2.5391391842526824e-05,7.2,7.3333
1.0859375,4.408384670786539e-06,1.1240451805905174e-05,-1.2680176369878758e-05,3.224024538338285e-05,7.2,7.3333
1.08984375,4.2479952883192115e-05,9.780034506752053e-06,-1.4500709315633527e-06,2.5894984014648593e-05,7.2,7.3333
1.09375,6.640058105897604e-05,3.921578904402161e-06,-5.361303468375745e-06,2.4417780309758076e-05,7.2,7.3333
1.09765625,3.6621497280842224e-05,3.921578904402161e-06,5.381996203555289e-06,2.5894984014648593e-05,7.2,7.3333
1.1015625,-1.4500709315633527e-06,-1.4500709315633527e-06,3.921578904402161e-06,2.295736301060495e-05,7.2,7.3333
1.10546875,5.125924308384825e-05,4.408384670786539e-06,-1.4644185841153643e-05,2.7355401313801717e-05,7.2,7.3333
1.109375,0.00010155131467307537,1.1240451805905174e-05,-2.0015835677119163e-05,2.5391391842526824e-05,7.2,7.3333
1.11328125,0.00010643615874265651,1.8072518941023812e-05,-1.2680176369878758e-05,2.490458607614245e-05,7.2,7.3333
1.1171875,6.54269695262073e-05,-1.4500709315633527e-06,-5.848109234760116e-06,2.978943014572359e-05,7.2,7.3333
1.12109375,5.711769868619814e-05,-3.0272329582665817e-05,-2.0989447209887905e-05,2.1010139945067454e-05,7.2,7.3333
1.125,8.103832686198207e-05,-9.27253600518813e-06,-9.759341771572507e-06,2.1010139945067454e-05,7.2,7.3333
1.12890625,8.202872480048822e-05,1.5151684342717566e-05,8.302830801861532e-06,3.9559118284885865e-05,7.2,7.3333
1.1328125,0.0001030117319722285,1.3674480637827049e-05,-4.874497701991366e-06,2.978943014572359e-05,7.2,7.3333
1.13671875,7.617026919813832e-05,3.418746844892036e-05,2.149694571145183e-05,1.466487857633319e-05,7.2,7.3333
1.140625,5.565728138704502e-05,2.784220708018609e-05,9.293228740367673e-06,2.5894984014648593e-05,7.2,7.3333
1.14453125,3.564788574807348e-05,3.921578904402161e-06,-2.6361097045853426e-05,2.8815818612954842e-05,7.2,7.3333
1.1484375,5.077243731746388e-05,-1.024614753795688e-05,-2.0015835677119163e-05,2.0523334178683078e-05,7.2,7.3333
1.15234375,0.00011278142011139079,4.408384670786539e-06,-2.3423476041809778e-05,1.904613047379256e-05,7.2,7.3333
1.15625,5.1746048850232625e-05,1.3187674871442673e-05,-3.759120248416883e-05,2.295736301060495e-05,7.2,7.3333
1.16015625,6.151573698939491e-05,-1.3166982136263129e-05,-3.319316418097206e-05,1.6612101641870687e-05,7.2,7.3333
1.1640625,0.00014355090182803076,-2.6847902812237806e-05,-9.632651651789744e-07,1.709890740825506e-05,7.2,7.3333
1.16796875,0.00012498513708247494,-1.2193370603494379e-05,-1.4500709315633527e-06,3.175343961699848e-05,7.2,7.3333
1.171875,9.471924753795672e-05,9.839579003585185e-07,-1.659140890669114e-05,3.076304167849234e-05,7.2,7.3333
1.17578125,9.617966483710986e-05,7.329219269092782e-06,-1.6104603140306772e-05,2.0523334178683078e-05,7.2,7.3333
1.1796875,0.0001235247197833218,2.444375199511647e-06,2.3444168776989324e-05,2.295736301060495e-05,7.2,7.3333
1.18359375,0.0001088701875745784,1.0753646039520798e-05,4.199314711680774e-05,2.8815818612954842e-05,7.2,7.3333
1.1875,0.00010057770314030662,5.8688019699396605e-06,2.930262437933921e-05,3.2727051149767236e-05,7.2,7.3333
1.19140625,6.297615428854803e-05,-7.308526533913237e-06,1.4161286404211423e-05,2.3444168776989324e-05,7.2,7.3333
1.1953125,8.446275363241008e-05,2.8815818612954842e-05,2.149694571145183e-05,1.8559324707408188e-05,7.2,7.3333
1.19921875,0.00012889636961928733,3.126663385061411e-05,1.8559324707408188e-05,2.149694571145183e-05,7.2,7.3333
1.203125,0.00010252492620584414,1.8072518941023812e-05,1.0266840273136424e-05,1.7585713174639436e-05,7.2,7.3333
1.20703125,0.00012986998115205607,2.247055724422058e-05,1.612529587548631e-05,2.39309745433737e-05,7.2,7.3333
1.2109375,8.154191903410383e-05,1.904613047379256e-05,2.686859554741734e-05,2.1983751477836202e-05,7.2,7.3333
1.21484375,7.371945396047906e-05,1.563849010910194e-05,2.6381789781032965e-05,1.563849010910194e-05,7.2,7.3333
1.21875,0.00016356029746700227,1.2214063338673923e-05,2.686859554741734e-05,2.490458607614245e-05,7.2,7.3333
1.22265625,0.00013915286352483397,1.904613047379256e-05,2.930262437933921e-05,2.8329012846570463e-05,7.2,7.3333
1.2265625,0.00010106450890669099,2.686859554741734e-05,2.784220708018609e-05,2.8815818612954842e-05,7.2,7.3333
1.23046875,0.00010937377974670016,4.345356441596087e-05,3.564788574807348e-05,2.5894984014648593e-05,7.2,7.3333
1.234375,0.00014012647505760273,3.858550675211712e-05,2.686859554741734e-05,1.6612101641870687e-05,7.2,7.3333
1.23828125,0.0001030117319722285,2.39309745433737e-05,2.784220708018609e-05,1.2700869105058299e-05,7.2,7.3333
1.2421875,7.763068649729144e-05,6.3556077363240315e-06,8.78963656824591e-06,1.9532936240176937e-05,7.2,7.3333
1.24609375,0.00012889636961928733,1.4161286404211423e-05,3.921578904402161e-06,1.5151684342717566e-05,7.2,7.3333
1.25,6.394976582131678e-05,2.784220708018609e-05,2.490458607614245e-05,1.5151684342717566e-05,7.2,7.3333
1.25390625,6.54269695262073e-05,1.9532936240176937e-05,2.686859554741734e-05,1.8072518941023812e-05,7.2,7.3333
1.2578125,0.00015624142456549926,3.126663385061411e-05,4.2479952883192115e-05,2.5391391842526824e-05,7.2,7.3333
1.26171875,0.00015624142456549926,2.8815818612954842e-05,4.734801054703586e-05,3.0276235912107963e-05,7.2,7.3333
1.265625,0.00010643615874265651,2.7355401313801717e-05,4.6861204780651486e-05,2.5894984014648593e-05,7.2,7.3333
1.26953125,8.202872480048822e-05,4.540078748149836e-05,3.9559118284885865e-05,2.5391391842526824e-05,7.2,7.3333
1.2734375,0.000149896163196765,3.51610799816891e-05,3.4674274215304726e-05,2.295736301060495e-05,7.2,7.3333
1.27734375,0.0001552678130327305,3.9559118284885865e-05,4.004592405127024e-05,2.0523334178683078e-05,7.2,7.3333
1.28125,0.00012694914655374983,4.150634135042337e-05,5.02856315510795e-05,2.39309745433737e-05,7.2,7.3333
1.28515625,4.6861204780651486e-05,2.490458607614245e-05,4.004592405127024e-05,1.9532936240176937e-05,7.2,7.3333
1.2890625,5.8688019699396605e-06,3.6621497280842224e-05,3.6134691514457854e-05,2.295736301060495e-05,7.2,7.3333
1.29296875,0.0001235247197833218,3.4674274215304726e-05,5.9568513923857405e-05,3.3213856916151605e-05,7.2,7.3333
1.296875,0.0001723563740733958,4.637439901426711e-05,6.591377529259167e-05,3.076304167849234e-05,7.2,7.3333
1.30078125,0.00014012647505760273,5.1746048850232625e-05,5.02856315510795e-05,3.175343961699848e-05,7.2,7.3333
1.3046875,9.277202447241925e-05,2.490458607614245e-05,3.858550675211712e-05,2.4417780309758076e-05,7.2,7.3333
1.30859375,8.886079193560685e-05,4.588759324788274e-05,5.125924308384825e-05,2.1983751477836202e-05,7.2,7.3333
1.3125,0.00012889636961928733,4.734801054703586e-05,6.786099835812916e-05,2.5894984014648593e-05,7.2,7.3333
1.31640625,0.00011766626418097192,3.076304167849234e-05,7.371945396047906e-05,2.5391391842526824e-05,7.2,7.3333
1.3203125,0.0001235247197833218,4.588759324788274e-05,6.688738682536042e-05,2.39309745433737e-05,7.2,7.3333
1.32421875,8.348914209964134e-05,5.02856315510795e-05,5.1746048850232625e-05,2.930262437933921e-05,7.2,7.3333
1.328125,7.323264819409468e-05,7.617026919813832e-05,5.02856315510795e-05,2.978943014572359e-05,7.2,7.3333
1.33203125,9.617966483710986e-05,7.177223089494156e-05,4.931202001831075e-05,2.247055724422058e-05,7.2,7.3333
1.3359375,0.00012597553502098106,4.296675864957649e-05,5.711769868619814e-05,2.00365284122987e-05,7.2,7.3333
1.33984375,0.00014892255166399626,5.7604504452582516e-05,6.005531969024179e-05,2.149694571145183e-05,7.2,7.3333
1.34375,4.199314711680774e-05,7.274584242771031e-05,5.4683669854276266e-05,1.904613047379256e-05,7.2,7.3333
1.34765625,2.8329012846570463e-05,6.200254275577928e-05,7.031181359578844e-05,2.7355401313801717e-05,7.2,7.3333
1.3515625,0.00013378121368886847,3.761189521934837e-05,7.177223089494156e-05,3.3213856916151605e-05,7.2,7.3333
1.35546875,0.0001162058468818188,6.248934852216365e-05,8.300233633325696e-05,2.39309745433737e-05,7.2,7.3333
1.359375,0.00011863987571374066,8.397594786602571e-05,7.371945396047906e-05,1.8072518941023812e-05,7.2,7.3333
1.36328125,0.00010740977027542527,3.0276235912107963e-05,3.907231251850149e-05,2.3444168776989324e-05,7.2,7.3333
1.3671875,0.00010789657604180963,1.6612101641870687e-05,3.761189521934837e-05,2.930262437933921e-05,7.2,7.3333
1.37109375,7.811749226367581e-05,5.7604504452582516e-05,4.345356441596087e-05,2.1010139945067454e-05,7.2,7.3333
1.375,0.00011278142011139079,5.9568513923857405e-05,4.053272981765462e-05,4.408384670786539e-06,7.2,7.3333
1.37890625,0.00012303791401693743,4.931202001831075e-05,4.053272981765462e-05,-4.7645939879460283e-07,7.2,7.3333
1.3828125,4.491398171511399e-05,6.200254275577928e-05,5.077243731746388e-05,1.034636758976859e-08,7.2,7.3333
1.38671875,0.00013084359268482484,6.688738682536042e-05,5.2232854616617e-05,9.839579003585185e-07,7.2,7.3333
1.390625,0.0001728431798397802,7.763068649729144e-05,4.882521425192638e-05,2.9311809658960184e-06,7.2,7.3333
1.39453125,0.00016649791847104592,9.129482076752873e-05,5.9568513923857405e-05,-4.7645939879460283e-07,7.2,7.3333
1.3984375,0.0001533038035614556,9.617966483710986e-05,8.691356887006935e-05,9.293228740367673e-06,7.2,7.3333
1.40234375,0.00013817925199206523,7.714388073090709e-05,9.471924753795672e-05,7.329219269092782e-06,7.2,7.3333
1.40625,0.0001552678130327305,6.297615428854803e-05,6.883460989089792e-05,-1.4500709315633527e-06,7.2,7.3333
1.41015625,0.0001440377075944151,5.711769868619814e-05,6.151573698939491e-05,8.78963656824591e-06,7.2,7.3333
1.4140625,0.0001821260622125581,8.154191903410383e-05,8.640997669794758e-05,1.1240451805905174e-05,7.2,7.3333
1.41796875,0.0001782148296757457,9.617966483710986e-05,0.00010155131467307537,1.8559324707408188e-05,7.2,7.3333
1.421875,0.00016552430693827716,7.617026919813832e-05,0.00010203812043945976,3.6134691514457854e-05,7.2,7.3333
1.42578125,0.0001704091510078583,9.715327636987863e-05,9.863048007476913e-05,2.39309745433737e-05,7.2,7.3333
1.4296875,0.0001557546187991149,7.763068649729144e-05,8.446275363241008e-05,1.466487857633319e-05,7.2,7.3333
1.43359375,0.00020067504055237652,5.4683669854276266e-05,6.494016375982292e-05,7.81602503547716e-06,7.2,7.3333
1.4375,0.00014355090182803076,4.296675864957649e-05,3.7125089452964e-05,2.444375199511647e-06,7.2,7.3333
1.44140625,0.00012646234078736543,-2.0989447209887905e-05,-1.9042224144350414e-05,7.329219269092782e-06,7.2,7.3333
1.4453125,0.0002363125799328602,-5.467976352483411e-05,-5.711379235675599e-05,6.3556077363240315e-06,7.2,7.3333
1.44921875,0.00022655967819943532,-7.225513033188379e-05,-7.616636286869617e-05,1.8072518941023812e-05,7.2,7.3333
1.453125,0.0002138523690562294,-0.00011863596938429853,-0.00011522832901960788,2.247055724422058e-05,7.2,7.3333
1.45703125,0.0002192240188921949,-0.0001826089616495003,-0.00018552979624780655,1.0753646039520798e-05,7.2,7.3333
1.4609375,0.0002504803063752192,-0.0002202105105012589,-0.00021435205489890902,2.490458607614245e-05,7.2,7.3333
1.46484375,0.00025194072367437236,-0.00024364433291065846,-0.000245591555976196,2.978943014572359e-05,7.2,7.3333
1.46875,0.00023193132803540082,-0.00026707815532005805,-0.00029150237566796366,2.490458607614245e-05,7.2,7.3333
1.47265625,0.0001894449351140611,-0.0002953968217990387,-0.000312485382839704,4.345356441596087e-05,7.2,7.3333
1.4765625,0.00016795833577019903,-0.000312485382839704,-0.00032225507097886625,5.02856315510795e-05,7.2,7.3333
1.48046875,0.0002670820616495001,-0.0002978476370366979,-0.0003105381597741665,4.931202001831075e-05,7.2,7.3333
1.484375,0.0002797725843869687,-0.0002714761936232548,-0.00031297218860608833,5.41968640878919e-05,7.2,7.3333
1.48828125,0.00021825040735942616,-0.00024755556544747085,-0.0002861307258319982,6.297615428854803e-05,7.2,7.3333
1.4921875,0.00019579019648279536,-0.0002451047502098116,-0.0002578120593530175,6.005531969024179e-05,7.2,7.3333
1.49609375,0.00022021441683070105,-0.00021727288949721524,-0.00024755556544747085,5.4683669854276266e-05,7.2,7.3333
1.5,0.00022996731856412593,-0.00019921071692378123,-0.0002285029949355307,4.540078748149836e-05,7.2,7.3333
1.50390625,0.00019432977918364222,-0.00019481267862058447,-0.00022410495663233388,3.51610799816891e-05,7.2,7.3333
1.5078125,0.00016747153000381466,-0.0001425733839658198,-0.00018212215588311593,4.8338408485542e-05,7.2,7.3333
1.51171875,0.00017772802390936132,-0.000147458228035401,-0.00016894482737926303,4.345356441596087e-05,7.2,7.3333
1.515625,0.00019187896394598297,-0.00014208657819943547,-0.0001601487507728695,3.418746844892036e-05,7.2,7.3333
1.51953125,0.00011474542958266568,-7.17683245654994e-05,-9.520214697489897e-05,4.491398171511399e-05,7.2,7.3333
1.5234375,0.00011815306994735629,-5.516656929121849e-05,-8.299843000381482e-05,3.6134691514457854e-05,7.2,7.3333
1.52734375,0.0001577018418646524,-5.2732540459296616e-05,-8.934369137254907e-05,3.4674274215304726e-05,7.2,7.3333
1.53125,4.2479952883192115e-05,-1.9529029910734783e-05,-2.4900679746700305e-05,3.9559118284885865e-05,7.2,7.3333
1.53515625,4.540078748149836e-05,1.8072518941023812e-05,3.6134691514457854e-05,3.175343961699848e-05,7.2,7.3333
1.5390625,0.00012986998115205607,4.345356441596087e-05,2.930262437933921e-05,2.930262437933921e-05,7.2,7.3333
1.54296875,9.520605330434111e-05,6.394976582131678e-05,3.126663385061411e-05,2.8329012846570463e-05,7.2,7.3333
1.546875,4.345356441596087e-05,8.691356887006935e-05,6.054212545662616e-05,2.3444168776989324e-05,7.2,7.3333
1.55078125,2.7355401313801717e-05,8.837398616922247e-05,8.348914209964134e-05,3.3700662682535974e-05,7.2,7.3333
1.5546875,6.883460989089792e-05,9.228521870603486e-05,0.00010252492620584414,4.101953558403899e-05,7.2,7.3333
1.55859375,6.102893122301053e-05,0.0001103473912794689,0.00011523223534905003,2.784220708018609e-05,7.2,7.3333
1.5625,2.978943014572359e-05,0.00012255110825055304,0.00010546254720988775,2.295736301060495e-05,7.2,7.3333
1.56640625,-2.2936670275425412e-05,0.00012597553502098106,0.0001103473912794689,2.247055724422058e-05,7.2,7.3333
1.5703125,-6.982110149996191e-05,0.00012449833131609054,0.00012060388518501555,2.149694571145183e-05,7.2,7.3333
1.57421875,2.930262437933921e-05,0.00015478100726634613,0.00013232079638971533,2.7355401313801717e-05,7.2,7.3333
1.578125,8.640997669794758e-05,0.00016893194730296777,0.0001445245133607995,2.4417780309758076e-05,7.2,7.3333
1.58203125,3.564788574807348e-05,0.0001372056404592965,0.00015624142456549926,2.39309745433737e-05,7.2,7.3333
1.5859375,-3.319316418097206e-05,0.00013134718485694656,0.00016990555883573654,2.5894984014648593e-05,7.2,7.3333
1.58984375,-2.6361097045853426e-05,0.0001596658513359273,0.000157215036098268,2.4417780309758076e-05,7.2,7.3333
1.59375,3.761189521934837e-05,0.00018064885850766757,0.00015380739573357736,2.1010139945067454e-05,7.2,7.3333
1.59765625,4.491398171511399e-05,0.00019773741954833286,0.0001762676066102082,1.8559324707408188e-05,7.2,7.3333
1.6015625,7.329219269092782e-06,0.000195303390716411,0.0001782148296757457,2.1010139945067454e-05,7.2,7.3333
1.60546875,-3.2706358414587683e-05,0.00016404710323338664,0.00017479040290531767,2.39309745433737e-05,7.2,7.3333
1.609375,-1.7565020439459894e-05,0.0001552678130327305,0.0001577018418646524,2.5391391842526824e-05,7.2,7.3333
1.61328125,-1.0732953304341257e-05,0.00016601111270466153,0.00014843574589761186,1.8072518941023812e-05,7.2,7.3333
1.6171875,4.408384670786539e-06,0.00018115245067978935,0.00017381679137254893,1.8559324707408188e-05,7.2,7.3333
1.62109375,5.41968640878919e-05,0.00018650731411001746,0.00018895812934767672,2.1010139945067454e-05,7.2,7.3333
1.625,-4.979491945525298e-05,0.00016356029746700227,0.00017578080084382382,1.8559324707408188e-05,7.2,7.3333
1.62890625,-4.833450215609986e-05,0.00015818864763103674,0.00015818864763103674,2.149694571145183e-05,7.2,7.3333
1.6328125,6.980822142366667e-05,0.00016552430693827716,0.00016844514153658343,3.0276235912107963e-05,7.2,7.3333
1.63671875,6.200254275577928e-05,0.00015380739573357736,0.00016503750117189282,2.686859554741734e-05,7.2,7.3333
1.640625,3.8098700985732744e-05,0.000157215036098268,0.0001445245133607995,1.709890740825506e-05,7.2,7.3333
1.64453125,-8.298924472419379e-06,0.00016649791847104592,0.0001440377075944151,2.3444168776989324e-05,7.2,7.3333
1.6484375,3.921578904402161e-06,0.00013426801945525283,0.000149896163196765,2.8815818612954842e-05,7.2,7.3333
1.65234375,2.8329012846570463e-05,0.00013232079638971533,0.000149896163196765,2.686859554741734e-05,7.2,7.3333
1.65625,3.8098700985732744e-05,0.00016649791847104592,0.00015281699779507124,2.490458607614245e-05,7.2,7.3333
1.66015625,1.4707636667428971e-06,0.00015380739573357736,0.0001591790455695429,2.247055724422058e-05,7.2,7.3333
1.6640625,-5.2732540459296616e-05,0.00013134718485694656,0.00014012647505760273,2.295736301060495e-05,7.2,7.3333
1.66796875,1.9532936240176937e-05,0.00011961348724650941,0.00013817925199206523,3.0276235912107963e-05,7.2,7.3333
1.671875,6.248934852216365e-05,0.00012060388518501555,0.00014012647505760273,2.784220708018609e-05,7.2,7.3333
1.67578125,5.7604504452582516e-05,0.00013035678691844044,0.00013084359268482484,2.00365284122987e-05,7.2,7.3333
1.6796875,4.540078748149836e-05,0.00012694914655374983,0.00012986998115205607,2.247055724422058e-05,7.2,7.3333
1.68359375,1.709890740825506e-05,0.00012303791401693743,0.00012498513708247494,2.4417780309758076e-05,7.2,7.3333
1.6875,3.0276235912107963e-05,0.00013084359268482484,0.00011863987571374066,2.247055724422058e-05,7.2,7.3333
1.69140625,5.4683669854276266e-05,0.0001293831753856717,0.00012646234078736543,2.978943014572359e-05,7.2,7.3333
1.6953125,6.443657158770115e-05,0.00013280760215609973,0.00012840956385290294,3.418746844892036e-05,7.2,7.3333
1.69921875,3.175343961699848e-05,0.0001162058468818188,0.00012109069095139993,3.0276235912107963e-05,7.2,7.3333
1.703125,3.4674274215304726e-05,9.325883023880362e-05,0.00012303791401693743,3.126663385061411e-05,7.2,7.3333
1.70703125,2.5391391842526824e-05,0.00010351532414435026,0.00012109069095139993,2.686859554741734e-05,7.2,7.3333
1.7109375,1.709890740825506e-05,0.00011180780857862202,0.00010009089737392224,2.3444168776989324e-05,7.2,7.3333
1.71484375,9.277202447241925e-05,0.00010546254720988775,9.080801500114434e-05,2.784220708018609e-05,7.2,7.3333
1.71875,1.8559324707408188e-05,9.423244177157237e-05,0.00010692296450904089,2.490458607614245e-05,7.2,7.3333
1.72265625,2.444375199511647e-06,9.277202447241925e-05,9.764008213626298e-05,2.4417780309758076e-05,7.2,7.3333
1.7265625,9.617966483710986e-05,0.00010203812043945976,6.834780412451355e-05,2.3444168776989324e-05,7.2,7.3333
1.73046875,7.811749226367581e-05,9.471924753795672e-05,7.51798712596322e-05,2.490458607614245e-05,7.2,7.3333
1.734375,7.128542512855719e-05,8.397594786602571e-05,8.154191903410383e-05,2.930262437933921e-05,7.2,7.3333
1.73828125,4.785160271915763e-05,7.274584242771031e-05,7.714388073090709e-05,2.8329012846570463e-05,7.2,7.3333
1.7421875,5.320646614938575e-05,6.54269695262073e-05,8.300233633325696e-05,2.295736301060495e-05,7.2,7.3333
1.74609375,3.224024538338285e-05,7.225903666132594e-05,7.51798712596322e-05,1.9532936240176937e-05,7.2,7.3333
1.75,4.6861204780651486e-05,7.323264819409468e-05,7.371945396047906e-05,2.3444168776989324e-05,7.2,7.3333
1.75390625,2.8815818612954842e-05,7.177223089494156e-05,8.006471532921333e-05,2.5391391842526824e-05,7.2,7.3333
1.7578125,-2.0502641443503535e-05,7.51798712596322e-05,7.909110379644456e-05,3.076304167849234e-05,7.2,7.3333
1.76171875,6.151573698939491e-05,6.394976582131678e-05,6.980822142366667e-05,3.2727051149767236e-05,7.2,7.3333
1.765625,7.909110379644456e-05,5.02856315510795e-05,6.151573698939491e-05,2.3444168776989324e-05,7.2,7.3333
1.76953125,7.617026919813832e-05,6.54269695262073e-05,4.588759324788274e-05,2.3444168776989324e-05,7.2,7.3333
1.7734375,7.274584242771031e-05,6.93214156572823e-05,4.931202001831075e-05,3.0276235912107963e-05,7.2,7.3333
1.77734375,4.442717594872962e-05,6.297615428854803e-05,5.809131021896689e-05,2.686859554741734e-05,7.2,7.3333
1.78125,7.225903666132594e-05,6.297615428854803e-05,5.2719660383001383e-05,2.5391391842526824e-05,7.2,7.3333
1.78515625,6.248934852216365e-05,5.4683669854276266e-05,6.005531969024179e-05,2.8815818612954842e-05,7.2,7.3333
1.7890625,5.125924308384825e-05,5.517047562066064e-05,4.540078748149836e-05,2.8815818612954842e-05,7.2,7.3333
1.79296875,4.3940370182345236e-05,5.711769868619814e-05,4.004592405127024e-05,2.39309745433737e-05,7.2,7.3333
1.796875,7.66570749645227e-05,5.41968640878919e-05,5.4683669854276266e-05,1.8559324707408188e-05,7.2,7.3333
1.80078125,7.031181359578844e-05,5.3710058321507514e-05,5.2232854616617e-05,1.9532936240176937e-05,7.2,7.3333
1.8046875,2.8329012846570463e-05,6.248934852216365e-05,4.345356441596087e-05,2.0523334178683078e-05,7.2,7.3333
1.80859375,6.883460989089792e-05,5.908170815747303e-05,3.6621497280842224e-05,2.5894984014648593e-05,7.2,7.3333
1.8125,2.444375199511647e-06,5.2232854616617e-05,4.540078748149836e-05,3.175343961699848e-05,7.2,7.3333
1.81640625,2.5391391842526824e-05,6.151573698939491e-05,5.6630892919813764e-05,3.0276235912107963e-05,7.2,7.3333
1.8203125,0.0001372056404592965,5.2232854616617e-05,4.637439901426711e-05,2.4417780309758076e-05,7.2,7.3333
1.82421875,8.592317093156321e-05,3.224024538338285e-05,4.785160271915763e-05,2.1983751477836202e-05,7.2,7.3333
1.828125,5.3710058321507514e-05,2.8329012846570463e-05,4.8338408485542e-05,2.7355401313801717e-05,7.2,7.3333
1.83203125,4.2479952883192115e-05,3.2727051149767236e-05,3.858550675211712e-05,2.686859554741734e-05,7.2,7.3333
1.8359375,6.34629600549324e-05,4.588759324788274e-05,4.442717594872962e-05,2.490458607614245e-05,7.2,7.3333
1.83984375,8.006471532921333e-05,5.711769868619814e-05,5.1746048850232625e-05,2.686859554741734e-05,7.2,7.3333
1.84375,6.34629600549324e-05,5.565728138704502e-05,4.734801054703586e-05,2.686859554741734e-05,7.2,7.3333
1.84765625,2.6381789781032965e-05,6.640058105897604e-05,6.200254275577928e-05,2.1983751477836202e-05,7.2,7.3333
1.8515625,-1.6104603140306772e-05,6.443657158770115e-05,4.442717594872962e-05,2.247055724422058e-05,7.2,7.3333
1.85546875,5.6144087153429394e-05,2.7355401313801717e-05,1.9532936240176937e-05,2.686859554741734e-05,7.2,7.3333
1.859375,0.00010351532414435026,2.149694571145183e-05,3.175343961699848e-05,2.686859554741734e-05,7.2,7.3333
1.86328125,7.371945396047906e-05,1.612529587548631e-05,9.780034506752053e-06,2.784220708018609e-05,7.2,7.3333
1.8671875,4.734801054703586e-05,-9.632651651789744e-07,-4.7645939879460283e-07,2.978943014572359e-05,7.2,7.3333
1.87109375,4.979882578469513e-05,9.780034506752053e-06,1.0753646039520798e-05,3.418746844892036e-05,7.2,7.3333
1.875,7.763068649729144e-05,2.978943014572359e-05,1.7585713174639436e-05,3.175343961699848e-05,7.2,7.3333
1.87890625,6.786099835812916e-05,5.125924308384825e-05,3.4674274215304726e-05,2.6381789781032965e-05,7.2,7.3333
1.8828125,5.517047562066064e-05,4.734801054703586e-05,3.9559118284885865e-05,2.978943014572359e-05,7.2,7.3333
1.88671875,4.199314711680774e-05,2.149694571145183e-05,3.858550675211712e-05,3.6621497280842224e-05,7.2,7.3333
1.890625,3.126663385061411e-05,1.709890740825506e-05,3.4674274215304726e-05,3.3213856916151605e-05,7.2,7.3333
1.89453125,3.564788574807348e-05,3.224024538338285e-05,3.7125089452964e-05,2.8815818612954842e-05,7.2,7.3333
1.8984375,6.200254275577928e-05,3.858550675211712e-05,4.004592405127024e-05,2.8815818612954842e-05,7.2,7.3333
1.90234375,8.78871804028381e-05,3.4674274215304726e-05,2.686859554741734e-05,2.5894984014648593e-05,7.2,7.3333
1.90625,1.2214063338673923e-05,2.930262437933921e-05,2.930262437933921e-05,2.930262437933921e-05,7.2,7.3333
1.91015625,1.2700869105058299e-05,3.4674274215304726e-05,2.8329012846570463e-05,2.8329012846570463e-05,7.2,7.3333
1.9140625,0.00012206430248416868,4.491398171511399e-05,3.126663385061411e-05,2.295736301060495e-05,7.2,7.3333
1.91796875,0.00011474542958266568,4.540078748149836e-05,3.9559118284885865e-05,2.686859554741734e-05,7.2,7.3333
1.921875,8.202872480048822e-05,3.0276235912107963e-05,3.51610799816891e-05,2.8329012846570463e-05,7.2,7.3333
1.92578125,4.882521425192638e-05,3.418746844892036e-05,2.5894984014648593e-05,3.076304167849234e-05,7.2,7.3333
1.9296875,7.469306549324781e-05,4.296675864957649e-05,2.784220708018609e-05,3.564788574807348e-05,7.2,7.3333
1.93359375,9.471924753795672e-05,3.418746844892036e-05,3.418746844892036e-05,3.224024538338285e-05,7.2,7.3333
1.9375,9.032120923475998e-05,3.761189521934837e-05,3.224024538338285e-05,2.295736301060495e-05,7.2,7.3333
1.94140625,2.5391391842526824e-05,4.734801054703586e-05,4.588759324788274e-05,2.1983751477836202e-05,7.2,7.3333
1.9453125,-3.3679969947356435e-05,4.296675864957649e-05,4.931202001831075e-05,2.784220708018609e-05,7.2,7.3333
1.94921875,4.882521425192638e-05,4.296675864957649e-05,3.858550675211712e-05,2.784220708018609e-05,7.2,7.3333
1.953125,0.00012694914655374983,5.2719660383001383e-05,4.491398171511399e-05,2.5391391842526824e-05,7.2,7.3333
1.95703125,0.00011375503164415953,5.02856315510795e-05,4.785160271915763e-05,2.686859554741734e-05,7.2,7.3333
1.9609375,5.2719660383001383e-05,4.540078748149836e-05,4.345356441596087e-05,3.418746844892036e-05,7.2,7.3333
1.96484375,4.931202001831075e-05,3.761189521934837e-05,3.4674274215304726e-05,3.418746844892036e-05,7.2,7.3333
1.96875,8.348914209964134e-05,3.761189521934837e-05,2.784220708018609e-05,2.686859554741734e-05,7.2,7.3333
1.97265625,7.274584242771031e-05,3.7125089452964e-05,3.076304167849234e-05,2.295736301060495e-05,7.2,7.3333
1.9765625,8.300233633325696e-05,3.564788574807348e-05,3.3700662682535974e-05,2.295736301060495e-05,7.2,7.3333
1.98046875,6.054212545662616e-05,3.4674274215304726e-05,3.9559118284885865e-05,2.490458607614245e-05,7.2,7.3333
1.984375,5.2232854616617e-05,2.686859554741734e-05,3.0276235912107963e-05,2.4417780309758076e-05,7.2,7.3333
1.98828125,4.588759324788274e-05,2.784220708018609e-05,1.2214063338673923e-05,2.149694571145183e-05,7.2,7.3333
1.9921875,4.345356441596087e-05,3.076304167849234e-05,1.0266840273136424e-05,2.1010139945067454e-05,7.2,7.3333
1.99609375,0.00010155131467307537,3.6621497280842224e-05,2.00365284122987e-05,2.39309745433737e-05,7.2,7.3333
2.0,2.5894984014648593e-05,3.761189521934837e-05,2.247055724422058e-05,2.5391391842526824e-05,7.2,7.3333
2.00390625,-5.361303468375745e-06,3.175343961699848e-05,2.149694571145183e-05,2.490458607614245e-05,7.2,7.3333
2.0078125,9.423244177157237e-05,3.2727051149767236e-05,2.295736301060495e-05,2.978943014572359e-05,7.2,7.3333
2.01171875,0.00012597553502098106,3.224024538338285e-05,2.0523334178683078e-05,2.7355401313801717e-05,7.2,7.3333
2.015625,0.00012255110825055304,3.3213856916151605e-05,1.7585713174639436e-05,2.1983751477836202e-05,7.2,7.3333
2.01953125,7.763068649729144e-05,2.5391391842526824e-05,2.5894984014648593e-05,2.149694571145183e-05,7.2,7.3333
2.0234375,6.591377529259167e-05,1.8559324707408188e-05,3.564788574807348e-05,2.7355401313801717e-05,7.2,7.3333
2.02734375,6.591377529259167e-05,3.076304167849234e-05,2.978943014572359e-05,3.224024538338285e-05,7.2,7.3333
2.03125,8.103832686198207e-05,4.8338408485542e-05,1.6612101641870687e-05,3.076304167849234e-05,7.2,7.3333
2.03515625,4.979882578469513e-05,4.150634135042337e-05,2.1010139945067454e-05,3.0276235912107963e-05,7.2,7.3333
2.0390625,-7.812118706035008e-06,2.6381789781032965e-05,3.564788574807348e-05,2.978943014572359e-05,7.2,7.3333
2.04296875,6.151573698939491e-05,2.5894984014648593e-05,3.175343961699848e-05,3.0276235912107963e-05,7.2,7.3333
2.046875,0.00011083419704585328,3.0276235912107963e-05,1.9532936240176937e-05,2.8329012846570463e-05,7.2,7.3333
2.05078125,9.080801500114434e-05,3.3213856916151605e-05,2.0523334178683078e-05,2.6381789781032965e-05,7.2,7.3333
2.0546875,6.394976582131678e-05,3.224024538338285e-05,3.0276235912107963e-05,2.8329012846570463e-05,7.2,7.3333
2.05859375,6.54269695262073e-05,2.930262437933921e-05,3.3700662682535974e-05,3.175343961699848e-05,7.2,7.3333
2.0625,8.103832686198207e-05,2.7355401313801717e-05,3.076304167849234e-05,3.3213856916151605e-05,7.2,7.3333
2.06640625,5.6630892919813764e-05,3.907231251850149e-05,4.199314711680774e-05,2.5391391842526824e-05,7.2,7.3333
2.0703125,8.300233633325696e-05,3.9559118284885865e-05,4.588759324788274e-05,2.930262437933921e-05,7.2,7.3333
2.07421875,8.640997669794758e-05,3.3213856916151605e-05,3.076304167849234e-05,3.3213856916151605e-05,7.2,7.3333
2.078125,9.666647060349424e-05,4.101953558403899e-05,2.6381789781032965e-05,2.978943014572359e-05,7.2,7.3333
2.08203125,5.7604504452582516e-05,3.51610799816891e-05,2.490458607614245e-05,2.686859554741734e-05,7.2,7.3333
2.0859375,4.004592405127024e-05,3.418746844892036e-05,1.4161286404211423e-05,2.247055724422058e-05,7.2,7.3333
2.08984375,9.863048007476913e-05,3.761189521934837e-05,1.612529587548631e-05,2.686859554741734e-05,7.2,7.3333
2.09375,3.858550675211712e-05,2.686859554741734e-05,3.761189521934837e-05,3.3700662682535974e-05,7.2,7.3333
2.09765625,4.734801054703586e-05,2.784220708018609e-05,4.3940370182345236e-05,3.224024538338285e-05,7.2,7.3333
2.1015625,0.00011766626418097192,2.784220708018609e-05,2.39309745433737e-05,2.8815818612954842e-05,7.2,7.3333
2.10546875,6.980822142366667e-05,1.563849010910194e-05,1.1240451805905174e-05,3.6134691514457854e-05,7.2,7.3333
2.109375,6.34629600549324e-05,1.4161286404211423e-05,2.295736301060495e-05,3.858550675211712e-05,7.2,7.3333
2.11328125,6.834780412451355e-05,2.4417780309758076e-05,2.149694571145183e-05,2.784220708018609e-05,7.2,7.3333
2.1171875,9.080801500114434e-05,3.8098700985732744e-05,3.126663385061411e-05,2.8815818612954842e-05,7.2,7.3333
2.12109375,5.857811598535127e-05,3.858550675211712e-05,4.588759324788274e-05,2.978943014572359e-05,7.2,7.3333
2.125,4.6861204780651486e-05,3.126663385061411e-05,2.247055724422058e-05,2.490458607614245e-05,7.2,7.3333
2.12890625,3.564788574807348e-05,3.9559118284885865e-05,2.490458607614245e-05,2.686859554741734e-05,7.2,7.3333
2.1328125,9.839579003585185e-07,4.296675864957649e-05,3.6134691514457854e-05,2.978943014572359e-05,7.2,7.3333
2.13671875,9.129482076752873e-05,3.907231251850149e-05,4.004592405127024e-05,3.126663385061411e-05,7.2,7.3333
2.140625,0.00010937377974670016,3.858550675211712e-05,3.8098700985732744e-05,2.978943014572359e-05,7.2,7.3333
2.14453125,7.420625972686343e-05,3.076304167849234e-05,3.6621497280842224e-05,3.076304167849234e-05,7.2,7.3333
2.1484375,3.126663385061411e-05,3.2727051149767236e-05,4.101953558403899e-05,3.076304167849234e-05,7.2,7.3333
2.15234375,4.882521425192638e-05,3.858550675211712e-05,4.101953558403899e-05,2.5894984014648593e-05,7.2,7.3333
2.15625,0.00010400212991073465,4.442717594872962e-05,4.882521425192638e-05,2.5894984014648593e-05,7.2,7.3333
2.16015625,8.494955939879446e-05,3.761189521934837e-05,4.442717594872962e-05,2.247055724422058e-05,7.2,7.3333
2.1640625,7.909110379644456e-05,2.7355401313801717e-05,3.076304167849234e-05,1.8559324707408188e-05,7.2,7.3333
2.16796875,4.882521425192638e-05,2.3444168776989324e-05,3.564788574807348e-05,2.3444168776989324e-05,7.2,7.3333
2.171875,6.443657158770115e-05,3.224024538338285e-05,4.345356441596087e-05,2.686859554741734e-05,7.2,7.3333
2.17578125,6.54269695262073e-05,4.637439901426711e-05,4.882521425192638e-05,2.930262437933921e-05,7.2,7.3333
2.1796875,4.053272981765462e-05,4.882521425192638e-05,4.637439901426711e-05,2.4417780309758076e-05,7.2,7.3333
2.18359375,6.591377529259167e-05,4.199314711680774e-05,4.491398171511399e-05,2.6381789781032965e-05,7.2,7.3333
2.1875,1.2214063338673923e-05,3.0276235912107963e-05,4.8338408485542e-05,2.686859554741734e-05,7.2,7.3333
2.19140625,3.418746844892036e-05,3.2727051149767236e-05,3.6134691514457854e-05,1.9532936240176937e-05,7.2,7.3333
2.1953125,0.00012157749671778431,3.418746844892036e-05,3.4674274215304726e-05,1.8559324707408188e-05,7.2,7.3333
2.19921875,8.202872480048822e-05,3.6134691514457854e-05,3.6621497280842224e-05,2.295736301060495e-05,7.2,7.3333
2.203125,7.274584242771031e-05,3.858550675211712e-05,3.6134691514457854e-05,2.6381789781032965e-05,7.2,7.3333
2.20703125,4.491398171511399e-05,3.3213856916151605e-05,3.0276235912107963e-05,2.5391391842526824e-05,7.2,7.3333
2.2109375,6.688738682536042e-05,3.3213856916151605e-05,3.0276235912107963e-05,2.5391391842526824e-05,7.2,7.3333
2.21484375,0.00010497574144350339,3.418746844892036e-05,2.5391391842526824e-05,2.490458607614245e-05,7.2,7.3333
2.21875,9.617966483710986e-05,4.004592405127024e-05,2.8329012846570463e-05,1.7585713174639436e-05,7.2,7.3333
2.22265625,4.2479952883192115e-05,3.564788574807348e-05,3.3213856916151605e-05,1.9532936240176937e-05,7.2,7.3333
2.2265625,-2.2936670275425412e-05,1.612529587548631e-05,1.7585713174639436e-05,2.295736301060495e-05,7.2,7.3333
2.23046875,6.688738682536042e-05,1.4161286404211423e-05,2.4417780309758076e-05,2.7355401313801717e-05,7.2,7.3333
2.234375,0.0001445245133607995,2.8815818612954842e-05,3.51610799816891e-05,3.2727051149767236e-05,7.2,7.3333
2.23828125,9.569285907072549e-05,2.978943014572359e-05,3.3700662682535974e-05,2.8815818612954842e-05,7.2,7.3333
2.2421875,4.199314711680774e-05,3.175343961699848e-05,2.8815818612954842e-05,2.295736301060495e-05,7.2,7.3333
2.24609375,4.150634135042337e-05,3.076304167849234e-05,2.247055724422058e-05,2.295736301060495e-05,7.2,7.3333
2.25,8.154191903410383e-05,2.930262437933921e-05,2.686859554741734e-05,2.686859554741734e-05,7.2,7.3333
2.25390625,8.202872480048822e-05,3.3213856916151605e-05,3.8098700985732744e-05,2.490458607614245e-05,7.2,7.3333
2.2578125,9.520605330434111e-05,3.175343961699848e-05,4.637439901426711e-05,2.1983751477836202e-05,7.2,7.3333
2.26171875,6.591377529259167e-05,3.2727051149767236e-05,4.540078748149836e-05,2.0523334178683078e-05,7.2,7.3333
2.265625,2.8815818612954842e-05,3.0276235912107963e-05,2.930262437933921e-05,2.149694571145183e-05,7.2,7.3333
2.26953125,1.1240451805905174e-05,1.7585713174639436e-05,2.5894984014648593e-05,2.39309745433737e-05,7.2,7.3333
2.2734375,6.054212545662616e-05,2.7355401313801717e-05,3.418746844892036e-05,2.5391391842526824e-05,7.2,7.3333
2.27734375,0.00013817925199206523,3.4674274215304726e-05,3.3700662682535974e-05,2.978943014572359e-05,7.2,7.3333
2.28125,3.8098700985732744e-05,2.6381789781032965e-05,4.199314711680774e-05,1.9532936240176937e-05,7.2,7.3333
2.28515625,-4.7645939879460283e-07,1.8072518941023812e-05,3.418746844892036e-05,1.2214063338673923e-05,7.2,7.3333
2.2890625,0.00010643615874265651,2.247055724422058e-05,2.1010139945067454e-05,1.5151684342717566e-05,7.2,7.3333
2.29296875,0.00010106450890669099,3.224024538338285e-05,2.490458607614245e-05,1.709890740825506e-05,7.2,7.3333
2.296875,4.199314711680774e-05,2.8815818612954842e-05,2.5391391842526824e-05,2.4417780309758076e-05,7.2,7.3333
2.30078125,5.2719660383001383e-05,2.00365284122987e-05,2.8815818612954842e-05,2.8329012846570463e-05,7.2,7.3333
2.3046875,9.471924753795672e-05,1.563849010910194e-05,3.175343961699848e-05,2.5391391842526824e-05,7.2,7.3333
2.30859375,8.886079193560685e-05,2.149694571145183e-05,2.39309745433737e-05,2.3444168776989324e-05,7.2,7.3333
2.3125,7.177223089494156e-05,2.247055724422058e-05,2.39309745433737e-05,2.686859554741734e-05,7.2,7.3333
2.31640625,4.540078748149836e-05,3.7125089452964e-05,4.053272981765462e-05,2.686859554741734e-05,7.2,7.3333
2.3203125,3.921578904402161e-06,3.6134691514457854e-05,2.8815818612954842e-05,3.0276235912107963e-05,7.2,7.3333
2.32421875,4.734801054703586e-05,2.0523334178683078e-05,1.3674480637827049e-05,3.7125089452964e-05,7.2,7.3333
2.328125,8.837398616922247e-05,1.8072518941023812e-05,3.921578904402161e-06,2.8329012846570463e-05,7.2,7.3333
2.33203125,7.909110379644456e-05,2.978943014572359e-05,1.2700869105058299e-05,2.1983751477836202e-05,7.2,7.3333
2.3359375,6.005531969024179e-05,2.8329012846570463e-05,2.930262437933921e-05,1.904613047379256e-05,7.2,7.3333
2.33984375,5.7604504452582516e-05,2.1983751477836202e-05,4.101953558403899e-05,1.612529587548631e-05,7.2,7.3333
2.34375,6.102893122301053e-05,1.709890740825506e-05,3.761189521934837e-05,2.0523334178683078e-05,7.2,7.3333
2.34765625,6.054212545662616e-05,1.7585713174639436e-05,2.5894984014648593e-05,2.686859554741734e-05,7.2,7.3333
2.3515625,5.1746048850232625e-05,2.4417780309758076e-05,2.3444168776989324e-05,3.224024538338285e-05,7.2,7.3333
2.35546875,2.686859554741734e-05,1.7585713174639436e-05,3.3213856916151605e-05,3.076304167849234e-05,7.2,7.3333
2.359375,7.568346343175395e-05,2.5391391842526824e-05,3.418746844892036e-05,2.0523334178683078e-05,7.2,7.3333
2.36328125,6.102893122301053e-05,2.930262437933921e-05,2.5894984014648593e-05,2.39309745433737e-05,7.2,7.3333
2.3671875,1.904613047379256e-05,2.7355401313801717e-05,2.978943014572359e-05,2.8329012846570463e-05,7.2,7.3333
2.37109375,8.202872480048822e-05,3.224024538338285e-05,3.3213856916151605e-05,2.784220708018609e-05,7.2,7.3333
2.375,1.9532936240176937e-05,3.564788574807348e-05,3.126663385061411e-05,2.686859554741734e-05,7.2,7.3333
2.37890625,1.5151684342717566e-05,3.761189521934837e-05,1.612529587548631e-05,2.6381789781032965e-05,7.2,7.3333
2.3828125,0.00011424183741054391,3.224024538338285e-05,2.4417780309758076e-05,2.5391391842526824e-05,7.2,7.3333
2.38671875,8.592317093156321e-05,2.1010139945067454e-05,2.5391391842526824e-05,1.9532936240176937e-05,7.2,7.3333
2.390625,6.151573698939491e-05,2.5894984014648593e-05,2.3444168776989324e-05,2.3444168776989324e-05,7.2,7.3333
2.39453125,6.102893122301053e-05,3.076304167849234e-05,3.858550675211712e-05,2.7355401313801717e-05,7.2,7.3333
2.3984375,7.51798712596322e-05,3.076304167849234e-05,3.4674274215304726e-05,2.4417780309758076e-05,7.2,7.3333
2.40234375,7.128542512855719e-05,3.418746844892036e-05,4.296675864957649e-05,2.5894984014648593e-05,7.2,7.3333
2.40625,5.2719660383001383e-05,2.3444168776989324e-05,3.175343961699848e-05,2.6381789781032965e-05,7.2,7.3333
2.41015625,1.3674480637827049e-05,1.8559324707408188e-05,1.1727257572289548e-05,2.295736301060495e-05,7.2,7.3333
2.4140625,-1.2680176369878758e-05,3.126663385061411e-05,2.0523334178683078e-05,2.1983751477836202e-05,7.2,7.3333
2.41796875,4.296675864957649e-05,2.978943014572359e-05,2.978943014572359e-05,2.4417780309758076e-05,7.2,7.3333
2.421875,0.00010203812043945976,3.126663385061411e-05,3.175343961699848e-05,2.5894984014648593e-05,7.2,7.3333
2.42578125,8.886079193560685e-05,3.175343961699848e-05,2.6381789781032965e-05,2.247055724422058e-05,7.2,7.3333
2.4296875,4.2479952883192115e-05,2.5391391842526824e-05,2.5894984014648593e-05,2.39309745433737e-05,7.2,7.3333
2.43359375,6.151573698939491e-05,2.5894984014648593e-05,3.076304167849234e-05,2.1983751477836202e-05,7.2,7.3333
2.4375,9.960409160753787e-05,3.418746844892036e-05,2.5894984014648593e-05,2.39309745433737e-05,7.2,7.3333
2.44140625,7.568346343175395e-05,4.053272981765462e-05,2.490458607614245e-05,2.8815818612954842e-05,7.2,7.3333
2.4453125,4.785160271915763e-05,3.3213856916151605e-05,2.1983751477836202e-05,2.149694571145183e-05,7.2,7.3333
2.44921875,3.126663385061411e-05,2.3444168776989324e-05,2.295736301060495e-05,2.1983751477836202e-05,7.2,7.3333
2.453125,7.568346343175395e-05,3.9559118284885865e-05,3.6134691514457854e-05,2.6381789781032965e-05,7.2,7.3333
2.45703125,6.93214156572823e-05,4.053272981765462e-05,3.907231251850149e-05,3.3700662682535974e-05,7.2,7.3333
2.4609375,5.6630892919813764e-05,2.930262437933921e-05,3.0276235912107963e-05,3.3700662682535974e-05,7.2,7.3333
2.46484375,0.00010203812043945976,3.907231251850149e-05,2.490458607614245e-05,2.247055724422058e-05,7.2,7.3333
2.46875,-6.334915001144494e-06,4.345356441596087e-05,1.563849010910194e-05,2.1983751477836202e-05,7.2,7.3333
2.47265625,-6.821720767528866e-06,4.442717594872962e-05,1.612529587548631e-05,2.5894984014648593e-05,7.2,7.3333
2.4765625,0.0001420736981231402,4.637439901426711e-05,2.8815818612954842e-05,2.6381789781032965e-05,7.2,7.3333
2.48046875,0.00011083419704585328,3.7125089452964e-05,2.6381789781032965e-05,2.1983751477836202e-05,7.2,7.3333
2.484375,5.02856315510795e-05,3.0276235912107963e-05,2.930262437933921e-05,2.00365284122987e-05,7.2,7.3333
2.48828125,2.978943014572359e-05,2.5391391842526824e-05,3.0276235912107963e-05,2.39309745433737e-05,7.2,7.3333
2.4921875,7.031181359578844e-05,2.39309745433737e-05,2.39309745433737e-05,2.295736301060495e-05,7.2,7.3333
2.49609375,9.960409160753787e-05,2.8329012846570463e-05,1.7585713174639436e-05,2.686859554741734e-05,7.2,7.3333
2.5,6.200254275577928e-05,2.930262437933921e-05,2.0523334178683078e-05,3.076304167849234e-05,7.2,7.3333
2.50390625,1.612529587548631e-05,2.490458607614245e-05,2.6381789781032965e-05,2.0523334178683078e-05,7.2,7.3333
2.5078125,-2.7821514345006548e-05,1.3674480637827049e-05,1.3187674871442673e-05,1.709890740825506e-05,7.2,7.3333
2.51171875,5.2719660383001383e-05,1.7585713174639436e-05,1.8072518941023812e-05,2.149694571145183e-05,7.2,7.3333
2.515625,0.0001235247197833218,2.784220708018609e-05,3.4674274215304726e-05,2.39309745433737e-05,7.2,7.3333
2.51953125,0.00010546254720988775,2.784220708018609e-05,2.490458607614245e-05,2.490458607614245e-05,7.2,7.3333
2.5234375,6.054212545662616e-05,2.930262437933921e-05,2.39309745433737e-05,2.0523334178683078e-05,7.2,7.3333
2.52734375,3.8098700985732744e-05,2.1010139945067454e-05,2.4417780309758076e-05,2.00365284122987e-05,7.2,7.3333
2.53125,9.91172858411535e-05,2.5391391842526824e-05,1.7585713174639436e-05,2.4417780309758076e-05,7.2,7.3333
2.53515625,0.00010546254720988775,2.490458607614245e-05,1.9532936240176937e-05,2.3444168776989324e-05,7.2,7.3333
2.5390625,8.397594786602571e-05,3.2727051149767236e-05,3.126663385061411e-05,2.149694571145183e-05,7.2,7.3333
2.54296875,3.761189521934837e-05,5.2232854616617e-05,3.3213856916151605e-05,2.0523334178683078e-05,7.2,7.3333
2.546875,3.8098700985732744e-05,4.053272981765462e-05,3.224024538338285e-05,1.466487857633319e-05,7.2,7.3333
2.55078125,4.199314711680774e-05,3.564788574807348e-05,3.761189521934837e-05,2.0523334178683078e-05,7.2,7.3333
2.5546875,4.734801054703586e-05,2.247055724422058e-05,3.0276235912107963e-05,3.3700662682535974e-05,7.2,7.3333
2.55859375,0.00010789657604180963,9.293228740367673e-06,2.4417780309758076e-05,3.224024538338285e-05,7.2,7.3333
2.5625,2.1010139945067454e-05,1.904613047379256e-05,3.076304167849234e-05,3.2727051149767236e-05,7.2,7.3333
2.56640625,-6.334915001144494e-06,2.1010139945067454e-05,3.224024538338285e-05,4.296675864957649e-05,7.2,7.3333
2.5703125,9.423244177157237e-05,2.8815818612954842e-05,3.6621497280842224e-05,4.053272981765462e-05,7.2,7.3333
2.57421875,8.837398616922247e-05,3.6621497280842224e-05,4.199314711680774e-05,3.224024538338285e-05,7.2,7.3333
2.578125,6.151573698939491e-05,4.588759324788274e-05,5.4683669854276266e-05,3.761189521934837e-05,7.2,7.3333
2.58203125,4.296675864957649e-05,4.053272981765462e-05,5.4683669854276266e-05,3.761189521934837e-05,7.2,7.3333
2.5859375,3.175343961699848e-05,2.490458607614245e-05,2.784220708018609e-05,3.224024538338285e-05,7.2,7.3333
2.58984375,5.02856315510795e-05,3.076304167849234e-05,2.4417780309758076e-05,3.0276235912107963e-05,7.2,7.3333
2.59375,9.520605330434111e-05,4.588759324788274e-05,2.930262437933921e-05,2.490458607614245e-05,7.2,7.3333
2.59765625,5.6144087153429394e-05,5.2232854616617e-05,3.51610799816891e-05,2.8815818612954842e-05,7.2,7.3333
2.6015625,-1.0732953304341257e-05,4.345356441596087e-05,4.588759324788274e-05,3.6621497280842224e-05,7.2,7.3333
2.60546875,7.128542512855719e-05,2.978943014572359e-05,3.761189521934837e-05,3.4674274215304726e-05,7.2,7.3333
2.609375,0.00010986058551308453,3.3700662682535974e-05,3.418746844892036e-05,3.0276235912107963e-05,7.2,7.3333
2.61328125,9.569285907072549e-05,4.8338408485542e-05,4.491398171511399e-05,3.418746844892036e-05,7.2,7.3333
2.6171875,5.857811598535127e-05,4.785160271915763e-05,5.125924308384825e-05,3.175343961699848e-05,7.2,7.3333
2.62109375,4.345356441596087e-05,3.3213856916151605e-05,5.2232854616617e-05,2.8329012846570463e-05,7.2,7.3333
2.625,7.128542512855719e-05,3.4674274215304726e-05,4.931202001831075e-05,3.2727051149767236e-05,7.2,7.3333
2.62890625,4.882521425192638e-05,2.930262437933921e-05,4.199314711680774e-05,2.8329012846570463e-05,7.2,7.3333
2.6328125,8.006471532921333e-05,3.2727051149767236e-05,4.442717594872962e-05,2.8815818612954842e-05,7.2,7.3333
2.63671875,8.006471532921333e-05,4.345356441596087e-05,4.734801054703586e-05,3.564788574807348e-05,7.2,7.3333
2.640625,5.2232854616617e-05,4.004592405127024e-05,4.931202001831075e-05,3.3213856916151605e-05,7.2,7.3333
2.64453125,4.101953558403899e-05,3.126663385061411e-05,5.02856315510795e-05,2.8815818612954842e-05,7.2,7.3333
2.6484375,4.6861204780651486e-05,2.5894984014648593e-05,4.101953558403899e-05,3.076304167849234e-05,7.2,7.3333
2.65234375,7.617026919813832e-05,3.3213856916151605e-05,3.8098700985732744e-05,3.0276235912107963e-05,7.2,7.3333
2.65625,2.930262437933921e-05,4.199314711680774e-05,4.3940370182345236e-05,2.3444168776989324e-05,7.2,7.3333
2.66015625,3.175343961699848e-05,3.907231251850149e-05,4.296675864957649e-05,2.5391391842526824e-05,7.2,7.3333
2.6640625,0.00012011707941863119,4.004592405127024e-05,3.858550675211712e-05,2.39309745433737e-05,7.2,7.3333
2.66796875,8.886079193560685e-05,3.858550675211712e-05,3.6621497280842224e-05,2.3444168776989324e-05,7.2,7.3333
2.671875,6.443657158770115e-05,3.564788574807348e-05,3.907231251850149e-05,3.51610799816891e-05,7.2,7.3333
2.67578125,6.688738682536042e-05,3.907231251850149e-05,4.101953558403899e-05,3.7125089452964e-05,7.2,7.3333
2.6796875,8.348914209964134e-05,4.734801054703586e-05,4.296675864957649e-05,3.076304167849234e-05,7.2,7.3333
2.68359375,6.93214156572823e-05,4.6861204780651486e-05,3.224024538338285e-05,3.126663385061411e-05,7.2,7.3333
2.6875,6.151573698939491e-05,2.5894984014648593e-05,2.00365284122987e-05,2.8329012846570463e-05,7.2,7.3333
2.69140625,5.41968640878919e-05,2.0523334178683078e-05,3.175343961699848e-05,2.0523334178683078e-05,7.2,7.3333
2.6953125,1.0266840273136424e-05,2.978943014572359e-05,3.418746844892036e-05,2.1010139945067454e-05,7.2,7.3333
2.69921875,7.420625972686343e-05,3.6134691514457854e-05,2.784220708018609e-05,2.149694571145183e-05,7.2,7.3333
2.703125,0.00011375503164415953,2.930262437933921e-05,2.5894984014648593e-05,2.3444168776989324e-05,7.2,7.3333
2.70703125,8.592317093156321e-05,2.39309745433737e-05,2.6381789781032965e-05,3.0276235912107963e-05,7.2,7.3333
2.7109375,5.077243731746388e-05,3.224024538338285e-05,3.0276235912107963e-05,2.7355401313801717e-05,7.2,7.3333
2.71484375,6.394976582131678e-05,3.51610799816891e-05,3.907231251850149e-05,2.1983751477836202e-05,7.2,7.3333
2.71875,0.00010155131467307537,4.442717594872962e-05,4.345356441596087e-05,2.8815818612954842e-05,7.2,7.3333
2.72265625,6.054212545662616e-05,3.2727051149767236e-05,3.3700662682535974e-05,2.6381789781032965e-05,7.2,7.3333
2.7265625,5.2232854616617e-05,1.8559324707408188e-05,2.1983751477836202e-05,2.247055724422058e-05,7.2,7.3333
2.73046875,5.9568513923857405e-05,3.564788574807348e-05,3.076304167849234e-05,2.6381789781032965e-05,7.2,7.3333
2.734375,6.73741925917448e-05,3.8098700985732744e-05,3.51610799816891e-05,2.5391391842526824e-05,7.2,7.3333
2.73828125,4.882521425192638e-05,2.784220708018609e-05,3.564788574807348e-05,2.149694571145183e-05,7.2,7.3333
2.7421875,3.6134691514457854e-05,3.0276235912107963e-05,4.004592405127024e-05,2.8329012846570463e-05,7.2,7.3333
2.74609375,8.640997669794758e-05,5.6144087153429394e-05,5.4683669854276266e-05,3.0276235912107963e-05,7.2,7.3333
2.75,1.6612101641870687e-05,4.931202001831075e-05,4.588759324788274e-05,2.978943014572359e-05,7.2,7.3333
2.75390625,1.3187674871442673e-05,1.8072518941023812e-05,8.302830801861532e-06,2.784220708018609e-05,7.2,7.3333
2.7578125,0.00011523223534905003,9.293228740367673e-06,2.9311809658960184e-06,1.9532936240176937e-05,7.2,7.3333
2.76171875,0.00010838338180819401,1.709890740825506e-05,1.9532936240176937e-05,2.00365284122987e-05,7.2,7.3333
2.765625,8.348914209964134e-05,2.444375199511647e-06,9.293228740367673e-06,2.247055724422058e-05,7.2,7.3333
2.76953125,8.103832686198207e-05,-5.848109234760116e-06,2.444375199511647e-06,2.0523334178683078e-05,7.2,7.3333
2.7734375,9.520605330434111e-05,1.0266840273136424e-05,1.612529587548631e-05,1.6612101641870687e-05,7.2,7.3333
2.77734375,8.886079193560685e-05,4.408384670786539e-06,1.7585713174639436e-05,1.904613047379256e-05,7.2,7.3333
2.78125,9.569285907072549e-05,2.247055724422058e-05,2.5894984014648593e-05,2.149694571145183e-05,7.2,7.3333
2.78515625,5.1746048850232625e-05,2.00365284122987e-05,2.5894984014648593e-05,2.490458607614245e-05,7.2,7.3333
2.7890625,-2.0502641443503535e-05,4.89519043717091e-06,1.9532936240176937e-05,2.5894984014648593e-05,7.2,7.3333
2.79296875,6.688738682536042e-05,1.709890740825506e-05,1.9532936240176937e-05,2.247055724422058e-05,7.2,7.3333
2.796875,0.0001347548252216372,3.175343961699848e-05,2.00365284122987e-05,2.149694571145183e-05,7.2,7.3333
2.80078125,0.00011523223534905003,3.51610799816891e-05,2.1983751477836202e-05,2.1010139945067454e-05,7.2,7.3333
2.8046875,6.394976582131678e-05,2.4417780309758076e-05,2.0523334178683078e-05,2.149694571145183e-05,7.2,7.3333
2.80859375,5.2232854616617e-05,2.490458607614245e-05,1.8559324707408188e-05,2.149694571145183e-05,7.2,7.3333
2.8125,5.9568513923857405e-05,2.930262437933921e-05,2.686859554741734e-05,2.149694571145183e-05,7.2,7.3333
2.81640625,5.2232854616617e-05,2.7355401313801717e-05,3.3213856916151605e-05,2.0523334178683078e-05,7.2,7.3333
2.8203125,8.592317093156321e-05,2.490458607614245e-05,2.6381789781032965e-05,2.1983751477836202e-05,7.2,7.3333
2.82421875,4.637439901426711e-05,2.149694571145183e-05,2.784220708018609e-05,2.784220708018609e-05,7.2,7.3333
2.828125,3.9559118284885865e-05,2.3444168776989324e-05,2.3444168776989324e-05,2.8815818612954842e-05,7.2,7.3333
2.83203125,5.02856315510795e-05,3.126663385061411e-05,1.4161286404211423e-05,2.149694571145183e-05,7.2,7.3333
2.8359375,3.9559118284885865e-05,3.4674274215304726e-05,2.247055724422058e-05,1.8559324707408188e-05,7.2,7.3333
2.83984375,8.983440346837559e-05,2.686859554741734e-05,3.0276235912107963e-05,2.295736301060495e-05,7.2,7.3333
2.84375,3.418746844892036e-05,1.709890740825506e-05,2.978943014572359e-05,2.4417780309758076e-05,7.2,7.3333
2.84765625,9.293228740367673e-06,2.295736301060495e-05,2.3444168776989324e-05,2.490458607614245e-05,7.2,7.3333
2.8515625,0.00010789657604180963,3.858550675211712e-05,1.904613047379256e-05,2.6381789781032965e-05,7.2,7.3333
2.85546875,0.00012011707941863119,3.858550675211712e-05,2.6381789781032965e-05,1.8559324707408188e-05,7.2,7.3333
2.859375,9.764008213626298e-05,2.686859554741734e-05,3.51610799816891e-05,1.5151684342717566e-05,7.2,7.3333
2.86328125,4.931202001831075e-05,2.4417780309758076e-05,2.6381789781032965e-05,1.8072518941023812e-05,7.2,7.3333
2.8671875,6.34629600549324e-05,2.8329012846570463e-05,2.00365284122987e-05,1.612529587548631e-05,7.2,7.3333
2.87109375,6.248934852216365e-05,2.6381789781032965e-05,2.490458607614245e-05,1.7585713174639436e-05,7.2,7.3333
2.875,7.811749226367581e-05,3.7125089452964e-05,3.224024538338285e-05,2.5391391842526824e-05,7.2,7.3333
2.87890625,7.371945396047906e-05,3.6621497280842224e-05,3.51610799816891e-05,3.126663385061411e-05,7.2,7.3333
2.8828125,-5.848109234760116e-06,2.39309745433737e-05,3.0276235912107963e-05,2.39309745433737e-05,7.2,7.3333
2.88671875,4.931202001831075e-05,2.784220708018609e-05,2.490458607614245e-05,2.00365284122987e-05,7.2,7.3333
2.890625,0.00010789657604180963,2.39309745433737e-05,2.490458607614245e-05,2.149694571145183e-05,7.2,7.3333
2.89453125,7.617026919813832e-05,2.4417780309758076e-05,2.3444168776989324e-05,2.39309745433737e-05,7.2,7.3333
2.8984375,4.150634135042337e-05,3.076304167849234e-05,2.3444168776989324e-05,2.930262437933921e-05,7.2,7.3333
2.90234375,4.491398171511399e-05,2.247055724422058e-05,3.0276235912107963e-05,3.175343961699848e-05,7.2,7.3333
2.90625,7.617026919813832e-05,7.81602503547716e-06,2.3444168776989324e-05,2.978943014572359e-05,7.2,7.3333
2.91015625,4.588759324788274e-05,1.2700869105058299e-05,2.295736301060495e-05,2.5894984014648593e-05,7.2,7.3333
2.9140625,5.7604504452582516e-05,2.4417780309758076e-05,2.6381789781032965e-05,2.784220708018609e-05,7.2,7.3333
2.91796875,6.494016375982292e-05,1.8072518941023812e-05,2.490458607614245e-05,3.126663385061411e-05,7.2,7.3333
2.921875,3.7125089452964e-05,2.1983751477836202e-05,3.224024538338285e-05,2.8329012846570463e-05,7.2,7.3333
2.92578125,3.175343961699848e-05,2.7355401313801717e-05,2.00365284122987e-05,3.175343961699848e-05,7.2,7.3333
2.9296875,3.9559118284885865e-05,1.9532936240176937e-05,1.2700869105058299e-05,3.907231251850149e-05,7.2,7.3333
2.93359375,6.980822142366667e-05,2.3444168776989324e-05,2.5894984014648593e-05,3.175343961699848e-05,7.2,7.3333
2.9375,3.6134691514457854e-05,2.686859554741734e-05,3.761189521934837e-05,2.8329012846570463e-05,7.2,7.3333
2.94140625,3.6621497280842224e-05,1.904613047379256e-05,3.7125089452964e-05,2.7355401313801717e-05,7.2,7.3333
2.9453125,9.715327636987863e-05,3.434773138017789e-06,1.3674480637827049e-05,2.930262437933921e-05,7.2,7.3333
2.94921875,8.103832686198207e-05,7.329219269092782e-06,-9.632651651789744e-07,3.3213856916151605e-05,7.2,7.3333
2.953125,8.543636516517884e-05,1.904613047379256e-05,8.302830801861532e-06,2.686859554741734e-05,7.2,7.3333
2.95703125,7.51798712596322e-05,3.0276235912107963e-05,2.00365284122987e-05,2.490458607614245e-05,7.2,7.3333
2.9609375,8.202872480048822e-05,2.5894984014648593e-05,2.295736301060495e-05,2.5391391842526824e-05,7.2,7.3333
2.96484375,7.66570749645227e-05,1.563849010910194e-05,2.1010139945067454e-05,2.247055724422058e-05,7.2,7.3333
2.96875,6.591377529259167e-05,1.4161286404211423e-05,2.39309745433737e-05,3.0276235912107963e-05,7.2,7.3333
2.97265625,5.809131021896689e-05,1.2214063338673923e-05,2.686859554741734e-05,3.564788574807348e-05,7.2,7.3333
2.9765625,2.444375199511647e-06,2.00365284122987e-05,3.126663385061411e-05,3.076304167849234e-05,7.2,7.3333
2.98046875,5.41968640878919e-05,1.904613047379256e-05,3.564788574807348e-05,3.6621497280842224e-05,7.2,7.3333
2.984375,9.17816265339131e-05,1.8559324707408188e-05,3.418746844892036e-05,3.4674274215304726e-05,7.2,7.3333
2.98828125,6.102893122301053e-05,2.5391391842526824e-05,3.0276235912107963e-05,2.5894984014648593e-05,7.2,7.3333
2.9921875,6.494016375982292e-05,2.247055724422058e-05,2.295736301060495e-05,3.175343961699848e-05,7.2,7.3333
2.99609375,7.51798712596322e-05,4.101953558403899e-05,3.126663385061411e-05,3.6621497280842224e-05,7.2,7.3333
3.0,9.17816265339131e-05,4.588759324788274e-05,4.734801054703586e-05,3.2727051149767236e-05,7.2,7.3333
3.00390625,6.54269695262073e-05,1.612529587548631e-05,2.686859554741734e-05,2.978943014572359e-05,7.2,7.3333
3.0078125,6.297615428854803e-05,6.84241350270841e-06,1.8559324707408188e-05,3.4674274215304726e-05,7.2,7.3333
3.01171875,5.6144087153429394e-05,9.839579003585185e-07,2.784220708018609e-05,3.3700662682535974e-05,7.2,7.3333
3.015625,6.786099835812916e-05,1.1727257572289548e-05,2.978943014572359e-05,2.8329012846570463e-05,7.2,7.3333
3.01953125,6.102893122301053e-05,2.5894984014648593e-05,2.8329012846570463e-05,2.978943014572359e-05,7.2,7.3333
3.0234375,4.637439901426711e-05,1.8072518941023812e-05,2.5391391842526824e-05,3.6621497280842224e-05,7.2,7.3333
3.02734375,8.494955939879446e-05,1.563849010910194e-05,2.978943014572359e-05,3.7125089452964e-05,7.2,7.3333
3.03125,2.7355401313801717e-05,2.39309745433737e-05,2.930262437933921e-05,3.126663385061411e-05,7.2,7.3333
3.03515625,4.150634135042337e-05,3.9559118284885865e-05,2.784220708018609e-05,2.8329012846570463e-05,7.2,7.3333
3.0390625,0.00012449833131609054,4.101953558403899e-05,2.247055724422058e-05,2.784220708018609e-05,7.2,7.3333
3.04296875,7.66570749645227e-05,4.053272981765462e-05,2.39309745433737e-05,3.3213856916151605e-05,7.2,7.3333
3.046875,5.908170815747303e-05,4.2479952883192115e-05,3.2727051149767236e-05,3.3700662682535974e-05,7.2,7.3333
3.05078125,5.809131021896689e-05,3.224024538338285e-05,2.930262437933921e-05,2.784220708018609e-05,7.2,7.3333
3.0546875,9.080801500114434e-05,2.39309745433737e-05,2.930262437933921e-05,3.3700662682535974e-05,7.2,7.3333
3.05859375,9.325883023880362e-05,2.8329012846570463e-05,4.101953558403899e-05,3.3700662682535974e-05,7.2,7.3333
3.0625,8.006471532921333e-05,2.8329012846570463e-05,4.199314711680774e-05,2.8329012846570463e-05,7.2,7.3333
3.06640625,4.979882578469513e-05,2.7355401313801717e-05,3.564788574807348e-05,3.076304167849234e-05,7.2,7.3333
3.0703125,4.734801054703586e-05,3.51610799816891e-05,3.6621497280842224e-05,3.564788574807348e-05,7.2,7.3333
3.07421875,9.277202447241925e-05,4.345356441596087e-05,3.4674274215304726e-05,3.6134691514457854e-05,7.2,7.3333
3.078125,8.25155305668726e-05,3.761189521934837e-05,3.6621497280842224e-05,3.4674274215304726e-05,7.2,7.3333
3.08203125,7.957790956282895e-05,2.784220708018609e-05,4.199314711680774e-05,4.053272981765462e-05,7.2,7.3333
3.0859375,2.8329012846570463e-05,1.904613047379256e-05,3.3700662682535974e-05,4.2479952883192115e-05,7.2,7.3333
3.08984375,-1.0732953304341257e-05,2.784220708018609e-05,2.490458607614245e-05,3.858550675211712e-05,7.2,7.3333
3.09375,0.00010546254720988775,3.761189521934837e-05,3.4674274215304726e-05,3.6134691514457854e-05,7.2,7.3333
3.09765625,0.0001372056404592965,3.418746844892036e-05,5.2719660383001383e-05,3.418746844892036e-05,7.2,7.3333
3.1015625,6.297615428854803e-05,3.6621497280842224e-05,4.296675864957649e-05,3.3213856916151605e-05,7.2,7.3333
3.10546875,3.4674274215304726e-05,2.8329012846570463e-05,2.1983751477836202e-05,3.418746844892036e-05,7.2,7.3333
3.109375,5.6144087153429394e-05,2.295736301060495e-05,2.3444168776989324e-05,3.4674274215304726e-05,7.2,7.3333
3.11328125,5.711769868619814e-05,3.2727051149767236e-05,3.3213856916151605e-05,3.418746844892036e-05,7.2,7.3333
3.1171875,7.763068649729144e-05,3.3700662682535974e-05,3.6134691514457854e-05,2.784220708018609e-05,7.2,7.3333
3.12109375,0.00011083419704585328,2.295736301060495e-05,3.8098700985732744e-05,2.5894984014648593e-05,7.2,7.3333
3.125,2.8329012846570463e-05,2.00365284122987e-05,3.3700662682535974e-05,2.4417780309758076e-05,7.2,7.3333
3.12890625,1.9575694331272685e-06,2.1010139945067454e-05,2.4417780309758076e-05,2.978943014572359e-05,7.2,7.3333
3.1328125,0.00010351532414435026,2.5391391842526824e-05,2.7355401313801717e-05,3.418746844892036e-05,7.2,7.3333
3.13671875,0.0001103473912794689,3.126663385061411e-05,3.9559118284885865e-05,3.51610799816891e-05,7.2,7.3333
3.140625,8.837398616922247e-05,3.175343961699848e-05,3.418746844892036e-05,3.2727051149767236e-05,7.2,7.3333
3.14453125,5.41968640878919e-05,3.0276235912107963e-05,2.39309745433737e-05,2.6381789781032965e-05,7.2,7.3333
3.1484375,4.882521425192638e-05,3.126663385061411e-05,2.8329012846570463e-05,2.1983751477836202e-05,7.2,7.3333
3.15234375,7.177223089494156e-05,2.4417780309758076e-05,2.8815818612954842e-05,2.490458607614245e-05,7.2,7.3333
3.15625,9.423244177157237e-05,2.490458607614245e-05,2.490458607614245e-05,2.978943014572359e-05,7.2,7.3333
3.16015625,3.6621497280842224e-05,2.930262437933921e-05,2.295736301060495e-05,2.686859554741734e-05,7.2,7.3333
3.1640625,1.4707636667428971e-06,3.126663385061411e-05,1.0266840273136424e-05,2.149694571145183e-05,7.2,7.3333
3.16796875,3.858550675211712e-05,3.51610799816891e-05,1.034636758976859e-08,2.1010139945067454e-05,7.2,7.3333
3.171875,6.688738682536042e-05,4.734801054703586e-05,7.81602503547716e-06,2.295736301060495e-05,7.2,7.3333
3.17578125,0.00010351532414435026,4.979882578469513e-05,2.295736301060495e-05,2.1010139945067454e-05,7.2,7.3333
3.1796875,6.93214156572823e-05,3.761189521934837e-05,3.126663385061411e-05,2.00365284122987e-05,7.2,7.3333
3.18359375,-5.361303468375745e-06,2.5894984014648593e-05,2.490458607614245e-05,2.1010139945067454e-05,7.2,7.3333
3.1875,6.93214156572823e-05,2.978943014572359e-05,2.5894984014648593e-05,3.126663385061411e-05,7.2,7.3333
3.19140625,0.00010106450890669099,3.51610799816891e-05,3.761189521934837e-05,3.224024538338285e-05,7.2,7.3333
3.1953125,0.00010838338180819401,3.7125089452964e-05,3.6621497280842224e-05,2.7355401313801717e-05,7.2,7.3333
3.19921875,7.811749226367581e-05,4.150634135042337e-05,3.2727051149767236e-05,2.8815818612954842e-05,7.2,7.3333
3.203125,4.199314711680774e-05,3.7125089452964e-05,3.3213856916151605e-05,2.149694571145183e-05,7.2,7.3333
3.20703125,3.564788574807348e-05,2.8329012846570463e-05,2.5894984014648593e-05,2.00365284122987e-05,7.2,7.3333
3.2109375,3.907231251850149e-05,3.564788574807348e-05,2.490458607614245e-05,2.490458607614245e-05,7.2,7.3333
3.21484375,0.00010203812043945976,4.3940370182345236e-05,2.930262437933921e-05,2.5894984014648593e-05,7.2,7.3333
3.21875,3.3700662682535974e-05,3.2727051149767236e-05,2.7355401313801717e-05,2.1010139945067454e-05,7.2,7.3333
3.22265625,1.4161286404211423e-05,2.4417780309758076e-05,2.6381789781032965e-05,2.5391391842526824e-05,7.2,7.3333
3.2265625,0.0001122946143450064,2.930262437933921e-05,2.1983751477836202e-05,3.3700662682535974e-05,7.2,7.3333
3.23046875,9.715327636987863e-05,2.930262437933921e-05,2.247055724422058e-05,2.686859554741734e-05,7.2,7.3333
3.234375,6.640058105897604e-05,3.224024538338285e-05,2.295736301060495e-05,2.4417780309758076e-05,7.2,7.3333
3.23828125,5.517047562066064e-05,3.6134691514457854e-05,2.3444168776989324e-05,2.8815818612954842e-05,7.2,7.3333
3.2421875,8.202872480048822e-05,3.4674274215304726e-05,3.076304167849234e-05,3.076304167849234e-05,7.2,7.3333
3.24609375,8.05515210955977e-05,1.709890740825506e-05,2.295736301060495e-05,2.8815818612954842e-05,7.2,7.3333
3.25,5.565728138704502e-05,1.3187674871442673e-05,2.00365284122987e-05,3.224024538338285e-05,7.2,7.3333
3.25390625,3.076304167849234e-05,2.686859554741734e-05,4.345356441596087e-05,3.418746844892036e-05,7.2,7.3333
3.2578125,3.921578904402161e-06,1.6612101641870687e-05,4.199314711680774e-05,3.175343961699848e-05,7.2,7.3333
3.26171875,4.588759324788274e-05,1.8559324707408188e-05,2.00365284122987e-05,2.784220708018609e-05,7.2,7.3333
3.265625,8.348914209964134e-05,1.466487857633319e-05,1.3674480637827049e-05,2.247055724422058e-05,7.2,7.3333
3.26953125,8.446275363241008e-05,9.293228740367673e-06,9.780034506752053e-06,2.6381789781032965e-05,7.2,7.3333
3.2734375,6.834780412451355e-05,2.1010139945067454e-05,1.709890740825506e-05,2.6381789781032965e-05,7.2,7.3333
3.27734375,5.7604504452582516e-05,2.8815818612954842e-05,3.51610799816891e-05,3.4674274215304726e-05,7.2,7.3333
3.28125,8.640997669794758e-05,2.1010139945067454e-05,2.5894984014648593e-05,3.6134691514457854e-05,7.2,7.3333
3.28515625,8.543636516517884e-05,4.971521339741472e-07,-1.4500709315633527e-06,2.5391391842526824e-05,7.2,7.3333
3.2890625,7.617026919813832e-05,-5.361303468375745e-06,-1.121975907072563e-05,3.418746844892036e-05,7.2,7.3333
3.29296875,6.591377529259167e-05,4.971521339741472e-07,-3.4140804028382445e-06,3.3700662682535974e-05,7.2,7.3333
3.296875,7.860429803006019e-05,-2.0989447209887905e-05,-1.9042224144350414e-05,2.490458607614245e-05,7.2,7.3333
3.30078125,8.300233633325696e-05,-5.2245734692912246e-05,-5.12553367544061e-05,2.247055724422058e-05,7.2,7.3333
3.3046875,8.886079193560685e-05,-7.665316863508055e-05,-6.737028626230264e-05,2.784220708018609e-05,7.2,7.3333
3.30859375,0.00013621524252079034,-0.00011668874631876101,-9.960018527809572e-05,3.4674274215304726e-05,7.2,7.3333
3.3125,7.617026919813832e-05,-0.0001411129666666667,-0.0001391489571953918,4.150634135042337e-05,7.2,7.3333
3.31640625,9.032120923475998e-05,-0.00016503359484245064,-0.0001786977291126879,4.053272981765462e-05,7.2,7.3333
3.3203125,0.0001967638080155641,-0.00020263514369420923,-0.00021873330679636835,3.761189521934837e-05,7.2,7.3333
3.32421875,0.0001894449351140611,-0.00025047640004577707,-0.000256334855648127,5.1746048850232625e-05,7.2,7.3333
3.328125,0.0001909053524132142,-0.0002939364044998856,-0.0002978476370366979,6.297615428854803e-05,7.2,7.3333
3.33203125,0.00015135658049591813,-0.00029687402550392924,-0.0003276267208148318,6.54269695262073e-05,7.2,7.3333
3.3359375,0.0001909053524132142,-0.00030028166586861985,-0.0003310511475852598,6.640058105897604e-05,7.2,7.3333
3.33984375,0.0002470558796047912,-0.0003163966153765164,-0.0003227418767452506,7.51798712596322e-05,7.2,7.3333
3.34375,0.00020898431139238565,-0.0003119985770733196,-0.00033007753605249104,7.811749226367581e-05,7.2,7.3333
3.34765625,0.0001577018418646524,-0.00030321928687266345,-0.00034130764149080644,7.177223089494156e-05,7.2,7.3333
3.3515625,0.00011278142011139079,-0.00029588362756542306,-0.0003163966153765164,6.494016375982292e-05,7.2,7.3333
3.35546875,0.00019187896394598297,-0.0002646441264881361,-0.00028807794889753566,6.494016375982292e-05,7.2,7.3333
3.359375,0.00022362205719539166,-0.0002509632058121615,-0.0002763610376928359,6.54269695262073e-05,7.2,7.3333
3.36328125,0.0001782148296757457,-0.0002480423712138552,-0.0002534140210498207,6.883460989089792e-05,7.2,7.3333
3.3671875,0.00012449833131609054,-0.0002202105105012589,-0.00022655577186999316,6.93214156572823e-05,7.2,7.3333
3.37109375,0.00011815306994735629,-0.00019481267862058447,-0.00021190123966124974,6.443657158770115e-05,7.2,7.3333
3.375,0.00018261286797894246,-0.00017186566197756927,-0.00018017493281757846,6.786099835812916e-05,7.2,7.3333
3.37890625,0.0001596658513359273,-0.0001454942185641261,-0.00012937926905622955,5.908170815747303e-05,7.2,7.3333
3.3828125,0.00012303791401693743,-0.00012011317308918904,-0.00011376791172045477,5.4683669854276266e-05,7.2,7.3333
3.38671875,0.00010203812043945976,-0.00010302461204852374,-0.0001225472019211109,5.711769868619814e-05,7.2,7.3333
3.390625,8.78871804028381e-05,-8.202481847104605e-05,-9.471534120851458e-05,4.637439901426711e-05,7.2,7.3333
3.39453125,8.103832686198207e-05,-6.396264589761201e-05,-7.128151879911503e-05,3.9559118284885865e-05,7.2,7.3333
3.3984375,8.691356887006935e-05,-4.051203708247507e-05,-5.076853098802172e-05,3.418746844892036e-05,7.2,7.3333
3.40234375,0.00010740977027542527,-1.0732953304341257e-05,-2.0015835677119163e-05,3.2727051149767236e-05,7.2,7.3333
3.40625,3.0276235912107963e-05,4.971521339741472e-07,-4.874497701991366e-06,2.7355401313801717e-05,7.2,7.3333
3.41015625,2.0523334178683078e-05,1.034636758976859e-08,1.034636758976859e-08,2.00365284122987e-05,7.2,7.3333
3.4140625,0.00010106450890669099,2.247055724422058e-05,2.247055724422058e-05,2.5894984014648593e-05,7.2,7.3333
3.41796875,7.51798712596322e-05,4.734801054703586e-05,5.077243731746388e-05,2.1983751477836202e-05,7.2,7.3333
3.421875,3.907231251850149e-05,5.2719660383001383e-05,5.320646614938575e-05,2.00365284122987e-05,7.2,7.3333
3.42578125,1.0753646039520798e-05,6.834780412451355e-05,6.494016375982292e-05,2.3444168776989324e-05,7.2,7.3333
3.4296875,2.784220708018609e-05,9.17816265339131e-05,7.763068649729144e-05,1.6612101641870687e-05,7.2,7.3333
3.43359375,5.6630892919813764e-05,0.00010497574144350339,8.592317093156321e-05,1.0266840273136424e-05,7.2,7.3333
3.4375,4.931202001831075e-05,0.00012011707941863119,9.715327636987863e-05,1.0266840273136424e-05,7.2,7.3333
3.44140625,-1.8538631972228642e-05,0.0001235247197833218,0.0001088701875745784,1.2700869105058299e-05,7.2,7.3333
3.4453125,-7.128151879911503e-05,0.00011717945841458754,0.0001122946143450064,6.84241350270841e-06,7.2,7.3333
3.44921875,-1.2193370603494379e-05,0.00011571904111543442,0.0001103473912794689,2.444375199511647e-06,7.2,7.3333
3.453125,5.320646614938575e-05,0.00013232079638971533,0.00012401152554970617,6.84241350270841e-06,7.2,7.3333
3.45703125,4.931202001831075e-05,0.00014306409606164633,0.0001420736981231402,1.0266840273136424e-05,7.2,7.3333
3.4609375,5.8688019699396605e-06,0.00014306409606164633,0.000149896163196765,1.6612101641870687e-05,7.2,7.3333
3.46484375,9.839579003585185e-07,0.00014647173642633697,0.00014355090182803076,1.709890740825506e-05,7.2,7.3333
3.46875,3.076304167849234e-05,0.0001445245133607995,0.0001420736981231402,4.89519043717091e-06,7.2,7.3333
3.47265625,2.8329012846570463e-05,0.00014158689235675587,0.00015135658049591813,8.302830801861532e-06,7.2,7.3333
3.4765625,2.5391391842526824e-05,0.00014012647505760273,0.000149896163196765,1.709890740825506e-05,7.2,7.3333
3.48046875,-1.8538631972228642e-05,0.0001440377075944151,0.0001523301920286869,1.1727257572289548e-05,7.2,7.3333
3.484375,-9.759341771572507e-06,0.00013572843675440594,0.00014695854219272137,1.0266840273136424e-05,7.2,7.3333
3.48828125,-4.387691935606994e-06,0.0001352416309880216,0.0001386660577584496,1.5151684342717566e-05,7.2,7.3333
3.4921875,-2.0015835677119163e-05,0.00014355090182803076,0.0001372056404592965,1.3187674871442673e-05,7.2,7.3333
3.49609375,3.126663385061411e-05,0.000142577290295262,0.00012401152554970617,7.81602503547716e-06,7.2,7.3333
3.5,-2.3910281808194154e-05,0.00013329440792248407,0.0001367188346929121,1.0266840273136424e-05,7.2,7.3333
3.50390625,-4.4423269619287466e-05,0.0001235247197833218,0.0001386660577584496,1.2700869105058299e-05,7.2,7.3333
3.5078125,3.3213856916151605e-05,0.00013378121368886847,0.0001274359523201342,1.3187674871442673e-05,7.2,7.3333
3.51171875,4.734801054703586e-05,0.0001367188346929121,0.00013426801945525283,1.1240451805905174e-05,7.2,7.3333
3.515625,4.931202001831075e-05,0.00013621524252079034,0.00013769244622568083,8.302830801861532e-06,7.2,7.3333
3.51953125,2.6381789781032965e-05,0.00014012647505760273,0.00014940935743038063,1.1240451805905174e-05,7.2,7.3333
3.5234375,9.293228740367673e-06,0.0001293831753856717,0.000142577290295262,1.1240451805905174e-05,7.2,7.3333
3.52734375,2.686859554741734e-05,0.0001274359523201342,0.0001274359523201342,9.780034506752053e-06,7.2,7.3333
3.53125,2.8329012846570463e-05,0.00013329440792248407,0.00013329440792248407,1.612529587548631e-05,7.2,7.3333
3.53515625,5.8688019699396605e-06,0.0001386660577584496,0.00012303791401693743,1.4161286404211423e-05,7.2,7.3333
3.5390625,-2.0502641443503535e-05,0.0001367188346929121,0.00013134718485694656,1.5151684342717566e-05,7.2,7.3333
3.54296875,1.8559324707408188e-05,0.0001162058468818188,0.00013572843675440594,2.490458607614245e-05,7.2,7.3333
3.546875,4.882521425192638e-05,0.00010400212991073465,0.00010986058551308453,1.2214063338673923e-05,7.2,7.3333
3.55078125,2.8329012846570463e-05,0.00010448893567711902,0.0001030117319722285,1.2700869105058299e-05,7.2,7.3333
3.5546875,1.7585713174639436e-05,9.91172858411535e-05,0.00010643615874265651,2.5894984014648593e-05,7.2,7.3333
3.55859375,4.053272981765462e-05,0.00011180780857862202,0.00012255110825055304,2.0523334178683078e-05,7.2,7.3333
3.5625,4.296675864957649e-05,0.00011278142011139079,0.00011863987571374066,1.8559324707408188e-05,7.2,7.3333
3.56640625,9.293228740367673e-06,9.666647060349424e-05,9.863048007476913e-05,2.3444168776989324e-05,7.2,7.3333
3.5703125,3.175343961699848e-05,0.00010400212991073465,9.91172858411535e-05,2.5894984014648593e-05,7.2,7.3333
3.57421875,2.930262437933921e-05,0.00011132100281223765,0.00010203812043945976,2.39309745433737e-05,7.2,7.3333
3.578125,5.2232854616617e-05,0.00010252492620584414,9.228521870603486e-05,2.1010139945067454e-05,7.2,7.3333
3.58203125,2.784220708018609e-05,8.640997669794758e-05,8.983440346837559e-05,1.6612101641870687e-05,7.2,7.3333
3.5859375,-3.4140804028382445e-06,8.446275363241008e-05,9.91172858411535e-05,1.7585713174639436e-05,7.2,7.3333
3.58984375,6.93214156572823e-05,8.494955939879446e-05,9.814367430838475e-05,2.247055724422058e-05,7.2,7.3333
3.59375,3.921578904402161e-06,7.909110379644456e-05,8.837398616922247e-05,2.5391391842526824e-05,7.2,7.3333
3.59765625,-2.928193164415967e-05,8.202872480048822e-05,8.25155305668726e-05,1.904613047379256e-05,7.2,7.3333
3.6015625,6.93214156572823e-05,8.348914209964134e-05,8.494955939879446e-05,1.4161286404211423e-05,7.2,7.3333
3.60546875,5.809131021896689e-05,7.128542512855719e-05,8.543636516517884e-05,2.1983751477836202e-05,7.2,7.3333
3.609375,3.6621497280842224e-05,6.54269695262073e-05,8.934759770199121e-05,2.3444168776989324e-05,7.2,7.3333
3.61328125,3.761189521934837e-05,7.617026919813832e-05,7.909110379644456e-05,1.9532936240176937e-05,7.2,7.3333
3.6171875,6.834780412451355e-05,7.469306549324781e-05,6.73741925917448e-05,2.39309745433737e-05,7.2,7.3333
3.62109375,3.7125089452964e-05,6.73741925917448e-05,7.763068649729144e-05,2.5391391842526824e-05,7.2,7.3333
3.625,1.2214063338673923e-05,5.6144087153429394e-05,7.371945396047906e-05,2.247055724422058e-05,7.2,7.3333
3.62890625,1.5151684342717566e-05,5.565728138704502e-05,6.443657158770115e-05,2.5391391842526824e-05,7.2,7.3333
3.6328125,-2.928193164415967e-05,6.834780412451355e-05,6.73741925917448e-05,3.0276235912107963e-05,7.2,7.3333
3.63671875,5.3710058321507514e-05,7.225903666132594e-05,8.05515210955977e-05,2.930262437933921e-05,7.2,7.3333
3.640625,0.0001122946143450064,7.225903666132594e-05,8.494955939879446e-05,2.490458607614245e-05,7.2,7.3333
3.64453125,6.54269695262073e-05,5.517047562066064e-05,6.640058105897604e-05,2.247055724422058e-05,7.2,7.3333
3.6484375,1.3187674871442673e-05,4.882521425192638e-05,5.908170815747303e-05,2.149694571145183e-05,7.2,7.3333
3.65234375,3.224024538338285e-05,6.200254275577928e-05,5.517047562066064e-05,3.858550675211712e-05,7.2,7.3333
3.65625,9.129482076752873e-05,6.200254275577928e-05,5.565728138704502e-05,4.3940370182345236e-05,7.2,7.3333
3.66015625,6.54269695262073e-05,5.6144087153429394e-05,5.565728138704502e-05,1.8559324707408188e-05,7.2,7.3333
3.6640625,5.2232854616617e-05,5.1746048850232625e-05,5.4683669854276266e-05,1.3187674871442673e-05,7.2,7.3333
3.66796875,3.6621497280842224e-05,4.882521425192638e-05,7.031181359578844e-05,1.8072518941023812e-05,7.2,7.3333
3.671875,4.150634135042337e-05,5.2719660383001383e-05,6.591377529259167e-05,1.8072518941023812e-05,7.2,7.3333
3.67578125,6.980822142366667e-05,5.320646614938575e-05,4.882521425192638e-05,1.709890740825506e-05,7.2,7.3333
3.6796875,5.2232854616617e-05,4.101953558403899e-05,3.8098700985732744e-05,2.39309745433737e-05,7.2,7.3333
3.68359375,5.7604504452582516e-05,3.3213856916151605e-05,2.1983751477836202e-05,3.224024538338285e-05,7.2,7.3333
3.6875,5.381996203555289e-06,2.784220708018609e-05,3.126663385061411e-05,2.7355401313801717e-05,7.2,7.3333
3.69140625,1.1727257572289548e-05,2.784220708018609e-05,4.442717594872962e-05,1.9532936240176937e-05,7.2,7.3333
3.6953125,0.0001122946143450064,3.3700662682535974e-05,5.6144087153429394e-05,1.2214063338673923e-05,7.2,7.3333
3.69921875,8.983440346837559e-05,4.004592405127024e-05,6.786099835812916e-05,1.904613047379256e-05,7.2,7.3333
3.703125,6.73741925917448e-05,4.053272981765462e-05,5.077243731746388e-05,2.295736301060495e-05,7.2,7.3333
3.70703125,5.2719660383001383e-05,3.3213856916151605e-05,4.442717594872962e-05,2.39309745433737e-05,7.2,7.3333
3.7109375,6.394976582131678e-05,2.8329012846570463e-05,3.9559118284885865e-05,2.4417780309758076e-05,7.2,7.3333
3.71484375,7.51798712596322e-05,2.8329012846570463e-05,4.199314711680774e-05,2.8329012846570463e-05,7.2,7.3333
3.71875,7.274584242771031e-05,3.6621497280842224e-05,5.6144087153429394e-05,3.6134691514457854e-05,7.2,7.3333
3.72265625,2.8815818612954842e-05,3.6621497280842224e-05,6.054212545662616e-05,2.39309745433737e-05,7.2,7.3333
3.7265625,-2.7821514345006548e-05,2.247055724422058e-05,4.296675864957649e-05,1.1727257572289548e-05,7.2,7.3333
3.73046875,4.637439901426711e-05,2.5894984014648593e-05,4.6861204780651486e-05,2.295736301060495e-05,7.2,7.3333
3.734375,0.00010692296450904089,4.345356441596087e-05,5.908170815747303e-05,3.51610799816891e-05,7.2,7.3333
3.73828125,8.543636516517884e-05,3.9559118284885865e-05,5.517047562066064e-05,3.224024538338285e-05,7.2,7.3333
3.7421875,4.637439901426711e-05,3.761189521934837e-05,4.6861204780651486e-05,1.709890740825506e-05,7.2,7.3333
3.74609375,3.564788574807348e-05,2.930262437933921e-05,3.076304167849234e-05,1.4161286404211423e-05,7.2,7.3333
3.75,7.714388073090709e-05,2.686859554741734e-05,2.784220708018609e-05,1.8559324707408188e-05,7.2,7.3333
3.75390625,9.423244177157237e-05,3.6621497280842224e-05,3.2727051149767236e-05,1.8072518941023812e-05,7.2,7.3333
3.7578125,7.860429803006019e-05,3.6134691514457854e-05,3.7125089452964e-05,1.8559324707408188e-05,7.2,7.3333
3.76171875,3.418746844892036e-05,3.3213856916151605e-05,3.7125089452964e-05,1.8072518941023812e-05,7.2,7.3333
3.765625,4.004592405127024e-05,1.466487857633319e-05,2.784220708018609e-05,2.686859554741734e-05,7.2,7.3333
3.76953125,3.858550675211712e-05,1.466487857633319e-05,2.3444168776989324e-05,3.076304167849234e-05,7.2,7.3333
3.7734375,5.320646614938575e-05,4.150634135042337e-05,3.8098700985732744e-05,1.709890740825506e-05,7.2,7.3333
3.77734375,9.715327636987863e-05,4.101953558403899e-05,3.6621497280842224e-05,2.5391391842526824e-05,7.2,7.3333
3.78125,3.51610799816891e-05,3.224024538338285e-05,4.540078748149836e-05,3.858550675211712e-05,7.2,7.3333
3.78515625,1.1727257572289548e-05,3.4674274215304726e-05,4.3940370182345236e-05,2.8329012846570463e-05,7.2,7.3333
3.7890625,8.837398616922247e-05,3.6134691514457854e-05,4.053272981765462e-05,2.784220708018609e-05,7.2,7.3333
3.79296875,9.617966483710986e-05,3.564788574807348e-05,4.588759324788274e-05,2.39309745433737e-05,7.2,7.3333
3.796875,5.125924308384825e-05,3.418746844892036e-05,3.224024538338285e-05,1.8559324707408188e-05,7.2,7.3333
3.80078125,5.517047562066064e-05,4.004592405127024e-05,2.930262437933921e-05,2.4417780309758076e-05,7.2,7.3333
3.8046875,9.129482076752873e-05,4.053272981765462e-05,2.6381789781032965e-05,2.39309745433737e-05,7.2,7.3333
3.80859375,9.17816265339131e-05,3.3213856916151605e-05,3.2727051149767236e-05,2.7355401313801717e-05,7.2,7.3333
3.8125,8.78871804028381e-05,4.2479952883192115e-05,4.979882578469513e-05,2.686859554741734e-05,7.2,7.3333
3.81640625,4.637439901426711e-05,4.442717594872962e-05,4.8338408485542e-05,3.076304167849234e-05,7.2,7.3333
3.8203125,-1.2680176369878758e-05,4.637439901426711e-05,3.858550675211712e-05,3.418746844892036e-05,7.2,7.3333
3.82421875,3.4674274215304726e-05,4.588759324788274e-05,3.4674274215304726e-05,2.39309745433737e-05,7.2,7.3333
3.828125,8.494955939879446e-05,2.978943014572359e-05,3.0276235912107963e-05,2.1983751477836202e-05,7.2,7.3333
3.83203125,8.202872480048822e-05,3.858550675211712e-05,3.126663385061411e-05,2.8329012846570463e-05,7.2,7.3333
3.8359375,7.274584242771031e-05,4.734801054703586e-05,3.564788574807348e-05,3.2727051149767236e-05,7.2,7.3333
3.83984375,5.1746048850232625e-05,3.076304167849234e-05,3.6134691514457854e-05,3.9559118284885865e-05,7.2,7.3333
3.84375,5.7604504452582516e-05,4.004592405127024e-05,4.345356441596087e-05,2.8815818612954842e-05,7.2,7.3333
3.84765625,4.931202001831075e-05,4.101953558403899e-05,3.6621497280842224e-05,2.6381789781032965e-05,7.2,7.3333
3.8515625,4.442717594872962e-05,4.150634135042337e-05,4.101953558403899e-05,2.1010139945067454e-05,7.2,7.3333
3.85546875,4.345356441596087e-05,4.588759324788274e-05,5.3710058321507514e-05,2.1010139945067454e-05,7.2,7.3333
3.859375,8.05515210955977e-05,4.345356441596087e-05,5.4683669854276266e-05,3.0276235912107963e-05,7.2,7.3333
3.86328125,5.517047562066064e-05,4.053272981765462e-05,4.8338408485542e-05,2.247055724422058e-05,7.2,7.3333
3.8671875,2.490458607614245e-05,2.978943014572359e-05,4.296675864957649e-05,2.4417780309758076e-05,7.2,7.3333
3.87109375,7.860429803006019e-05,3.8098700985732744e-05,4.199314711680774e-05,3.175343961699848e-05,7.2,7.3333
3.875,2.0523334178683078e-05,3.7125089452964e-05,5.02856315510795e-05,2.7355401313801717e-05,7.2,7.3333
3.87890625,2.247055724422058e-05,3.564788574807348e-05,6.151573698939491e-05,2.686859554741734e-05,7.2,7.3333
3.8828125,9.814367430838475e-05,4.199314711680774e-05,3.6134691514457854e-05,4.004592405127024e-05,7.2,7.3333
3.88671875,6.883460989089792e-05,3.7125089452964e-05,1.4161286404211423e-05,3.224024538338285e-05,7.2,7.3333
3.890625,6.834780412451355e-05,3.858550675211712e-05,4.2479952883192115e-05,2.686859554741734e-05,7.2,7.3333
3.89453125,6.640058105897604e-05,4.785160271915763e-05,4.345356441596087e-05,3.3700662682535974e-05,7.2,7.3333
3.8984375,8.202872480048822e-05,4.785160271915763e-05,3.6621497280842224e-05,2.784220708018609e-05,7.2,7.3333
3.90234375,5.908170815747303e-05,3.224024538338285e-05,4.345356441596087e-05,2.247055724422058e-05,7.2,7.3333
3.90625,4.491398171511399e-05,2.1010139945067454e-05,3.418746844892036e-05,2.490458607614245e-05,7.2,7.3333
3.91015625,4.101953558403899e-05,2.5894984014648593e-05,3.858550675211712e-05,2.8329012846570463e-05,7.2,7.3333
3.9140625,-6.334915001144494e-06,3.418746844892036e-05,4.345356441596087e-05,2.490458607614245e-05,7.2,7.3333
3.91796875,6.151573698939491e-05,3.6134691514457854e-05,3.761189521934837e-05,2.5894984014648593e-05,7.2,7.3333
3.921875,0.0001122946143450064,3.418746844892036e-05,3.3213856916151605e-05,2.4417780309758076e-05,7.2,7.3333
3.92578125,7.714388073090709e-05,2.247055724422058e-05,2.247055724422058e-05,2.00365284122987e-05,7.2,7.3333
3.9296875,4.979882578469513e-05,2.686859554741734e-05,3.3700662682535974e-05,2.0523334178683078e-05,7.2,7.3333
3.93359375,5.6630892919813764e-05,4.004592405127024e-05,4.540078748149836e-05,2.6381789781032965e-05,7.2,7.3333
3.9375,0.00010057770314030662,3.4674274215304726e-05,2.247055724422058e-05,3.175343961699848e-05,7.2,7.3333
3.94140625,8.103832686198207e-05,4.296675864957649e-05,3.0276235912107963e-05,2.6381789781032965e-05,7.2,7.3333
3.9453125,5.6144087153429394e-05,4.101953558403899e-05,3.8098700985732744e-05,2.8815818612954842e-05,7.2,7.3333
3.94921875,3.761189521934837e-05,4.540078748149836e-05,2.7355401313801717e-05,2.930262437933921e-05,7.2,7.3333
3.953125,6.394976582131678e-05,4.150634135042337e-05,2.3444168776989324e-05,2.295736301060495e-05,7.2,7.3333
3.95703125,6.883460989089792e-05,3.564788574807348e-05,3.076304167849234e-05,2.3444168776989324e-05,7.2,7.3333
3.9609375,5.1746048850232625e-05,4.637439901426711e-05,4.882521425192638e-05,2.4417780309758076e-05,7.2,7.3333
3.96484375,7.51798712596322e-05,3.3213856916151605e-05,4.734801054703586e-05,2.7355401313801717e-05,7.2,7.3333
3.96875,2.9311809658960184e-06,2.39309745433737e-05,4.3940370182345236e-05,2.8329012846570463e-05,7.2,7.3333
3.97265625,1.2214063338673923e-05,2.930262437933921e-05,2.784220708018609e-05,3.2727051149767236e-05,7.2,7.3333
3.9765625,0.00010789657604180963,2.8329012846570463e-05,1.709890740825506e-05,3.076304167849234e-05,7.2,7.3333
3.98046875,9.374563600518799e-05,2.6381789781032965e-05,2.930262437933921e-05,3.3213856916151605e-05,7.2,7.3333
3.984375,7.031181359578844e-05,2.1983751477836202e-05,2.490458607614245e-05,3.0276235912107963e-05,7.2,7.3333
3.98828125,4.979882578469513e-05,1.3187674871442673e-05,2.00365284122987e-05,2.5391391842526824e-05,7.2,7.3333
3.9921875,7.811749226367581e-05,1.612529587548631e-05,2.6381789781032965e-05,3.9559118284885865e-05,7.2,7.3333
3.99609375,9.129482076752873e-05,2.4417780309758076e-05,2.1983751477836202e-05,3.6621497280842224e-05,7.2,7.3333
4.0,6.688738682536042e-05,3.3700662682535974e-05,3.418746844892036e-05,2.686859554741734e-05,7.2,7.3333
4.00390625,3.418746844892036e-05,2.930262437933921e-05,3.564788574807348e-05,2.7355401313801717e-05,7.2,7.3333
4.0078125,-3.173274688181894e-05,1.7585713174639436e-05,1.3187674871442673e-05,2.784220708018609e-05,7.2,7.3333
4.01171875,3.224024538338285e-05,2.6381789781032965e-05,1.3674480637827049e-05,2.686859554741734e-05,7.2,7.3333
4.015625,0.00011474542958266568,4.053272981765462e-05,2.978943014572359e-05,2.686859554741734e-05,7.2,7.3333
4.01953125,8.691356887006935e-05,4.734801054703586e-05,5.125924308384825e-05,1.9532936240176937e-05,7.2,7.3333
4.0234375,3.4674274215304726e-05,3.2727051149767236e-05,5.125924308384825e-05,3.175343961699848e-05,7.2,7.3333
4.02734375,2.3444168776989324e-05,1.3674480637827049e-05,1.9532936240176937e-05,3.761189521934837e-05,7.2,7.3333
4.03125,7.079861936217282e-05,2.4417780309758076e-05,2.247055724422058e-05,1.2214063338673923e-05,7.2,7.3333
4.03515625,7.957790956282895e-05,3.6134691514457854e-05,4.637439901426711e-05,1.904613047379256e-05,7.2,7.3333
4.0390625,6.102893122301053e-05,3.761189521934837e-05,4.540078748149836e-05,3.175343961699848e-05,7.2,7.3333
4.04296875,1.904613047379256e-05,3.224024538338285e-05,2.8815818612954842e-05,3.2727051149767236e-05,7.2,7.3333
4.046875,3.224024538338285e-05,2.686859554741734e-05,2.1983751477836202e-05,3.7125089452964e-05,7.2,7.3333
4.05078125,2.00365284122987e-05,3.076304167849234e-05,2.1983751477836202e-05,3.4674274215304726e-05,7.2,7.3333
4.0546875,2.978943014572359e-05,3.6134691514457854e-05,3.564788574807348e-05,3.175343961699848e-05,7.2,7.3333
4.05859375,8.983440346837559e-05,4.491398171511399e-05,5.2719660383001383e-05,2.8329012846570463e-05,7.2,7.3333
4.0625,5.125924308384825e-05,5.125924308384825e-05,5.857811598535127e-05,2.490458607614245e-05,7.2,7.3333
4.06640625,4.199314711680774e-05,4.540078748149836e-05,4.8338408485542e-05,2.930262437933921e-05,7.2,7.3333
4.0703125,6.443657158770115e-05,4.931202001831075e-05,4.199314711680774e-05,2.930262437933921e-05,7.2,7.3333
4.07421875,7.079861936217282e-05,5.2719660383001383e-05,5.125924308384825e-05,4.101953558403899e-05,7.2,7.3333
4.078125,9.666647060349424e-05,5.9568513923857405e-05,6.102893122301053e-05,3.076304167849234e-05,7.2,7.3333
4.08203125,7.81602503547716e-06,5.077243731746388e-05,5.565728138704502e-05,3.076304167849234e-05,7.2,7.3333
4.0859375,-6.821720767528866e-06,4.3940370182345236e-05,5.02856315510795e-05,4.491398171511399e-05,7.2,7.3333
4.08984375,9.617966483710986e-05,5.857811598535127e-05,5.320646614938575e-05,4.979882578469513e-05,7.2,7.3333
4.09375,9.91172858411535e-05,4.931202001831075e-05,5.2719660383001383e-05,3.4674274215304726e-05,7.2,7.3333
4.09765625,6.688738682536042e-05,4.3940370182345236e-05,6.443657158770115e-05,2.00365284122987e-05,7.2,7.3333
4.1015625,5.381996203555289e-06,5.02856315510795e-05,6.443657158770115e-05,3.175343961699848e-05,7.2,7.3333
4.10546875,5.125924308384825e-05,3.907231251850149e-05,4.931202001831075e-05,2.7355401313801717e-05,7.2,7.3333
4.109375,8.446275363241008e-05,2.6381789781032965e-05,4.053272981765462e-05,3.6621497280842224e-05,7.2,7.3333
4.11328125,7.371945396047906e-05,4.442717594872962e-05,5.517047562066064e-05,3.3213856916151605e-05,7.2,7.3333
4.1171875,8.446275363241008e-05,5.711769868619814e-05,6.54269695262073e-05,2.978943014572359e-05,7.2,7.3333
4.12109375,5.3710058321507514e-05,3.907231251850149e-05,4.442717594872962e-05,3.175343961699848e-05,7.2,7.3333
4.125,6.005531969024179e-05,3.3213856916151605e-05,2.930262437933921e-05,2.295736301060495e-05,7.2,7.3333
4.12890625,7.128542512855719e-05,4.6861204780651486e-05,4.345356441596087e-05,2.978943014572359e-05,7.2,7.3333
4.1328125,5.809131021896689e-05,4.6861204780651486e-05,4.785160271915763e-05,1.612529587548631e-05,7.2,7.3333
4.13671875,4.101953558403899e-05,2.8815818612954842e-05,3.4674274215304726e-05,3.6621497280842224e-05,7.2,7.3333
4.140625,4.199314711680774e-05,4.2479952883192115e-05,3.6621497280842224e-05,5.02856315510795e-05,7.2,7.3333
4.14453125,4.8338408485542e-05,4.6861204780651486e-05,4.734801054703586e-05,1.8559324707408188e-05,7.2,7.3333
4.1484375,4.150634135042337e-05,2.5894984014648593e-05,3.418746844892036e-05,1.9532936240176937e-05,7.2,7.3333
4.15234375,7.617026919813832e-05,3.076304167849234e-05,2.8815818612954842e-05,3.224024538338285e-05,7.2,7.3333
4.15625,3.761189521934837e-05,4.734801054703586e-05,3.6621497280842224e-05,2.978943014572359e-05,7.2,7.3333
4.16015625,2.00365284122987e-05,4.004592405127024e-05,3.076304167849234e-05,1.9532936240176937e-05,7.2,7.3333
4.1640625,9.960409160753787e-05,2.8329012846570463e-05,3.3213856916151605e-05,1.904613047379256e-05,7.2,7.3333
4.16796875,8.300233633325696e-05,3.907231251850149e-05,3.7125089452964e-05,2.784220708018609e-05,7.2,7.3333
4.171875,7.225903666132594e-05,3.761189521934837e-05,3.0276235912107963e-05,2.930262437933921e-05,7.2,7.3333
4.17578125,7.763068649729144e-05,2.1983751477836202e-05,2.4417780309758076e-05,3.3213856916151605e-05,7.2,7.3333
4.1796875,9.666647060349424e-05,2.686859554741734e-05,3.0276235912107963e-05,2.978943014572359e-05,7.2,7.3333
4.18359375,8.202872480048822e-05,4.588759324788274e-05,4.442717594872962e-05,2.1010139945067454e-05,7.2,7.3333
4.1875,4.637439901426711e-05,4.931202001831075e-05,3.761189521934837e-05,3.0276235912107963e-05,7.2,7.3333
4.19140625,2.7355401313801717e-05,2.978943014572359e-05,2.0523334178683078e-05,2.5391391842526824e-05,7.2,7.3333
4.1953125,9.839579003585185e-07,2.5391391842526824e-05,2.7355401313801717e-05,2.1983751477836202e-05,7.2,7.3333
4.19921875,4.540078748149836e-05,4.150634135042337e-05,3.126663385061411e-05,2.1010139945067454e-05,7.2,7.3333
4.203125,9.960409160753787e-05,4.004592405127024e-05,3.6134691514457854e-05,2.6381789781032965e-05,7.2,7.3333
4.20703125,8.640997669794758e-05,2.978943014572359e-05,3.175343961699848e-05,2.5894984014648593e-05,7.2,7.3333
4.2109375,5.320646614938575e-05,2.930262437933921e-05,2.5894984014648593e-05,2.149694571145183e-05,7.2,7.3333
4.21484375,4.004592405127024e-05,3.907231251850149e-05,3.6621497280842224e-05,2.5391391842526824e-05,7.2,7.3333
4.21875,8.05515210955977e-05,4.882521425192638e-05,4.637439901426711e-05,2.1010139945067454e-05,7.2,7.3333
4.22265625,8.006471532921333e-05,3.7125089452964e-05,4.296675864957649e-05,2.6381789781032965e-05,7.2,7.3333
4.2265625,5.9568513923857405e-05,2.247055724422058e-05,2.6381789781032965e-05,2.8329012846570463e-05,7.2,7.3333
4.23046875,5.1746048850232625e-05,3.418746844892036e-05,2.6381789781032965e-05,3.224024538338285e-05,7.2,7.3333
