timestamp,TP9,AF7,AF8,TP10,Valence,Arousal
0.0,-1.414241750209807e-05,-9.766997421225251e-06,0.00010399392468146797,-3.611004383916986e-05,6.8571,5.8571
0.00390625,-1.2181022293430943e-05,-1.5108027450980344e-05,7.958209816128791e-05,-3.466162891584645e-05,6.8571,5.8571
0.0078125,-9.766997421225251e-06,1.9410232089723515e-06,5.1247481223773604e-05,-3.07388384985122e-05,6.8571,5.8571
0.01171875,-1.9030817868314593e-05,1.4582182345312143e-06,6.054147698176551e-05,-4.3925449362935795e-05,6.8571,5.8571
0.015625,-2.8807618600747643e-05,5.3508333409628926e-06,8.884591860837725e-05,-2.636341841763938e-05,6.8571,5.8571
0.01953125,-3.6592848813611e-05,1.609324402227822e-05,0.00010984793499656678,-1.2694002578774653e-05,6.8571,5.8571
0.0234375,-3.318303868162046e-05,8.760643472953433e-06,9.469992892347605e-05,-1.414241750209807e-05,6.8571,5.8571
0.02734375,-2.1475018051422858e-05,4.385223392080615e-06,5.8580081773098396e-05,-1.2181022293430943e-05,6.8571,5.8571
0.03125,-1.9030817868314593e-05,2.906633157854628e-06,6.15070869306478e-05,-1.414241750209807e-05,6.8571,5.8571
0.03515625,-2.343641326008998e-05,8.277838498512291e-06,0.00010007113426413372,-1.414241750209807e-05,6.8571,5.8571
0.0390625,-1.658661768520633e-05,1.0239233707179416e-05,0.00010643812486457624,-2.7811833340962797e-05,6.8571,5.8571
0.04296875,-1.4625222476539207e-05,1.7571834256504205e-05,8.6401718425269e-05,-4.051563923094525e-05,6.8571,5.8571
0.046875,-2.391921823453112e-05,1.7089029282063067e-05,6.591268232242317e-05,-2.636341841763938e-05,6.8571,5.8571
0.05078125,-2.1957823025863993e-05,1.268343389028768e-05,6.883968747997258e-05,-1.706942265964747e-05,6.8571,5.8571
0.0546875,-1.8548012893873455e-05,1.3649043839169954e-05,8.688452339971013e-05,-1.9030817868314593e-05,6.8571,5.8571
0.05859375,-1.658661768520633e-05,1.2200628915846542e-05,9.910552431525143e-05,-2.1957823025863993e-05,6.8571,5.8571
0.0625,-2.585043813229567e-05,1.268343389028768e-05,7.909929318684677e-05,-3.466162891584645e-05,6.8571,5.8571
0.06640625,-3.9037048996719265e-05,5.83363831540403e-06,5.906288674753954e-05,-4.492123462272064e-05,6.8571,5.8571
0.0703125,-3.5144433890287585e-05,-4.395792080567588e-06,6.539970203707947e-05,-4.051563923094525e-05,6.8571,5.8571
0.07421875,-3.270023370717932e-05,2.423828183413491e-06,7.32151075608454e-05,-2.391921823453112e-05,6.8571,5.8571
0.078125,-4.5886844571602915e-05,1.3649043839169954e-05,0.00010643812486457624,-1.951362284275573e-05,6.8571,5.8571
0.08203125,-3.466162891584645e-05,9.27362375829714e-06,0.00010643812486457624,-2.636341841763938e-05,6.8571,5.8571
0.0859375,-1.414241750209807e-05,3.902418417639477e-06,5.1247481223773604e-05,-1.5108027450980344e-05,6.8571,5.8571
0.08984375,-1.9030817868314593e-05,1.8054639230945344e-05,5.954569172198067e-05,-3.4301821316853118e-06,6.8571,5.8571
0.09375,-1.951362284275573e-05,2.8797049912260674e-05,8.688452339971013e-05,-2.0479232791638012e-05,6.8571,5.8571
0.09765625,-1.8065207919432316e-05,1.1204843656061694e-05,0.00010643812486457624,-3.758863407339585e-05,6.8571,5.8571
0.1015625,-2.099221307698172e-05,2.906633157854628e-06,0.00011473633536278329,-2.9773228549629923e-05,6.8571,5.8571
0.10546875,-3.0256033524071058e-05,9.756428732738279e-06,9.129011879148551e-05,-2.636341841763938e-05,6.8571,5.8571
0.109375,-2.7329028366521658e-05,8.277838498512291e-06,8.202629834439618e-05,-2.684622339208052e-05,6.8571,5.8571
0.11328125,-2.0479232791638012e-05,1.9410232089723515e-06,9.032450884260324e-05,-1.951362284275573e-05,6.8571,5.8571
0.1171875,-1.951362284275573e-05,2.906633157854628e-06,0.00011473633536278329,-2.585043813229567e-05,6.8571,5.8571
0.12109375,-2.343641326008998e-05,7.3122285496300165e-06,0.00012255174088654923,-4.247703443961237e-05,6.8571,5.8571
0.125,-3.5144433890287585e-05,-4.395792080567588e-06,0.00010595531989013509,-4.440825433737693e-05,6.8571,5.8571
0.12890625,-3.122164347295334e-05,-1.6103812710765193e-05,8.103051308461133e-05,-3.562723886472872e-05,6.8571,5.8571
0.1328125,-3.562723886472872e-05,-3.91298710612645e-06,9.032450884260324e-05,-2.4402023208972258e-05,6.8571,5.8571
0.13671875,-3.955002928206298e-05,1.9410232089723515e-06,0.00010643812486457624,-2.1957823025863993e-05,6.8571,5.8571
0.140625,-2.7329028366521658e-05,-6.839992263675851e-06,0.00010836934476234078,-1.8065207919432316e-05,6.8571,5.8571
0.14453125,-2.2923432974746273e-05,-5.874382314793575e-06,8.788030865949497e-05,-1.951362284275573e-05,6.8571,5.8571
0.1484375,-3.270023370717932e-05,-5.031769741359113e-07,6.346848213931492e-05,-1.658661768520633e-05,6.8571,5.8571
0.15234375,-3.9037048996719265e-05,2.423828183413491e-06,7.565930774395365e-05,-1.6103812710765193e-05,6.8571,5.8571
0.15625,-3.855424402227812e-05,6.346618600747739e-06,9.813991436636916e-05,-2.585043813229567e-05,6.8571,5.8571
0.16015625,-3.611004383916986e-05,4.385223392080615e-06,0.00010984793499656678,-2.636341841763938e-05,6.8571,5.8571
0.1640625,-2.9773228549629923e-05,-7.835777523460699e-06,9.129011879148551e-05,-4.881384972915231e-05,6.8571,5.8571
0.16796875,-3.270023370717932e-05,-1.658661768520633e-05,7.469369779507138e-05,-6.93330611429007e-05,6.8571,5.8571
0.171875,-2.7811833340962797e-05,-7.3529725490195605e-06,8.395751824216073e-05,-3.07388384985122e-05,6.8571,5.8571
0.17578125,-1.414241750209807e-05,6.346618600747739e-06,8.447049852750443e-05,-2.0371999694772212e-08,6.8571,5.8571
0.1796875,-2.4884828183413397e-05,4.385223392080615e-06,8.151331805905246e-05,-2.0371999694772212e-08,6.8571,5.8571
0.18359375,-3.270023370717932e-05,-4.395792080567588e-06,7.713789797817965e-05,-8.318582497901836e-06,6.8571,5.8571
0.1875,-2.8807618600747643e-05,-1.0762782681010099e-05,8.103051308461133e-05,-2.099221307698172e-05,6.8571,5.8571
0.19140625,-3.270023370717932e-05,-1.8065207919432316e-05,7.614211271839479e-05,-2.636341841763938e-05,6.8571,5.8571
0.1953125,-3.562723886472872e-05,-1.4625222476539207e-05,8.299190829327846e-05,-3.562723886472872e-05,6.8571,5.8571
0.19921875,-2.9290423575188785e-05,-6.839992263675851e-06,9.421712394903491e-05,-4.1481249179827527e-05,6.8571,5.8571
0.203125,-2.684622339208052e-05,-1.3176807553215791e-05,8.395751824216073e-05,-3.221742873273818e-05,6.8571,5.8571
0.20703125,-3.07388384985122e-05,-1.5108027450980344e-05,6.491689706263834e-05,-3.07388384985122e-05,6.8571,5.8571
0.2109375,-3.221742873273818e-05,-6.839992263675851e-06,6.687829227130546e-05,-2.4402023208972258e-05,6.8571,5.8571
0.21484375,-3.855424402227812e-05,-1.0762782681010099e-05,9.910552431525143e-05,-2.0479232791638012e-05,6.8571,5.8571
0.21875,-2.9773228549629923e-05,-1.414241750209807e-05,8.688452339971013e-05,-2.0479232791638012e-05,6.8571,5.8571
0.22265625,-1.999642781719687e-05,-1.365961252765693e-05,6.736109724574659e-05,-2.099221307698172e-05,6.8571,5.8571
0.2265625,-4.0032834256504115e-05,-2.244062800030513e-05,6.639548729686431e-05,-2.1957823025863993e-05,6.8571,5.8571
0.23046875,-4.051563923094525e-05,-2.099221307698172e-05,5.517027164110786e-05,-2.8807618600747643e-05,6.8571,5.8571
0.234375,-2.1475018051422858e-05,-1.2694002578774653e-05,6.835688250553144e-05,-3.366584365606159e-05,6.8571,5.8571
0.23828125,-2.343641326008998e-05,-9.859819485770487e-07,9.421712394903491e-05,-3.0256033524071058e-05,6.8571,5.8571
0.2421875,-4.099844420538639e-05,-5.031769741359113e-07,9.617851915770204e-05,-2.7329028366521658e-05,6.8571,5.8571
0.24609375,-4.247703443961237e-05,-5.874382314793575e-06,6.44340920881972e-05,-3.221742873273818e-05,6.8571,5.8571
0.25,-4.099844420538639e-05,-7.3529725490195605e-06,5.954569172198067e-05,-3.1734623758297046e-05,6.8571,5.8571
0.25390625,-4.3925449362935795e-05,-1.4625222476539207e-05,6.883968747997258e-05,-4.0032834256504115e-05,6.8571,5.8571
0.2578125,-4.540403959716177e-05,-1.755222763408861e-05,8.543610847638671e-05,-5.711206022735938e-05,6.8571,5.8571
0.26171875,-4.247703443961237e-05,-1.658661768520633e-05,8.34747132677196e-05,-5.418505506980998e-05,6.8571,5.8571
0.265625,-3.0256033524071058e-05,-1.4625222476539207e-05,4.1500855802243124e-05,-4.784823978027004e-05,6.8571,5.8571
0.26953125,-2.7329028366521658e-05,-6.839992263675851e-06,3.612965046158546e-05,-4.540403959716177e-05,6.8571,5.8571
0.2734375,-2.9290423575188785e-05,-9.766997421225251e-06,5.6135881589990134e-05,-4.929665470359345e-05,6.8571,5.8571
0.27734375,-3.318303868162046e-05,-9.284192446784114e-06,7.858631290150306e-05,-5.32194451209277e-05,6.8571,5.8571
0.28125,-2.585043813229567e-05,-1.4687869230181878e-06,6.395128711375605e-05,-3.807143904783699e-05,6.8571,5.8571
0.28515625,-3.1734623758297046e-05,-1.365961252765693e-05,5.417448638132301e-05,-2.536763315785453e-05,6.8571,5.8571
0.2890625,-3.9037048996719265e-05,-1.9030817868314593e-05,5.173028619821474e-05,-3.955002928206298e-05,6.8571,5.8571
0.29296875,-3.07388384985122e-05,-1.5108027450980344e-05,5.028187127489133e-05,-4.196405415426866e-05,6.8571,5.8571
0.296875,-2.636341841763938e-05,-1.5108027450980344e-05,6.784390222018774e-05,-3.270023370717932e-05,6.8571,5.8571
0.30078125,-2.9773228549629923e-05,-6.357187289234713e-06,7.32151075608454e-05,-3.955002928206298e-05,6.8571,5.8571
0.3046875,-3.758863407339585e-05,-1.981767208361896e-06,8.6401718425269e-05,-3.6592848813611e-05,6.8571,5.8571
0.30859375,-3.5144433890287585e-05,-1.0279977706568962e-05,6.687829227130546e-05,-2.4402023208972258e-05,6.8571,5.8571
0.3125,-3.221742873273818e-05,-9.284192446784114e-06,4.635908085755708e-05,-3.611004383916986e-05,6.8571,5.8571
0.31640625,-2.9290423575188785e-05,8.277838498512291e-06,7.565930774395365e-05,-4.8331044754711176e-05,6.8571,5.8571
0.3203125,-2.7811833340962797e-05,-2.9473771572441725e-06,8.202629834439618e-05,-4.7335259494926333e-05,6.8571,5.8571
0.32421875,-2.7329028366521658e-05,-6.357187289234713e-06,6.15070869306478e-05,-3.955002928206298e-05,6.8571,5.8571
0.328125,-3.1734623758297046e-05,-1.981767208361896e-06,4.53934709086748e-05,-5.32194451209277e-05,6.8571,5.8571
0.33203125,-4.051563923094525e-05,-7.835777523460699e-06,4.7837671091783066e-05,-5.8590650461585364e-05,6.8571,5.8571
0.3359375,-3.6592848813611e-05,-2.0371999694772212e-08,7.176669263752198e-05,-3.758863407339585e-05,6.8571,5.8571
0.33984375,-2.7329028366521658e-05,-1.4687869230181878e-06,7.128388766308085e-05,-3.855424402227812e-05,6.8571,5.8571
0.34375,-3.6592848813611e-05,-2.9473771572441725e-06,6.1024281956206664e-05,-3.221742873273818e-05,6.8571,5.8571
0.34765625,-4.929665470359345e-05,-9.859819485770487e-07,5.7614471824216125e-05,-2.7329028366521658e-05,6.8571,5.8571
0.3515625,-3.6592848813611e-05,-2.4645721828030353e-06,4.635908085755708e-05,-2.9290423575188785e-05,6.8571,5.8571
0.35546875,-2.4402023208972258e-05,8.760643472953433e-06,5.2726071457999595e-05,-2.8807618600747643e-05,6.8571,5.8571
0.359375,-3.5144433890287585e-05,5.3508333409628926e-06,7.810350792706192e-05,-4.295983941405351e-05,6.8571,5.8571
0.36328125,-5.0292439963378296e-05,1.0722038681620556e-05,8.103051308461133e-05,-4.0032834256504115e-05,6.8571,5.8571
0.3671875,-4.492123462272064e-05,-4.395792080567588e-06,6.491689706263834e-05,-3.611004383916986e-05,6.8571,5.8571
0.37109375,-2.7811833340962797e-05,-1.0762782681010099e-05,5.3691681406881866e-05,-4.099844420538639e-05,6.8571,5.8571
0.375,-2.636341841763938e-05,-1.981767208361896e-06,5.076467624933246e-05,-2.9290423575188785e-05,6.8571,5.8571
0.37890625,-2.585043813229567e-05,-1.1215412344548667e-05,5.028187127489133e-05,-2.8807618600747643e-05,6.8571,5.8571
0.3828125,-1.6103812710765193e-05,9.756428732738279e-06,5.809727679865726e-05,-4.492123462272064e-05,6.8571,5.8571
0.38671875,-1.4625222476539207e-05,2.8797049912260674e-05,7.0288102403296e-05,-3.0256033524071058e-05,6.8571,5.8571
0.390625,-3.807143904783699e-05,-8.318582497901836e-06,5.661868656443127e-05,-1.4625222476539207e-05,6.8571,5.8571
0.39453125,-5.270646483558399e-05,-3.366584365606159e-05,5.224326648355845e-05,-2.8807618600747643e-05,6.8571,5.8571
0.3984375,-5.125804991226058e-05,-2.099221307698172e-05,7.077090737773713e-05,-3.122164347295334e-05,6.8571,5.8571
0.40234375,-4.929665470359345e-05,-9.284192446784114e-06,8.151331805905246e-05,-1.414241750209807e-05,6.8571,5.8571
0.40625,-6.444466077668416e-05,-1.6103812710765193e-05,6.980529742885485e-05,-3.91298710612645e-06,6.8571,5.8571
0.41015625,-7.226006630045009e-05,-2.1475018051422858e-05,6.784390222018774e-05,-1.981767208361896e-06,6.8571,5.8571
0.4140625,-5.270646483558399e-05,-1.999642781719687e-05,6.687829227130546e-05,-9.766997421225251e-06,6.8571,5.8571
0.41796875,-4.492123462272064e-05,-1.0762782681010099e-05,7.810350792706192e-05,-2.4402023208972258e-05,6.8571,5.8571
0.421875,-5.32194451209277e-05,-1.2694002578774653e-05,8.495330350194558e-05,-1.0762782681010099e-05,6.8571,5.8571
0.42578125,-5.61464502784771e-05,-2.099221307698172e-05,4.7354866117341924e-05,-2.4645721828030353e-06,6.8571,5.8571
0.4296875,-5.466786004425112e-05,-2.585043813229567e-05,3.806087035935001e-05,-1.8548012893873455e-05,6.8571,5.8571
0.43359375,-5.2223659861142857e-05,-2.1957823025863993e-05,6.44340920881972e-05,-1.8065207919432316e-05,6.8571,5.8571
0.4375,-5.711206022735938e-05,-2.099221307698172e-05,8.395751824216073e-05,-2.1475018051422858e-05,6.8571,5.8571
0.44140625,-6.541027072556645e-05,-2.536763315785453e-05,7.273230258640425e-05,-4.196405415426866e-05,6.8571,5.8571
0.4453125,-5.8590650461585364e-05,-2.1475018051422858e-05,6.054147698176551e-05,-3.466162891584645e-05,6.8571,5.8571
0.44921875,-4.1481249179827527e-05,-7.835777523460699e-06,3.320264530403606e-05,-2.099221307698172e-05,6.8571,5.8571
0.453125,-5.466786004425112e-05,4.624329747463669e-07,5.468746666666672e-05,-2.4884828183413397e-05,6.8571,5.8571
0.45703125,-6.492746575112531e-05,-2.4645721828030353e-06,9.325151400015264e-05,-3.758863407339585e-05,6.8571,5.8571
0.4609375,-4.295983941405351e-05,-1.5621007736324055e-05,6.198989190508893e-05,-4.0032834256504115e-05,6.8571,5.8571
0.46484375,-4.929665470359345e-05,-2.391921823453112e-05,5.173028619821474e-05,-3.466162891584645e-05,6.8571,5.8571
0.46875,-4.8331044754711176e-05,-2.1957823025863993e-05,5.417448638132301e-05,-2.9290423575188785e-05,6.8571,5.8571
0.47265625,-3.417882394140531e-05,-1.5621007736324055e-05,5.8580081773098396e-05,-3.07388384985122e-05,6.8571,5.8571
0.4765625,-3.318303868162046e-05,-8.318582497901836e-06,8.495330350194558e-05,-2.244062800030513e-05,6.8571,5.8571
0.48046875,-3.855424402227812e-05,1.9410232089723515e-06,0.00011766334052033269,-9.284192446784114e-06,6.8571,5.8571
0.484375,-3.6592848813611e-05,5.3508333409628926e-06,8.688452339971013e-05,-1.365961252765693e-05,6.8571,5.8571
0.48828125,-3.07388384985122e-05,-1.2181022293430943e-05,4.294927072556654e-05,-1.658661768520633e-05,6.8571,5.8571
0.4921875,-2.684622339208052e-05,-1.3176807553215791e-05,6.539970203707947e-05,-2.8294638315403935e-05,6.8571,5.8571
0.49609375,-3.270023370717932e-05,1.9410232089723515e-06,8.788030865949497e-05,-3.221742873273818e-05,6.8571,5.8571
0.5,-4.784823978027004e-05,1.0239233707179416e-05,9.762693408102545e-05,-2.2923432974746273e-05,6.8571,5.8571
0.50390625,-2.9290423575188785e-05,9.756428732738279e-06,7.713789797817965e-05,-2.2923432974746273e-05,6.8571,5.8571
0.5078125,-1.9030817868314593e-05,-2.4645721828030353e-06,4.687206114290079e-05,-2.8807618600747643e-05,6.8571,5.8571
0.51171875,-3.562723886472872e-05,-2.9473771572441725e-06,6.198989190508893e-05,-3.318303868162046e-05,6.8571,5.8571
0.515625,-3.807143904783699e-05,-2.4645721828030353e-06,7.469369779507138e-05,-3.955002928206298e-05,6.8571,5.8571
0.51953125,-4.0032834256504115e-05,-3.91298710612645e-06,7.665509300373852e-05,-4.3925449362935795e-05,6.8571,5.8571
0.5234375,-4.099844420538639e-05,-4.908772365911297e-06,7.273230258640425e-05,-3.366584365606159e-05,6.8571,5.8571
0.52734375,-4.1481249179827527e-05,-9.284192446784114e-06,6.591268232242317e-05,-2.2923432974746273e-05,6.8571,5.8571
0.53125,-3.855424402227812e-05,4.624329747463669e-07,6.736109724574659e-05,-2.4402023208972258e-05,6.8571,5.8571
0.53515625,-3.855424402227812e-05,1.0239233707179416e-05,8.688452339971013e-05,-4.3442644388494646e-05,6.8571,5.8571
0.5390625,-4.1481249179827527e-05,-7.3529725490195605e-06,9.714412910658431e-05,-4.881384972915231e-05,6.8571,5.8571
0.54296875,-4.3442644388494646e-05,-1.5108027450980344e-05,9.666132413214318e-05,-3.611004383916986e-05,6.8571,5.8571
0.546875,-3.6592848813611e-05,9.754132600900752e-07,8.591891345082785e-05,-2.099221307698172e-05,6.8571,5.8571
0.55078125,-2.2923432974746273e-05,1.4582182345312143e-06,6.346848213931492e-05,-1.2181022293430943e-05,6.8571,5.8571
0.5546875,-3.221742873273818e-05,9.754132600900752e-07,8.202629834439618e-05,-1.658661768520633e-05,6.8571,5.8571
0.55859375,-3.417882394140531e-05,1.1204843656061694e-05,0.00010692092983901737,-8.801387472342974e-06,6.8571,5.8571
0.5625,-2.684622339208052e-05,2.0016034439612467e-05,9.617851915770204e-05,-6.357187289234713e-06,6.8571,5.8571
0.56640625,-2.343641326008998e-05,1.2200628915846542e-05,7.469369779507138e-05,-1.9030817868314593e-05,6.8571,5.8571
0.5703125,-3.270023370717932e-05,-9.284192446784114e-06,7.32151075608454e-05,-2.0479232791638012e-05,6.8571,5.8571
0.57421875,-3.466162891584645e-05,-1.3176807553215791e-05,9.276870902571149e-05,-1.5108027450980344e-05,6.8571,5.8571
0.578125,-2.9773228549629923e-05,-1.4625222476539207e-05,0.00010544233960479138,-1.706942265964747e-05,6.8571,5.8571
0.58203125,-3.07388384985122e-05,-1.0762782681010099e-05,9.325151400015264e-05,-2.343641326008998e-05,6.8571,5.8571
0.5859375,-3.1734623758297046e-05,-1.1215412344548667e-05,6.883968747997258e-05,-3.417882394140531e-05,6.8571,5.8571
0.58984375,-4.636964954604405e-05,-2.1475018051422858e-05,6.736109724574659e-05,-3.318303868162046e-05,6.8571,5.8571
0.59375,-4.440825433737693e-05,-3.611004383916986e-05,7.665509300373852e-05,-2.4402023208972258e-05,6.8571,5.8571
0.59765625,-3.955002928206298e-05,-3.417882394140531e-05,8.34747132677196e-05,-1.951362284275573e-05,6.8571,5.8571
0.6015625,-5.0292439963378296e-05,-2.244062800030513e-05,7.273230258640425e-05,-1.365961252765693e-05,6.8571,5.8571
0.60546875,-4.3442644388494646e-05,-1.755222763408861e-05,5.7101491538872404e-05,-2.0479232791638012e-05,6.8571,5.8571
0.609375,-3.1734623758297046e-05,-1.658661768520633e-05,6.491689706263834e-05,-2.1957823025863993e-05,6.8571,5.8571
0.61328125,-3.366584365606159e-05,-1.9030817868314593e-05,8.543610847638671e-05,-1.1698217318989807e-05,6.8571,5.8571
0.6171875,-4.099844420538639e-05,-1.5621007736324055e-05,8.788030865949497e-05,-1.2181022293430943e-05,6.8571,5.8571
0.62109375,-3.9037048996719265e-05,-2.2923432974746273e-05,7.665509300373852e-05,-1.9030817868314593e-05,6.8571,5.8571
0.625,-3.955002928206298e-05,-1.3176807553215791e-05,5.2726071457999595e-05,-2.343641326008998e-05,6.8571,5.8571
0.62890625,-4.099844420538639e-05,-5.391577340352436e-06,3.0758445120927794e-05,-2.343641326008998e-05,6.8571,5.8571
0.6328125,-4.5886844571602915e-05,-1.365961252765693e-05,5.076467624933246e-05,-2.391921823453112e-05,6.8571,5.8571
0.63671875,-4.051563923094525e-05,-3.91298710612645e-06,6.835688250553144e-05,-2.4402023208972258e-05,6.8571,5.8571
0.640625,-2.0479232791638012e-05,-6.839992263675851e-06,6.44340920881972e-05,-9.284192446784114e-06,6.8571,5.8571
0.64453125,-2.585043813229567e-05,-7.835777523460699e-06,6.44340920881972e-05,-4.395792080567588e-06,6.8571,5.8571
0.6484375,-2.9773228549629923e-05,3.902418417639477e-06,4.83204760662242e-05,-2.585043813229567e-05,6.8571,5.8571
0.65234375,-3.122164347295334e-05,-9.284192446784114e-06,5.320887643244073e-05,-2.391921823453112e-05,6.8571,5.8571
0.65625,-3.0256033524071058e-05,-1.2181022293430943e-05,7.077090737773713e-05,-1.5108027450980344e-05,6.8571,5.8571
0.66015625,-3.221742873273818e-05,4.385223392080615e-06,7.909929318684677e-05,-2.244062800030513e-05,6.8571,5.8571
0.6640625,-2.9773228549629923e-05,-1.706942265964747e-05,7.614211271839479e-05,-2.099221307698172e-05,6.8571,5.8571
0.66796875,-2.4884828183413397e-05,-2.391921823453112e-05,4.635908085755708e-05,-2.7329028366521658e-05,6.8571,5.8571
0.671875,-2.684622339208052e-05,-7.835777523460699e-06,5.173028619821474e-05,-3.9037048996719265e-05,6.8571,5.8571
0.67578125,-2.4884828183413397e-05,1.9410232089723515e-06,8.884591860837725e-05,-3.1734623758297046e-05,6.8571,5.8571
0.6796875,-3.0256033524071058e-05,-9.766997421225251e-06,0.00010251533444724197,-1.5621007736324055e-05,6.8571,5.8571
0.68359375,-2.099221307698172e-05,-3.1734623758297046e-05,6.054147698176551e-05,-1.0279977706568962e-05,6.8571,5.8571
0.6875,-1.3176807553215791e-05,-2.7329028366521658e-05,3.172405506981008e-05,-1.6103812710765193e-05,6.8571,5.8571
0.69140625,-2.536763315785453e-05,-1.951362284275573e-05,5.173028619821474e-05,-1.365961252765693e-05,6.8571,5.8571
0.6953125,-3.0256033524071058e-05,-2.099221307698172e-05,6.491689706263834e-05,-1.999642781719687e-05,6.8571,5.8571
0.69921875,-2.8807618600747643e-05,-1.8548012893873455e-05,8.054770811017019e-05,-2.9290423575188785e-05,6.8571,5.8571
0.703125,-2.4884828183413397e-05,-1.2694002578774653e-05,6.298567716487377e-05,-3.758863407339585e-05,6.8571,5.8571
0.70703125,-3.318303868162046e-05,-1.5108027450980344e-05,3.905665561913486e-05,-4.440825433737693e-05,6.8571,5.8571
0.7109375,-3.5144433890287585e-05,-3.0256033524071058e-05,4.635908085755708e-05,-3.1734623758297046e-05,6.8571,5.8571
0.71484375,-2.391921823453112e-05,-1.2181022293430943e-05,6.639548729686431e-05,-2.099221307698172e-05,6.8571,5.8571
0.71875,-3.122164347295334e-05,1.268343389028768e-05,8.739750368505383e-05,-1.414241750209807e-05,6.8571,5.8571
0.72265625,-4.977945967803459e-05,-1.8065207919432316e-05,9.86227193408103e-05,2.423828183413491e-06,6.8571,5.8571
0.7265625,-5.0292439963378296e-05,-4.636964954604405e-05,7.224949761196312e-05,-6.839992263675851e-06,6.8571,5.8571
0.73046875,-3.6592848813611e-05,-4.6852454520485185e-05,4.0987875516899416e-05,-1.4625222476539207e-05,6.8571,5.8571
0.734375,-4.8331044754711176e-05,-5.466786004425112e-05,4.7837671091783066e-05,2.906633157854628e-06,6.8571,5.8571
0.73828125,-6.688886095979242e-05,-6.785447090867469e-05,5.7614471824216125e-05,1.2200628915846542e-05,6.8571,5.8571
0.7421875,-7.274287127489123e-05,-7.029867109178297e-05,6.002849669642181e-05,2.7318459678034683e-05,6.8571,5.8571
0.74609375,-7.711829135576405e-05,-5.9073455436026506e-05,5.6135881589990134e-05,3.7095260410467736e-05,6.8571,5.8571
0.75,-8.786070203707938e-05,-5.8590650461585364e-05,3.7095260410467736e-05,2.4391454520485282e-05,6.8571,5.8571
0.75390625,-9.471049761196303e-05,-7.663548638132291e-05,3.66124554360266e-05,9.756428732738279e-06,6.8571,5.8571
0.7578125,-9.374488766308075e-05,-8.007547182421602e-05,6.1024281956206664e-05,1.4644829098954804e-05,6.8571,5.8571
0.76171875,-0.00010300870811017008,-8.592948213931482e-05,6.539970203707947e-05,2.2460234622720732e-05,6.8571,5.8571
0.765625,-0.00012156652431525135,-9.42276926375219e-05,4.7354866117341924e-05,2.0498839414053606e-05,6.8571,5.8571
0.76953125,-0.0001240107244983596,-8.055827679865715e-05,5.224326648355845e-05,2.0498839414053606e-05,6.8571,5.8571
0.7734375,-0.00011571251400015255,-8.592948213931482e-05,5.468746666666672e-05,2.0016034439612467e-05,6.8571,5.8571
0.77734375,-0.00011130691860837716,-8.786070203707938e-05,7.176669263752198e-05,1.268343389028768e-05,6.8571,5.8571
0.78125,-0.00010545290829327835,-7.711829135576405e-05,7.909929318684677e-05,5.3508333409628926e-06,6.8571,5.8571
0.78515625,-0.00010008170295262068,-7.763127164110775e-05,5.517027164110786e-05,8.277838498512291e-06,6.8571,5.8571
0.7890625,-9.323190737773704e-05,-7.711829135576405e-05,5.661868656443127e-05,1.1204843656061694e-05,6.8571,5.8571
0.79296875,-9.178349245441363e-05,-9.226629742885477e-05,6.346848213931492e-05,1.4582182345312143e-06,6.8571,5.8571
0.796875,-9.763750276951244e-05,-7.711829135576405e-05,9.032450884260324e-05,-2.099221307698172e-05,6.8571,5.8571
0.80078125,-9.812030774395357e-05,-5.566364530403597e-05,0.00010544233960479138,-2.343641326008998e-05,6.8571,5.8571
0.8046875,-8.200669172198057e-05,-6.640605598535128e-05,7.32151075608454e-05,-7.835777523460699e-06,6.8571,5.8571
0.80859375,-7.419128619821463e-05,-6.882008085755699e-05,4.343207570000768e-05,1.0239233707179416e-05,6.8571,5.8571
0.8125,-8.300247698176542e-05,-5.32194451209277e-05,5.417448638132301e-05,1.0722038681620556e-05,6.8571,5.8571
0.81640625,-8.300247698176542e-05,-3.318303868162046e-05,6.932249245441371e-05,9.754132600900752e-07,6.8571,5.8571
0.8203125,-5.955626041046764e-05,-3.758863407339585e-05,5.7614471824216125e-05,4.624329747463669e-07,6.8571,5.8571
0.82421875,-5.61464502784771e-05,-4.247703443961237e-05,5.517027164110786e-05,-2.099221307698172e-05,6.8571,5.8571
0.828125,-7.274287127489123e-05,-4.099844420538639e-05,4.5876275883115946e-05,-2.7811833340962797e-05,6.8571,5.8571
0.83203125,-6.688886095979242e-05,-3.221742873273818e-05,4.53934709086748e-05,1.0239233707179416e-05,6.8571,5.8571
0.8359375,-4.977945967803459e-05,-1.414241750209807e-05,4.8803281040665336e-05,6.346618600747739e-06,6.8571,5.8571
0.83984375,-5.0292439963378296e-05,-2.4645721828030353e-06,6.15070869306478e-05,-1.2181022293430943e-05,6.8571,5.8571
0.84375,-4.5886844571602915e-05,-1.365961252765693e-05,5.661868656443127e-05,-4.908772365911297e-06,6.8571,5.8571
0.84765625,-4.099844420538639e-05,-6.357187289234713e-06,2.8314244937819535e-05,4.868028366521752e-06,6.8571,5.8571
0.8515625,-3.855424402227812e-05,9.756428732738279e-06,2.6835654703593547e-05,1.4582182345312143e-06,6.8571,5.8571
0.85546875,-3.611004383916986e-05,-2.4645721828030353e-06,4.83204760662242e-05,-1.4687869230181878e-06,6.8571,5.8571
0.859375,-3.6592848813611e-05,7.795033524071154e-06,6.1024281956206664e-05,5.3508333409628926e-06,6.8571,5.8571
0.86328125,-3.562723886472872e-05,6.346618600747739e-06,3.561667017624175e-05,-9.859819485770487e-07,6.8571,5.8571
0.8671875,-3.611004383916986e-05,-2.4645721828030353e-06,1.7089029282063067e-05,-1.1215412344548667e-05,6.8571,5.8571
0.87109375,-3.466162891584645e-05,6.346618600747739e-06,2.8797049912260674e-05,-2.099221307698172e-05,6.8571,5.8571
0.875,-3.611004383916986e-05,9.756428732738279e-06,4.491066593423366e-05,-3.6592848813611e-05,6.8571,5.8571
0.87890625,-3.318303868162046e-05,1.3649043839169954e-05,5.468746666666672e-05,-1.8548012893873455e-05,6.8571,5.8571
0.8828125,-2.9290423575188785e-05,2.0498839414053606e-05,5.1247481223773604e-05,3.3894381322957673e-06,6.8571,5.8571
0.88671875,-4.540403959716177e-05,1.4644829098954804e-05,2.3425844571603006e-05,-4.908772365911297e-06,6.8571,5.8571
0.890625,-4.492123462272064e-05,1.5610439047837082e-05,1.5127634073395942e-05,-1.5108027450980344e-05,6.8571,5.8571
0.89453125,-2.343641326008998e-05,1.7571834256504205e-05,2.4391454520485282e-05,-1.1215412344548667e-05,6.8571,5.8571
0.8984375,-1.6103812710765193e-05,2.098164438849474e-05,3.4651060227359474e-05,-1.2181022293430943e-05,6.8571,5.8571
0.90234375,-3.417882394140531e-05,1.609324402227822e-05,3.857385064469373e-05,-1.999642781719687e-05,6.8571,5.8571
0.90625,-3.955002928206298e-05,5.83363831540403e-06,2.3425844571603006e-05,-2.4884828183413397e-05,6.8571,5.8571
0.91015625,-3.221742873273818e-05,5.83363831540403e-06,1.0722038681620556e-05,-2.536763315785453e-05,6.8571,5.8571
0.9140625,-3.07388384985122e-05,4.868028366521752e-06,1.3649043839169954e-05,-1.999642781719687e-05,6.8571,5.8571
0.91796875,-3.5144433890287585e-05,8.277838498512291e-06,6.054147698176551e-05,-2.4402023208972258e-05,6.8571,5.8571
0.921875,-3.270023370717932e-05,-5.031769741359113e-07,7.372808784618911e-05,-2.636341841763938e-05,6.8571,5.8571
0.92578125,-2.1957823025863993e-05,-1.8065207919432316e-05,2.1464449362935886e-05,-1.414241750209807e-05,6.8571,5.8571
0.9296875,-2.7329028366521658e-05,-3.4301821316853118e-06,2.906633157854628e-06,-1.0762782681010099e-05,6.8571,5.8571
0.93359375,-2.7329028366521658e-05,-2.0371999694772212e-08,1.7089029282063067e-05,-1.706942265964747e-05,6.8571,5.8571
0.9375,-2.4402023208972258e-05,-7.3529725490195605e-06,3.268966501869235e-05,-2.1957823025863993e-05,6.8571,5.8571
0.94140625,-2.7329028366521658e-05,-1.1215412344548667e-05,3.320264530403606e-05,-2.099221307698172e-05,6.8571,5.8571
0.9453125,-3.122164347295334e-05,-2.4645721828030353e-06,2.4391454520485282e-05,-3.0256033524071058e-05,6.8571,5.8571
0.94921875,-2.8294638315403935e-05,2.906633157854628e-06,2.098164438849474e-05,-4.1481249179827527e-05,6.8571,5.8571
0.953125,-1.3176807553215791e-05,1.4582182345312143e-06,2.6835654703593547e-05,-4.247703443961237e-05,6.8571,5.8571
0.95703125,-1.365961252765693e-05,6.346618600747739e-06,4.931626132600905e-05,-2.9290423575188785e-05,6.8571,5.8571
0.9609375,-2.585043813229567e-05,1.3649043839169954e-05,3.416825525291833e-05,-2.2923432974746273e-05,6.8571,5.8571
0.96484375,-3.122164347295334e-05,-4.395792080567588e-06,-6.357187289234713e-06,-2.343641326008998e-05,6.8571,5.8571
0.96875,-2.684622339208052e-05,-7.835777523460699e-06,-1.706942265964747e-05,-2.2923432974746273e-05,6.8571,5.8571
0.97265625,-2.0479232791638012e-05,1.3649043839169954e-05,-9.766997421225251e-06,-2.1957823025863993e-05,6.8571,5.8571
0.9765625,-2.8294638315403935e-05,1.4131848813611096e-05,1.2200628915846542e-05,-2.4402023208972258e-05,6.8571,5.8571
0.98046875,-3.417882394140531e-05,1.6576048996719356e-05,3.905665561913486e-05,-2.8807618600747643e-05,6.8571,5.8571
0.984375,-2.343641326008998e-05,1.7571834256504205e-05,2.0498839414053606e-05,-3.366584365606159e-05,6.8571,5.8571
0.98828125,-2.4402023208972258e-05,1.268343389028768e-05,-9.766997421225251e-06,-3.6592848813611e-05,6.8571,5.8571
0.9921875,-3.758863407339585e-05,3.3894381322957673e-06,1.1204843656061694e-05,-3.807143904783699e-05,6.8571,5.8571
0.99609375,-3.1734623758297046e-05,1.4582182345312143e-06,2.9279854886701812e-05,-4.540403959716177e-05,6.8571,5.8571
1.0,-1.8065207919432316e-05,1.3649043839169954e-05,2.9279854886701812e-05,-3.6592848813611e-05,6.8571,5.8571
1.00390625,-3.758863407339585e-05,1.0239233707179416e-05,1.2200628915846542e-05,-1.951362284275573e-05,6.8571,5.8571
1.0078125,-5.566364530403597e-05,1.0722038681620556e-05,3.3894381322957673e-06,-1.8548012893873455e-05,6.8571,5.8571
1.01171875,-3.318303868162046e-05,8.760643472953433e-06,3.902418417639477e-06,-2.2923432974746273e-05,6.8571,5.8571
1.015625,-1.9030817868314593e-05,2.423828183413491e-06,-1.5621007736324055e-05,-2.9290423575188785e-05,6.8571,5.8571
1.01953125,-3.366584365606159e-05,8.760643472953433e-06,1.0722038681620556e-05,-3.221742873273818e-05,6.8571,5.8571
1.0234375,-3.562723886472872e-05,1.4582182345312143e-06,9.756428732738279e-06,-2.636341841763938e-05,6.8571,5.8571
1.02734375,-4.247703443961237e-05,3.902418417639477e-06,-1.6103812710765193e-05,-4.099844420538639e-05,6.8571,5.8571
1.03125,-4.540403959716177e-05,-3.4301821316853118e-06,-2.636341841763938e-05,-5.32194451209277e-05,6.8571,5.8571
1.03515625,-4.247703443961237e-05,-9.859819485770487e-07,1.0722038681620556e-05,-4.3925449362935795e-05,6.8571,5.8571
1.0390625,-3.9037048996719265e-05,4.385223392080615e-06,2.3908649546044144e-05,-4.3925449362935795e-05,6.8571,5.8571
1.04296875,-3.5144433890287585e-05,-7.835777523460699e-06,-4.908772365911297e-06,-5.1740854886701715e-05,6.8571,5.8571
1.046875,-3.0256033524071058e-05,-4.395792080567588e-06,-1.658661768520633e-05,-5.3702250095368834e-05,6.8571,5.8571
1.05078125,-2.9773228549629923e-05,-6.357187289234713e-06,-2.7329028366521658e-05,-4.0032834256504115e-05,6.8571,5.8571
1.0546875,-3.855424402227812e-05,-5.391577340352436e-06,6.82942357518888e-06,-2.585043813229567e-05,6.8571,5.8571
1.05859375,-2.684622339208052e-05,1.268343389028768e-05,3.36854502784772e-05,-2.1957823025863993e-05,6.8571,5.8571
1.0625,-2.244062800030513e-05,7.3122285496300165e-06,5.3508333409628926e-06,-2.4402023208972258e-05,6.8571,5.8571
1.06640625,-4.1481249179827527e-05,-1.4687869230181878e-06,-8.318582497901836e-06,-2.343641326008998e-05,6.8571,5.8571
1.0703125,-4.3442644388494646e-05,-3.91298710612645e-06,-1.5621007736324055e-05,-3.221742873273818e-05,6.8571,5.8571
1.07421875,-2.9290423575188785e-05,-1.5621007736324055e-05,-1.365961252765693e-05,-4.196405415426866e-05,6.8571,5.8571
1.078125,-2.8807618600747643e-05,4.385223392080615e-06,1.902024917982762e-05,-3.562723886472872e-05,6.8571,5.8571
1.08203125,-3.366584365606159e-05,1.8054639230945344e-05,2.9279854886701812e-05,-2.536763315785453e-05,6.8571,5.8571
1.0859375,-3.0256033524071058e-05,8.760643472953433e-06,8.277838498512291e-06,-1.5621007736324055e-05,6.8571,5.8571
1.08984375,-1.5108027450980344e-05,3.902418417639477e-06,-8.318582497901836e-06,-2.244062800030513e-05,6.8571,5.8571
1.09375,-1.755222763408861e-05,-3.4301821316853118e-06,6.346618600747739e-06,-3.1734623758297046e-05,6.8571,5.8571
1.09765625,-3.758863407339585e-05,-5.031769741359113e-07,4.7837671091783066e-05,-2.9290423575188785e-05,6.8571,5.8571
1.1015625,-3.5144433890287585e-05,5.83363831540403e-06,4.635908085755708e-05,-4.5886844571602915e-05,6.8571,5.8571
1.10546875,-1.8548012893873455e-05,8.277838498512291e-06,1.3649043839169954e-05,-4.247703443961237e-05,6.8571,5.8571
1.109375,-1.8065207919432316e-05,1.2200628915846542e-05,-5.031769741359113e-07,-3.270023370717932e-05,6.8571,5.8571
1.11328125,-3.562723886472872e-05,-1.2181022293430943e-05,1.4131848813611096e-05,-3.758863407339585e-05,6.8571,5.8571
1.1171875,-3.417882394140531e-05,-1.755222763408861e-05,2.9279854886701812e-05,-1.4625222476539207e-05,6.8571,5.8571
1.12109375,-2.244062800030513e-05,-7.835777523460699e-06,6.346618600747739e-06,-2.9473771572441725e-06,6.8571,5.8571
1.125,-2.7329028366521658e-05,4.868028366521752e-06,-5.031769741359113e-07,-1.1698217318989807e-05,6.8571,5.8571
1.12890625,-2.099221307698172e-05,-2.0371999694772212e-08,7.3122285496300165e-06,-3.562723886472872e-05,6.8571,5.8571
1.1328125,-1.3176807553215791e-05,2.906633157854628e-06,9.756428732738279e-06,-3.955002928206298e-05,6.8571,5.8571
1.13671875,-1.658661768520633e-05,1.3166238864728817e-05,3.5133865201800616e-05,-5.031769741359113e-07,6.8571,5.8571
1.140625,-2.684622339208052e-05,5.83363831540403e-06,5.2726071457999595e-05,6.346618600747739e-06,6.8571,5.8571
1.14453125,-3.1734623758297046e-05,7.3122285496300165e-06,3.905665561913486e-05,-1.5108027450980344e-05,6.8571,5.8571
1.1484375,-2.585043813229567e-05,-2.4645721828030353e-06,3.3894381322957673e-06,-3.366584365606159e-05,6.8571,5.8571
1.15234375,-1.658661768520633e-05,8.760643472953433e-06,4.385223392080615e-06,-3.710582909895471e-05,6.8571,5.8571
1.15625,-1.8065207919432316e-05,2.1947254337377024e-05,3.0245464835584086e-05,-2.391921823453112e-05,6.8571,5.8571
1.16015625,-2.8807618600747643e-05,8.760643472953433e-06,4.7354866117341924e-05,-2.0479232791638012e-05,6.8571,5.8571
1.1640625,-2.099221307698172e-05,1.9410232089723515e-06,4.24664657511254e-05,-2.2923432974746273e-05,6.8571,5.8571
1.16796875,-1.6103812710765193e-05,7.3122285496300165e-06,6.82942357518888e-06,-1.999642781719687e-05,6.8571,5.8571
1.171875,-2.585043813229567e-05,8.760643472953433e-06,3.902418417639477e-06,-2.536763315785453e-05,6.8571,5.8571
1.17578125,-2.536763315785453e-05,3.3894381322957673e-06,3.220686004425121e-05,-2.585043813229567e-05,6.8571,5.8571
1.1796875,-2.0479232791638012e-05,4.624329747463669e-07,4.1500855802243124e-05,-1.1215412344548667e-05,6.8571,5.8571
1.18359375,-2.4884828183413397e-05,4.624329747463669e-07,4.3945055985351385e-05,-1.2694002578774653e-05,6.8571,5.8571
1.1875,-2.636341841763938e-05,-5.874382314793575e-06,2.294303959716187e-05,-2.244062800030513e-05,6.8571,5.8571
1.19140625,-2.684622339208052e-05,-9.859819485770487e-07,2.1464449362935886e-05,-1.5108027450980344e-05,6.8571,5.8571
1.1953125,-2.8294638315403935e-05,-1.2694002578774653e-05,5.076467624933246e-05,-1.1215412344548667e-05,6.8571,5.8571
1.19921875,-2.684622339208052e-05,-1.9030817868314593e-05,5.076467624933246e-05,-2.343641326008998e-05,6.8571,5.8571
1.203125,-3.611004383916986e-05,-1.1215412344548667e-05,4.7837671091783066e-05,-3.270023370717932e-05,6.8571,5.8571
1.20703125,-3.318303868162046e-05,-1.951362284275573e-05,3.124125009536893e-05,-3.710582909895471e-05,6.8571,5.8571
1.2109375,-1.706942265964747e-05,-1.1698217318989807e-05,1.2200628915846542e-05,-3.0256033524071058e-05,6.8571,5.8571
1.21484375,-2.9290423575188785e-05,-1.0762782681010099e-05,3.172405506981008e-05,-2.8807618600747643e-05,6.8571,5.8571
1.21875,-3.417882394140531e-05,-2.1475018051422858e-05,4.198366077668426e-05,-4.3925449362935795e-05,6.8571,5.8571
1.22265625,-2.684622339208052e-05,-1.706942265964747e-05,5.028187127489133e-05,-4.099844420538639e-05,6.8571,5.8571
1.2265625,-2.4402023208972258e-05,-1.5108027450980344e-05,4.635908085755708e-05,-1.658661768520633e-05,6.8571,5.8571
1.23046875,-2.7811833340962797e-05,-1.5621007736324055e-05,1.268343389028768e-05,-1.5108027450980344e-05,6.8571,5.8571
1.234375,-2.8807618600747643e-05,-1.951362284275573e-05,6.82942357518888e-06,-3.122164347295334e-05,6.8571,5.8571
1.23828125,-2.4884828183413397e-05,-1.706942265964747e-05,2.0016034439612467e-05,-3.855424402227812e-05,6.8571,5.8571
1.2421875,-2.1957823025863993e-05,-1.8065207919432316e-05,1.7571834256504205e-05,-4.3925449362935795e-05,6.8571,5.8571
1.24609375,-2.4884828183413397e-05,-5.874382314793575e-06,1.8537444205386482e-05,-3.6592848813611e-05,6.8571,5.8571
1.25,-4.492123462272064e-05,-1.0762782681010099e-05,9.27362375829714e-06,-2.684622339208052e-05,6.8571,5.8571
1.25390625,-3.466162891584645e-05,-2.536763315785453e-05,-6.839992263675851e-06,-2.391921823453112e-05,6.8571,5.8571
1.2578125,-2.099221307698172e-05,-2.4884828183413397e-05,-4.908772365911297e-06,-1.999642781719687e-05,6.8571,5.8571
1.26171875,-2.684622339208052e-05,-1.365961252765693e-05,-3.91298710612645e-06,-3.611004383916986e-05,6.8571,5.8571
1.265625,-2.636341841763938e-05,-7.3529725490195605e-06,4.624329747463669e-07,-3.855424402227812e-05,6.8571,5.8571
1.26953125,-2.9773228549629923e-05,-2.244062800030513e-05,-3.366584365606159e-05,-3.1734623758297046e-05,6.8571,5.8571
1.2734375,-3.466162891584645e-05,-2.7329028366521658e-05,-4.196405415426866e-05,-4.540403959716177e-05,6.8571,5.8571
1.27734375,-3.318303868162046e-05,-2.244062800030513e-05,-1.0279977706568962e-05,-4.8331044754711176e-05,6.8571,5.8571
1.28125,-2.536763315785453e-05,-9.766997421225251e-06,-1.5108027450980344e-05,-6.785447090867469e-05,6.8571,5.8571
1.28515625,-3.0256033524071058e-05,-1.9030817868314593e-05,-3.807143904783699e-05,-6.103485064469363e-05,6.8571,5.8571
1.2890625,-4.6852454520485185e-05,-5.566364530403597e-05,-6.052187035934992e-05,-1.1215412344548667e-05,6.8571,5.8571
1.29296875,-5.61464502784771e-05,-4.295983941405351e-05,-3.221742873273818e-05,-5.031769741359113e-07,6.8571,5.8571
1.296875,-5.2223659861142857e-05,-6.833727588311585e-05,3.3894381322957673e-06,-3.611004383916986e-05,6.8571,5.8571
1.30078125,-4.881384972915231e-05,-0.00010156029318684668,-1.8065207919432316e-05,-2.8294638315403935e-05,6.8571,5.8571
1.3046875,-5.662925525291824e-05,-8.592948213931482e-05,-6.344887551689931e-05,2.1464449362935886e-05,6.8571,5.8571
1.30859375,-6.541027072556645e-05,-0.00010397431805905238,-0.00010204309816128781,1.3166238864728817e-05,6.8571,5.8571
1.3125,-6.785447090867469e-05,-0.00011278550884260314,-9.323190737773704e-05,-1.4687869230181878e-06,6.8571,5.8571
1.31640625,-7.37084812237735e-05,-0.00011960512910658422,-7.711829135576405e-05,1.268343389028768e-05,6.8571,5.8571
1.3203125,-8.592948213931482e-05,-0.00011912232413214308,-7.226006630045009e-05,1.4131848813611096e-05,6.8571,5.8571
1.32421875,-9.030490222018763e-05,-0.00013816294531166548,-8.24894966964217e-05,1.6576048996719356e-05,6.8571,5.8571
1.328125,-9.030490222018763e-05,-0.00014646115580987254,-9.715469779507129e-05,6.82942357518888e-06,6.8571,5.8571
1.33203125,-9.6189087846189e-05,-0.00014208573572899974,-9.763750276951244e-05,-4.908772365911297e-06,6.8571,5.8571
1.3359375,-9.56761075608453e-05,-0.00011815671418326081,-7.126428104066525e-05,-1.0762782681010099e-05,6.8571,5.8571
1.33984375,-8.737789706263823e-05,-9.56761075608453e-05,-3.807143904783699e-05,-2.099221307698172e-05,6.8571,5.8571
1.34375,-7.226006630045009e-05,-0.00010497010331883722,-4.247703443961237e-05,2.423828183413491e-06,6.8571,5.8571
1.34765625,-6.200046059357591e-05,-9.959889797817954e-05,-5.515066501869225e-05,1.609324402227822e-05,6.8571,5.8571
1.3515625,-7.470426648355836e-05,-9.226629742885477e-05,-6.589307570000758e-05,5.83363831540403e-06,6.8571,5.8571
1.35546875,-7.763127164110775e-05,-9.374488766308075e-05,-5.0292439963378296e-05,-3.91298710612645e-06,6.8571,5.8571
1.359375,-6.296607054245818e-05,-6.344887551689931e-05,-5.566364530403597e-05,-3.91298710612645e-06,6.8571,5.8571
1.36328125,-5.662925525291824e-05,-3.9037048996719265e-05,-8.24894966964217e-05,-1.981767208361896e-06,6.8571,5.8571
1.3671875,-5.61464502784771e-05,-5.515066501869225e-05,-8.592948213931482e-05,-5.031769741359113e-07,6.8571,5.8571
1.37109375,-5.8590650461585364e-05,-6.344887551689931e-05,-9.226629742885477e-05,-1.1215412344548667e-05,6.8571,5.8571
1.375,-5.125804991226058e-05,-6.103485064469363e-05,-7.859688158999003e-05,-2.343641326008998e-05,6.8571,5.8571
1.37890625,-4.7335259494926333e-05,-4.3925449362935795e-05,-6.492746575112531e-05,-3.0256033524071058e-05,6.8571,5.8571
1.3828125,-6.0039065384908776e-05,-4.3442644388494646e-05,-6.0039065384908776e-05,-3.318303868162046e-05,6.8571,5.8571
1.38671875,-5.61464502784771e-05,-5.759486520180052e-05,-6.589307570000758e-05,-2.8807618600747643e-05,6.8571,5.8571
1.390625,-3.710582909895471e-05,-6.737166593423355e-05,-7.663548638132291e-05,-3.5144433890287585e-05,6.8571,5.8571
1.39453125,-3.9037048996719265e-05,-6.344887551689931e-05,-4.6852454520485185e-05,-3.6592848813611e-05,6.8571,5.8571
1.3984375,-3.9037048996719265e-05,-4.5886844571602915e-05,-2.244062800030513e-05,-2.099221307698172e-05,6.8571,5.8571
1.40234375,-3.855424402227812e-05,-6.296607054245818e-05,-2.4884828183413397e-05,-1.999642781719687e-05,6.8571,5.8571
1.40625,-3.221742873273818e-05,-6.248326556801704e-05,-5.1740854886701715e-05,-2.684622339208052e-05,6.8571,5.8571
1.41015625,-2.7811833340962797e-05,-4.929665470359345e-05,-4.977945967803459e-05,-2.1957823025863993e-05,6.8571,5.8571
1.4140625,-4.247703443961237e-05,-7.322567624933236e-05,-3.466162891584645e-05,-2.8294638315403935e-05,6.8571,5.8571
1.41796875,-5.32194451209277e-05,-7.663548638132291e-05,-2.343641326008998e-05,-3.6592848813611e-05,6.8571,5.8571
1.421875,-4.5886844571602915e-05,-6.0039065384908776e-05,-7.835777523460699e-06,-5.515066501869225e-05,6.8571,5.8571
1.42578125,-3.855424402227812e-05,-4.977945967803459e-05,-1.1698217318989807e-05,-6.688886095979242e-05,6.8571,5.8571
1.4296875,-4.540403959716177e-05,-4.492123462272064e-05,-1.1215412344548667e-05,-4.492123462272064e-05,6.8571,5.8571
1.43359375,-3.318303868162046e-05,-4.7335259494926333e-05,-1.365961252765693e-05,-5.515066501869225e-05,6.8571,5.8571
1.4375,-1.658661768520633e-05,-3.318303868162046e-05,-1.3176807553215791e-05,-5.270646483558399e-05,6.8571,5.8571
1.44140625,-2.1475018051422858e-05,-1.8548012893873455e-05,-1.999642781719687e-05,-1.1215412344548667e-05,6.8571,5.8571
1.4453125,-2.2923432974746273e-05,-8.318582497901836e-06,-1.706942265964747e-05,1.0239233707179416e-05,6.8571,5.8571
1.44921875,-1.8548012893873455e-05,-2.4645721828030353e-06,-1.414241750209807e-05,5.3508333409628926e-06,6.8571,5.8571
1.453125,-1.2181022293430943e-05,-1.5108027450980344e-05,1.1204843656061694e-05,-1.981767208361896e-06,6.8571,5.8571
1.45703125,-1.2181022293430943e-05,-7.3529725490195605e-06,5.076467624933246e-05,-2.244062800030513e-05,6.8571,5.8571
1.4609375,-1.658661768520633e-05,-5.874382314793575e-06,3.0245464835584086e-05,-4.196405415426866e-05,6.8571,5.8571
1.46484375,-1.706942265964747e-05,-1.0279977706568962e-05,-8.801387472342974e-06,-4.977945967803459e-05,6.8571,5.8571
1.46875,-1.8548012893873455e-05,-4.908772365911297e-06,-2.391921823453112e-05,-4.5886844571602915e-05,6.8571,5.8571
1.47265625,-2.585043813229567e-05,4.624329747463669e-07,1.0722038681620556e-05,-4.0032834256504115e-05,6.8571,5.8571
1.4765625,-2.343641326008998e-05,-6.357187289234713e-06,4.687206114290079e-05,-4.3925449362935795e-05,6.8571,5.8571
1.48046875,-5.874382314793575e-06,-5.391577340352436e-06,4.3945055985351385e-05,-4.881384972915231e-05,6.8571,5.8571
1.484375,-5.874382314793575e-06,7.3122285496300165e-06,2.2460234622720732e-05,-2.9290423575188785e-05,6.8571,5.8571
1.48828125,-2.244062800030513e-05,-9.766997421225251e-06,-2.4645721828030353e-06,-2.536763315785453e-05,6.8571,5.8571
1.4921875,-3.0256033524071058e-05,-2.9773228549629923e-05,9.756428732738279e-06,-3.122164347295334e-05,6.8571,5.8571
1.49609375,-2.9290423575188785e-05,-1.9030817868314593e-05,4.635908085755708e-05,-3.07388384985122e-05,6.8571,5.8571
1.5,-2.7811833340962797e-05,-2.4884828183413397e-05,6.539970203707947e-05,-4.051563923094525e-05,6.8571,5.8571
1.50390625,-1.414241750209807e-05,-3.221742873273818e-05,3.905665561913486e-05,-5.61464502784771e-05,6.8571,5.8571
1.5078125,-9.284192446784114e-06,-4.3442644388494646e-05,7.3122285496300165e-06,-5.0292439963378296e-05,6.8571,5.8571
1.51171875,-9.284192446784114e-06,-4.8331044754711176e-05,3.902418417639477e-06,-1.755222763408861e-05,6.8571,5.8571
1.515625,-1.9030817868314593e-05,-3.417882394140531e-05,3.806087035935001e-05,-2.343641326008998e-05,6.8571,5.8571
1.51953125,-2.684622339208052e-05,-3.07388384985122e-05,6.980529742885485e-05,-2.7811833340962797e-05,6.8571,5.8571
1.5234375,-1.414241750209807e-05,-3.318303868162046e-05,5.1247481223773604e-05,-1.0279977706568962e-05,6.8571,5.8571
1.52734375,-5.391577340352436e-06,-3.955002928206298e-05,2.3425844571603006e-05,-2.636341841763938e-05,6.8571,5.8571
1.53125,-9.766997421225251e-06,-3.855424402227812e-05,1.5127634073395942e-05,-4.099844420538639e-05,6.8571,5.8571
1.53515625,-1.8548012893873455e-05,-2.1475018051422858e-05,4.442786095979252e-05,-1.5621007736324055e-05,6.8571,5.8571
1.5390625,-1.658661768520633e-05,-1.755222763408861e-05,6.835688250553144e-05,-1.981767208361896e-06,6.8571,5.8571
1.54296875,-1.5108027450980344e-05,-1.5621007736324055e-05,5.2726071457999595e-05,-1.8065207919432316e-05,6.8571,5.8571
1.546875,-1.4625222476539207e-05,9.754132600900752e-07,1.3649043839169954e-05,-4.196405415426866e-05,6.8571,5.8571
1.55078125,-1.414241750209807e-05,-9.859819485770487e-07,4.624329747463669e-07,-2.9290423575188785e-05,6.8571,5.8571
1.5546875,-1.1215412344548667e-05,-1.2694002578774653e-05,2.0016034439612467e-05,-1.5621007736324055e-05,6.8571,5.8571
1.55859375,-1.755222763408861e-05,-1.5108027450980344e-05,4.442786095979252e-05,-2.343641326008998e-05,6.8571,5.8571
1.5625,-2.7811833340962797e-05,-9.766997421225251e-06,4.0505070542458274e-05,-2.536763315785453e-05,6.8571,5.8571
1.56640625,-2.8294638315403935e-05,-5.391577340352436e-06,-6.839992263675851e-06,-2.636341841763938e-05,6.8571,5.8571
1.5703125,-1.999642781719687e-05,-2.099221307698172e-05,-2.0479232791638012e-05,-3.1734623758297046e-05,6.8571,5.8571
1.57421875,-1.8065207919432316e-05,-3.6592848813611e-05,1.6576048996719356e-05,-2.684622339208052e-05,6.8571,5.8571
1.578125,-2.9773228549629923e-05,-4.0032834256504115e-05,5.809727679865726e-05,-2.7811833340962797e-05,6.8571,5.8571
1.58203125,-1.5108027450980344e-05,-3.417882394140531e-05,5.954569172198067e-05,-3.417882394140531e-05,6.8571,5.8571
1.5859375,3.3894381322957673e-06,-3.122164347295334e-05,9.27362375829714e-06,-4.0032834256504115e-05,6.8571,5.8571
1.58984375,-9.284192446784114e-06,-4.051563923094525e-05,-1.755222763408861e-05,-4.1481249179827527e-05,6.8571,5.8571
1.59375,-2.7329028366521658e-05,-4.247703443961237e-05,5.3508333409628926e-06,-2.1957823025863993e-05,6.8571,5.8571
1.59765625,-2.343641326008998e-05,-4.5886844571602915e-05,2.587004475471127e-05,-1.414241750209807e-05,6.8571,5.8571
1.6015625,-6.357187289234713e-06,-3.562723886472872e-05,2.3908649546044144e-05,-2.536763315785453e-05,6.8571,5.8571
1.60546875,-1.4625222476539207e-05,-2.4402023208972258e-05,1.6576048996719356e-05,-2.9773228549629923e-05,6.8571,5.8571
1.609375,-3.122164347295334e-05,-1.755222763408861e-05,3.3894381322957673e-06,-2.7811833340962797e-05,6.8571,5.8571
1.61328125,-2.9290423575188785e-05,-1.9030817868314593e-05,-1.981767208361896e-06,-1.951362284275573e-05,6.8571,5.8571
1.6171875,-1.0762782681010099e-05,-8.801387472342974e-06,2.4391454520485282e-05,-1.2694002578774653e-05,6.8571,5.8571
1.62109375,-1.0762782681010099e-05,3.902418417639477e-06,5.7101491538872404e-05,-2.8294638315403935e-05,6.8571,5.8571
1.625,-2.536763315785453e-05,4.624329747463669e-07,1.609324402227822e-05,-3.221742873273818e-05,6.8571,5.8571
1.62890625,-2.391921823453112e-05,3.3894381322957673e-06,-6.0039065384908776e-05,-2.4884828183413397e-05,6.8571,5.8571
1.6328125,-2.343641326008998e-05,2.423828183413491e-06,-5.711206022735938e-05,-2.7811833340962797e-05,6.8571,5.8571
1.63671875,-2.8294638315403935e-05,1.8054639230945344e-05,2.906633157854628e-06,-2.7329028366521658e-05,6.8571,5.8571
1.640625,-2.4402023208972258e-05,4.491066593423366e-05,3.0245464835584086e-05,-3.318303868162046e-05,6.8571,5.8571
1.64453125,-1.755222763408861e-05,4.635908085755708e-05,1.1204843656061694e-05,-4.492123462272064e-05,6.8571,5.8571
1.6484375,-3.366584365606159e-05,2.587004475471127e-05,-4.908772365911297e-06,-3.6592848813611e-05,6.8571,5.8571
1.65234375,-3.855424402227812e-05,1.8054639230945344e-05,1.2200628915846542e-05,-1.951362284275573e-05,6.8571,5.8571
1.65625,-2.7329028366521658e-05,1.5610439047837082e-05,3.66124554360266e-05,-1.0279977706568962e-05,6.8571,5.8571
1.66015625,-3.0256033524071058e-05,2.0498839414053606e-05,3.320264530403606e-05,-1.5621007736324055e-05,6.8571,5.8571
1.6640625,-3.221742873273818e-05,3.268966501869235e-05,2.7318459678034683e-05,-2.4402023208972258e-05,6.8571,5.8571
1.66796875,-3.9037048996719265e-05,4.198366077668426e-05,-1.981767208361896e-06,-1.999642781719687e-05,6.8571,5.8571
1.671875,-3.366584365606159e-05,3.268966501869235e-05,-1.0279977706568962e-05,-2.7329028366521658e-05,6.8571,5.8571
1.67578125,-1.9030817868314593e-05,3.0245464835584086e-05,3.561667017624175e-05,-4.636964954604405e-05,6.8571,5.8571
1.6796875,-2.9290423575188785e-05,3.612965046158546e-05,5.224326648355845e-05,-3.366584365606159e-05,6.8571,5.8571
1.68359375,-4.540403959716177e-05,3.757806538490887e-05,4.83204760662242e-05,-1.658661768520633e-05,6.8571,5.8571
1.6875,-3.562723886472872e-05,3.320264530403606e-05,6.346618600747739e-06,-2.4402023208972258e-05,6.8571,5.8571
1.69140625,-1.951362284275573e-05,4.002226556801714e-05,-2.391921823453112e-05,-2.585043813229567e-05,6.8571,5.8571
1.6953125,-2.1957823025863993e-05,4.8803281040665336e-05,3.220686004425121e-05,-1.999642781719687e-05,6.8571,5.8571
1.69921875,-3.221742873273818e-05,5.028187127489133e-05,8.688452339971013e-05,-2.7811833340962797e-05,6.8571,5.8571
1.703125,-2.684622339208052e-05,4.979906630045019e-05,7.469369779507138e-05,-3.6592848813611e-05,6.8571,5.8571
1.70703125,-1.9030817868314593e-05,4.83204760662242e-05,3.268966501869235e-05,-2.8807618600747643e-05,6.8571,5.8571
1.7109375,-2.684622339208052e-05,3.561667017624175e-05,1.950305415426876e-05,-1.8065207919432316e-05,6.8571,5.8571
1.71484375,-2.7329028366521658e-05,2.0016034439612467e-05,4.491066593423366e-05,-1.8548012893873455e-05,6.8571,5.8571
1.71875,-1.365961252765693e-05,2.4391454520485282e-05,6.539970203707947e-05,-3.122164347295334e-05,6.8571,5.8571
1.72265625,-1.0762782681010099e-05,2.5387239780270135e-05,5.1247481223773604e-05,-4.0032834256504115e-05,6.8571,5.8571
1.7265625,-1.8065207919432316e-05,3.66124554360266e-05,3.806087035935001e-05,-2.7811833340962797e-05,6.8571,5.8571
1.73046875,-1.755222763408861e-05,4.24664657511254e-05,4.294927072556654e-05,-1.9030817868314593e-05,6.8571,5.8571
1.734375,-1.4625222476539207e-05,3.416825525291833e-05,5.2726071457999595e-05,-2.7811833340962797e-05,6.8571,5.8571
1.73828125,-1.2694002578774653e-05,4.1500855802243124e-05,7.614211271839479e-05,-2.8807618600747643e-05,6.8571,5.8571
1.7421875,-2.4402023208972258e-05,4.198366077668426e-05,8.836311363393612e-05,-9.766997421225251e-06,6.8571,5.8571
1.74609375,-3.318303868162046e-05,2.9279854886701812e-05,7.0288102403296e-05,-1.2181022293430943e-05,6.8571,5.8571
1.75,-1.9030817868314593e-05,2.7831439963378394e-05,1.609324402227822e-05,-1.999642781719687e-05,6.8571,5.8571
1.75390625,-2.4884828183413397e-05,4.0505070542458274e-05,1.8537444205386482e-05,-4.908772365911297e-06,6.8571,5.8571
1.7578125,-3.318303868162046e-05,3.612965046158546e-05,6.395128711375605e-05,-2.9473771572441725e-06,6.8571,5.8571
1.76171875,-2.585043813229567e-05,4.7354866117341924e-05,7.421089282063025e-05,-6.839992263675851e-06,6.8571,5.8571
1.765625,-3.1734623758297046e-05,5.468746666666672e-05,5.3691681406881866e-05,-1.1698217318989807e-05,6.8571,5.8571
1.76953125,-4.196405415426866e-05,2.5387239780270135e-05,1.6576048996719356e-05,-1.2694002578774653e-05,6.8571,5.8571
1.7734375,-3.710582909895471e-05,1.8054639230945344e-05,2.9762659861142947e-05,-1.0279977706568962e-05,6.8571,5.8571
1.77734375,-3.07388384985122e-05,2.7318459678034683e-05,7.713789797817965e-05,-1.4625222476539207e-05,6.8571,5.8571
1.78125,-2.2923432974746273e-05,4.7354866117341924e-05,8.6401718425269e-05,-2.585043813229567e-05,6.8571,5.8571
1.78515625,-2.343641326008998e-05,4.687206114290079e-05,4.8803281040665336e-05,-2.099221307698172e-05,6.8571,5.8571
1.7890625,-4.051563923094525e-05,3.4651060227359474e-05,4.294927072556654e-05,-2.099221307698172e-05,6.8571,5.8571
1.79296875,-3.1734623758297046e-05,3.561667017624175e-05,5.954569172198067e-05,-2.9773228549629923e-05,6.8571,5.8571
1.796875,-2.4402023208972258e-05,2.8314244937819535e-05,7.32151075608454e-05,-1.8065207919432316e-05,6.8571,5.8571
1.80078125,-4.051563923094525e-05,3.220686004425121e-05,8.447049852750443e-05,-9.766997421225251e-06,6.8571,5.8571
1.8046875,-4.196405415426866e-05,2.7831439963378394e-05,7.421089282063025e-05,-1.2694002578774653e-05,6.8571,5.8571
1.80859375,-3.955002928206298e-05,1.2200628915846542e-05,6.591268232242317e-05,-4.908772365911297e-06,6.8571,5.8571
1.8125,-4.1481249179827527e-05,2.3425844571603006e-05,5.809727679865726e-05,5.3508333409628926e-06,6.8571,5.8571
1.81640625,-4.247703443961237e-05,3.7095260410467736e-05,5.809727679865726e-05,-2.0371999694772212e-08,6.8571,5.8571
1.8203125,-4.5886844571602915e-05,2.635284972915241e-05,9.421712394903491e-05,-5.391577340352436e-06,6.8571,5.8571
1.82421875,-4.196405415426866e-05,2.8314244937819535e-05,9.56957141832609e-05,-1.1215412344548667e-05,6.8571,5.8571
1.828125,-3.221742873273818e-05,3.0245464835584086e-05,5.224326648355845e-05,-6.357187289234713e-06,6.8571,5.8571
1.83203125,-3.758863407339585e-05,2.8314244937819535e-05,5.2726071457999595e-05,-1.8065207919432316e-05,6.8571,5.8571
1.8359375,-4.0032834256504115e-05,4.0505070542458274e-05,9.421712394903491e-05,-3.5144433890287585e-05,6.8571,5.8571
1.83984375,-3.1734623758297046e-05,4.0987875516899416e-05,8.006490313572906e-05,-2.9773228549629923e-05,6.8571,5.8571
1.84375,-2.9290423575188785e-05,5.320887643244073e-05,4.002226556801714e-05,-2.7811833340962797e-05,6.8571,5.8571
1.84765625,-3.221742873273818e-05,6.346848213931492e-05,3.320264530403606e-05,-1.5621007736324055e-05,6.8571,5.8571
1.8515625,-3.270023370717932e-05,3.561667017624175e-05,2.8797049912260674e-05,1.4131848813611096e-05,6.8571,5.8571
1.85546875,-1.6103812710765193e-05,4.635908085755708e-05,5.076467624933246e-05,2.587004475471127e-05,6.8571,5.8571
1.859375,-1.999642781719687e-05,5.076467624933246e-05,7.128388766308085e-05,1.4644829098954804e-05,6.8571,5.8571
1.86328125,-3.6592848813611e-05,3.0245464835584086e-05,5.1247481223773604e-05,1.9410232089723515e-06,6.8571,5.8571
1.8671875,-3.366584365606159e-05,3.0245464835584086e-05,3.7095260410467736e-05,2.906633157854628e-06,6.8571,5.8571
1.87109375,-3.0256033524071058e-05,3.7095260410467736e-05,4.7354866117341924e-05,-1.4687869230181878e-06,6.8571,5.8571
1.875,-3.807143904783699e-05,3.268966501869235e-05,6.980529742885485e-05,-8.801387472342974e-06,6.8571,5.8571
1.87890625,-3.562723886472872e-05,2.4874259494926428e-05,7.224949761196312e-05,-1.951362284275573e-05,6.8571,5.8571
1.8828125,-3.466162891584645e-05,3.561667017624175e-05,6.980529742885485e-05,-2.391921823453112e-05,6.8571,5.8571
1.88671875,-3.611004383916986e-05,3.4651060227359474e-05,5.468746666666672e-05,-2.391921823453112e-05,6.8571,5.8571
1.890625,-3.366584365606159e-05,1.4644829098954804e-05,4.8803281040665336e-05,-4.295983941405351e-05,6.8571,5.8571
1.89453125,-3.955002928206298e-05,1.6576048996719356e-05,7.565930774395365e-05,-1.8065207919432316e-05,6.8571,5.8571
1.8984375,-3.855424402227812e-05,1.0722038681620556e-05,8.6401718425269e-05,1.0722038681620556e-05,6.8571,5.8571
1.90234375,-3.611004383916986e-05,2.1947254337377024e-05,9.225572874036779e-05,-4.908772365911297e-06,6.8571,5.8571
1.90625,-4.196405415426866e-05,3.172405506981008e-05,7.565930774395365e-05,-1.0279977706568962e-05,6.8571,5.8571
1.91015625,-4.5886844571602915e-05,1.5127634073395942e-05,4.931626132600905e-05,-1.4687869230181878e-06,6.8571,5.8571
1.9140625,-3.562723886472872e-05,1.3166238864728817e-05,5.2726071457999595e-05,-1.3176807553215791e-05,6.8571,5.8571
1.91796875,-3.710582909895471e-05,2.3908649546044144e-05,8.495330350194558e-05,-1.755222763408861e-05,6.8571,5.8571
1.921875,-4.6852454520485185e-05,2.8797049912260674e-05,0.00010643812486457624,-3.4301821316853118e-06,6.8571,5.8571
1.92578125,-4.3925449362935795e-05,2.4391454520485282e-05,8.6401718425269e-05,-3.4301821316853118e-06,6.8571,5.8571
1.9296875,-2.7811833340962797e-05,1.902024917982762e-05,5.7614471824216125e-05,1.4582182345312143e-06,6.8571,5.8571
1.93359375,-2.7329028366521658e-05,2.1947254337377024e-05,5.468746666666672e-05,-4.395792080567588e-06,6.8571,5.8571
1.9375,-5.0292439963378296e-05,2.3425844571603006e-05,9.129011879148551e-05,-1.2181022293430943e-05,6.8571,5.8571
1.94140625,-5.515066501869225e-05,1.3649043839169954e-05,9.225572874036779e-05,-1.0762782681010099e-05,6.8571,5.8571
1.9453125,-3.758863407339585e-05,2.587004475471127e-05,6.002849669642181e-05,-1.1698217318989807e-05,6.8571,5.8571
1.94921875,-2.8294638315403935e-05,1.7571834256504205e-05,2.3425844571603006e-05,-2.099221307698172e-05,6.8571,5.8571
1.953125,-3.9037048996719265e-05,1.2200628915846542e-05,3.4651060227359474e-05,-1.755222763408861e-05,6.8571,5.8571
1.95703125,-3.710582909895471e-05,2.2460234622720732e-05,8.788030865949497e-05,2.423828183413491e-06,6.8571,5.8571
1.9609375,-1.658661768520633e-05,2.8314244937819535e-05,8.495330350194558e-05,-4.908772365911297e-06,6.8571,5.8571
1.96484375,-3.0256033524071058e-05,3.4651060227359474e-05,5.7614471824216125e-05,-1.755222763408861e-05,6.8571,5.8571
1.96875,-3.562723886472872e-05,1.0239233707179416e-05,3.612965046158546e-05,-2.636341841763938e-05,6.8571,5.8571
1.97265625,-2.636341841763938e-05,4.385223392080615e-06,3.9539460593576004e-05,-4.051563923094525e-05,6.8571,5.8571
1.9765625,-3.1734623758297046e-05,1.2200628915846542e-05,7.713789797817965e-05,-3.417882394140531e-05,6.8571,5.8571
1.98046875,-3.807143904783699e-05,1.2200628915846542e-05,0.00010106691952391857,-3.9037048996719265e-05,6.8571,5.8571
1.984375,-3.710582909895471e-05,1.8537444205386482e-05,8.495330350194558e-05,-5.1740854886701715e-05,6.8571,5.8571
1.98828125,-3.122164347295334e-05,1.609324402227822e-05,7.421089282063025e-05,-2.0479232791638012e-05,6.8571,5.8571
1.9921875,-2.4402023208972258e-05,1.902024917982762e-05,7.372808784618911e-05,-8.318582497901836e-06,6.8571,5.8571
1.99609375,-2.8807618600747643e-05,2.0498839414053606e-05,8.688452339971013e-05,-2.636341841763938e-05,6.8571,5.8571
2.0,-3.955002928206298e-05,1.5127634073395942e-05,0.00012206893591210808,-2.1475018051422858e-05,6.8571,5.8571
2.00390625,-2.9290423575188785e-05,5.3508333409628926e-06,9.86227193408103e-05,-1.3176807553215791e-05,6.8571,5.8571
2.0078125,-2.2923432974746273e-05,2.7318459678034683e-05,6.491689706263834e-05,-1.999642781719687e-05,6.8571,5.8571
2.01171875,-2.7329028366521658e-05,4.24664657511254e-05,6.883968747997258e-05,-2.4884828183413397e-05,6.8571,5.8571
2.015625,-3.122164347295334e-05,1.4582182345312143e-06,9.521290920881976e-05,-3.6592848813611e-05,6.8571,5.8571
2.01953125,-3.0256033524071058e-05,-4.395792080567588e-06,0.00011669773057145042,-4.247703443961237e-05,6.8571,5.8571
2.0234375,-3.122164347295334e-05,2.587004475471127e-05,0.00011277494015411618,-3.710582909895471e-05,6.8571,5.8571
2.02734375,-4.5886844571602915e-05,9.27362375829714e-06,8.299190829327846e-05,-3.710582909895471e-05,6.8571,5.8571
2.03125,-4.977945967803459e-05,1.9410232089723515e-06,7.176669263752198e-05,-4.1481249179827527e-05,6.8571,5.8571
2.03515625,-3.366584365606159e-05,1.4131848813611096e-05,7.665509300373852e-05,-4.196405415426866e-05,6.8571,5.8571
2.0390625,-3.1734623758297046e-05,3.902418417639477e-06,0.00010058411454947743,-2.1957823025863993e-05,6.8571,5.8571
2.04296875,-3.6592848813611e-05,4.868028366521752e-06,0.00010251533444724197,-1.2181022293430943e-05,6.8571,5.8571
2.046875,-3.318303868162046e-05,1.3649043839169954e-05,7.077090737773713e-05,-3.221742873273818e-05,6.8571,5.8571
2.05078125,-3.122164347295334e-05,1.0239233707179416e-05,5.468746666666672e-05,-4.3925449362935795e-05,6.8571,5.8571
2.0546875,-3.955002928206298e-05,-2.9473771572441725e-06,5.076467624933246e-05,-2.8807618600747643e-05,6.8571,5.8571
2.05859375,-4.7335259494926333e-05,8.277838498512291e-06,9.813991436636916e-05,-3.270023370717932e-05,6.8571,5.8571
2.0625,-4.247703443961237e-05,5.83363831540403e-06,0.00010007113426413372,-4.492123462272064e-05,6.8571,5.8571
2.06640625,-2.4884828183413397e-05,-5.874382314793575e-06,2.7318459678034683e-05,-3.855424402227812e-05,6.8571,5.8571
2.0703125,-2.8294638315403935e-05,1.5610439047837082e-05,2.8797049912260674e-05,-3.270023370717932e-05,6.8571,5.8571
2.07421875,-3.318303868162046e-05,2.2460234622720732e-05,5.8580081773098396e-05,-3.417882394140531e-05,6.8571,5.8571
2.078125,-2.636341841763938e-05,1.7089029282063067e-05,6.932249245441371e-05,-4.295983941405351e-05,6.8571,5.8571
2.08203125,-2.684622339208052e-05,1.5127634073395942e-05,7.762070295262079e-05,-4.6852454520485185e-05,6.8571,5.8571
2.0859375,-3.611004383916986e-05,2.294303959716187e-05,6.539970203707947e-05,-4.636964954604405e-05,6.8571,5.8571
2.08984375,-4.784823978027004e-05,4.0505070542458274e-05,8.395751824216073e-05,-3.466162891584645e-05,6.8571,5.8571
2.09375,-2.8807618600747643e-05,2.0016034439612467e-05,8.6401718425269e-05,-3.0256033524071058e-05,6.8571,5.8571
2.09765625,-9.284192446784114e-06,1.3649043839169954e-05,7.713789797817965e-05,-3.562723886472872e-05,6.8571,5.8571
2.1015625,-1.2181022293430943e-05,2.3908649546044144e-05,0.0001044767296559091,-4.196405415426866e-05,6.8571,5.8571
2.10546875,-1.5108027450980344e-05,5.3508333409628926e-06,6.835688250553144e-05,-4.977945967803459e-05,6.8571,5.8571
2.109375,-2.0371999694772212e-08,4.385223392080615e-06,1.5610439047837082e-05,-5.0292439963378296e-05,6.8571,5.8571
2.11328125,4.868028366521752e-06,8.760643472953433e-06,1.7089029282063067e-05,-4.881384972915231e-05,6.8571,5.8571
2.1171875,-1.0279977706568962e-05,1.4582182345312143e-06,4.0505070542458274e-05,-5.2223659861142857e-05,6.8571,5.8571
2.12109375,-5.874382314793575e-06,5.83363831540403e-06,4.7354866117341924e-05,-5.955626041046764e-05,6.8571,5.8571
2.125,1.6576048996719356e-05,1.8054639230945344e-05,3.0758445120927794e-05,-5.807767017624166e-05,6.8571,5.8571
2.12890625,1.1717823941405402e-05,2.3425844571603006e-05,1.4644829098954804e-05,-5.9073455436026506e-05,6.8571,5.8571
2.1328125,-5.391577340352436e-06,2.2460234622720732e-05,4.3945055985351385e-05,-4.1481249179827527e-05,6.8571,5.8571
2.13671875,-5.874382314793575e-06,2.9762659861142947e-05,8.739750368505383e-05,-8.007547182421602e-05,6.8571,5.8571
2.140625,5.83363831540403e-06,1.8054639230945344e-05,8.299190829327846e-05,-0.00010397431805905238,6.8571,5.8571
2.14453125,-1.4687869230181878e-06,1.6576048996719356e-05,7.565930774395365e-05,-2.8807618600747643e-05,6.8571,5.8571
2.1484375,-1.2181022293430943e-05,2.8797049912260674e-05,3.612965046158546e-05,1.9410232089723515e-06,6.8571,5.8571
2.15234375,-1.5108027450980344e-05,6.346618600747739e-06,4.624329747463669e-07,-1.3176807553215791e-05,6.8571,5.8571
2.15625,-3.4301821316853118e-06,1.609324402227822e-05,3.220686004425121e-05,-3.0256033524071058e-05,6.8571,5.8571
2.16015625,-3.91298710612645e-06,3.268966501869235e-05,5.809727679865726e-05,-4.636964954604405e-05,6.8571,5.8571
2.1640625,-1.951362284275573e-05,1.6576048996719356e-05,4.53934709086748e-05,-5.3702250095368834e-05,6.8571,5.8571
2.16796875,-1.8548012893873455e-05,4.624329747463669e-07,3.612965046158546e-05,-4.5886844571602915e-05,6.8571,5.8571
2.171875,-1.1698217318989807e-05,1.1717823941405402e-05,3.612965046158546e-05,-5.1740854886701715e-05,6.8571,5.8571
2.17578125,-1.0279977706568962e-05,2.6835654703593547e-05,3.612965046158546e-05,-4.3442644388494646e-05,6.8571,5.8571
2.1796875,-1.706942265964747e-05,2.3425844571603006e-05,5.517027164110786e-05,-2.099221307698172e-05,6.8571,5.8571
2.18359375,-8.801387472342974e-06,1.7089029282063067e-05,4.442786095979252e-05,-1.706942265964747e-05,6.8571,5.8571
2.1875,-1.981767208361896e-06,1.1204843656061694e-05,1.3166238864728817e-05,-3.270023370717932e-05,6.8571,5.8571
2.19140625,-1.2694002578774653e-05,-4.908772365911297e-06,1.950305415426876e-05,-3.855424402227812e-05,6.8571,5.8571
2.1953125,-6.839992263675851e-06,1.0239233707179416e-05,3.905665561913486e-05,-2.8807618600747643e-05,6.8571,5.8571
2.19921875,2.423828183413491e-06,9.754132600900752e-07,6.491689706263834e-05,-3.5144433890287585e-05,6.8571,5.8571
2.203125,-1.0279977706568962e-05,-2.4402023208972258e-05,6.346848213931492e-05,-3.6592848813611e-05,6.8571,5.8571
2.20703125,-1.8065207919432316e-05,-1.0279977706568962e-05,3.9539460593576004e-05,-2.7329028366521658e-05,6.8571,5.8571
2.2109375,-1.4625222476539207e-05,-2.585043813229567e-05,4.002226556801714e-05,-2.684622339208052e-05,6.8571,5.8571
2.21484375,-1.658661768520633e-05,-3.6592848813611e-05,7.810350792706192e-05,-3.122164347295334e-05,6.8571,5.8571
2.21875,-2.2923432974746273e-05,-2.1957823025863993e-05,0.00011081354494544905,-2.8294638315403935e-05,6.8571,5.8571
2.22265625,-3.270023370717932e-05,-2.9773228549629923e-05,0.00012547874604409862,-2.8807618600747643e-05,6.8571,5.8571
2.2265625,-2.391921823453112e-05,-3.466162891584645e-05,9.325151400015264e-05,-3.318303868162046e-05,6.8571,5.8571
2.23046875,-4.908772365911297e-06,-5.125804991226058e-05,6.639548729686431e-05,-3.221742873273818e-05,6.8571,5.8571
2.234375,-1.6103812710765193e-05,-5.125804991226058e-05,0.00010299813942168312,-3.855424402227812e-05,6.8571,5.8571
2.23828125,-2.1475018051422858e-05,-5.466786004425112e-05,0.0001279229462272069,-7.07814760662241e-05,6.8571,5.8571
2.2421875,-1.3176807553215791e-05,-6.737166593423355e-05,0.00013133275635919742,-6.248326556801704e-05,6.8571,5.8571
2.24609375,-2.684622339208052e-05,-5.759486520180052e-05,0.00011570194531166556,-2.1475018051422858e-05,6.8571,5.8571
2.25,-3.9037048996719265e-05,-6.200046059357591e-05,8.836311363393612e-05,-2.2923432974746273e-05,6.8571,5.8571
2.25390625,-2.684622339208052e-05,-8.933929227130536e-05,9.910552431525143e-05,-3.07388384985122e-05,6.8571,5.8571
2.2578125,-1.9030817868314593e-05,-7.859688158999003e-05,0.00011570194531166556,-2.4884828183413397e-05,6.8571,5.8571
2.26171875,-2.4884828183413397e-05,-6.492746575112531e-05,0.00013963096685740449,-3.270023370717932e-05,6.8571,5.8571
2.265625,-3.758863407339585e-05,-7.029867109178297e-05,0.00016259437845426113,-3.5144433890287585e-05,6.8571,5.8571
2.26953125,-4.051563923094525e-05,-5.3702250095368834e-05,0.00011862895046921496,-1.9030817868314593e-05,6.8571,5.8571
2.2734375,-2.7811833340962797e-05,-7.419128619821463e-05,9.276870902571149e-05,-2.7329028366521658e-05,6.8571,5.8571
2.27734375,-2.684622339208052e-05,-7.81140766155489e-05,0.00011669773057145042,-4.295983941405351e-05,6.8571,5.8571
2.28125,-3.5144433890287585e-05,-5.466786004425112e-05,0.00013425976151674684,-2.7329028366521658e-05,6.8571,5.8571
2.28515625,-3.1734623758297046e-05,-5.955626041046764e-05,0.00012206893591210808,-1.2694002578774653e-05,6.8571,5.8571
2.2890625,-2.0479232791638012e-05,-7.322567624933236e-05,0.00011325774512855732,-1.0762782681010099e-05,6.8571,5.8571
2.29296875,-1.5108027450980344e-05,-5.125804991226058e-05,0.00012888855617608917,-1.365961252765693e-05,6.8571,5.8571
2.296875,-1.8548012893873455e-05,-5.711206022735938e-05,0.0001513389874876021,-2.1957823025863993e-05,6.8571,5.8571
2.30078125,-1.999642781719687e-05,-7.859688158999003e-05,0.00016844838876935994,-2.585043813229567e-05,6.8571,5.8571
2.3046875,-2.0479232791638012e-05,-7.663548638132291e-05,0.00016159859319447628,-3.9037048996719265e-05,6.8571,5.8571
2.30859375,-1.706942265964747e-05,-6.785447090867469e-05,0.0001352253714656291,-4.881384972915231e-05,6.8571,5.8571
2.3125,-2.585043813229567e-05,-7.274287127489123e-05,0.0001279229462272069,-2.9773228549629923e-05,6.8571,5.8571
2.31640625,-3.710582909895471e-05,-7.95624915388723e-05,0.00016600418858625165,-1.1215412344548667e-05,6.8571,5.8571
2.3203125,-2.4884828183413397e-05,-6.737166593423355e-05,0.0001972356353704128,-1.9030817868314593e-05,6.8571,5.8571
2.32421875,-2.1957823025863993e-05,-7.859688158999003e-05,0.00017478520405889988,-2.7811833340962797e-05,6.8571,5.8571
2.328125,-3.366584365606159e-05,-7.37084812237735e-05,0.00014940776758983753,-2.7329028366521658e-05,6.8571,5.8571
2.33203125,-3.710582909895471e-05,-9.081788250553135e-05,0.00014451936722362102,-2.9773228549629923e-05,6.8571,5.8571
2.3359375,-3.318303868162046e-05,-8.641228711375596e-05,0.0001855276147402152,-1.9030817868314593e-05,6.8571,5.8571
2.33984375,-3.417882394140531e-05,-6.444466077668416e-05,0.00020797804605172813,-3.0256033524071058e-05,6.8571,5.8571
2.34375,-4.0032834256504115e-05,-4.929665470359345e-05,0.00020260684071107045,-5.0292439963378296e-05,6.8571,5.8571
2.34765625,-3.807143904783699e-05,-5.9073455436026506e-05,0.00017870799447623412,-3.466162891584645e-05,6.8571,5.8571
2.3515625,-2.8807618600747643e-05,-8.055827679865715e-05,0.00015818878306248576,-2.1475018051422858e-05,6.8571,5.8571
2.35546875,-2.0479232791638012e-05,-6.296607054245818e-05,0.00019578722044708938,-2.343641326008998e-05,6.8571,5.8571
2.359375,-2.4402023208972258e-05,-5.1740854886701715e-05,0.00023190706759746704,-2.244062800030513e-05,6.8571,5.8571
2.36328125,-3.710582909895471e-05,-4.6852454520485185e-05,0.00026464727992675676,-3.07388384985122e-05,6.8571,5.8571
2.3671875,-3.1734623758297046e-05,-4.440825433737693e-05,0.00027635530055695437,-4.540403959716177e-05,6.8571,5.8571
2.37109375,-2.4402023208972258e-05,-4.295983941405351e-05,0.00025242627901121543,-3.807143904783699e-05,6.8571,5.8571
2.375,-3.366584365606159e-05,-4.051563923094525e-05,0.0002885461261615931,-5.391577340352436e-06,6.8571,5.8571
2.37890625,-2.536763315785453e-05,-4.099844420538639e-05,0.00033836556446173807,1.9410232089723515e-06,6.8571,5.8571
2.3828125,-1.365961252765693e-05,-6.357187289234713e-06,0.00034862517016861225,-1.0279977706568962e-05,6.8571,5.8571
2.38671875,-3.07388384985122e-05,-5.031769741359113e-07,0.0003227347534142062,-1.0762782681010099e-05,6.8571,5.8571
2.390625,-3.955002928206298e-05,-3.5144433890287585e-05,0.0003227347534142062,-3.270023370717932e-05,6.8571,5.8571
2.39453125,-3.122164347295334e-05,-4.492123462272064e-05,0.00035447918048371103,-3.9037048996719265e-05,6.8571,5.8571
2.3984375,-3.221742873273818e-05,-3.221742873273818e-05,0.00038377940737010764,-1.6103812710765193e-05,6.8571,5.8571
2.40234375,-3.758863407339585e-05,-2.536763315785453e-05,0.00042382204493781955,-1.3176807553215791e-05,6.8571,5.8571
2.40625,-4.0032834256504115e-05,-2.684622339208052e-05,0.0004306416652018006,-2.636341841763938e-05,6.8571,5.8571
2.41015625,-3.855424402227812e-05,-4.5886844571602915e-05,0.0004487166764324407,-3.466162891584645e-05,6.8571,5.8571
2.4140625,-3.955002928206298e-05,-5.9073455436026506e-05,0.00048239232339971017,-3.611004383916986e-05,6.8571,5.8571
2.41796875,-3.611004383916986e-05,-6.344887551689931e-05,0.0005146195554436561,-3.1734623758297046e-05,6.8571,5.8571
2.421875,-2.9773228549629923e-05,-4.977945967803459e-05,0.0005502867729304952,-3.221742873273818e-05,6.8571,5.8571
2.42578125,-2.7329028366521658e-05,-4.247703443961237e-05,0.0005849582051575495,-2.585043813229567e-05,6.8571,5.8571
2.4296875,-2.2923432974746273e-05,-4.051563923094525e-05,0.0006186338521248189,-2.4402023208972258e-05,6.8571,5.8571
2.43359375,-4.051563923094525e-05,-2.585043813229567e-05,0.0006967577320515755,-1.999642781719687e-05,6.8571,5.8571
2.4375,-4.977945967803459e-05,-6.151765561913477e-05,0.0007543925758754865,7.795033524071154e-06,6.8571,5.8571
2.44140625,-3.07388384985122e-05,-8.445089190508884e-05,0.0007631735913481347,1.3166238864728817e-05,6.8571,5.8571
2.4453125,-2.9290423575188785e-05,-8.98220972457465e-05,0.0008012548337071795,-6.839992263675851e-06,6.8571,5.8571
2.44921875,-4.8331044754711176e-05,-0.00010641851824216062,0.0008486300718242161,-1.414241750209807e-05,6.8571,5.8571
2.453125,-7.126428104066525e-05,-0.00012449352947280074,0.0009150157558098726,-1.365961252765693e-05,6.8571,5.8571
2.45703125,-7.518707145799951e-05,-0.00014549554586099027,0.0009716548143739988,-2.1957823025863993e-05,6.8571,5.8571
2.4609375,-7.518707145799951e-05,-0.00014938816096742195,0.0009658008040588998,-1.5621007736324055e-05,6.8571,5.8571
2.46484375,-9.13006874799725e-05,-0.000173799987487602,0.0009667965893186847,9.27362375829714e-06,6.8571,5.8571
2.46875,-9.911609300373841e-05,-0.00021384262505531393,0.000967762199267567,1.0722038681620556e-05,6.8571,5.8571
2.47265625,-0.00010349151308461122,-0.00019528480885023264,0.000967762199267567,1.3166238864728817e-05,6.8571,5.8571
2.4765625,-9.959889797817954e-05,-0.00016942456740672918,0.000967762199267567,1.5127634073395942e-05,6.8571,5.8571
2.48046875,-9.6189087846189e-05,-0.00018553818342870217,0.000967762199267567,2.3908649546044144e-05,6.8571,5.8571
2.484375,-9.763750276951244e-05,-0.00017138596261539633,0.000967762199267567,1.1717823941405402e-05,6.8571,5.8571
2.48828125,-8.445089190508884e-05,-0.00014646115580987254,0.000967762199267567,-1.0762782681010099e-05,6.8571,5.8571
2.4921875,-8.837368232242309e-05,-0.0001620919668574044,0.000967762199267567,3.3894381322957673e-06,6.8571,5.8571
2.49609375,-9.27491024032959e-05,-0.00016112635690852212,0.000967762199267567,1.7571834256504205e-05,6.8571,5.8571
2.5,-7.029867109178297e-05,-0.00013182613002212553,0.000967762199267567,4.868028366521752e-06,6.8571,5.8571
2.50390625,-5.9073455436026506e-05,-0.00012790333960479127,0.000967279394293126,-2.244062800030513e-05,6.8571,5.8571
2.5078125,-6.589307570000758e-05,-0.00011230270386816201,0.000967279394293126,-3.366584365606159e-05,6.8571,5.8571
2.51171875,-7.763127164110775e-05,-0.00012742053463035013,0.000967762199267567,-1.999642781719687e-05,6.8571,5.8571
2.515625,-6.296607054245818e-05,-0.00013327454494544894,0.000967762199267567,-1.2181022293430943e-05,6.8571,5.8571
2.51953125,-5.2223659861142857e-05,-0.00010837991345082775,0.000967762199267567,-2.4402023208972258e-05,6.8571,5.8571
2.5234375,-6.492746575112531e-05,-0.00012108371934081022,0.000967762199267567,-1.999642781719687e-05,6.8571,5.8571
2.52734375,-6.737166593423355e-05,-0.00012008793408102535,0.000967762199267567,-3.1734623758297046e-05,6.8571,5.8571
2.53125,-4.1481249179827527e-05,-9.178349245441363e-05,0.000967762199267567,-4.540403959716177e-05,6.8571,5.8571
2.53515625,-3.417882394140531e-05,-8.737789706263823e-05,0.000967762199267567,-1.6103812710765193e-05,6.8571,5.8571
2.5390625,-4.196405415426866e-05,-8.98220972457465e-05,0.000967762199267567,-9.859819485770487e-07,6.8571,5.8571
2.54296875,-3.366584365606159e-05,-8.592948213931482e-05,0.000967762199267567,-1.8065207919432316e-05,6.8571,5.8571
2.546875,-3.807143904783699e-05,-7.126428104066525e-05,0.000967762199267567,-2.9773228549629923e-05,6.8571,5.8571
2.55078125,-4.784823978027004e-05,-6.981586611734184e-05,0.000967762199267567,-2.1957823025863993e-05,6.8571,5.8571
2.5546875,-4.1481249179827527e-05,-8.007547182421602e-05,0.000967762199267567,-4.051563923094525e-05,6.8571,5.8571
2.55859375,-3.0256033524071058e-05,-8.396808693064769e-05,0.000967762199267567,-4.051563923094525e-05,6.8571,5.8571
2.5625,-2.4402023208972258e-05,-8.152388674753944e-05,0.000967762199267567,-1.3176807553215791e-05,6.8571,5.8571
2.56640625,-3.1734623758297046e-05,-6.589307570000758e-05,0.000967762199267567,-9.284192446784114e-06,6.8571,5.8571
2.5703125,-3.122164347295334e-05,-4.492123462272064e-05,0.000967762199267567,-2.9773228549629923e-05,6.8571,5.8571
2.57421875,-2.8807618600747643e-05,-5.515066501869225e-05,0.000967762199267567,-5.466786004425112e-05,6.8571,5.8571
2.578125,-3.562723886472872e-05,-8.10410817730983e-05,0.000967762199267567,-3.562723886472872e-05,6.8571,5.8571
2.58203125,-3.221742873273818e-05,-5.2223659861142857e-05,0.000967762199267567,-1.1215412344548667e-05,6.8571,5.8571
2.5859375,-3.5144433890287585e-05,-5.515066501869225e-05,0.000967762199267567,-1.0279977706568962e-05,6.8571,5.8571
2.58984375,-3.221742873273818e-05,-7.177726132600896e-05,0.000967762199267567,-2.636341841763938e-05,6.8571,5.8571
2.59375,-2.2923432974746273e-05,-5.9073455436026506e-05,0.000967762199267567,-3.955002928206298e-05,6.8571,5.8571
2.59765625,-3.955002928206298e-05,-4.3442644388494646e-05,0.000967762199267567,-3.417882394140531e-05,6.8571,5.8571
2.6015625,-3.417882394140531e-05,-2.099221307698172e-05,0.000967279394293126,-5.0292439963378296e-05,6.8571,5.8571
2.60546875,-2.0479232791638012e-05,-4.099844420538639e-05,0.000967762199267567,-2.7329028366521658e-05,6.8571,5.8571
2.609375,-4.492123462272064e-05,-5.8590650461585364e-05,0.000967762199267567,-1.5621007736324055e-05,6.8571,5.8571
2.61328125,-5.515066501869225e-05,-3.5144433890287585e-05,0.0009682450042420082,-4.196405415426866e-05,6.8571,5.8571
2.6171875,-4.881384972915231e-05,-3.955002928206298e-05,0.000966283609033341,-3.758863407339585e-05,6.8571,5.8571
2.62109375,-4.6852454520485185e-05,-2.9290423575188785e-05,0.0009682450042420082,-2.7329028366521658e-05,6.8571,5.8571
2.625,-6.052187035934992e-05,-3.417882394140531e-05,0.0009619081889524682,-2.684622339208052e-05,6.8571,5.8571
2.62890625,-5.466786004425112e-05,-3.417882394140531e-05,0.0008925653244983596,-3.9037048996719265e-05,6.8571,5.8571
2.6328125,-4.247703443961237e-05,-1.2694002578774653e-05,0.0008237052650186924,-5.1740854886701715e-05,6.8571,5.8571
2.63671875,-4.6852454520485185e-05,-6.839992263675851e-06,0.0008198126499122607,-4.6852454520485185e-05,6.8571,5.8571
2.640625,-4.881384972915231e-05,1.1717823941405402e-05,0.00080466464383917,-4.440825433737693e-05,6.8571,5.8571
2.64453125,-6.0039065384908776e-05,5.3508333409628926e-06,0.0007533967906157016,-4.247703443961237e-05,6.8571,5.8571
2.6484375,-5.955626041046764e-05,1.4582182345312143e-06,0.0006713802955825132,-3.366584365606159e-05,6.8571,5.8571
2.65234375,-4.6852454520485185e-05,-2.4645721828030353e-06,0.0006000760359197375,-3.611004383916986e-05,6.8571,5.8571
2.65625,-4.784823978027004e-05,4.385223392080615e-06,0.0005326945666742961,-3.807143904783699e-05,6.8571,5.8571
2.66015625,-4.8331044754711176e-05,3.905665561913486e-05,0.0004409012709086748,-3.366584365606159e-05,6.8571,5.8571
2.6640625,-3.366584365606159e-05,4.7354866117341924e-05,0.00032517895359731447,-4.636964954604405e-05,6.8571,5.8571
2.66796875,-3.955002928206298e-05,3.36854502784772e-05,0.00018652340000000004,-5.566364530403597e-05,6.8571,5.8571
2.671875,-4.8331044754711176e-05,4.442786095979252e-05,6.980529742885485e-05,-4.5886844571602915e-05,6.8571,5.8571
2.67578125,-3.710582909895471e-05,7.224949761196312e-05,2.2460234622720732e-05,-4.929665470359345e-05,6.8571,5.8571
2.6796875,-3.466162891584645e-05,7.273230258640425e-05,-3.318303868162046e-05,-3.1734623758297046e-05,6.8571,5.8571
2.68359375,-3.221742873273818e-05,7.909929318684677e-05,-0.00017479577274738685,-5.031769741359113e-07,6.8571,5.8571
2.6875,-4.440825433737693e-05,0.00010495953463035024,-0.0003247067173113603,-1.365961252765693e-05,6.8571,5.8571
2.69140625,-4.881384972915231e-05,8.98417038681621e-05,-0.0004316178438391699,-3.1734623758297046e-05,6.8571,5.8571
2.6953125,-4.099844420538639e-05,8.788030865949497e-05,-0.0005029221035019455,-2.2923432974746273e-05,6.8571,5.8571
2.69921875,-4.977945967803459e-05,0.00010203252947280084,-0.0005634537771725032,-1.9030817868314593e-05,6.8571,5.8571
2.703125,-5.807767017624166e-05,0.00010544233960479138,-0.000603013609765774,-2.7811833340962797e-05,6.8571,5.8571
2.70703125,-5.955626041046764e-05,8.103051308461133e-05,-0.0006635452834363317,-2.2923432974746273e-05,6.8571,5.8571
2.7109375,-4.3925449362935795e-05,7.421089282063025e-05,-0.0007192187320515754,-3.366584365606159e-05,6.8571,5.8571
2.71484375,-3.855424402227812e-05,0.00012547874604409862,-0.0006816202946669718,-4.977945967803459e-05,6.8571,5.8571
2.71875,-3.6592848813611e-05,0.00012596155101853975,-0.0006718736692454413,-5.662925525291824e-05,6.8571,5.8571
2.72265625,-4.3925449362935795e-05,0.00010007113426413372,-0.0006977339106889448,-4.6852454520485185e-05,6.8571,5.8571
2.7265625,-4.492123462272064e-05,0.00010643812486457624,-0.0007104377165789272,-4.051563923094525e-05,6.8571,5.8571
2.73046875,-4.3442644388494646e-05,0.00010888232504768448,-0.0007231415224689098,-5.125804991226058e-05,6.8571,5.8571
2.734375,-4.6852454520485185e-05,0.00010299813942168312,-0.000749997549172198,-5.955626041046764e-05,6.8571,5.8571
2.73828125,-4.929665470359345e-05,0.00011180933020523388,-0.0007485189589379721,-6.296607054245818e-05,6.8571,5.8571
2.7421875,-4.051563923094525e-05,0.00012448296078431377,-0.0007485189589379721,-6.296607054245818e-05,6.8571,5.8571
2.74609375,-4.3442644388494646e-05,0.00011229213517967502,-0.0007572999744106202,-5.662925525291824e-05,6.8571,5.8571
2.75,-5.61464502784771e-05,9.177292376592664e-05,-0.0007797805810330358,-5.466786004425112e-05,6.8571,5.8571
2.75390625,-3.5144433890287585e-05,8.543610847638671e-05,-0.000764632574959945,-5.32194451209277e-05,6.8571,5.8571
2.7578125,-4.196405415426866e-05,9.469992892347605e-05,-0.0006933584906080719,-3.562723886472872e-05,6.8571,5.8571
2.76171875,-4.5886844571602915e-05,9.813991436636916e-05,-0.0006606182782787823,-5.711206022735938e-05,6.8571,5.8571
2.765625,-3.758863407339585e-05,7.762070295262079e-05,-0.0006547642679636835,-6.640605598535128e-05,6.8571,5.8571
2.76953125,-3.611004383916986e-05,5.906288674753954e-05,-0.0006313180513923858,-3.417882394140531e-05,6.8571,5.8571
2.7734375,-4.099844420538639e-05,6.298567716487377e-05,-0.0005981252093995574,-3.07388384985122e-05,6.8571,5.8571
2.77734375,-4.929665470359345e-05,7.176669263752198e-05,-0.0005712691826962691,-2.8807618600747643e-05,6.8571,5.8571
2.78125,-5.466786004425112e-05,3.806087035935001e-05,-0.0006283910462348363,-4.196405415426866e-05,6.8571,5.8571
2.78515625,-5.466786004425112e-05,3.320264530403606e-05,-0.0007182531221026932,-5.515066501869225e-05,6.8571,5.8571
2.7890625,-4.247703443961237e-05,3.124125009536893e-05,-0.0007704865852750437,-3.710582909895471e-05,6.8571,5.8571
2.79296875,-3.955002928206298e-05,3.124125009536893e-05,-0.0008266428388647287,-4.440825433737693e-05,6.8571,5.8571
2.796875,-4.492123462272064e-05,3.905665561913486e-05,-0.0008666854764324406,-5.807767017624166e-05,6.8571,5.8571
2.80078125,-3.955002928206298e-05,2.5387239780270135e-05,-0.0009135477342641336,-5.566364530403597e-05,6.8571,5.8571
2.8046875,-3.466162891584645e-05,2.5387239780270135e-05,-0.0009736267782711528,-3.955002928206298e-05,6.8571,5.8571
2.80859375,-4.784823978027004e-05,3.0245464835584086e-05,-0.0009999698246890975,-2.2923432974746273e-05,6.8571,5.8571
2.8125,-5.515066501869225e-05,1.1204843656061694e-05,-0.0009990042147402151,-2.343641326008998e-05,6.8571,5.8571
2.81640625,-3.122164347295334e-05,1.7089029282063067e-05,-0.0009999698246890975,-4.881384972915231e-05,6.8571,5.8571
2.8203125,-3.710582909895471e-05,2.0498839414053606e-05,-0.0009999698246890975,-5.0292439963378296e-05,6.8571,5.8571
2.82421875,-5.1740854886701715e-05,-2.4402023208972258e-05,-0.0009999698246890975,-4.295983941405351e-05,6.8571,5.8571
2.828125,-4.540403959716177e-05,-3.5144433890287585e-05,-0.0009999698246890975,-5.32194451209277e-05,6.8571,5.8571
2.83203125,-4.196405415426866e-05,-1.2181022293430943e-05,-0.0009999698246890975,-4.8331044754711176e-05,6.8571,5.8571
2.8359375,-4.3925449362935795e-05,-5.0292439963378296e-05,-0.0009999698246890975,-4.440825433737693e-05,6.8571,5.8571
2.83984375,-5.61464502784771e-05,-6.589307570000758e-05,-0.0009999698246890975,-3.9037048996719265e-05,6.8571,5.8571
2.84375,-4.7335259494926333e-05,-6.200046059357591e-05,-0.0009999698246890975,-5.1740854886701715e-05,6.8571,5.8571
2.84765625,-4.051563923094525e-05,-4.492123462272064e-05,-0.0009999698246890975,-5.662925525291824e-05,6.8571,5.8571
2.8515625,-5.270646483558399e-05,-5.3702250095368834e-05,-0.0009999698246890975,-4.929665470359345e-05,6.8571,5.8571
2.85546875,-5.9073455436026506e-05,-0.00010156029318684668,-0.0009999698246890975,-4.440825433737693e-05,6.8571,5.8571
2.859375,-4.784823978027004e-05,-0.00011034130865949487,-0.0009999698246890975,-4.0032834256504115e-05,6.8571,5.8571
2.86328125,-4.295983941405351e-05,-9.081788250553135e-05,-0.0009999698246890975,-4.6852454520485185e-05,6.8571,5.8571
2.8671875,-4.3925449362935795e-05,-7.95624915388723e-05,-0.0009999698246890975,-4.295983941405351e-05,6.8571,5.8571
2.87109375,-4.492123462272064e-05,-8.348528195620656e-05,-0.0009999698246890975,-4.440825433737693e-05,6.8571,5.8571
2.875,-5.0292439963378296e-05,-8.98220972457465e-05,-0.0009999698246890975,-5.1740854886701715e-05,6.8571,5.8571
2.87890625,-4.636964954604405e-05,-9.56761075608453e-05,-0.0009999698246890975,-4.7335259494926333e-05,6.8571,5.8571
2.8828125,-5.662925525291824e-05,-9.323190737773704e-05,-0.0009999698246890975,-5.0292439963378296e-05,6.8571,5.8571
2.88671875,-6.151765561913477e-05,-6.981586611734184e-05,-0.0009999698246890975,-5.515066501869225e-05,6.8571,5.8571
2.890625,-5.2223659861142857e-05,-5.955626041046764e-05,-0.0009999698246890975,-4.7335259494926333e-05,6.8571,5.8571
2.89453125,-6.0039065384908776e-05,-8.300247698176542e-05,-0.0009999698246890975,-3.710582909895471e-05,6.8571,5.8571
2.8984375,-6.200046059357591e-05,-9.13006874799725e-05,-0.0009999698246890975,-5.418505506980998e-05,6.8571,5.8571
2.90234375,-5.711206022735938e-05,-8.445089190508884e-05,-0.0009999698246890975,-5.0292439963378296e-05,6.8571,5.8571
2.90625,-4.977945967803459e-05,-8.737789706263823e-05,-0.0009999698246890975,-2.4884828183413397e-05,6.8571,5.8571
2.91015625,-4.295983941405351e-05,-7.029867109178297e-05,-0.0009999698246890975,-2.0479232791638012e-05,6.8571,5.8571
2.9140625,-6.882008085755699e-05,-7.95624915388723e-05,-0.0009999698246890975,-9.766997421225251e-06,6.8571,5.8571
2.91796875,-6.640605598535128e-05,-0.00011619531897459368,-0.0009999698246890975,-8.318582497901836e-06,6.8571,5.8571
2.921875,-3.758863407339585e-05,-8.300247698176542e-05,-0.0009999698246890975,-2.343641326008998e-05,6.8571,5.8571
2.92578125,-4.099844420538639e-05,-3.710582909895471e-05,-0.0009999698246890975,-3.611004383916986e-05,6.8571,5.8571
2.9296875,-6.541027072556645e-05,-5.0292439963378296e-05,-0.0009999698246890975,-1.951362284275573e-05,6.8571,5.8571
2.93359375,-5.711206022735938e-05,-7.859688158999003e-05,-0.0009999698246890975,-1.2181022293430943e-05,6.8571,5.8571
2.9375,-3.466162891584645e-05,-4.0032834256504115e-05,-0.0009999698246890975,-2.8807618600747643e-05,6.8571,5.8571
2.94140625,-4.929665470359345e-05,-2.4645721828030353e-06,-0.0009999698246890975,-4.7335259494926333e-05,6.8571,5.8571
2.9453125,-5.418505506980998e-05,2.3425844571603006e-05,-0.0009999698246890975,-6.296607054245818e-05,6.8571,5.8571
2.94921875,-3.611004383916986e-05,2.9279854886701812e-05,-0.0009999698246890975,-3.855424402227812e-05,6.8571,5.8571
2.953125,-3.07388384985122e-05,1.4644829098954804e-05,-0.0009999698246890975,-1.951362284275573e-05,6.8571,5.8571
2.95703125,-3.1734623758297046e-05,5.906288674753954e-05,-0.0009999698246890975,-3.122164347295334e-05,6.8571,5.8571
2.9609375,-2.2923432974746273e-05,9.762693408102545e-05,-0.0009999698246890975,-4.196405415426866e-05,6.8571,5.8571
2.96484375,-2.0371999694772212e-08,7.565930774395365e-05,-0.0009999698246890975,-4.8331044754711176e-05,6.8571,5.8571
2.96875,-5.391577340352436e-06,6.687829227130546e-05,-0.0009999698246890975,-4.196405415426866e-05,6.8571,5.8571
2.97265625,-1.0279977706568962e-05,0.00010544233960479138,-0.0009999698246890975,-3.855424402227812e-05,6.8571,5.8571
2.9765625,4.385223392080615e-06,9.325151400015264e-05,-0.0009999698246890975,-4.784823978027004e-05,6.8571,5.8571
2.98046875,1.0722038681620556e-05,7.077090737773713e-05,-0.0009999698246890975,-5.270646483558399e-05,6.8571,5.8571
2.984375,1.4644829098954804e-05,7.909929318684677e-05,-0.0009999698246890975,-6.737166593423355e-05,6.8571,5.8571
2.98828125,8.277838498512291e-06,8.591891345082785e-05,-0.0009999698246890975,-7.274287127489123e-05,6.8571,5.8571
2.9921875,8.277838498512291e-06,0.0001015497244983597,-0.0009999698246890975,-7.419128619821463e-05,6.8571,5.8571
2.99609375,1.1204843656061694e-05,9.421712394903491e-05,-0.0009999698246890975,-8.348528195620656e-05,6.8571,5.8571
3.0,-1.4687869230181878e-06,0.00011425353038834215,-0.0009999698246890975,-6.882008085755699e-05,6.8571,5.8571
3.00390625,-1.1698217318989807e-05,0.00014207516704051274,-0.0009999698246890975,-5.3702250095368834e-05,6.8571,5.8571
3.0078125,-1.0762782681010099e-05,0.00013036714641031513,-0.0009999698246890975,-5.270646483558399e-05,6.8571,5.8571
3.01171875,-2.4645721828030353e-06,0.0001474463723811704,-0.0009999698246890975,-5.8590650461585364e-05,6.8571,5.8571
3.015625,-1.2694002578774653e-05,0.00018504480976577406,-0.0009999698246890975,-5.418505506980998e-05,6.8571,5.8571
3.01953125,-2.9290423575188785e-05,0.00017333678913557645,-0.0009999698246890975,-4.492123462272064e-05,6.8571,5.8571
3.0234375,-2.536763315785453e-05,0.00013766957164873737,-0.0009999698246890975,-4.784823978027004e-05,6.8571,5.8571
3.02734375,-1.999642781719687e-05,0.00015378318767071035,-0.0009999698246890975,-6.052187035934992e-05,6.8571,5.8571
3.03125,-2.684622339208052e-05,0.00019382582523842228,-0.0009999698246890975,-6.541027072556645e-05,6.8571,5.8571
3.03515625,-3.710582909895471e-05,0.00020115842578774705,-0.0009999698246890975,-5.1740854886701715e-05,6.8571,5.8571
3.0390625,-3.366584365606159e-05,0.00018601041971465633,-0.0009999698246890975,-3.270023370717932e-05,6.8571,5.8571
3.04296875,-2.684622339208052e-05,0.00017282380885023273,-0.0009990042147402151,-2.099221307698172e-05,6.8571,5.8571
3.046875,-3.562723886472872e-05,0.00013866535690852221,-0.0009990042147402151,-2.684622339208052e-05,6.8571,5.8571
3.05078125,-3.6592848813611e-05,9.177292376592664e-05,-0.0009941158143739986,-3.611004383916986e-05,6.8571,5.8571
3.0546875,-2.0479232791638012e-05,5.7101491538872404e-05,-0.0009203975298390173,-3.1734623758297046e-05,6.8571,5.8571
3.05859375,-2.9290423575188785e-05,7.614211271839479e-05,-0.0008241986386816204,-2.2923432974746273e-05,6.8571,5.8571
3.0625,-5.125804991226058e-05,7.958209816128791e-05,-0.0007973426119783322,-2.1475018051422858e-05,6.8571,5.8571
3.06640625,-5.125804991226058e-05,7.224949761196312e-05,-0.0008281214290989547,-2.1475018051422858e-05,6.8571,5.8571
3.0703125,-3.758863407339585e-05,9.421712394903491e-05,-0.0008955028983443961,-3.07388384985122e-05,6.8571,5.8571
3.07421875,-4.295983941405351e-05,0.00010740373481345851,-0.0009238073399710078,-2.9773228549629923e-05,6.8571,5.8571
3.078125,-5.9073455436026506e-05,0.00010936513002212564,-0.0008896187127183946,-2.2923432974746273e-05,6.8571,5.8571
3.08203125,-5.0292439963378296e-05,0.00011669773057145042,-0.0008974341182421607,-2.9290423575188785e-05,6.8571,5.8571
3.0859375,-3.807143904783699e-05,0.00011962473572899984,-0.0009428479611505303,-2.9773228549629923e-05,6.8571,5.8571
3.08984375,-4.5886844571602915e-05,0.00012010754070344097,-0.0009775193933775845,-5.61464502784771e-05,6.8571,5.8571
3.09375,-6.444466077668416e-05,0.00014355375727473875,-0.0009560345720149538,-6.640605598535128e-05,6.8571,5.8571
3.09765625,-6.344887551689931e-05,0.00015574458287937747,-0.0009555517670405126,-1.658661768520633e-05,6.8571,5.8571
3.1015625,-2.9773228549629923e-05,0.00018456200479133292,-0.0009951115996337835,-1.414241750209807e-05,6.8571,5.8571
3.10546875,-5.0775244937819445e-05,0.00016893119374380107,-0.0009868133891355762,-1.658661768520633e-05,6.8571,5.8571
3.109375,-7.274287127489123e-05,0.00015330038269626922,-0.0009482191664911878,6.82942357518888e-06,6.8571,5.8571
3.11328125,-3.9037048996719265e-05,0.000160632983245594,-0.0009394381510185396,-9.766997421225251e-06,6.8571,5.8571
3.1171875,-1.414241750209807e-05,0.00013181556133363856,-0.0009106207291065841,-2.9773228549629923e-05,6.8571,5.8571
3.12109375,-7.835777523460699e-06,0.00012107315065232324,-0.0008769450821393148,-3.758863407339585e-05,6.8571,5.8571
3.125,-1.0762782681010099e-05,0.00010888232504768448,-0.0008637584712748912,-3.366584365606159e-05,6.8571,5.8571
3.12890625,3.3894381322957673e-06,7.713789797817965e-05,-0.0008652068861982146,-4.440825433737693e-05,6.8571,5.8571
3.1328125,5.3508333409628926e-06,8.151331805905246e-05,-0.0008286042340733959,-6.103485064469363e-05,6.8571,5.8571
3.13671875,-3.4301821316853118e-06,0.00011180933020523388,-0.0007900100114290073,-5.566364530403597e-05,6.8571,5.8571
3.140625,9.756428732738279e-06,0.00012303454586099036,-0.0007817118009308003,-5.0292439963378296e-05,6.8571,5.8571
3.14453125,3.36854502784772e-05,0.0001489249626153964,-0.000795381216769665,-5.61464502784771e-05,6.8571,5.8571
3.1484375,2.9279854886701812e-05,0.0001674526035095751,-0.0007944156068207827,-4.051563923094525e-05,6.8571,5.8571
3.15234375,7.795033524071154e-06,0.00016552138361181052,-0.0007529245543297474,-4.492123462272064e-05,6.8571,5.8571
3.15625,9.754132600900752e-07,0.0001645255983520257,-0.0007411863583886472,-5.2223659861142857e-05,6.8571,5.8571
3.16015625,5.3508333409628926e-06,0.00018163499963378353,-0.0007368109383077744,-2.9773228549629923e-05,6.8571,5.8571
3.1640625,3.902418417639477e-06,0.00019578722044708938,-0.0007055493162127107,-4.099844420538639e-05,6.8571,5.8571
3.16796875,-1.8065207919432316e-05,0.0001870062049744412,-0.0006708778839856564,-5.515066501869225e-05,6.8571,5.8571
3.171875,-1.414241750209807e-05,0.0002163064318608378,-0.0006200928357366292,-6.151765561913477e-05,6.8571,5.8571
3.17578125,-4.395792080567588e-06,0.00023338565783169302,-0.0005810459834287022,-6.0039065384908776e-05,6.8571,5.8571
3.1796875,-1.6103812710765193e-05,0.00024853366390478374,-0.0005434475460440986,-4.247703443961237e-05,6.8571,5.8571
3.18359375,-2.9290423575188785e-05,0.0002563188941176471,-0.0005678593725642786,-4.295983941405351e-05,6.8571,5.8571
3.1875,-2.4884828183413397e-05,0.00023338565783169302,-0.0006103462103150988,-5.3702250095368834e-05,6.8571,5.8571
3.19140625,-2.0479232791638012e-05,0.00023045865267414363,-0.0006327966416266117,-4.5886844571602915e-05,6.8571,5.8571
3.1953125,-3.807143904783699e-05,0.00021434503665217065,-0.0006069062248722056,-4.196405415426866e-05,6.8571,5.8571
3.19921875,-4.099844420538639e-05,0.00018652340000000004,-0.000561009576989395,-3.758863407339585e-05,6.8571,5.8571
3.203125,-3.07388384985122e-05,0.00019675283039597167,-0.0005419689558098725,-3.221742873273818e-05,6.8571,5.8571
3.20703125,-2.2923432974746273e-05,0.00019334302026398115,-0.000544895960967422,-4.099844420538639e-05,6.8571,5.8571
3.2109375,-2.9773228549629923e-05,0.000176746599267567,-0.0005605267720149538,-3.611004383916986e-05,6.8571,5.8571
3.21484375,-5.270646483558399e-05,0.00016844838876935994,-0.0005131817092088197,-2.8807618600747643e-05,6.8571,5.8571
3.21875,-3.807143904783699e-05,0.00015378318767071035,-0.0004467658499122606,-3.5144433890287585e-05,6.8571,5.8571
3.22265625,-2.636341841763938e-05,0.00013866535690852221,-0.000415987032791638,-3.466162891584645e-05,6.8571,5.8571
3.2265625,-4.3925449362935795e-05,0.00011180933020523388,-0.00039157520627145794,-1.951362284275573e-05,6.8571,5.8571
3.23046875,-3.318303868162046e-05,9.032450884260324e-05,-0.000383759800747692,-2.0479232791638012e-05,6.8571,5.8571
3.234375,-2.391921823453112e-05,9.714412910658431e-05,-0.00034567855838864726,-2.1957823025863993e-05,6.8571,5.8571
3.23828125,-3.6592848813611e-05,8.836311363393612e-05,-0.00028514688471808954,-9.766997421225251e-06,6.8571,5.8571
3.2421875,-4.3442644388494646e-05,8.006490313572906e-05,-0.0002699988786449988,-3.122164347295334e-05,6.8571,5.8571
3.24609375,-3.417882394140531e-05,7.614211271839479e-05,-0.0002602522532234683,-3.955002928206298e-05,6.8571,5.8571
3.25,-2.9290423575188785e-05,4.3945055985351385e-05,-0.00021628682523842216,-2.636341841763938e-05,6.8571,5.8571
3.25390625,-2.8807618600747643e-05,5.3691681406881866e-05,-0.00015427656133363846,-2.536763315785453e-05,6.8571,5.8571
3.2578125,-4.196405415426866e-05,6.346848213931492e-05,-0.00010641851824216062,-2.391921823453112e-05,6.8571,5.8571
3.26171875,-3.855424402227812e-05,6.883968747997258e-05,-4.440825433737693e-05,-1.658661768520633e-05,6.8571,5.8571
3.265625,-1.706942265964747e-05,5.517027164110786e-05,-4.977945967803459e-05,-2.1957823025863993e-05,6.8571,5.8571
3.26953125,-2.536763315785453e-05,2.9762659861142947e-05,-6.882008085755699e-05,-2.7329028366521658e-05,6.8571,5.8571
3.2734375,-2.7811833340962797e-05,3.561667017624175e-05,-7.37084812237735e-05,-2.7329028366521658e-05,6.8571,5.8571
3.27734375,-2.536763315785453e-05,4.491066593423366e-05,-6.0039065384908776e-05,-2.244062800030513e-05,6.8571,5.8571
3.28125,-2.8294638315403935e-05,6.002849669642181e-05,-5.662925525291824e-05,-1.0279977706568962e-05,6.8571,5.8571
3.28515625,-2.636341841763938e-05,3.0245464835584086e-05,-8.300247698176542e-05,-2.9290423575188785e-05,6.8571,5.8571
3.2890625,-1.999642781719687e-05,3.0245464835584086e-05,-0.00012597211970702673,-4.784823978027004e-05,6.8571,5.8571
3.29296875,-2.099221307698172e-05,7.077090737773713e-05,-0.00015282814641031506,-2.1475018051422858e-05,6.8571,5.8571
3.296875,-2.636341841763938e-05,3.36854502784772e-05,-0.0001474569410696574,-1.1698217318989807e-05,6.8571,5.8571
3.30078125,-3.807143904783699e-05,1.4131848813611096e-05,-0.00014452993591210797,-1.2694002578774653e-05,6.8571,5.8571
3.3046875,-4.295983941405351e-05,2.4874259494926428e-05,-0.00012060091436636907,-8.801387472342974e-06,6.8571,5.8571
3.30859375,-2.684622339208052e-05,-2.0371999694772212e-08,-0.00017868838785381854,-1.365961252765693e-05,6.8571,5.8571
3.3125,-1.951362284275573e-05,3.902418417639477e-06,-0.00021824822044708928,-9.766997421225251e-06,6.8571,5.8571
3.31640625,-3.5144433890287585e-05,2.294303959716187e-05,-0.00018309398324559392,-1.1215412344548667e-05,6.8571,5.8571
3.3203125,-4.3442644388494646e-05,7.3122285496300165e-06,-0.00015623795654230558,-1.2694002578774653e-05,6.8571,5.8571
3.32421875,-3.9037048996719265e-05,-8.801387472342974e-06,-0.0001474569410696574,-1.2181022293430943e-05,6.8571,5.8571
3.328125,-4.636964954604405e-05,-8.801387472342974e-06,-0.0001811325880369268,-1.8065207919432316e-05,6.8571,5.8571
3.33203125,-4.636964954604405e-05,-2.4645721828030353e-06,-0.00022069242063019756,-3.0256033524071058e-05,6.8571,5.8571
3.3359375,-3.758863407339585e-05,7.795033524071154e-06,-0.00020798861474021513,-3.417882394140531e-05,6.8571,5.8571
3.33984375,-3.955002928206298e-05,1.0239233707179416e-05,-0.00020457880460822458,-3.221742873273818e-05,6.8571,5.8571
3.34375,-3.5144433890287585e-05,2.1464449362935886e-05,-0.000207505809765774,-1.9030817868314593e-05,6.8571,5.8571
3.34765625,-3.417882394140531e-05,3.268966501869235e-05,-0.0001992075992675669,-1.951362284275573e-05,6.8571,5.8571
3.3515625,-3.5144433890287585e-05,4.83204760662242e-05,-0.00023484464144350343,-2.4402023208972258e-05,6.8571,5.8571
3.35546875,-3.366584365606159e-05,5.517027164110786e-05,-0.00024558705212481875,-1.951362284275573e-05,6.8571,5.8571
3.359375,-4.3925449362935795e-05,2.8314244937819535e-05,-0.00021483841031509876,-2.1957823025863993e-05,6.8571,5.8571
3.36328125,-3.9037048996719265e-05,2.294303959716187e-05,-0.00023777164660105282,-3.710582909895471e-05,6.8571,5.8571
3.3671875,-3.366584365606159e-05,3.416825525291833e-05,-0.00025488104788281066,-4.3925449362935795e-05,6.8571,5.8571
3.37109375,-4.196405415426866e-05,4.002226556801714e-05,-0.00023240044126039518,-2.7811833340962797e-05,6.8571,5.8571
3.375,-4.295983941405351e-05,4.198366077668426e-05,-0.0002489968622568093,-2.9773228549629923e-05,6.8571,5.8571
3.37890625,-3.221742873273818e-05,5.3691681406881866e-05,-0.00025436806759746695,-3.855424402227812e-05,6.8571,5.8571
3.3828125,-2.8294638315403935e-05,5.3691681406881866e-05,-0.00024706564235904473,-3.562723886472872e-05,6.8571,5.8571
3.38671875,-3.562723886472872e-05,3.9539460593576004e-05,-0.0002880738898756389,-4.1481249179827527e-05,6.8571,5.8571
3.390625,-4.3442644388494646e-05,5.224326648355845e-05,-0.00031689131178759436,-4.636964954604405e-05,6.8571,5.8571
3.39453125,-4.196405415426866e-05,6.736109724574659e-05,-0.00028221987956054007,-3.710582909895471e-05,6.8571,5.8571
3.3984375,-4.636964954604405e-05,5.809727679865726e-05,-0.00026218347312123287,-3.318303868162046e-05,6.8571,5.8571
3.40234375,-4.784823978027004e-05,5.954569172198067e-05,-0.0002670718734874494,-2.7811833340962797e-05,6.8571,5.8571
3.40625,-4.3442644388494646e-05,7.372808784618911e-05,-0.0002782970891432059,-3.318303868162046e-05,6.8571,5.8571
3.41015625,-3.955002928206298e-05,9.325151400015264e-05,-0.0003051531158464942,-4.3442644388494646e-05,6.8571,5.8571
3.4140625,-4.051563923094525e-05,8.34747132677196e-05,-0.0002919665049820706,-4.440825433737693e-05,6.8571,5.8571
3.41796875,-4.7335259494926333e-05,6.736109724574659e-05,-0.00024118145673304337,-3.366584365606159e-05,6.8571,5.8571
3.421875,-4.1481249179827527e-05,8.054770811017019e-05,-0.0002372888416266117,-2.636341841763938e-05,6.8571,5.8571
3.42578125,-4.247703443961237e-05,7.762070295262079e-05,-0.00023876743186083767,-3.07388384985122e-05,6.8571,5.8571
3.4296875,-2.684622339208052e-05,9.032450884260324e-05,-0.00023532744641794457,-2.9773228549629923e-05,6.8571,5.8571
3.43359375,-2.099221307698172e-05,0.00010007113426413372,-0.000248031252307927,-3.466162891584645e-05,6.8571,5.8571
3.4375,-3.562723886472872e-05,0.00010106691952391857,-0.00019872479429312577,-3.270023370717932e-05,6.8571,5.8571
3.44140625,-3.5144433890287585e-05,9.86227193408103e-05,-0.00015623795654230558,-2.536763315785453e-05,6.8571,5.8571
3.4453125,-2.1475018051422858e-05,9.469992892347605e-05,-0.00016550177698939492,-3.122164347295334e-05,6.8571,5.8571
3.44921875,-2.343641326008998e-05,8.739750368505383e-05,-0.00017479577274738685,-2.7811833340962797e-05,6.8571,5.8571
3.453125,-2.1957823025863993e-05,7.372808784618911e-05,-0.0001801669780880445,-3.562723886472872e-05,6.8571,5.8571
3.45703125,-2.536763315785453e-05,7.32151075608454e-05,-0.00013083034476234068,-2.391921823453112e-05,6.8571,5.8571
3.4609375,-3.1734623758297046e-05,6.784390222018774e-05,-6.052187035934992e-05,-7.835777523460699e-06,6.8571,5.8571
3.46484375,-2.2923432974746273e-05,6.932249245441371e-05,-3.417882394140531e-05,-1.755222763408861e-05,6.8571,5.8571
3.46875,-4.3442644388494646e-05,5.173028619821474e-05,-7.566987643244063e-05,-3.318303868162046e-05,6.8571,5.8571
3.47265625,-3.955002928206298e-05,6.1024281956206664e-05,-7.177726132600896e-05,-3.807143904783699e-05,6.8571,5.8571
3.4765625,-1.5621007736324055e-05,6.736109724574659e-05,-2.7329028366521658e-05,-3.318303868162046e-05,6.8571,5.8571
3.48046875,-3.611004383916986e-05,3.561667017624175e-05,2.3908649546044144e-05,-3.270023370717932e-05,6.8571,5.8571
3.484375,-4.8331044754711176e-05,1.5127634073395942e-05,4.0987875516899416e-05,-3.611004383916986e-05,6.8571,5.8571
3.48828125,-5.418505506980998e-05,2.1947254337377024e-05,5.468746666666672e-05,-2.7329028366521658e-05,6.8571,5.8571
3.4921875,-5.125804991226058e-05,3.905665561913486e-05,6.835688250553144e-05,-2.1475018051422858e-05,6.8571,5.8571
3.49609375,-3.417882394140531e-05,6.736109724574659e-05,7.421089282063025e-05,-2.391921823453112e-05,6.8571,5.8571
3.5,-3.466162891584645e-05,6.198989190508893e-05,0.00011132652523079275,-2.684622339208052e-05,6.8571,5.8571
3.50390625,-3.562723886472872e-05,3.561667017624175e-05,0.00011766334052033269,-3.07388384985122e-05,6.8571,5.8571
3.5078125,-3.417882394140531e-05,3.172405506981008e-05,0.00010544233960479138,-2.536763315785453e-05,6.8571,5.8571
3.51171875,-4.540403959716177e-05,3.561667017624175e-05,0.00011425353038834215,-2.585043813229567e-05,6.8571,5.8571
3.515625,-5.0292439963378296e-05,2.635284972915241e-05,0.0001328113465934234,-3.417882394140531e-05,6.8571,5.8571
3.51953125,-3.807143904783699e-05,1.6576048996719356e-05,0.0001489249626153964,-2.9773228549629923e-05,6.8571,5.8571
3.5234375,-3.611004383916986e-05,2.9762659861142947e-05,0.0001513389874876021,-2.684622339208052e-05,6.8571,5.8571
3.52734375,-5.2223659861142857e-05,3.36854502784772e-05,0.00011229213517967502,-2.636341841763938e-05,6.8571,5.8571
3.53125,-5.1740854886701715e-05,2.8797049912260674e-05,0.00010058411454947743,-3.0256033524071058e-05,6.8571,5.8571
3.53515625,-4.247703443961237e-05,1.902024917982762e-05,0.00010936513002212564,-2.684622339208052e-05,6.8571,5.8571
3.5390625,-4.196405415426866e-05,1.3166238864728817e-05,0.00012888855617608917,-2.1475018051422858e-05,6.8571,5.8571
3.54296875,-4.881384972915231e-05,2.3425844571603006e-05,0.00015770597808804462,-2.391921823453112e-05,6.8571,5.8571
3.546875,-3.758863407339585e-05,5.417448638132301e-05,0.00013914816188296335,-3.417882394140531e-05,6.8571,5.8571
3.55078125,-2.343641326008998e-05,3.0245464835584086e-05,0.00011081354494544905,-2.8294638315403935e-05,6.8571,5.8571
3.5546875,-4.7335259494926333e-05,-2.0479232791638012e-05,0.0001279229462272069,-1.951362284275573e-05,6.8571,5.8571
3.55859375,-5.0292439963378296e-05,5.83363831540403e-06,0.0001489249626153964,-2.9773228549629923e-05,6.8571,5.8571
3.5625,-3.710582909895471e-05,3.36854502784772e-05,0.0001371867666742962,-4.540403959716177e-05,6.8571,5.8571
3.56640625,-3.318303868162046e-05,5.7101491538872404e-05,0.00013377695654230568,-5.125804991226058e-05,6.8571,5.8571
3.5703125,-4.5886844571602915e-05,3.7095260410467736e-05,0.0001371867666742962,-2.244062800030513e-05,6.8571,5.8571
3.57421875,-5.515066501869225e-05,-9.284192446784114e-06,0.00010106691952391857,-1.365961252765693e-05,6.8571,5.8571
3.578125,-6.103485064469363e-05,1.268343389028768e-05,0.00013036714641031513,-2.536763315785453e-05,6.8571,5.8571
3.58203125,-7.711829135576405e-05,2.8314244937819535e-05,0.00013866535690852221,-1.8548012893873455e-05,6.8571,5.8571
3.5859375,-8.933929227130536e-05,4.624329747463669e-07,0.0001015497244983597,-1.1698217318989807e-05,6.8571,5.8571
3.58984375,-0.00010397431805905238,-1.5108027450980344e-05,8.591891345082785e-05,-1.414241750209807e-05,6.8571,5.8571
3.59375,-0.00010789710847638662,9.754132600900752e-07,4.442786095979252e-05,-9.859819485770487e-07,6.8571,5.8571
3.59765625,-0.00010934552339971002,1.4131848813611096e-05,3.561667017624175e-05,1.3166238864728817e-05,6.8571,5.8571
3.6015625,-0.00012497633444724188,2.906633157854628e-06,4.5876275883115946e-05,4.385223392080615e-06,6.8571,5.8571
3.60546875,-0.00012008793408102535,3.902418417639477e-06,2.7318459678034683e-05,3.3894381322957673e-06,6.8571,5.8571
3.609375,-0.00012204932928969249,-1.951362284275573e-05,2.1947254337377024e-05,1.8054639230945344e-05,6.8571,5.8571
3.61328125,-0.00013034753978789955,-2.7811833340962797e-05,4.0505070542458274e-05,2.4874259494926428e-05,6.8571,5.8571
3.6171875,-0.00012352791952391847,-1.981767208361896e-06,7.469369779507138e-05,1.4644829098954804e-05,6.8571,5.8571
3.62109375,-0.00010837991345082775,-3.91298710612645e-06,7.176669263752198e-05,-6.839992263675851e-06,6.8571,5.8571
3.625,-9.715469779507129e-05,-1.3176807553215791e-05,5.1247481223773604e-05,-1.5621007736324055e-05,6.8571,5.8571
3.62890625,-9.226629742885477e-05,-1.2181022293430943e-05,5.028187127489133e-05,-6.839992263675851e-06,6.8571,5.8571
3.6328125,-9.860311271839471e-05,-3.4301821316853118e-06,6.591268232242317e-05,9.27362375829714e-06,6.8571,5.8571
3.63671875,-9.667189282063014e-05,1.3649043839169954e-05,5.8580081773098396e-05,9.27362375829714e-06,6.8571,5.8571
3.640625,-7.663548638132291e-05,-2.9473771572441725e-06,5.173028619821474e-05,-2.9473771572441725e-06,6.8571,5.8571
3.64453125,-8.837368232242309e-05,-9.766997421225251e-06,7.565930774395365e-05,-9.284192446784114e-06,6.8571,5.8571
3.6484375,-9.763750276951244e-05,-1.4687869230181878e-06,4.0505070542458274e-05,-5.874382314793575e-06,6.8571,5.8571
3.65234375,-8.68950920881971e-05,1.3166238864728817e-05,2.2460234622720732e-05,-1.1215412344548667e-05,6.8571,5.8571
3.65625,-7.419128619821463e-05,1.5610439047837082e-05,3.320264530403606e-05,-1.706942265964747e-05,6.8571,5.8571
3.66015625,-6.882008085755699e-05,2.2460234622720732e-05,3.806087035935001e-05,-1.414241750209807e-05,6.8571,5.8571
3.6640625,-6.785447090867469e-05,3.124125009536893e-05,4.491066593423366e-05,-1.8548012893873455e-05,6.8571,5.8571
3.66796875,-6.981586611734184e-05,7.795033524071154e-06,2.0016034439612467e-05,-2.8807618600747643e-05,6.8571,5.8571
3.671875,-8.200669172198057e-05,3.268966501869235e-05,4.624329747463669e-07,-2.2923432974746273e-05,6.8571,5.8571
3.67578125,-8.493369687952997e-05,6.687829227130546e-05,1.5610439047837082e-05,-1.951362284275573e-05,6.8571,5.8571
3.6796875,-6.688886095979242e-05,5.954569172198067e-05,5.028187127489133e-05,-3.318303868162046e-05,6.8571,5.8571
3.68359375,-4.929665470359345e-05,8.151331805905246e-05,6.784390222018774e-05,-1.8548012893873455e-05,6.8571,5.8571
3.6875,-4.051563923094525e-05,7.128388766308085e-05,4.442786095979252e-05,-1.706942265964747e-05,6.8571,5.8571
3.69140625,-6.248326556801704e-05,1.8054639230945344e-05,1.0722038681620556e-05,-3.466162891584645e-05,6.8571,5.8571
3.6953125,-6.785447090867469e-05,3.0758445120927794e-05,-4.395792080567588e-06,-2.099221307698172e-05,6.8571,5.8571
3.69921875,-4.3925449362935795e-05,5.8580081773098396e-05,2.8797049912260674e-05,-1.0762782681010099e-05,6.8571,5.8571
3.703125,-4.784823978027004e-05,3.4651060227359474e-05,4.002226556801714e-05,-1.9030817868314593e-05,6.8571,5.8571
3.70703125,-6.052187035934992e-05,2.0016034439612467e-05,2.3908649546044144e-05,-2.391921823453112e-05,6.8571,5.8571
3.7109375,-5.662925525291824e-05,2.7831439963378394e-05,1.8537444205386482e-05,-2.1957823025863993e-05,6.8571,5.8571
3.71484375,-4.540403959716177e-05,2.8314244937819535e-05,3.612965046158546e-05,-2.8294638315403935e-05,6.8571,5.8571
3.71875,-4.247703443961237e-05,4.0505070542458274e-05,4.491066593423366e-05,-2.585043813229567e-05,6.8571,5.8571
3.72265625,-6.103485064469363e-05,3.5133865201800616e-05,6.054147698176551e-05,-2.391921823453112e-05,6.8571,5.8571
3.7265625,-5.807767017624166e-05,3.124125009536893e-05,8.299190829327846e-05,-3.417882394140531e-05,6.8571,5.8571
3.73046875,-4.540403959716177e-05,4.002226556801714e-05,7.614211271839479e-05,-3.270023370717932e-05,6.8571,5.8571
3.734375,-4.6852454520485185e-05,2.635284972915241e-05,0.0001044767296559091,-2.1957823025863993e-05,6.8571,5.8571
3.73828125,-4.636964954604405e-05,4.198366077668426e-05,0.00013181556133363856,-2.9290423575188785e-05,6.8571,5.8571
3.7421875,-4.5886844571602915e-05,4.635908085755708e-05,0.00013036714641031513,-4.295983941405351e-05,6.8571,5.8571
3.74609375,-4.0032834256504115e-05,2.8797049912260674e-05,0.00013818255193408108,-2.7811833340962797e-05,6.8571,5.8571
3.75,-4.540403959716177e-05,1.2200628915846542e-05,0.00011033073997100791,-2.8294638315403935e-05,6.8571,5.8571
3.75390625,-4.8331044754711176e-05,4.385223392080615e-06,0.00010836934476234078,-3.807143904783699e-05,6.8571,5.8571
3.7578125,-3.758863407339585e-05,3.806087035935001e-05,0.0001679655837949188,-5.0292439963378296e-05,6.8571,5.8571
3.76171875,-4.0032834256504115e-05,2.8314244937819535e-05,0.00019186443002975514,-4.881384972915231e-05,6.8571,5.8571
3.765625,-4.977945967803459e-05,3.3894381322957673e-06,0.00019334302026398115,-3.318303868162046e-05,6.8571,5.8571
3.76953125,-4.977945967803459e-05,8.760643472953433e-06,0.00017626379429312586,-4.1481249179827527e-05,6.8571,5.8571
3.7734375,-4.196405415426866e-05,3.3894381322957673e-06,0.00016111578822003515,-3.417882394140531e-05,6.8571,5.8571
3.77734375,-3.122164347295334e-05,1.5610439047837082e-05,0.0001996798355535211,-3.91298710612645e-06,6.8571,5.8571
3.78125,-3.07388384985122e-05,1.3649043839169954e-05,0.00024412806851300837,-4.908772365911297e-06,6.8571,5.8571
3.78515625,-3.9037048996719265e-05,1.7089029282063067e-05,0.0002460894637216755,-1.2694002578774653e-05,6.8571,5.8571
3.7890625,-2.9773228549629923e-05,1.902024917982762e-05,0.0002343512677805753,-1.2694002578774653e-05,6.8571,5.8571
3.79296875,-2.244062800030513e-05,-1.365961252765693e-05,0.00023338565783169302,-1.6103812710765193e-05,6.8571,5.8571
3.796875,-4.3442644388494646e-05,-1.4625222476539207e-05,0.00026464727992675676,-1.8548012893873455e-05,6.8571,5.8571
3.80078125,-5.566364530403597e-05,-1.1698217318989807e-05,0.00030906533757534146,-2.9290423575188785e-05,6.8571,5.8571
3.8046875,-2.585043813229567e-05,-7.3529725490195605e-06,0.0002934345265278096,-2.7329028366521658e-05,6.8571,5.8571
3.80859375,-2.391921823453112e-05,4.624329747463669e-07,0.0002748767103227284,-2.1957823025863993e-05,6.8571,5.8571
3.8125,-4.099844420538639e-05,-4.395792080567588e-06,0.0002812437009231709,-1.8065207919432316e-05,6.8571,5.8571
3.81640625,-4.5886844571602915e-05,-1.414241750209807e-05,0.00031347093296711686,-2.0479232791638012e-05,6.8571,5.8571
3.8203125,-3.611004383916986e-05,-6.357187289234713e-06,0.00035447918048371103,-2.391921823453112e-05,6.8571,5.8571
3.82421875,-2.8294638315403935e-05,1.9410232089723515e-06,0.00034762938490882743,-1.951362284275573e-05,6.8571,5.8571
3.828125,-4.051563923094525e-05,8.760643472953433e-06,0.0003378827594872969,-2.7329028366521658e-05,6.8571,5.8571
3.83203125,-4.3442644388494646e-05,1.0239233707179416e-05,0.0003320287491721981,-2.8807618600747643e-05,6.8571,5.8571
3.8359375,-3.417882394140531e-05,-9.766997421225251e-06,0.0003305501589379721,-2.1475018051422858e-05,6.8571,5.8571
3.83984375,-4.099844420538639e-05,-1.706942265964747e-05,0.0003569233806668193,-2.8807618600747643e-05,6.8571,5.8571
3.84375,-4.3925449362935795e-05,7.795033524071154e-06,0.000376929611795224,-4.636964954604405e-05,6.8571,5.8571
3.84765625,-3.807143904783699e-05,2.906633157854628e-06,0.0003593675808499276,-3.221742873273818e-05,6.8571,5.8571
3.8515625,-4.196405415426866e-05,-2.8807618600747643e-05,0.0003388483694361792,-2.684622339208052e-05,6.8571,5.8571
3.85546875,-4.1481249179827527e-05,-2.4884828183413397e-05,0.00036766579134813463,-6.296607054245818e-05,6.8571,5.8571
3.859375,-3.9037048996719265e-05,-1.2694002578774653e-05,0.0004077084289158466,-5.2223659861142857e-05,6.8571,5.8571
3.86328125,-4.636964954604405e-05,-1.0279977706568962e-05,0.0004057470337071794,-2.636341841763938e-05,6.8571,5.8571
3.8671875,-4.929665470359345e-05,-1.1698217318989807e-05,0.00037985661695277335,-2.099221307698172e-05,6.8571,5.8571
3.87109375,-5.566364530403597e-05,-2.8807618600747643e-05,0.000386706412527657,-7.835777523460699e-06,6.8571,5.8571
3.875,-4.5886844571602915e-05,-2.0479232791638012e-05,0.00038915061271076526,-2.2923432974746273e-05,6.8571,5.8571
3.87890625,-3.366584365606159e-05,-3.4301821316853118e-06,0.00038915061271076526,-3.758863407339585e-05,6.8571,5.8571
3.8828125,-3.318303868162046e-05,-1.4687869230181878e-06,0.00040037582836652177,-2.7811833340962797e-05,6.8571,5.8571
3.88671875,-3.6592848813611e-05,7.3122285496300165e-06,0.00041941644954604415,-2.4402023208972258e-05,6.8571,5.8571
3.890625,-4.540403959716177e-05,-9.859819485770487e-07,0.00040185441860074775,-3.1734623758297046e-05,6.8571,5.8571
3.89453125,-3.6592848813611e-05,1.9410232089723515e-06,0.00041259682928206304,-3.270023370717932e-05,6.8571,5.8571
3.8984375,-3.562723886472872e-05,9.754132600900752e-07,0.0004472380861982148,-2.636341841763938e-05,6.8571,5.8571
3.90234375,-3.855424402227812e-05,5.83363831540403e-06,0.0004687229075608454,-3.270023370717932e-05,6.8571,5.8571
3.90625,-2.1475018051422858e-05,2.3908649546044144e-05,0.00046679168766308087,-4.7335259494926333e-05,6.8571,5.8571
3.91015625,-2.536763315785453e-05,7.3122285496300165e-06,0.00043408165064469373,-4.7335259494926333e-05,6.8571,5.8571
3.9140625,-4.3925449362935795e-05,-9.766997421225251e-06,0.0004330858653849089,-2.1957823025863993e-05,6.8571,5.8571
3.91796875,-4.3442644388494646e-05,6.346618600747739e-06,0.0004682401025864043,-1.4625222476539207e-05,6.8571,5.8571
3.921875,-3.611004383916986e-05,1.9410232089723515e-06,0.00047605550811017017,-3.417882394140531e-05,6.8571,5.8571
3.92578125,-2.0479232791638012e-05,-1.981767208361896e-06,0.00043749146077668425,-3.562723886472872e-05,6.8571,5.8571
3.9296875,-2.4884828183413397e-05,-8.801387472342974e-06,0.0004169722493629359,-2.4884828183413397e-05,6.8571,5.8571
3.93359375,-3.611004383916986e-05,-1.8548012893873455e-05,0.0004169722493629359,-2.2923432974746273e-05,6.8571,5.8571
3.9375,-2.7329028366521658e-05,-3.4301821316853118e-06,0.00041600663941405357,-2.9773228549629923e-05,6.8571,5.8571
3.94140625,-1.5621007736324055e-05,2.0498839414053606e-05,0.0004267490500953689,-3.1734623758297046e-05,6.8571,5.8571
3.9453125,-2.8807618600747643e-05,2.1947254337377024e-05,0.00043553006556801716,-2.0479232791638012e-05,6.8571,5.8571
3.94921875,-4.636964954604405e-05,-5.874382314793575e-06,0.0004111182390478371,-2.099221307698172e-05,6.8571,5.8571
3.953125,-4.1481249179827527e-05,-1.8548012893873455e-05,0.0003862236075532159,-2.4402023208972258e-05,6.8571,5.8571
3.95703125,-3.710582909895471e-05,4.624329747463669e-07,0.0004081912338902877,-2.684622339208052e-05,6.8571,5.8571
3.9609375,-3.221742873273818e-05,3.902418417639477e-06,0.0003988972381322958,-3.611004383916986e-05,6.8571,5.8571
3.96484375,-3.5144433890287585e-05,1.1717823941405402e-05,0.0003911120079194324,-2.636341841763938e-05,6.8571,5.8571
3.96875,-2.391921823453112e-05,1.902024917982762e-05,0.0003832966023956665,-1.658661768520633e-05,6.8571,5.8571
3.97265625,-2.536763315785453e-05,-3.91298710612645e-06,0.0003359213642786298,-1.658661768520633e-05,6.8571,5.8571
3.9765625,-3.611004383916986e-05,3.902418417639477e-06,0.0003281059587548639,-1.2181022293430943e-05,6.8571,5.8571
3.98046875,-3.710582909895471e-05,4.635908085755708e-05,0.00035888477587548643,-7.3529725490195605e-06,6.8571,5.8571
3.984375,-4.492123462272064e-05,2.6835654703593547e-05,0.0003505563900663768,-1.4625222476539207e-05,6.8571,5.8571
3.98828125,-3.466162891584645e-05,-1.414241750209807e-05,0.0003198077482566568,-1.8065207919432316e-05,6.8571,5.8571
3.9921875,-3.366584365606159e-05,3.902418417639477e-06,0.0003202905532310979,-1.1698217318989807e-05,6.8571,5.8571
3.99609375,-4.5886844571602915e-05,1.9410232089723515e-06,0.0003491079751430534,-4.908772365911297e-06,6.8571,5.8571
4.0,-4.492123462272064e-05,-2.9473771572441725e-06,0.0003637430009308004,-2.585043813229567e-05,6.8571,5.8571
4.00390625,-3.122164347295334e-05,5.83363831540403e-06,0.0003647387861905852,-2.9290423575188785e-05,6.8571,5.8571
4.0078125,-3.1734623758297046e-05,2.423828183413491e-06,0.00036718298637369347,-6.357187289234713e-06,6.8571,5.8571
4.01171875,-3.807143904783699e-05,9.27362375829714e-06,0.00034714657993438627,-1.5108027450980344e-05,6.8571,5.8571
4.015625,-2.8294638315403935e-05,-6.357187289234713e-06,0.00033543855930418865,-2.9290423575188785e-05,6.8571,5.8571
4.01953125,-3.366584365606159e-05,-1.706942265964747e-05,0.0003520349803006028,-3.0256033524071058e-05,6.8571,5.8571
4.0234375,-4.3442644388494646e-05,-7.835777523460699e-06,0.00035592759540703446,-1.999642781719687e-05,6.8571,5.8571
4.02734375,-4.540403959716177e-05,-1.0279977706568962e-05,0.000346180969985504,-2.244062800030513e-05,6.8571,5.8571
4.03125,-4.295983941405351e-05,-5.031769741359113e-07,0.0003305501589379721,-1.706942265964747e-05,6.8571,5.8571
4.03515625,-4.881384972915231e-05,5.3508333409628926e-06,0.0003154021528648814,-1.755222763408861e-05,6.8571,5.8571
