timestamp,TP9,AF7,AF8,TP10,Valence,Arousal
0.0,-2.0023124977492925e-05,-0.0004492169552056153,-0.0004160124325291828,8.397384157778288e-05,3.2,3.667
0.00390625,-3.4188305964751634e-05,-0.0004863252679179064,-0.0004536115074174105,9.912054691691463e-05,3.2,3.667
0.0078125,-4.639043824826426e-05,-0.0004999996867292286,-0.0004609283253131914,0.00012939165022354468,3.2,3.667
0.01171875,-4.981461979400318e-05,-0.000498527400201419,-0.00044872619302967876,0.00015477743914244296,3.2,3.667
0.015625,-6.152598990157928e-05,-0.000523924342806134,-0.0004702081919127183,0.00015672933416037232,3.2,3.667
0.01953125,-6.934472365911342e-05,-0.0005263558463141833,-0.00048094919135423817,0.00015185517345845732,3.2,3.667
0.0234375,-6.934472365911342e-05,-0.0005039034767650873,-0.0004545818780834668,0.00015331630630045014,3.2,3.667
0.02734375,-6.396864709544515e-05,-0.0004858345057419699,-0.0004262626697947661,0.0001635665435660334,3.2,3.667
0.03125,-6.641130428931103e-05,-0.0004575152974532692,-0.0004067325659296558,0.00016259617289997715,3.2,3.667
0.03515625,-7.959496092469669e-05,-0.000429686851340505,-0.00038475980487067974,0.00015331630630045014,3.2,3.667
0.0390625,-8.008572310063321e-05,-0.00040819369877164867,-0.000365720463181506,0.00015722009633630887,3.2,3.667
0.04296875,-6.934472365911342e-05,-0.00036376856816357667,-0.00032713986394140534,0.00016747033360189214,3.2,3.667
0.046875,-7.470964653696495e-05,-0.00032274531172961005,-0.0002939353412649729,0.000185048542449073,3.2,3.667
0.05078125,-7.715230373083082e-05,-0.00029980218000457765,-0.0002675680279942015,0.00018212627676508737,3.2,3.667
0.0546875,-0.00010596227419546803,-0.0002729441045578698,-0.00023534502966964213,0.0001332954402594034,3.2,3.667
0.05859375,-0.00011084758858319977,-0.00025195286785076673,-0.0002172760586465247,0.00014110302033112077,3.2,3.667
0.0625,-8.203761811856257e-05,-0.00023827844903944451,-0.00020458316418707555,0.0001664999629358358,3.2,3.667
0.06640625,-6.347788491950862e-05,-0.00022070024019226362,-0.00017870661309224076,0.00014549757254291604,3.2,3.667
0.0703125,-4.8342333266193605e-05,-0.00018895685035782403,-0.00013623337750209808,0.0001371992302952621,3.2,3.667
0.07421875,-6.59205421133745e-05,-0.00015039855848935678,-0.00010498074984359499,0.00011620799358815901,3.2,3.667
0.078125,-0.00010547151201953152,-0.00011230872142519261,-8.252838029449908e-05,8.83683937895781e-05,3.2,3.667
0.08203125,-0.00010742340703746086,-8.545064597848474e-05,-5.6640675513847536e-05,7.470512866407264e-05,3.2,3.667
0.0859375,-6.690206646524754e-05,-7.520040871290148e-05,-3.564943880674446e-05,5.760652830701156e-05,3.2,3.667
0.08984375,-5.860372421759362e-05,-7.178738085297929e-05,-2.5889963717097714e-05,5.321197609521633e-05,3.2,3.667
0.09375,-6.88539614831769e-05,-5.957409488364993e-05,-7.820992693980287e-06,6.200108051880676e-05,3.2,3.667
0.09765625,-7.764306590676735e-05,-5.322764765392536e-05,2.920006747539503e-06,4.5404396023498914e-05,3.2,3.667
0.1015625,-8.34987509605554e-05,-4.981461979400318e-05,9.681117296101718e-07,1.8055558400854523e-05,3.2,3.667
0.10546875,-8.643217033035778e-05,-2.3447306523231843e-05,2.294087278858629e-05,1.562405489280539e-05,3.2,3.667
0.109375,-8.448027531242844e-05,2.44039825741973e-06,4.7847053217364785e-05,9.757216153200602e-06,3.2,3.667
0.11328125,-7.764306590676735e-05,1.170911117112996e-05,5.0289710411230655e-05,1.4588739055466816e-06,3.2,3.667
0.1171875,-7.324851369497211e-05,1.903708275272757e-05,5.6636157640955246e-05,1.4588739055466816e-06,3.2,3.667
0.12109375,-6.152598990157928e-05,3.02688443701839e-05,6.835868143434809e-05,-4.93021112382678e-07,3.2,3.667
0.125,-5.957409488364993e-05,4.638592037537196e-05,8.495536592965592e-05,-1.5137810589761159e-05,3.2,3.667
0.12890625,-6.250751425345232e-05,5.4684262623025886e-05,0.00010790965134050509,-2.5399201541161176e-05,3.2,3.667
0.1328125,-6.347788491950862e-05,5.321197609521633e-05,9.569636537117571e-05,-2.2956544347295306e-05,3.2,3.667
0.13671875,-5.0784990460059476e-05,6.688639490653852e-05,9.276294600137334e-05,-3.2716019436942076e-05,3.2,3.667
0.140625,-4.981461979400318e-05,8.05608137178607e-05,0.00010302433695277335,-5.860372421759362e-05,3.2,3.667
0.14453125,-5.2246123302052305e-05,9.081105098344397e-05,0.00011083191702449074,-6.59205421133745e-05,3.2,3.667
0.1484375,-4.932385761806665e-05,9.472599470511943e-05,0.00011815988860608836,-4.3457018878461864e-05,3.2,3.667
0.15234375,-4.883309544213013e-05,9.912054691691463e-05,0.0001025335747768368,-4.199588603646903e-05,3.2,3.667
0.15625,-3.858285817654685e-05,9.764826038910508e-05,9.862978474097815e-05,-5.2736885477988836e-05,3.2,3.667
0.16015625,-3.4188305964751634e-05,9.715749821316853e-05,0.00010692812698863207,-5.1766514811932523e-05,3.2,3.667
0.1640625,-4.102551537041273e-05,0.00010058167975890745,0.00010692812698863207,-6.103522772564275e-05,3.2,3.667
0.16796875,-4.102551537041273e-05,9.715749821316853e-05,9.423523252918289e-05,-7.226698934309908e-05,3.2,3.667
0.171875,-2.4908439365224666e-05,9.912054691691463e-05,0.00010155205042496378,-6.201675207751581e-05,3.2,3.667
0.17578125,-2.0513887153429435e-05,9.862978474097815e-05,0.00011327457421835663,-5.7131437689784046e-05,3.2,3.667
0.1796875,-3.467906814068816e-05,9.472599470511943e-05,9.081105098344397e-05,-6.201675207751581e-05,3.2,3.667
0.18359375,-2.5889963717097714e-05,8.984068031738769e-05,8.30034709117266e-05,-6.836319930724037e-05,3.2,3.667
0.1875,-2.4908439365224666e-05,7.421436648813614e-05,7.762739434805831e-05,-6.934472365911342e-05,3.2,3.667
0.19140625,-4.44385432303349e-05,7.177170929427026e-05,7.957928936598768e-05,-6.396864709544515e-05,3.2,3.667
0.1953125,-4.102551537041273e-05,8.007005154192418e-05,9.618712754711226e-05,-5.5670304847791224e-05,3.2,3.667
0.19921875,-2.4417677189288125e-05,7.470512866407264e-05,0.00010009091758297098,-6.690206646524754e-05,3.2,3.667
0.203125,-3.0764124419012716e-05,6.835868143434809e-05,9.862978474097815e-05,-7.178738085297929e-05,3.2,3.667
0.20703125,-4.7371962600137306e-05,6.786791925841157e-05,0.00010107244193484398,-5.1275752635996e-05,3.2,3.667
0.2109375,-4.1505123860532504e-05,5.4193500447089376e-05,8.788878529945832e-05,-4.688120042420078e-05,3.2,3.667
0.21484375,-2.1004649329365945e-05,5.56546332890822e-05,8.30034709117266e-05,-4.2977410388342075e-05,3.2,3.667
0.21875,-2.4417677189288125e-05,6.152147202868698e-05,8.593689028152897e-05,-4.981461979400318e-05,3.2,3.667
0.22265625,-3.564943880674446e-05,4.88174238834211e-05,6.347336704661635e-05,-5.51795426718547e-05,3.2,3.667
0.2265625,-3.0764124419012716e-05,4.5404396023498914e-05,5.078047258716719e-05,-5.5670304847791224e-05,3.2,3.667
0.23046875,-1.4167439923704875e-05,4.150060598764023e-05,4.88174238834211e-05,-5.51795426718547e-05,3.2,3.667
0.234375,-4.887573324177878e-06,4.199136816357674e-05,5.2241605429160015e-05,-4.639043824826426e-05,3.2,3.667
0.23828125,-1.4167439923704875e-05,3.807642444190131e-05,4.7847053217364785e-05,-4.102551537041273e-05,3.2,3.667
0.2421875,-2.1975019995422258e-05,2.782618717631803e-05,3.417263440604259e-05,-3.0764124419012716e-05,3.2,3.667
0.24609375,-2.4417677189288125e-05,2.1970502122529978e-05,3.368187223010608e-05,-4.688120042420078e-05,3.2,3.667
0.25,-2.8321467225146846e-05,2.684466282444498e-05,4.2961738829633044e-05,-5.3718409829861884e-05,3.2,3.667
0.25390625,-2.0513887153429435e-05,4.0028319459830636e-05,6.103070985275048e-05,-3.955322884260316e-05,3.2,3.667
0.2578125,-7.820992693980287e-06,3.417263440604259e-05,5.1750843253223505e-05,-3.467906814068816e-05,3.2,3.667
0.26171875,-3.028451592889294e-05,3.02688443701839e-05,4.199136816357674e-05,-3.564943880674446e-05,3.2,3.667
0.265625,-4.3457018878461864e-05,2.684466282444498e-05,4.638592037537196e-05,-3.760133382467382e-05,3.2,3.667
0.26953125,-3.2716019436942076e-05,2.098897777065693e-05,3.5154158757915637e-05,-3.9062466666666634e-05,3.2,3.667
0.2734375,-2.7841858735027043e-05,2.782618717631803e-05,2.977808219424739e-05,-5.0294228284122966e-05,3.2,3.667
0.27734375,-2.1975019995422258e-05,2.098897777065693e-05,2.1970502122529978e-05,-4.639043824826426e-05,3.2,3.667
0.28125,-2.7841858735027043e-05,9.266453977264092e-06,1.8055558400854523e-05,-2.8812229401083356e-05,3.2,3.667
0.28515625,-3.1254886594949226e-05,-3.9172026581215955e-06,1.562405489280539e-05,-2.7351096559090533e-05,3.2,3.667
0.2890625,-3.1745648770885764e-05,-5.378335500114417e-06,2.3922397140459308e-05,-2.5399201541161176e-05,3.2,3.667
0.29296875,-2.9302991577019893e-05,-1.4745454642557262e-06,2.294087278858629e-05,-2.2956544347295306e-05,3.2,3.667
0.296875,-4.199588603646903e-05,-6.839468342107239e-06,1.219987334706647e-05,-2.6369572207217485e-05,3.2,3.667
0.30078125,-5.2246123302052305e-05,-2.9356783062485474e-06,1.4151768364995831e-05,-2.2465782171358795e-05,3.2,3.667
0.3046875,-3.711057164873729e-05,1.9496360814831915e-06,1.4151768364995831e-05,-1.0743258377965958e-05,3.2,3.667
0.30859375,-3.4188305964751634e-05,-2.9356783062485474e-06,1.5133292716868879e-05,-4.887573324177878e-06,3.2,3.667
0.3125,-3.614020098268098e-05,-1.3185915571831827e-05,1.318139769893952e-05,-8.311754869916796e-06,3.2,3.667
0.31640625,-4.004399101853968e-05,-2.3447306523231843e-05,4.773495536736334e-07,-1.0743258377965958e-05,3.2,3.667
0.3203125,-4.932385761806665e-05,-2.3447306523231843e-05,-6.348706166170728e-06,-1.1234020553902467e-05,3.2,3.667
0.32421875,-4.394778105439839e-05,-2.5399201541161176e-05,-1.4167439923704875e-05,-2.0513887153429435e-05,3.2,3.667
0.328125,-2.7351096559090533e-05,-1.6610097117570745e-05,-1.0743258377965958e-05,-3.1745648770885764e-05,3.2,3.667
0.33203125,-2.5399201541161176e-05,5.853426117341911e-06,7.314558959334732e-06,-2.4908439365224666e-05,3.2,3.667
0.3359375,-2.6860334383154026e-05,5.362663941405373e-06,9.757216153200602e-06,-3.2716019436942076e-05,3.2,3.667
0.33984375,-2.8812229401083356e-05,-1.3185915571831827e-05,-4.887573324177878e-06,-3.614020098268098e-05,3.2,3.667
0.34375,-3.1745648770885764e-05,-1.9052754311436616e-05,-5.869097676050927e-06,-1.0743258377965958e-05,3.2,3.667
0.34765625,-2.1975019995422258e-05,-4.396811148241369e-06,1.170911117112996e-05,-1.3676677747768337e-05,3.2,3.667
0.3515625,-4.004399101853968e-05,4.39229327534909e-06,3.2711501564049766e-05,-1.6610097117570745e-05,3.2,3.667
0.35546875,-5.1766514811932523e-05,-6.839468342107239e-06,2.831694935225454e-05,-3.9172026581215955e-06,3.2,3.667
0.359375,-3.564943880674446e-05,-1.2706307081712026e-05,1.318139769893952e-05,1.9496360814831915e-06,3.2,3.667
0.36328125,-4.492930540627142e-05,-9.282125535973108e-06,4.39229327534909e-06,-1.9541539543754993e-06,3.2,3.667
0.3671875,-3.858285817654685e-05,-2.2589364461396144e-09,-2.444916130312009e-06,-2.1004649329365945e-05,3.2,3.667
0.37109375,-3.2236410946822274e-05,-3.9172026581215955e-06,6.834950469214959e-06,-3.711057164873729e-05,3.2,3.667
0.375,-5.7131437689784046e-05,-1.8071229959563565e-05,2.44039825741973e-06,-2.3447306523231843e-05,3.2,3.667
0.37890625,-5.4688780495918176e-05,-1.7100859293507255e-05,-7.330230518043777e-06,-4.887573324177878e-06,3.2,3.667
0.3828125,-2.8321467225146846e-05,-1.5628572765697698e-05,-3.4264404821850572e-06,-1.2215544905775516e-05,3.2,3.667
0.38671875,-2.1975019995422258e-05,-1.9052754311436616e-05,-3.4264404821850572e-06,-1.6119334941634208e-05,3.2,3.667
0.390625,-2.4417677189288125e-05,-2.2465782171358795e-05,-9.282125535973108e-06,-1.8071229959563565e-05,3.2,3.667
0.39453125,-2.8321467225146846e-05,-9.772887711909646e-06,-9.772887711909646e-06,-3.028451592889294e-05,3.2,3.667
0.3984375,-1.8561992135500075e-05,-2.1004649329365945e-05,-1.3676677747768337e-05,-4.394778105439839e-05,3.2,3.667
0.40234375,-2.9793753752956404e-05,-4.639043824826426e-05,-3.320678161287859e-05,-3.564943880674446e-05,3.2,3.667
0.40625,-5.4688780495918176e-05,-3.1745648770885764e-05,-3.614020098268098e-05,-2.6860334383154026e-05,3.2,3.667
0.41015625,-4.981461979400318e-05,-2.0513887153429435e-05,-1.9532362801556388e-05,-3.6630963158617505e-05,3.2,3.667
0.4140625,-2.7841858735027043e-05,-2.8812229401083356e-05,-2.4417677189288125e-05,-3.0764124419012716e-05,3.2,3.667
0.41796875,-2.5399201541161176e-05,-4.492930540627142e-05,-4.2977410388342075e-05,-2.8321467225146846e-05,3.2,3.667
0.421875,-3.2716019436942076e-05,-5.4688780495918176e-05,-5.0784990460059476e-05,-3.0764124419012716e-05,3.2,3.667
0.42578125,-3.2236410946822274e-05,-4.394778105439839e-05,-4.248664821240555e-05,-2.8321467225146846e-05,3.2,3.667
0.4296875,-3.564943880674446e-05,-3.809209600061032e-05,-2.9302991577019893e-05,-2.9302991577019893e-05,3.2,3.667
0.43359375,-4.248664821240555e-05,-3.614020098268098e-05,-2.5889963717097714e-05,-2.392691501335162e-05,3.2,3.667
0.4375,-4.004399101853968e-05,-3.614020098268098e-05,-2.5889963717097714e-05,-2.392691501335162e-05,3.2,3.667
0.44140625,-3.028451592889294e-05,-3.6630963158617505e-05,-1.3185915571831827e-05,-1.8561992135500075e-05,3.2,3.667
0.4453125,-2.9793753752956404e-05,-4.004399101853968e-05,-1.1724782729838977e-05,-1.7580467783627027e-05,3.2,3.667
0.44921875,-3.760133382467382e-05,-4.102551537041273e-05,-1.9532362801556388e-05,-2.5399201541161176e-05,3.2,3.667
0.453125,-3.515867663080793e-05,-3.1254886594949226e-05,-1.1724782729838977e-05,-2.7351096559090533e-05,3.2,3.667
0.45703125,-2.8321467225146846e-05,-2.9793753752956404e-05,-6.348706166170728e-06,-3.467906814068816e-05,3.2,3.667
0.4609375,-4.102551537041273e-05,-3.320678161287859e-05,-1.8561992135500075e-05,-3.760133382467382e-05,3.2,3.667
0.46484375,-4.492930540627142e-05,-3.1254886594949226e-05,-2.8812229401083356e-05,-2.8321467225146846e-05,3.2,3.667
0.46875,-3.515867663080793e-05,-3.9062466666666634e-05,-1.3676677747768337e-05,-1.9532362801556388e-05,3.2,3.667
0.47265625,-3.614020098268098e-05,-3.858285817654685e-05,-1.3185915571831827e-05,-1.9532362801556388e-05,3.2,3.667
0.4765625,-3.9062466666666634e-05,-3.1254886594949226e-05,-2.1004649329365945e-05,-2.4908439365224666e-05,3.2,3.667
0.48046875,-3.467906814068816e-05,-3.0764124419012716e-05,-2.1975019995422258e-05,-2.7351096559090533e-05,3.2,3.667
0.484375,-2.6860334383154026e-05,-2.1004649329365945e-05,-1.6610097117570745e-05,-2.4908439365224666e-05,3.2,3.667
0.48828125,-3.515867663080793e-05,-1.5628572765697698e-05,-2.0023124977492925e-05,-2.8812229401083356e-05,3.2,3.667
0.4921875,-3.467906814068816e-05,-1.1724782729838977e-05,-2.7351096559090533e-05,-2.5889963717097714e-05,3.2,3.667
0.49609375,-2.6860334383154026e-05,-1.3676677747768337e-05,-2.2956544347295306e-05,-2.2465782171358795e-05,3.2,3.667
0.5,-3.320678161287859e-05,-2.1495411505302483e-05,-2.5399201541161176e-05,-2.1004649329365945e-05,3.2,3.667
0.50390625,-2.9302991577019893e-05,-2.2465782171358795e-05,-2.2956544347295306e-05,-1.7100859293507255e-05,3.2,3.667
0.5078125,-3.467906814068816e-05,-2.8321467225146846e-05,-3.028451592889294e-05,-2.2465782171358795e-05,3.2,3.667
0.51171875,-3.614020098268098e-05,-3.028451592889294e-05,-2.9302991577019893e-05,-3.0764124419012716e-05,3.2,3.667
0.515625,-2.3447306523231843e-05,-2.7351096559090533e-05,-1.9532362801556388e-05,-3.564943880674446e-05,3.2,3.667
0.51953125,-3.4188305964751634e-05,-3.467906814068816e-05,-2.6860334383154026e-05,-2.8812229401083356e-05,3.2,3.667
0.5234375,-3.4188305964751634e-05,-2.9302991577019893e-05,-2.9793753752956404e-05,-1.7580467783627027e-05,3.2,3.667
0.52734375,-2.4908439365224666e-05,-2.0023124977492925e-05,-2.5889963717097714e-05,-1.1724782729838977e-05,3.2,3.667
0.53125,-2.8812229401083356e-05,-2.7351096559090533e-05,-2.5399201541161176e-05,-1.5137810589761159e-05,3.2,3.667
0.53515625,-3.1745648770885764e-05,-3.564943880674446e-05,-2.6860334383154026e-05,-1.8561992135500075e-05,3.2,3.667
0.5390625,-2.9302991577019893e-05,-3.1254886594949226e-05,-3.320678161287859e-05,-1.5628572765697698e-05,3.2,3.667
0.54296875,-2.9302991577019893e-05,-2.8812229401083356e-05,-4.199588603646903e-05,-1.0743258377965958e-05,3.2,3.667
0.546875,-3.614020098268098e-05,-2.1004649329365945e-05,-2.7351096559090533e-05,-1.4658202099641385e-05,3.2,3.667
0.55078125,-4.248664821240555e-05,-1.8561992135500075e-05,-2.2465782171358795e-05,-2.7351096559090533e-05,3.2,3.667
0.5546875,-4.0534753194476205e-05,-2.7841858735027043e-05,-3.515867663080793e-05,-1.9532362801556388e-05,3.2,3.667
0.55859375,-3.2716019436942076e-05,-3.028451592889294e-05,-3.809209600061032e-05,-9.282125535973108e-06,3.2,3.667
0.5625,-4.394778105439839e-05,-3.760133382467382e-05,-4.492930540627142e-05,-1.7580467783627027e-05,3.2,3.667
0.56640625,-4.981461979400318e-05,-3.809209600061032e-05,-4.5420067582207946e-05,-2.8321467225146846e-05,3.2,3.667
0.5703125,-3.320678161287859e-05,-3.1745648770885764e-05,-4.394778105439839e-05,-2.6860334383154026e-05,3.2,3.667
0.57421875,-2.9302991577019893e-05,-4.102551537041273e-05,-4.1505123860532504e-05,-2.7351096559090533e-05,3.2,3.667
0.578125,-2.392691501335162e-05,-4.004399101853968e-05,-3.564943880674446e-05,-3.467906814068816e-05,3.2,3.667
0.58203125,-2.6369572207217485e-05,-3.2716019436942076e-05,-3.711057164873729e-05,-3.1745648770885764e-05,3.2,3.667
0.5859375,-3.515867663080793e-05,-3.711057164873729e-05,-4.5420067582207946e-05,-2.2465782171358795e-05,3.2,3.667
0.58984375,-2.9302991577019893e-05,-3.369754378881511e-05,-3.564943880674446e-05,-7.820992693980287e-06,3.2,3.667
0.59375,-3.2236410946822274e-05,-3.515867663080793e-05,-2.5399201541161176e-05,-1.0743258377965958e-05,3.2,3.667
0.59765625,-4.199588603646903e-05,-4.248664821240555e-05,-3.028451592889294e-05,-2.2465782171358795e-05,3.2,3.667
0.6015625,-3.809209600061032e-05,-4.102551537041273e-05,-3.564943880674446e-05,-1.6119334941634208e-05,3.2,3.667
0.60546875,-3.564943880674446e-05,-2.9793753752956404e-05,-3.955322884260316e-05,-1.9532362801556388e-05,3.2,3.667
0.609375,-3.467906814068816e-05,-3.760133382467382e-05,-3.9062466666666634e-05,-2.2956544347295306e-05,3.2,3.667
0.61328125,-2.5399201541161176e-05,-4.0534753194476205e-05,-3.320678161287859e-05,-1.6610097117570745e-05,3.2,3.667
0.6171875,-2.9793753752956404e-05,-3.515867663080793e-05,-4.0534753194476205e-05,-2.0023124977492925e-05,3.2,3.667
0.62109375,-3.614020098268098e-05,-3.467906814068816e-05,-4.932385761806665e-05,-3.858285817654685e-05,3.2,3.667
0.625,-3.0764124419012716e-05,-3.467906814068816e-05,-4.981461979400318e-05,-3.4188305964751634e-05,3.2,3.667
0.62890625,-2.9302991577019893e-05,-4.1505123860532504e-05,-4.44385432303349e-05,-2.5889963717097714e-05,3.2,3.667
0.6328125,-3.858285817654685e-05,-4.0534753194476205e-05,-3.614020098268098e-05,-2.9793753752956404e-05,3.2,3.667
0.63671875,-4.7371962600137306e-05,-3.320678161287859e-05,-2.5399201541161176e-05,-2.7351096559090533e-05,3.2,3.667
0.640625,-4.394778105439839e-05,-3.564943880674446e-05,-2.9302991577019893e-05,-2.392691501335162e-05,3.2,3.667
0.64453125,-2.8321467225146846e-05,-4.44385432303349e-05,-4.639043824826426e-05,-1.0743258377965958e-05,3.2,3.667
0.6484375,-2.2956544347295306e-05,-4.932385761806665e-05,-5.1275752635996e-05,-1.8071229959563565e-05,3.2,3.667
0.65234375,-2.6860334383154026e-05,-4.394778105439839e-05,-4.394778105439839e-05,-2.9793753752956404e-05,3.2,3.667
0.65625,-2.8321467225146846e-05,-4.2977410388342075e-05,-3.711057164873729e-05,-1.5137810589761159e-05,3.2,3.667
0.66015625,-3.515867663080793e-05,-4.8342333266193605e-05,-4.1505123860532504e-05,-1.2706307081712026e-05,3.2,3.667
0.6640625,-3.1745648770885764e-05,-4.1505123860532504e-05,-3.614020098268098e-05,-2.5889963717097714e-05,3.2,3.667
0.66796875,-3.0764124419012716e-05,-4.004399101853968e-05,-4.2977410388342075e-05,-2.9793753752956404e-05,3.2,3.667
0.671875,-2.7841858735027043e-05,-3.2716019436942076e-05,-3.0764124419012716e-05,-1.4167439923704875e-05,3.2,3.667
0.67578125,-3.028451592889294e-05,-2.8321467225146846e-05,-1.6610097117570745e-05,-3.028451592889294e-05,3.2,3.667
0.6796875,-4.639043824826426e-05,-4.5899676072327735e-05,-3.6630963158617505e-05,-4.3457018878461864e-05,3.2,3.667
0.68359375,-4.102551537041273e-05,-5.1766514811932523e-05,-4.932385761806665e-05,-2.1004649329365945e-05,3.2,3.667
0.6875,-3.760133382467382e-05,-4.492930540627142e-05,-4.981461979400318e-05,-1.7580467783627027e-05,3.2,3.667
0.69140625,-3.711057164873729e-05,-3.955322884260316e-05,-3.711057164873729e-05,-1.1724782729838977e-05,3.2,3.667
0.6953125,-3.858285817654685e-05,-4.883309544213013e-05,-4.3457018878461864e-05,-2.2465782171358795e-05,3.2,3.667
0.69921875,-4.492930540627142e-05,-5.0294228284122966e-05,-5.860372421759362e-05,-3.711057164873729e-05,3.2,3.667
0.703125,-3.809209600061032e-05,-4.102551537041273e-05,-4.8342333266193605e-05,-3.467906814068816e-05,3.2,3.667
0.70703125,-3.614020098268098e-05,-3.809209600061032e-05,-4.3457018878461864e-05,-3.564943880674446e-05,3.2,3.667
0.7109375,-4.688120042420078e-05,-3.955322884260316e-05,-4.5899676072327735e-05,-3.369754378881511e-05,3.2,3.667
0.71484375,-5.3718409829861884e-05,-4.2977410388342075e-05,-4.5420067582207946e-05,-2.6369572207217485e-05,3.2,3.667
0.71875,-4.2977410388342075e-05,-4.1505123860532504e-05,-4.785157109025708e-05,-2.4908439365224666e-05,3.2,3.667
0.72265625,-3.0764124419012716e-05,-4.44385432303349e-05,-5.4688780495918176e-05,-2.3447306523231843e-05,3.2,3.667
0.7265625,-3.760133382467382e-05,-4.785157109025708e-05,-4.932385761806665e-05,-2.9793753752956404e-05,3.2,3.667
0.73046875,-3.369754378881511e-05,-5.1275752635996e-05,-3.614020098268098e-05,-3.4188305964751634e-05,3.2,3.667
0.734375,-2.392691501335162e-05,-5.860372421759362e-05,-4.1505123860532504e-05,-2.4908439365224666e-05,3.2,3.667
0.73828125,-2.2465782171358795e-05,-4.5899676072327735e-05,-4.0534753194476205e-05,-1.6610097117570745e-05,3.2,3.667
0.7421875,-2.7351096559090533e-05,-4.1505123860532504e-05,-4.199588603646903e-05,-2.0023124977492925e-05,3.2,3.667
0.74609375,-3.1254886594949226e-05,-4.3457018878461864e-05,-4.639043824826426e-05,-2.6369572207217485e-05,3.2,3.667
0.75,-3.711057164873729e-05,-4.0534753194476205e-05,-4.5899676072327735e-05,-1.8561992135500075e-05,3.2,3.667
0.75390625,-3.809209600061032e-05,-4.0534753194476205e-05,-4.492930540627142e-05,-1.2215544905775516e-05,3.2,3.667
0.7578125,-3.2236410946822274e-05,-3.4188305964751634e-05,-4.2977410388342075e-05,-1.5137810589761159e-05,3.2,3.667
0.76171875,-3.320678161287859e-05,-3.2716019436942076e-05,-5.0294228284122966e-05,-2.3447306523231843e-05,3.2,3.667
0.765625,-3.711057164873729e-05,-3.858285817654685e-05,-5.2736885477988836e-05,-4.199588603646903e-05,3.2,3.667
0.76953125,-3.2236410946822274e-05,-3.4188305964751634e-05,-4.44385432303349e-05,-3.711057164873729e-05,3.2,3.667
0.7734375,-2.1495411505302483e-05,-2.7351096559090533e-05,-2.8321467225146846e-05,-2.0513887153429435e-05,3.2,3.667
0.77734375,-3.028451592889294e-05,-3.564943880674446e-05,-3.6630963158617505e-05,-1.9532362801556388e-05,3.2,3.667
0.78125,-3.6630963158617505e-05,-3.0764124419012716e-05,-5.2246123302052305e-05,-1.7100859293507255e-05,3.2,3.667
0.78515625,-3.467906814068816e-05,-2.4417677189288125e-05,-3.809209600061032e-05,-1.3185915571831827e-05,3.2,3.667
0.7890625,-4.004399101853968e-05,-3.2716019436942076e-05,-4.199588603646903e-05,-2.3447306523231843e-05,3.2,3.667
0.79296875,-3.760133382467382e-05,-3.515867663080793e-05,-3.809209600061032e-05,-3.0764124419012716e-05,3.2,3.667
0.796875,-3.515867663080793e-05,-3.320678161287859e-05,-2.9302991577019893e-05,-2.6860334383154026e-05,3.2,3.667
0.80078125,-3.9062466666666634e-05,-3.320678161287859e-05,-3.809209600061032e-05,-2.7351096559090533e-05,3.2,3.667
0.8046875,-3.760133382467382e-05,-2.7351096559090533e-05,-3.0764124419012716e-05,-3.467906814068816e-05,3.2,3.667
0.80859375,-3.467906814068816e-05,-2.4908439365224666e-05,-2.2465782171358795e-05,-4.004399101853968e-05,3.2,3.667
0.8125,-4.248664821240555e-05,-2.9793753752956404e-05,-2.0513887153429435e-05,-3.028451592889294e-05,3.2,3.667
0.81640625,-3.6630963158617505e-05,-3.564943880674446e-05,-2.0513887153429435e-05,-2.5399201541161176e-05,3.2,3.667
0.8203125,-2.6369572207217485e-05,-4.1505123860532504e-05,-3.1745648770885764e-05,-2.5399201541161176e-05,3.2,3.667
0.82421875,-2.9302991577019893e-05,-4.394778105439839e-05,-4.639043824826426e-05,-2.3447306523231843e-05,3.2,3.667
0.828125,-3.955322884260316e-05,-4.102551537041273e-05,-4.5420067582207946e-05,-2.1004649329365945e-05,3.2,3.667
0.83203125,-4.3457018878461864e-05,-3.858285817654685e-05,-3.369754378881511e-05,-1.5137810589761159e-05,3.2,3.667
0.8359375,-4.1505123860532504e-05,-4.44385432303349e-05,-3.1254886594949226e-05,-2.7351096559090533e-05,3.2,3.667
0.83984375,-4.5420067582207946e-05,-5.0784990460059476e-05,-4.2977410388342075e-05,-3.4188305964751634e-05,3.2,3.667
0.84375,-3.858285817654685e-05,-4.248664821240555e-05,-5.0784990460059476e-05,-2.4417677189288125e-05,3.2,3.667
0.84765625,-2.9793753752956404e-05,-3.1745648770885764e-05,-3.809209600061032e-05,-2.4417677189288125e-05,3.2,3.667
0.8515625,-3.858285817654685e-05,-3.564943880674446e-05,-2.7841858735027043e-05,-2.4417677189288125e-05,3.2,3.667
0.85546875,-4.8342333266193605e-05,-4.1505123860532504e-05,-2.6860334383154026e-05,-1.8071229959563565e-05,3.2,3.667
0.859375,-3.760133382467382e-05,-2.8321467225146846e-05,-3.614020098268098e-05,-1.7580467783627027e-05,3.2,3.667
0.86328125,-2.9302991577019893e-05,-2.9302991577019893e-05,-4.492930540627142e-05,-3.028451592889294e-05,3.2,3.667
0.8671875,-4.004399101853968e-05,-4.785157109025708e-05,-4.3457018878461864e-05,-2.4908439365224666e-05,3.2,3.667
0.87109375,-4.394778105439839e-05,-4.44385432303349e-05,-4.2977410388342075e-05,-2.1495411505302483e-05,3.2,3.667
0.875,-4.639043824826426e-05,-3.858285817654685e-05,-4.5899676072327735e-05,-2.9793753752956404e-05,3.2,3.667
0.87890625,-4.44385432303349e-05,-4.394778105439839e-05,-4.102551537041273e-05,-3.2236410946822274e-05,3.2,3.667
0.8828125,-3.467906814068816e-05,-4.932385761806665e-05,-4.932385761806665e-05,-2.7351096559090533e-05,3.2,3.667
0.88671875,-4.248664821240555e-05,-5.4688780495918176e-05,-5.3718409829861884e-05,-1.8561992135500075e-05,3.2,3.667
0.890625,-4.102551537041273e-05,-4.8342333266193605e-05,-4.785157109025708e-05,-2.4417677189288125e-05,3.2,3.667
0.89453125,-3.369754378881511e-05,-3.4188305964751634e-05,-3.6630963158617505e-05,-2.2956544347295306e-05,3.2,3.667
0.8984375,-4.2977410388342075e-05,-3.2716019436942076e-05,-3.564943880674446e-05,-2.2465782171358795e-05,3.2,3.667
0.90234375,-4.102551537041273e-05,-3.515867663080793e-05,-4.0534753194476205e-05,-4.004399101853968e-05,3.2,3.667
0.90625,-3.1254886594949226e-05,-3.809209600061032e-05,-3.858285817654685e-05,-3.028451592889294e-05,3.2,3.667
0.91015625,-2.6369572207217485e-05,-3.1254886594949226e-05,-3.2236410946822274e-05,-1.3676677747768337e-05,3.2,3.667
0.9140625,-2.9302991577019893e-05,-2.8812229401083356e-05,-2.8321467225146846e-05,-1.1234020553902467e-05,3.2,3.667
0.91796875,-3.564943880674446e-05,-4.199588603646903e-05,-4.102551537041273e-05,-1.9532362801556388e-05,3.2,3.667
0.921875,-2.7351096559090533e-05,-4.44385432303349e-05,-4.102551537041273e-05,-3.614020098268098e-05,3.2,3.667
0.92578125,-2.0023124977492925e-05,-3.9062466666666634e-05,-3.4188305964751634e-05,-3.4188305964751634e-05,3.2,3.667
0.9296875,-2.392691501335162e-05,-3.760133382467382e-05,-3.955322884260316e-05,-1.9532362801556388e-05,3.2,3.667
0.93359375,-3.1254886594949226e-05,-3.711057164873729e-05,-3.369754378881511e-05,-2.0023124977492925e-05,3.2,3.667
0.9375,-3.614020098268098e-05,-3.955322884260316e-05,-4.199588603646903e-05,-3.711057164873729e-05,3.2,3.667
0.94140625,-3.369754378881511e-05,-4.492930540627142e-05,-5.1766514811932523e-05,-2.9793753752956404e-05,3.2,3.667
0.9453125,-2.5399201541161176e-05,-4.394778105439839e-05,-4.5899676072327735e-05,-1.7580467783627027e-05,3.2,3.667
0.94921875,-2.7351096559090533e-05,-3.614020098268098e-05,-3.9062466666666634e-05,-2.4417677189288125e-05,3.2,3.667
0.953125,-4.102551537041273e-05,-3.711057164873729e-05,-4.5420067582207946e-05,-3.1254886594949226e-05,3.2,3.667
0.95703125,-3.711057164873729e-05,-4.0534753194476205e-05,-5.0294228284122966e-05,-3.6630963158617505e-05,3.2,3.667
0.9609375,-3.614020098268098e-05,-4.199588603646903e-05,-4.883309544213013e-05,-3.6630963158617505e-05,3.2,3.667
0.96484375,-3.711057164873729e-05,-3.4188305964751634e-05,-4.8342333266193605e-05,-4.8342333266193605e-05,3.2,3.667
0.96875,-3.369754378881511e-05,-2.5889963717097714e-05,-3.467906814068816e-05,-4.0534753194476205e-05,3.2,3.667
0.97265625,-3.711057164873729e-05,-2.8321467225146846e-05,-3.711057164873729e-05,-7.330230518043777e-06,3.2,3.667
0.9765625,-3.0764124419012716e-05,-3.369754378881511e-05,-5.322764765392536e-05,-3.9172026581215955e-06,3.2,3.667
0.98046875,-2.6860334383154026e-05,-4.004399101853968e-05,-5.1766514811932523e-05,-2.0513887153429435e-05,3.2,3.667
0.984375,-3.6630963158617505e-05,-4.248664821240555e-05,-4.5899676072327735e-05,-2.9302991577019893e-05,3.2,3.667
0.98828125,-4.785157109025708e-05,-4.004399101853968e-05,-4.492930540627142e-05,-2.7351096559090533e-05,3.2,3.667
0.9921875,-4.199588603646903e-05,-3.9062466666666634e-05,-4.44385432303349e-05,-2.6860334383154026e-05,3.2,3.667
0.99609375,-3.809209600061032e-05,-3.955322884260316e-05,-4.5420067582207946e-05,-2.0513887153429435e-05,3.2,3.667
1.0,-3.711057164873729e-05,-3.809209600061032e-05,-4.981461979400318e-05,-1.7580467783627027e-05,3.2,3.667
1.00390625,-4.004399101853968e-05,-3.1745648770885764e-05,-4.883309544213013e-05,-3.2716019436942076e-05,3.2,3.667
1.0078125,-3.4188305964751634e-05,-3.4188305964751634e-05,-4.248664821240555e-05,-4.394778105439839e-05,3.2,3.667
1.01171875,-2.2956544347295306e-05,-3.809209600061032e-05,-3.2716019436942076e-05,-4.102551537041273e-05,3.2,3.667
1.015625,-3.1745648770885764e-05,-3.760133382467382e-05,-3.2236410946822274e-05,-3.0764124419012716e-05,3.2,3.667
1.01953125,-3.369754378881511e-05,-4.3457018878461864e-05,-4.8342333266193605e-05,-2.392691501335162e-05,3.2,3.667
1.0234375,-2.8321467225146846e-05,-4.2977410388342075e-05,-4.785157109025708e-05,-2.6860334383154026e-05,3.2,3.667
1.02734375,-2.9302991577019893e-05,-3.9062466666666634e-05,-4.5899676072327735e-05,-3.2236410946822274e-05,3.2,3.667
1.03125,-3.1254886594949226e-05,-3.564943880674446e-05,-4.7371962600137306e-05,-4.0534753194476205e-05,3.2,3.667
1.03515625,-3.564943880674446e-05,-3.2716019436942076e-05,-3.9062466666666634e-05,-2.5399201541161176e-05,3.2,3.667
1.0390625,-4.199588603646903e-05,-3.6630963158617505e-05,-3.858285817654685e-05,-2.3447306523231843e-05,3.2,3.667
1.04296875,-3.858285817654685e-05,-4.5899676072327735e-05,-4.1505123860532504e-05,-4.3457018878461864e-05,3.2,3.667
1.046875,-4.004399101853968e-05,-4.3457018878461864e-05,-3.760133382467382e-05,-3.0764124419012716e-05,3.2,3.667
1.05078125,-4.785157109025708e-05,-3.614020098268098e-05,-3.711057164873729e-05,-2.8321467225146846e-05,3.2,3.667
1.0546875,-4.1505123860532504e-05,-3.858285817654685e-05,-3.564943880674446e-05,-2.5889963717097714e-05,3.2,3.667
1.05859375,-3.028451592889294e-05,-4.2977410388342075e-05,-3.564943880674446e-05,-2.2956544347295306e-05,3.2,3.667
1.0625,-3.2236410946822274e-05,-4.0534753194476205e-05,-4.492930540627142e-05,-2.5399201541161176e-05,3.2,3.667
1.06640625,-3.564943880674446e-05,-3.858285817654685e-05,-5.2246123302052305e-05,-2.6369572207217485e-05,3.2,3.667
1.0703125,-3.369754378881511e-05,-3.369754378881511e-05,-5.4209172005798394e-05,-2.1975019995422258e-05,3.2,3.667
1.07421875,-4.932385761806665e-05,-3.955322884260316e-05,-5.4688780495918176e-05,-2.5399201541161176e-05,3.2,3.667
1.078125,-4.44385432303349e-05,-4.004399101853968e-05,-5.0294228284122966e-05,-2.6860334383154026e-05,3.2,3.667
1.08203125,-3.2236410946822274e-05,-4.199588603646903e-05,-5.2246123302052305e-05,-2.1975019995422258e-05,3.2,3.667
1.0859375,-4.004399101853968e-05,-5.0294228284122966e-05,-5.7131437689784046e-05,-2.7841858735027043e-05,3.2,3.667
1.08984375,-3.809209600061032e-05,-4.44385432303349e-05,-5.1766514811932523e-05,-4.199588603646903e-05,3.2,3.667
1.09375,-4.492930540627142e-05,-3.809209600061032e-05,-4.004399101853968e-05,-4.3457018878461864e-05,3.2,3.667
1.09765625,-4.3457018878461864e-05,-3.6630963158617505e-05,-3.6630963158617505e-05,-3.2716019436942076e-05,3.2,3.667
1.1015625,-2.6369572207217485e-05,-4.0534753194476205e-05,-3.955322884260316e-05,-2.3447306523231843e-05,3.2,3.667
1.10546875,-2.3447306523231843e-05,-4.785157109025708e-05,-3.760133382467382e-05,-2.4908439365224666e-05,3.2,3.667
1.109375,-2.9793753752956404e-05,-4.2977410388342075e-05,-3.2236410946822274e-05,-1.9052754311436616e-05,3.2,3.667
1.11328125,-4.1505123860532504e-05,-3.760133382467382e-05,-3.6630963158617505e-05,-2.2956544347295306e-05,3.2,3.667
1.1171875,-4.2977410388342075e-05,-4.248664821240555e-05,-4.639043824826426e-05,-3.858285817654685e-05,3.2,3.667
1.12109375,-3.467906814068816e-05,-4.785157109025708e-05,-4.5420067582207946e-05,-3.028451592889294e-05,3.2,3.667
1.125,-3.614020098268098e-05,-4.0534753194476205e-05,-4.3457018878461864e-05,-2.1004649329365945e-05,3.2,3.667
1.12890625,-4.1505123860532504e-05,-4.8342333266193605e-05,-4.248664821240555e-05,-2.6860334383154026e-05,3.2,3.667
1.1328125,-3.760133382467382e-05,-5.1275752635996e-05,-3.614020098268098e-05,-3.2236410946822274e-05,3.2,3.667
1.13671875,-3.809209600061032e-05,-5.3718409829861884e-05,-4.248664821240555e-05,-3.564943880674446e-05,3.2,3.667
1.140625,-4.688120042420078e-05,-6.201675207751581e-05,-4.981461979400318e-05,-3.4188305964751634e-05,3.2,3.667
1.14453125,-4.7371962600137306e-05,-5.51795426718547e-05,-4.7371962600137306e-05,-3.515867663080793e-05,3.2,3.667
1.1484375,-3.028451592889294e-05,-3.955322884260316e-05,-2.8321467225146846e-05,-3.809209600061032e-05,3.2,3.667
1.15234375,-2.6860334383154026e-05,-2.9302991577019893e-05,-2.7841858735027043e-05,-3.6630963158617505e-05,3.2,3.667
1.15625,-3.467906814068816e-05,-4.2977410388342075e-05,-4.688120042420078e-05,-3.028451592889294e-05,3.2,3.667
1.16015625,-2.8812229401083356e-05,-4.248664821240555e-05,-4.639043824826426e-05,-2.392691501335162e-05,3.2,3.667
1.1640625,-2.5399201541161176e-05,-3.2236410946822274e-05,-4.44385432303349e-05,-2.9793753752956404e-05,3.2,3.667
1.16796875,-2.3447306523231843e-05,-3.614020098268098e-05,-4.248664821240555e-05,-3.760133382467382e-05,3.2,3.667
1.171875,-2.6369572207217485e-05,-3.2716019436942076e-05,-3.1745648770885764e-05,-2.4908439365224666e-05,3.2,3.667
1.17578125,-3.369754378881511e-05,-3.320678161287859e-05,-3.028451592889294e-05,-2.6369572207217485e-05,3.2,3.667
1.1796875,-2.9302991577019893e-05,-4.004399101853968e-05,-3.564943880674446e-05,-3.1745648770885764e-05,3.2,3.667
1.18359375,-2.392691501335162e-05,-3.515867663080793e-05,-3.760133382467382e-05,-1.3185915571831827e-05,3.2,3.667
1.1875,-2.392691501335162e-05,-3.614020098268098e-05,-4.639043824826426e-05,-2.3447306523231843e-05,3.2,3.667
1.19140625,-2.7351096559090533e-05,-3.467906814068816e-05,-3.614020098268098e-05,-4.004399101853968e-05,3.2,3.667
1.1953125,-3.515867663080793e-05,-3.320678161287859e-05,-2.6860334383154026e-05,-3.2236410946822274e-05,3.2,3.667
1.19921875,-3.614020098268098e-05,-4.1505123860532504e-05,-3.955322884260316e-05,-2.5399201541161176e-05,3.2,3.667
1.203125,-3.614020098268098e-05,-4.3457018878461864e-05,-4.3457018878461864e-05,-2.6369572207217485e-05,3.2,3.667
1.20703125,-4.102551537041273e-05,-3.955322884260316e-05,-3.9062466666666634e-05,-3.467906814068816e-05,3.2,3.667
1.2109375,-2.8321467225146846e-05,-3.2236410946822274e-05,-2.6369572207217485e-05,-2.0023124977492925e-05,3.2,3.667
1.21484375,-1.9532362801556388e-05,-2.5889963717097714e-05,-2.6369572207217485e-05,-1.6610097117570745e-05,3.2,3.667
1.21875,-3.711057164873729e-05,-2.9793753752956404e-05,-4.3457018878461864e-05,-2.6860334383154026e-05,3.2,3.667
1.22265625,-4.883309544213013e-05,-3.809209600061032e-05,-5.1275752635996e-05,-3.467906814068816e-05,3.2,3.667
1.2265625,-4.3457018878461864e-05,-4.0534753194476205e-05,-5.2246123302052305e-05,-4.785157109025708e-05,3.2,3.667
1.23046875,-4.3457018878461864e-05,-4.1505123860532504e-05,-4.492930540627142e-05,-3.028451592889294e-05,3.2,3.667
1.234375,-4.492930540627142e-05,-3.515867663080793e-05,-3.711057164873729e-05,-1.6119334941634208e-05,3.2,3.667
1.23828125,-5.2736885477988836e-05,-3.9062466666666634e-05,-3.467906814068816e-05,-3.6630963158617505e-05,3.2,3.667
1.2421875,-5.6640675513847536e-05,-4.932385761806665e-05,-4.1505123860532504e-05,-3.809209600061032e-05,3.2,3.667
1.24609375,-3.711057164873729e-05,-4.5420067582207946e-05,-4.1505123860532504e-05,-2.4908439365224666e-05,3.2,3.667
1.25,-3.1254886594949226e-05,-4.3457018878461864e-05,-4.492930540627142e-05,-2.4908439365224666e-05,3.2,3.667
1.25390625,-4.0534753194476205e-05,-4.102551537041273e-05,-3.955322884260316e-05,-2.7351096559090533e-05,3.2,3.667
1.2578125,-3.711057164873729e-05,-3.711057164873729e-05,-3.711057164873729e-05,-2.9793753752956404e-05,3.2,3.667
1.26171875,-3.028451592889294e-05,-3.515867663080793e-05,-4.248664821240555e-05,-2.7841858735027043e-05,3.2,3.667
1.265625,-4.2977410388342075e-05,-3.6630963158617505e-05,-4.8342333266193605e-05,-2.2465782171358795e-05,3.2,3.667
1.26953125,-5.3718409829861884e-05,-4.639043824826426e-05,-5.4209172005798394e-05,-2.5399201541161176e-05,3.2,3.667
1.2734375,-4.5899676072327735e-05,-4.883309544213013e-05,-4.883309544213013e-05,-2.7351096559090533e-05,3.2,3.667
1.27734375,-3.9062466666666634e-05,-3.564943880674446e-05,-4.394778105439839e-05,-2.7841858735027043e-05,3.2,3.667
1.28125,-3.809209600061032e-05,-3.809209600061032e-05,-5.0784990460059476e-05,-2.8321467225146846e-05,3.2,3.667
1.28515625,-3.858285817654685e-05,-4.981461979400318e-05,-5.0294228284122966e-05,-2.8812229401083356e-05,3.2,3.667
1.2890625,-3.564943880674446e-05,-4.8342333266193605e-05,-4.8342333266193605e-05,-3.467906814068816e-05,3.2,3.667
1.29296875,-3.0764124419012716e-05,-4.0534753194476205e-05,-4.394778105439839e-05,-3.6630963158617505e-05,3.2,3.667
1.296875,-3.1745648770885764e-05,-3.955322884260316e-05,-4.102551537041273e-05,-2.7351096559090533e-05,3.2,3.667
1.30078125,-3.614020098268098e-05,-4.394778105439839e-05,-5.6640675513847536e-05,-3.2236410946822274e-05,3.2,3.667
1.3046875,-3.564943880674446e-05,-2.6860334383154026e-05,-4.932385761806665e-05,-3.6630963158617505e-05,3.2,3.667
1.30859375,-3.858285817654685e-05,-2.1975019995422258e-05,-3.9062466666666634e-05,-3.320678161287859e-05,3.2,3.667
1.3125,-3.2716019436942076e-05,-3.0764124419012716e-05,-3.467906814068816e-05,-2.9302991577019893e-05,3.2,3.667
1.31640625,-3.028451592889294e-05,-3.028451592889294e-05,-2.7841858735027043e-05,-1.8561992135500075e-05,3.2,3.667
1.3203125,-3.614020098268098e-05,-3.6630963158617505e-05,-5.0294228284122966e-05,-1.5628572765697698e-05,3.2,3.667
1.32421875,-3.515867663080793e-05,-3.809209600061032e-05,-5.3718409829861884e-05,-1.9532362801556388e-05,3.2,3.667
1.328125,-3.4188305964751634e-05,-2.9302991577019893e-05,-4.248664821240555e-05,-2.7351096559090533e-05,3.2,3.667
1.33203125,-3.028451592889294e-05,-3.320678161287859e-05,-4.8342333266193605e-05,-2.8321467225146846e-05,3.2,3.667
1.3359375,-2.8321467225146846e-05,-3.711057164873729e-05,-4.688120042420078e-05,-2.9302991577019893e-05,3.2,3.667
1.33984375,-3.2236410946822274e-05,-2.7351096559090533e-05,-3.760133382467382e-05,-3.1745648770885764e-05,3.2,3.667
1.34375,-3.6630963158617505e-05,-2.5889963717097714e-05,-2.9302991577019893e-05,-4.2977410388342075e-05,3.2,3.667
1.34765625,-3.955322884260316e-05,-2.1495411505302483e-05,-2.6860334383154026e-05,-3.369754378881511e-05,3.2,3.667
1.3515625,-4.3457018878461864e-05,-1.5628572765697698e-05,-2.9793753752956404e-05,-1.0263649887846156e-05,3.2,3.667
1.35546875,-3.711057164873729e-05,-2.6860334383154026e-05,-2.8321467225146846e-05,-1.7100859293507255e-05,3.2,3.667
1.359375,-3.0764124419012716e-05,-3.467906814068816e-05,-3.564943880674446e-05,-2.4908439365224666e-05,3.2,3.667
1.36328125,-2.5889963717097714e-05,-3.515867663080793e-05,-4.0534753194476205e-05,-2.6369572207217485e-05,3.2,3.667
1.3671875,-2.392691501335162e-05,-4.102551537041273e-05,-3.1254886594949226e-05,-2.1004649329365945e-05,3.2,3.667
1.37109375,-2.392691501335162e-05,-4.1505123860532504e-05,-2.9302991577019893e-05,-2.8812229401083356e-05,3.2,3.667
1.375,-2.9302991577019893e-05,-4.1505123860532504e-05,-3.2236410946822274e-05,-4.44385432303349e-05,3.2,3.667
1.37890625,-3.858285817654685e-05,-4.5420067582207946e-05,-3.4188305964751634e-05,-5.957409488364993e-05,3.2,3.667
1.3828125,-3.9062466666666634e-05,-4.688120042420078e-05,-3.760133382467382e-05,-4.44385432303349e-05,3.2,3.667
1.38671875,-4.199588603646903e-05,-3.711057164873729e-05,-3.0764124419012716e-05,-2.7351096559090533e-05,3.2,3.667
1.390625,-3.6630963158617505e-05,-2.392691501335162e-05,-2.0513887153429435e-05,-2.9793753752956404e-05,3.2,3.667
1.39453125,-2.7841858735027043e-05,-2.5889963717097714e-05,-2.6860334383154026e-05,-2.8812229401083356e-05,3.2,3.667
1.3984375,-3.4188305964751634e-05,-3.2716019436942076e-05,-3.711057164873729e-05,-2.8321467225146846e-05,3.2,3.667
1.40234375,-4.004399101853968e-05,-3.711057164873729e-05,-3.858285817654685e-05,-2.1495411505302483e-05,3.2,3.667
1.40625,-3.0764124419012716e-05,-4.1505123860532504e-05,-3.1254886594949226e-05,-2.1004649329365945e-05,3.2,3.667
1.41015625,-9.772887711909646e-06,-4.0534753194476205e-05,-2.8321467225146846e-05,-3.0764124419012716e-05,3.2,3.667
1.4140625,-9.282125535973108e-06,-4.199588603646903e-05,-3.369754378881511e-05,-4.2977410388342075e-05,3.2,3.667
1.41796875,-2.3447306523231843e-05,-4.2977410388342075e-05,-3.955322884260316e-05,-3.515867663080793e-05,3.2,3.667
1.421875,-2.1495411505302483e-05,-3.369754378881511e-05,-4.492930540627142e-05,-3.320678161287859e-05,3.2,3.667
1.42578125,-2.3447306523231843e-05,-2.5889963717097714e-05,-3.614020098268098e-05,-2.7841858735027043e-05,3.2,3.667
1.4296875,-2.7351096559090533e-05,-2.9793753752956404e-05,-2.7841858735027043e-05,-1.0263649887846156e-05,3.2,3.667
1.43359375,-3.028451592889294e-05,-2.9793753752956404e-05,-2.2465782171358795e-05,-1.3185915571831827e-05,3.2,3.667
1.4375,-3.467906814068816e-05,-2.5399201541161176e-05,-2.9302991577019893e-05,-3.369754378881511e-05,3.2,3.667
1.44140625,-3.369754378881511e-05,-3.320678161287859e-05,-4.248664821240555e-05,-2.9793753752956404e-05,3.2,3.667
1.4453125,-3.1254886594949226e-05,-4.5420067582207946e-05,-4.248664821240555e-05,-2.4908439365224666e-05,3.2,3.667
1.44921875,-2.7841858735027043e-05,-4.5420067582207946e-05,-4.394778105439839e-05,-3.2236410946822274e-05,3.2,3.667
1.453125,-2.6860334383154026e-05,-4.5420067582207946e-05,-4.688120042420078e-05,-2.392691501335162e-05,3.2,3.667
1.45703125,-2.1495411505302483e-05,-3.6630963158617505e-05,-4.5899676072327735e-05,-1.6610097117570745e-05,3.2,3.667
1.4609375,-2.0513887153429435e-05,-3.320678161287859e-05,-4.004399101853968e-05,-1.6610097117570745e-05,3.2,3.667
1.46484375,-2.9793753752956404e-05,-4.394778105439839e-05,-4.492930540627142e-05,-2.2465782171358795e-05,3.2,3.667
1.46875,-3.614020098268098e-05,-4.883309544213013e-05,-5.3718409829861884e-05,-1.8561992135500075e-05,3.2,3.667
1.47265625,-2.4417677189288125e-05,-3.320678161287859e-05,-3.515867663080793e-05,1.9496360814831915e-06,3.2,3.667
1.4765625,-2.5889963717097714e-05,-4.004399101853968e-05,-3.564943880674446e-05,-9.837832883191878e-07,3.2,3.667
1.48046875,-4.8342333266193605e-05,-7.421888436102843e-05,-6.88539614831769e-05,-1.8561992135500075e-05,3.2,3.667
1.484375,-4.199588603646903e-05,-7.5691170888838e-05,-7.910419874876016e-05,7.805321135271242e-06,3.2,3.667
1.48828125,-2.4417677189288125e-05,-7.861343657282366e-05,-9.033596036621649e-05,2.6365054334325206e-05,3.2,3.667
1.4921875,-1.6610097117570745e-05,-9.668240759594107e-05,-0.00010645303637140456,2.245011061264975e-05,3.2,3.667
1.49609375,-1.8561992135500075e-05,-0.00012354048304264893,-0.00013721490185397112,2.733542500038149e-05,3.2,3.667
1.5,-1.2706307081712026e-05,-0.00016209877491111618,-0.00018651419316395817,2.9287320018310848e-05,3.2,3.667
1.50390625,-2.9356783062485474e-06,-0.00020361279352101928,-0.00022850782026398103,2.6365054334325206e-05,3.2,3.667
1.5078125,2.920006747539503e-06,-0.0002338838968276493,-0.00026220310511635,1.854632057679106e-05,3.2,3.667
1.51171875,2.0018607104600618e-05,-0.00026415500013427933,-0.00028466662835126267,1.170911117112996e-05,3.2,3.667
1.515625,2.3922397140459308e-05,-0.000300772550670634,-0.00033104365397726405,1.170911117112996e-05,3.2,3.667
1.51953125,2.782618717631803e-05,-0.00032713986394140534,-0.000370594623883421,8.29608331120778e-06,3.2,3.667
1.5234375,3.807642444190131e-05,-0.00032518796892347596,-0.00036473893882963293,-1.6119334941634208e-05,3.2,3.667
1.52734375,3.5154158757915637e-05,-0.00032909175895933467,-0.0003803652526588845,-3.1745648770885764e-05,3.2,3.667
1.53125,4.199136816357674e-05,-0.00035106452001831075,-0.0004013564893659876,-3.955322884260316e-05,3.2,3.667
1.53515625,4.7847053217364785e-05,-0.00034276617777065686,-0.00038329867202868695,-4.8342333266193605e-05,3.2,3.667
1.5390625,3.02688443701839e-05,-0.0003339770733470664,-0.0003764614626230258,-4.785157109025708e-05,3.2,3.667
1.54296875,2.8807711528191076e-05,-0.0003232360739055466,-0.0003779225954650186,-6.201675207751581e-05,3.2,3.667
1.546875,4.7356291041428274e-05,-0.000300772550670634,-0.00036913349104142817,-8.936558970016019e-05,3.2,3.667
1.55078125,5.1750843253223505e-05,-0.0002636642379583428,-0.00033104365397726405,-0.00011475137861905848,3.2,3.667
1.5546875,4.0028319459830636e-05,-0.000237787686863508,-0.00031151355011215377,-0.0001401371675379568,3.2,3.667
1.55859375,4.638592037537196e-05,-0.00020653505920500493,-0.00028954078905317764,-0.00015381158634927895,3.2,3.667
1.5625,5.760652830701156e-05,-0.00016893598431677725,-0.0002485286863050278,-0.0001708878793347066,3.2,3.667
1.56640625,3.7106053775845e-05,-0.0001508893206652933,-0.0002241132680521858,-0.00018895685035782403,3.2,3.667
1.5703125,2.245011061264975e-05,-0.00011035682640726327,-0.00018310116530403597,-0.000198236716957351,3.2,3.667
1.57421875,1.903708275272757e-05,-8.643217033035778e-05,-0.00015869690073701072,-0.00020458316418707555,3.2,3.667
1.578125,1.903708275272757e-05,-6.739282864118407e-05,-0.00013282034964217588,-0.00021142037359273667,3.2,3.667
1.58203125,2.3431634964522798e-05,-2.4417677189288125e-05,-8.838406534828715e-05,-0.00022216137303425647,3.2,3.667
1.5859375,1.5133292716868879e-05,-9.772887711909646e-06,-6.542977993743798e-05,-0.0002163056879804684,3.2,3.667
1.58984375,-1.9541539543754993e-06,4.39229327534909e-06,-4.981461979400318e-05,-0.00020848695422293428,3.2,3.667
1.59375,-9.282125535973108e-06,2.294087278858629e-05,-3.2236410946822274e-05,-0.00020751658355687796,3.2,3.667
1.59765625,-1.9052754311436616e-05,1.903708275272757e-05,-3.2716019436942076e-05,-0.0001987274791332875,3.2,3.667
1.6015625,-2.6860334383154026e-05,4.0028319459830636e-05,-1.6119334941634208e-05,-0.0001904291368856336,3.2,3.667
1.60546875,-2.4417677189288125e-05,4.638592037537196e-05,-4.396811148241369e-06,-0.0001806585081101701,3.2,3.667
1.609375,-2.5399201541161176e-05,5.2241605429160015e-05,9.681117296101718e-07,-0.00017919737526817726,3.2,3.667
1.61328125,-2.1975019995422258e-05,6.639563273060198e-05,1.9527844928664108e-05,-0.0001835919274799725,3.2,3.667
1.6171875,-2.2465782171358795e-05,7.518473715419244e-05,3.417263440604259e-05,-0.00017528243154650184,3.2,3.667
1.62109375,-2.8812229401083356e-05,7.275323364614331e-05,2.9287320018310848e-05,-0.00016161916642099637,3.2,3.667
1.625,-2.7351096559090533e-05,7.714778585793854e-05,4.0028319459830636e-05,-0.00015918766291294725,3.2,3.667
1.62890625,-3.0764124419012716e-05,8.202194655985355e-05,5.517502479896242e-05,-0.0001508893206652933,3.2,3.667
1.6328125,-3.564943880674446e-05,8.105157589379723e-05,5.4684262623025886e-05,-0.00015332082417334245,3.2,3.667
1.63671875,-4.785157109025708e-05,8.641649877164877e-05,5.1750843253223505e-05,-0.0001543023485252155,3.2,3.667
1.640625,-5.957409488364993e-05,8.641649877164877e-05,5.1750843253223505e-05,-0.00013134806311436634,3.2,3.667
1.64453125,-4.5899676072327735e-05,7.421436648813614e-05,4.4913633847562404e-05,-0.00011816440647898066,3.2,3.667
1.6484375,-2.8812229401083356e-05,7.177170929427026e-05,4.686552886549174e-05,-0.00011035682640726327,3.2,3.667
1.65234375,-3.515867663080793e-05,8.202194655985355e-05,5.0289710411230655e-05,-0.00010742340703746086,3.2,3.667
1.65625,-4.688120042420078e-05,7.762739434805831e-05,4.5895158199435424e-05,-0.0001191459308308537,3.2,3.667
1.66015625,-4.5420067582207946e-05,5.956957701075763e-05,3.856718661783782e-05,-0.00012109782584878306,3.2,3.667
1.6640625,-3.858285817654685e-05,5.7126919816891756e-05,4.100984381170369e-05,-0.00010351961700160216,3.2,3.667
1.66796875,-3.0764124419012716e-05,7.079018494239722e-05,5.126008107728697e-05,-9.668240759594107e-05,3.2,3.667
1.671875,-3.028451592889294e-05,6.639563273060198e-05,5.6636157640955246e-05,-0.00010205848415960934,3.2,3.667
1.67578125,-3.2236410946822274e-05,6.103070985275048e-05,5.614539546501871e-05,-9.815469412375062e-05,3.2,3.667
1.6796875,-3.760133382467382e-05,6.24918426947433e-05,4.686552886549174e-05,-8.838406534828715e-05,3.2,3.667
1.68359375,-3.9062466666666634e-05,6.639563273060198e-05,4.100984381170369e-05,-9.082672254215302e-05,3.2,3.667
1.6875,-3.6630963158617505e-05,6.444373771267265e-05,4.686552886549174e-05,-8.74025409964141e-05,3.2,3.667
1.69140625,-3.711057164873729e-05,6.493449988860917e-05,5.517502479896242e-05,-7.5691170888838e-05,3.2,3.667
1.6953125,-3.4188305964751634e-05,5.858805265888457e-05,4.638592037537196e-05,-8.34987509605554e-05,3.2,3.667
1.69921875,-3.4188305964751634e-05,5.4684262623025886e-05,4.199136816357674e-05,-9.619164542000454e-05,3.2,3.667
1.703125,-4.785157109025708e-05,5.321197609521633e-05,3.856718661783782e-05,-9.863430261387042e-05,3.2,3.667
1.70703125,-4.932385761806665e-05,4.199136816357674e-05,3.7106053775845e-05,-8.984519819027997e-05,3.2,3.667
1.7109375,-3.6630963158617505e-05,4.7847053217364785e-05,4.3452501005569554e-05,-8.154685594262604e-05,3.2,3.667
1.71484375,-4.004399101853968e-05,4.638592037537196e-05,3.417263440604259e-05,-7.910419874876016e-05,3.2,3.667
1.71875,-4.102551537041273e-05,3.661529159990846e-05,3.612452942397195e-05,-7.080585650110624e-05,3.2,3.667
1.72265625,-3.369754378881511e-05,3.172997721217672e-05,2.977808219424739e-05,-6.250751425345232e-05,3.2,3.667
1.7265625,-3.028451592889294e-05,3.807642444190131e-05,2.098897777065693e-05,-6.0555619235522965e-05,3.2,3.667
1.73046875,-3.1254886594949226e-05,4.4422871671625866e-05,2.9287320018310848e-05,-5.8112962041657094e-05,3.2,3.667
1.734375,-3.320678161287859e-05,4.199136816357674e-05,3.417263440604259e-05,-5.4688780495918176e-05,3.2,3.667
1.73828125,-3.858285817654685e-05,3.759681595178151e-05,3.563376724803544e-05,-5.1275752635996e-05,3.2,3.667
1.7421875,-4.394778105439839e-05,3.4663396581979126e-05,2.9287320018310848e-05,-5.51795426718547e-05,3.2,3.667
1.74609375,-4.102551537041273e-05,2.831694935225454e-05,3.0759606546120406e-05,-6.690206646524754e-05,3.2,3.667
1.75,-3.809209600061032e-05,2.8807711528191076e-05,3.807642444190131e-05,-6.347788491950862e-05,3.2,3.667
1.75390625,-3.2236410946822274e-05,3.2220739388113256e-05,3.563376724803544e-05,-5.860372421759362e-05,3.2,3.667
1.7578125,-3.1745648770885764e-05,2.8807711528191076e-05,1.854632057679106e-05,-6.88539614831769e-05,3.2,3.667
1.76171875,-3.515867663080793e-05,2.3431634964522798e-05,1.7575949910734747e-05,-6.787243713130385e-05,3.2,3.667
1.765625,-3.515867663080793e-05,1.219987334706647e-05,1.7085187734798237e-05,-5.4688780495918176e-05,3.2,3.667
1.76953125,-3.1745648770885764e-05,9.266453977264092e-06,6.3441882932784205e-06,-4.5899676072327735e-05,3.2,3.667
1.7734375,-2.9793753752956404e-05,2.147973994659344e-05,8.786845487144291e-06,-3.955322884260316e-05,3.2,3.667
1.77734375,-2.8321467225146846e-05,1.7085187734798237e-05,8.786845487144291e-06,-4.44385432303349e-05,3.2,3.667
1.78125,-2.392691501335162e-05,8.786845487144291e-06,5.362663941405373e-06,-4.932385761806665e-05,3.2,3.667
1.78515625,-3.0764124419012716e-05,1.122950268101016e-05,3.901531099412551e-06,-4.883309544213013e-05,3.2,3.667
1.7890625,-3.0764124419012716e-05,2.098897777065693e-05,1.269063552300301e-05,-5.0294228284122966e-05,3.2,3.667
1.79296875,-2.9793753752956404e-05,2.294087278858629e-05,1.269063552300301e-05,-4.932385761806665e-05,3.2,3.667
1.796875,-2.9302991577019893e-05,1.269063552300301e-05,6.3441882932784205e-06,-5.1766514811932523e-05,3.2,3.667
1.80078125,-3.1254886594949226e-05,3.901531099412551e-06,4.773495536736334e-07,-5.2736885477988836e-05,3.2,3.667
1.8046875,-3.711057164873729e-05,2.920006747539503e-06,-5.378335500114417e-06,-5.0784990460059476e-05,3.2,3.667
1.80859375,-3.955322884260316e-05,8.29608331120778e-06,8.29608331120778e-06,-6.103522772564275e-05,3.2,3.667
1.8125,-3.4188305964751634e-05,3.4107689234760415e-06,1.170911117112996e-05,-6.739282864118407e-05,3.2,3.667
1.81640625,-2.5889963717097714e-05,-9.837832883191878e-07,-2.444916130312009e-06,-6.0555619235522965e-05,3.2,3.667
1.8203125,-3.2236410946822274e-05,4.773495536736334e-07,-6.348706166170728e-06,-4.981461979400318e-05,3.2,3.667
1.82421875,-3.809209600061032e-05,-4.93021112382678e-07,-1.9541539543754993e-06,-4.688120042420078e-05,3.2,3.667
1.828125,-4.004399101853968e-05,4.773495536736334e-07,-4.93021112382678e-07,-4.5899676072327735e-05,3.2,3.667
1.83203125,-3.955322884260316e-05,9.681117296101718e-07,-3.4264404821850572e-06,-4.5420067582207946e-05,3.2,3.667
1.8359375,-3.614020098268098e-05,-2.2589364461396144e-09,-1.0263649887846156e-05,-5.2246123302052305e-05,3.2,3.667
1.83984375,-3.028451592889294e-05,-4.93021112382678e-07,-9.282125535973108e-06,-5.5670304847791224e-05,3.2,3.667
1.84375,-3.467906814068816e-05,-4.887573324177878e-06,-4.396811148241369e-06,-5.51795426718547e-05,3.2,3.667
1.84765625,-4.102551537041273e-05,-7.330230518043777e-06,9.681117296101718e-07,-5.2736885477988836e-05,3.2,3.667
1.8515625,-3.809209600061032e-05,1.9496360814831915e-06,1.219987334706647e-05,-5.3718409829861884e-05,3.2,3.667
1.85546875,-3.2716019436942076e-05,9.681117296101718e-07,1.562405489280539e-05,-6.347788491950862e-05,3.2,3.667
1.859375,-2.6369572207217485e-05,-3.4264404821850572e-06,-1.9541539543754993e-06,-5.51795426718547e-05,3.2,3.667
1.86328125,-2.392691501335162e-05,5.853426117341911e-06,-8.311754869916796e-06,-4.248664821240555e-05,3.2,3.667
1.8671875,-3.2236410946822274e-05,4.773495536736334e-07,-1.1724782729838977e-05,-4.248664821240555e-05,3.2,3.667
1.87109375,-3.955322884260316e-05,-3.4264404821850572e-06,-1.2706307081712026e-05,-4.492930540627142e-05,3.2,3.667
1.875,-3.9062466666666634e-05,-4.93021112382678e-07,-9.772887711909646e-06,-4.2977410388342075e-05,3.2,3.667
1.87890625,-3.614020098268098e-05,-9.837832883191878e-07,-7.330230518043777e-06,-4.248664821240555e-05,3.2,3.667
1.8828125,-4.004399101853968e-05,-1.2215544905775516e-05,-1.9052754311436616e-05,-4.688120042420078e-05,3.2,3.667
1.88671875,-4.0534753194476205e-05,-3.4264404821850572e-06,-1.9052754311436616e-05,-3.320678161287859e-05,3.2,3.667
1.890625,-4.102551537041273e-05,2.920006747539503e-06,-3.4264404821850572e-06,-2.5399201541161176e-05,3.2,3.667
1.89453125,-3.564943880674446e-05,-7.820992693980287e-06,-9.772887711909646e-06,-3.320678161287859e-05,3.2,3.667
1.8984375,-2.5399201541161176e-05,-1.4658202099641385e-05,-1.0263649887846156e-05,-3.614020098268098e-05,3.2,3.667
1.90234375,-3.028451592889294e-05,-1.7580467783627027e-05,-9.772887711909646e-06,-3.2716019436942076e-05,3.2,3.667
1.90625,-4.5420067582207946e-05,-1.3185915571831827e-05,-1.8561992135500075e-05,-3.0764124419012716e-05,3.2,3.667
1.91015625,-4.7371962600137306e-05,-1.3676677747768337e-05,-1.4658202099641385e-05,-4.248664821240555e-05,3.2,3.667
1.9140625,-3.9062466666666634e-05,-2.0513887153429435e-05,-1.5628572765697698e-05,-3.955322884260316e-05,3.2,3.667
1.91796875,-3.467906814068816e-05,-2.1004649329365945e-05,-2.1975019995422258e-05,-2.6369572207217485e-05,3.2,3.667
1.921875,-2.9793753752956404e-05,-1.3676677747768337e-05,-2.0023124977492925e-05,-2.6860334383154026e-05,3.2,3.667
1.92578125,-2.7841858735027043e-05,-1.4658202099641385e-05,-2.3447306523231843e-05,-3.809209600061032e-05,3.2,3.667
1.9296875,-2.8812229401083356e-05,-1.7100859293507255e-05,-2.0513887153429435e-05,-4.394778105439839e-05,3.2,3.667
1.93359375,-3.028451592889294e-05,-1.3185915571831827e-05,-4.887573324177878e-06,-3.320678161287859e-05,3.2,3.667
1.9375,-3.564943880674446e-05,-9.282125535973108e-06,-7.330230518043777e-06,-3.1254886594949226e-05,3.2,3.667
1.94140625,-4.639043824826426e-05,-1.8071229959563565e-05,-1.2706307081712026e-05,-3.858285817654685e-05,3.2,3.667
1.9453125,-4.44385432303349e-05,-2.5399201541161176e-05,-1.1234020553902467e-05,-3.760133382467382e-05,3.2,3.667
1.94921875,-2.8321467225146846e-05,-1.9052754311436616e-05,-1.9052754311436616e-05,-3.028451592889294e-05,3.2,3.667
1.953125,-2.2465782171358795e-05,-1.7580467783627027e-05,-1.2706307081712026e-05,-3.1745648770885764e-05,3.2,3.667
1.95703125,-3.2236410946822274e-05,-2.3447306523231843e-05,-1.6119334941634208e-05,-3.614020098268098e-05,3.2,3.667
1.9609375,-3.760133382467382e-05,-2.6369572207217485e-05,-2.7841858735027043e-05,-3.4188305964751634e-05,3.2,3.667
1.96484375,-3.2716019436942076e-05,-2.3447306523231843e-05,-2.3447306523231843e-05,-2.9302991577019893e-05,3.2,3.667
1.96875,-4.004399101853968e-05,-3.1254886594949226e-05,-2.0023124977492925e-05,-2.8812229401083356e-05,3.2,3.667
1.97265625,-4.1505123860532504e-05,-3.515867663080793e-05,-1.2215544905775516e-05,-3.4188305964751634e-05,3.2,3.667
1.9765625,-3.614020098268098e-05,-4.102551537041273e-05,-1.5137810589761159e-05,-4.2977410388342075e-05,3.2,3.667
1.98046875,-3.6630963158617505e-05,-4.785157109025708e-05,-3.2236410946822274e-05,-3.955322884260316e-05,3.2,3.667
1.984375,-4.0534753194476205e-05,-4.394778105439839e-05,-3.955322884260316e-05,-3.711057164873729e-05,3.2,3.667
1.98828125,-4.394778105439839e-05,-3.711057164873729e-05,-3.955322884260316e-05,-4.0534753194476205e-05,3.2,3.667
1.9921875,-3.9062466666666634e-05,-2.6369572207217485e-05,-3.4188305964751634e-05,-4.394778105439839e-05,3.2,3.667
1.99609375,-4.248664821240555e-05,-2.1004649329365945e-05,-3.6630963158617505e-05,-4.688120042420078e-05,3.2,3.667
2.0,-4.102551537041273e-05,-2.1004649329365945e-05,-3.760133382467382e-05,-4.3457018878461864e-05,3.2,3.667
2.00390625,-4.004399101853968e-05,-1.9052754311436616e-05,-3.1745648770885764e-05,-3.515867663080793e-05,3.2,3.667
2.0078125,-4.004399101853968e-05,-1.2706307081712026e-05,-3.2716019436942076e-05,-3.1745648770885764e-05,3.2,3.667
2.01171875,-3.4188305964751634e-05,-1.5628572765697698e-05,-3.467906814068816e-05,-3.9062466666666634e-05,3.2,3.667
2.015625,-3.6630963158617505e-05,-2.7841858735027043e-05,-2.3447306523231843e-05,-3.028451592889294e-05,3.2,3.667
2.01953125,-3.2236410946822274e-05,-3.1745648770885764e-05,-1.8071229959563565e-05,-2.2956544347295306e-05,3.2,3.667
2.0234375,-3.955322884260316e-05,-3.2236410946822274e-05,-2.9793753752956404e-05,-3.1254886594949226e-05,3.2,3.667
2.02734375,-4.394778105439839e-05,-3.467906814068816e-05,-2.9302991577019893e-05,-3.2716019436942076e-05,3.2,3.667
2.03125,-3.2716019436942076e-05,-3.1745648770885764e-05,-1.9532362801556388e-05,-3.2716019436942076e-05,3.2,3.667
2.03515625,-3.4188305964751634e-05,-3.1745648770885764e-05,-3.369754378881511e-05,-4.394778105439839e-05,3.2,3.667
2.0390625,-3.955322884260316e-05,-4.248664821240555e-05,-4.981461979400318e-05,-4.688120042420078e-05,3.2,3.667
2.04296875,-4.0534753194476205e-05,-4.248664821240555e-05,-5.7131437689784046e-05,-3.320678161287859e-05,3.2,3.667
2.046875,-4.199588603646903e-05,-3.858285817654685e-05,-4.639043824826426e-05,-3.711057164873729e-05,3.2,3.667
2.05078125,-4.248664821240555e-05,-3.858285817654685e-05,-3.2716019436942076e-05,-4.5899676072327735e-05,3.2,3.667
2.0546875,-4.102551537041273e-05,-3.858285817654685e-05,-4.785157109025708e-05,-3.564943880674446e-05,3.2,3.667
2.05859375,-3.9062466666666634e-05,-3.760133382467382e-05,-5.322764765392536e-05,-3.2236410946822274e-05,3.2,3.667
2.0625,-3.564943880674446e-05,-3.614020098268098e-05,-5.4209172005798394e-05,-3.2236410946822274e-05,3.2,3.667
2.06640625,-3.467906814068816e-05,-3.4188305964751634e-05,-5.908333270771341e-05,-3.2236410946822274e-05,3.2,3.667
2.0703125,-3.9062466666666634e-05,-3.809209600061032e-05,-5.51795426718547e-05,-3.711057164873729e-05,3.2,3.667
2.07421875,-4.5899676072327735e-05,-4.5899676072327735e-05,-5.322764765392536e-05,-4.44385432303349e-05,3.2,3.667
2.078125,-4.394778105439839e-05,-4.5899676072327735e-05,-5.908333270771341e-05,-4.1505123860532504e-05,3.2,3.667
2.08203125,-3.955322884260316e-05,-4.394778105439839e-05,-6.347788491950862e-05,-3.6630963158617505e-05,3.2,3.667
2.0859375,-4.1505123860532504e-05,-3.711057164873729e-05,-6.396864709544515e-05,-4.1505123860532504e-05,3.2,3.667
2.08984375,-4.199588603646903e-05,-3.4188305964751634e-05,-5.4688780495918176e-05,-3.858285817654685e-05,3.2,3.667
2.09375,-4.0534753194476205e-05,-3.614020098268098e-05,-4.7371962600137306e-05,-3.6630963158617505e-05,3.2,3.667
2.09765625,-4.2977410388342075e-05,-3.0764124419012716e-05,-4.688120042420078e-05,-3.320678161287859e-05,3.2,3.667
2.1015625,-3.320678161287859e-05,-2.3447306523231843e-05,-4.981461979400318e-05,-2.6860334383154026e-05,3.2,3.667
2.10546875,-2.5399201541161176e-05,-2.0023124977492925e-05,-4.004399101853968e-05,-3.1254886594949226e-05,3.2,3.667
2.109375,-3.2716019436942076e-05,-2.1495411505302483e-05,-3.028451592889294e-05,-3.809209600061032e-05,3.2,3.667
2.11328125,-3.1745648770885764e-05,-1.9532362801556388e-05,-2.7351096559090533e-05,-3.0764124419012716e-05,3.2,3.667
2.1171875,-3.515867663080793e-05,-1.9532362801556388e-05,-2.8321467225146846e-05,-3.0764124419012716e-05,3.2,3.667
2.12109375,-4.394778105439839e-05,-2.8321467225146846e-05,-3.564943880674446e-05,-3.467906814068816e-05,3.2,3.667
2.125,-4.44385432303349e-05,-3.467906814068816e-05,-3.467906814068816e-05,-3.320678161287859e-05,3.2,3.667
2.12890625,-3.614020098268098e-05,-3.858285817654685e-05,-3.467906814068816e-05,-4.102551537041273e-05,3.2,3.667
2.1328125,-2.9302991577019893e-05,-3.320678161287859e-05,-3.2236410946822274e-05,-3.711057164873729e-05,3.2,3.667
2.13671875,-3.028451592889294e-05,-3.955322884260316e-05,-3.1745648770885764e-05,-3.1254886594949226e-05,3.2,3.667
2.140625,-3.1745648770885764e-05,-4.5420067582207946e-05,-3.2236410946822274e-05,-2.392691501335162e-05,3.2,3.667
2.14453125,-2.7841858735027043e-05,-4.2977410388342075e-05,-4.0534753194476205e-05,-9.772887711909646e-06,3.2,3.667
2.1484375,-3.4188305964751634e-05,-4.5899676072327735e-05,-4.3457018878461864e-05,-2.3447306523231843e-05,3.2,3.667
2.15234375,-4.1505123860532504e-05,-4.5420067582207946e-05,-3.711057164873729e-05,-3.564943880674446e-05,3.2,3.667
2.15625,-4.199588603646903e-05,-3.858285817654685e-05,-4.004399101853968e-05,-3.320678161287859e-05,3.2,3.667
2.16015625,-3.2716019436942076e-05,-2.9793753752956404e-05,-4.981461979400318e-05,-3.369754378881511e-05,3.2,3.667
2.1640625,-2.6860334383154026e-05,-1.2706307081712026e-05,-5.4209172005798394e-05,-2.9302991577019893e-05,3.2,3.667
2.16796875,-2.8321467225146846e-05,-8.311754869916796e-06,-5.616106702372775e-05,-2.6369572207217485e-05,3.2,3.667
2.171875,-2.2956544347295306e-05,-1.9532362801556388e-05,-4.004399101853968e-05,-2.7841858735027043e-05,3.2,3.667
2.17578125,-2.8321467225146846e-05,-1.6119334941634208e-05,-3.028451592889294e-05,-3.6630963158617505e-05,3.2,3.667
2.1796875,-4.0534753194476205e-05,-1.1234020553902467e-05,-3.6630963158617505e-05,-3.6630963158617505e-05,3.2,3.667
2.18359375,-3.2236410946822274e-05,-1.3185915571831827e-05,-2.6860334383154026e-05,-2.9793753752956404e-05,3.2,3.667
2.1875,-2.8321467225146846e-05,-2.5889963717097714e-05,-2.6860334383154026e-05,-2.6369572207217485e-05,3.2,3.667
2.19140625,-3.028451592889294e-05,-3.369754378881511e-05,-2.9793753752956404e-05,-4.004399101853968e-05,3.2,3.667
2.1953125,-2.8321467225146846e-05,-3.4188305964751634e-05,-2.5399201541161176e-05,-4.44385432303349e-05,3.2,3.667
2.19921875,-2.7841858735027043e-05,-4.5899676072327735e-05,-3.564943880674446e-05,-3.320678161287859e-05,3.2,3.667
2.203125,-3.1254886594949226e-05,-5.322764765392536e-05,-4.1505123860532504e-05,-2.6860334383154026e-05,3.2,3.667
2.20703125,-3.028451592889294e-05,-3.858285817654685e-05,-3.2716019436942076e-05,-3.0764124419012716e-05,3.2,3.667
2.2109375,-3.0764124419012716e-05,-3.1745648770885764e-05,-3.2716019436942076e-05,-4.102551537041273e-05,3.2,3.667
2.21484375,-3.564943880674446e-05,-3.9062466666666634e-05,-4.1505123860532504e-05,-4.688120042420078e-05,3.2,3.667
2.21875,-3.564943880674446e-05,-3.614020098268098e-05,-4.3457018878461864e-05,-4.883309544213013e-05,3.2,3.667
2.22265625,-3.564943880674446e-05,-3.4188305964751634e-05,-4.932385761806665e-05,-5.1766514811932523e-05,3.2,3.667
2.2265625,-3.858285817654685e-05,-2.8321467225146846e-05,-4.7371962600137306e-05,-5.3718409829861884e-05,3.2,3.667
2.23046875,-4.199588603646903e-05,-3.0764124419012716e-05,-3.320678161287859e-05,-4.7371962600137306e-05,3.2,3.667
2.234375,-4.248664821240555e-05,-3.614020098268098e-05,-3.760133382467382e-05,-4.2977410388342075e-05,3.2,3.667
2.23828125,-4.248664821240555e-05,-2.0023124977492925e-05,-3.515867663080793e-05,-4.688120042420078e-05,3.2,3.667
2.2421875,-4.492930540627142e-05,-3.0764124419012716e-05,-4.3457018878461864e-05,-4.199588603646903e-05,3.2,3.667
2.24609375,-4.102551537041273e-05,-4.1505123860532504e-05,-6.445940927138166e-05,-3.955322884260316e-05,3.2,3.667
2.25,-3.2716019436942076e-05,-3.028451592889294e-05,-6.641130428931103e-05,-3.809209600061032e-05,3.2,3.667
2.25390625,-3.320678161287859e-05,-2.9302991577019893e-05,-4.8342333266193605e-05,-4.639043824826426e-05,3.2,3.667
2.2578125,-3.4188305964751634e-05,-3.0764124419012716e-05,-3.614020098268098e-05,-4.1505123860532504e-05,3.2,3.667
2.26171875,-3.1745648770885764e-05,-3.0764124419012716e-05,-4.0534753194476205e-05,-4.1505123860532504e-05,3.2,3.667
2.265625,-2.4908439365224666e-05,-2.6369572207217485e-05,-3.2236410946822274e-05,-4.688120042420078e-05,3.2,3.667
2.26953125,-3.2716019436942076e-05,-3.614020098268098e-05,-3.1745648770885764e-05,-4.5899676072327735e-05,3.2,3.667
2.2734375,-4.004399101853968e-05,-4.394778105439839e-05,-2.5399201541161176e-05,-4.8342333266193605e-05,3.2,3.667
2.27734375,-3.614020098268098e-05,-4.981461979400318e-05,-3.1745648770885764e-05,-4.5420067582207946e-05,3.2,3.667
2.28125,-3.369754378881511e-05,-4.639043824826426e-05,-3.6630963158617505e-05,-3.028451592889294e-05,3.2,3.667
2.28515625,-3.564943880674446e-05,-3.0764124419012716e-05,-2.2465782171358795e-05,-2.3447306523231843e-05,3.2,3.667
2.2890625,-3.6630963158617505e-05,-1.9532362801556388e-05,-1.5137810589761159e-05,-2.4417677189288125e-05,3.2,3.667
2.29296875,-3.515867663080793e-05,-1.9532362801556388e-05,-6.348706166170728e-06,-2.3447306523231843e-05,3.2,3.667
2.296875,-3.320678161287859e-05,-1.7580467783627027e-05,-1.4745454642557262e-06,-2.5889963717097714e-05,3.2,3.667
2.30078125,-3.760133382467382e-05,-1.8561992135500075e-05,-6.839468342107239e-06,-3.0764124419012716e-05,3.2,3.667
2.3046875,-3.467906814068816e-05,-2.1495411505302483e-05,-1.5628572765697698e-05,-3.369754378881511e-05,3.2,3.667
2.30859375,-2.5889963717097714e-05,-2.6369572207217485e-05,-3.028451592889294e-05,-3.4188305964751634e-05,3.2,3.667
2.3125,-2.5889963717097714e-05,-2.9793753752956404e-05,-4.0534753194476205e-05,-3.809209600061032e-05,3.2,3.667
2.31640625,-2.5399201541161176e-05,-3.515867663080793e-05,-3.2236410946822274e-05,-3.955322884260316e-05,3.2,3.667
2.3203125,-2.6860334383154026e-05,-3.9062466666666634e-05,-2.9302991577019893e-05,-3.4188305964751634e-05,3.2,3.667
2.32421875,-3.4188305964751634e-05,-3.2236410946822274e-05,-4.1505123860532504e-05,-3.369754378881511e-05,3.2,3.667
2.328125,-3.614020098268098e-05,-4.248664821240555e-05,-5.0294228284122966e-05,-3.6630963158617505e-05,3.2,3.667
2.33203125,-3.0764124419012716e-05,-2.8321467225146846e-05,-4.004399101853968e-05,-3.320678161287859e-05,3.2,3.667
2.3359375,-3.1254886594949226e-05,-2.4417677189288125e-05,-5.1275752635996e-05,-2.8812229401083356e-05,3.2,3.667
2.33984375,-3.4188305964751634e-05,-2.9793753752956404e-05,-6.641130428931103e-05,-2.7841858735027043e-05,3.2,3.667
2.34375,-2.9793753752956404e-05,-1.6610097117570745e-05,-4.639043824826426e-05,-3.1745648770885764e-05,3.2,3.667
2.34765625,-3.809209600061032e-05,-1.9532362801556388e-05,-3.2236410946822274e-05,-3.0764124419012716e-05,3.2,3.667
2.3515625,-4.1505123860532504e-05,-2.9793753752956404e-05,-3.0764124419012716e-05,-2.0023124977492925e-05,3.2,3.667
2.35546875,-3.320678161287859e-05,-3.4188305964751634e-05,-3.4188305964751634e-05,-1.9532362801556388e-05,3.2,3.667
2.359375,-3.4188305964751634e-05,-3.955322884260316e-05,-3.614020098268098e-05,-4.102551537041273e-05,3.2,3.667
2.36328125,-3.028451592889294e-05,-4.44385432303349e-05,-3.028451592889294e-05,-4.5899676072327735e-05,3.2,3.667
2.3671875,-2.3447306523231843e-05,-4.394778105439839e-05,-2.5399201541161176e-05,-3.1745648770885764e-05,3.2,3.667
2.37109375,-3.1254886594949226e-05,-5.2246123302052305e-05,-2.8321467225146846e-05,-3.614020098268098e-05,3.2,3.667
2.375,-3.4188305964751634e-05,-4.981461979400318e-05,-2.9302991577019893e-05,-4.1505123860532504e-05,3.2,3.667
2.37890625,-2.9793753752956404e-05,-4.004399101853968e-05,-3.0764124419012716e-05,-3.809209600061032e-05,3.2,3.667
2.3828125,-3.564943880674446e-05,-3.0764124419012716e-05,-3.467906814068816e-05,-3.614020098268098e-05,3.2,3.667
2.38671875,-2.8321467225146846e-05,-2.3447306523231843e-05,-3.320678161287859e-05,-3.467906814068816e-05,3.2,3.667
2.390625,-2.7841858735027043e-05,-2.3447306523231843e-05,-3.0764124419012716e-05,-4.883309544213013e-05,3.2,3.667
2.39453125,-3.2716019436942076e-05,-2.9793753752956404e-05,-3.369754378881511e-05,-4.883309544213013e-05,3.2,3.667
2.3984375,-2.3447306523231843e-05,-3.0764124419012716e-05,-4.102551537041273e-05,-3.369754378881511e-05,3.2,3.667
2.40234375,-3.1745648770885764e-05,-2.7351096559090533e-05,-4.44385432303349e-05,-3.1254886594949226e-05,3.2,3.667
2.40625,-4.199588603646903e-05,-2.9302991577019893e-05,-5.1766514811932523e-05,-3.0764124419012716e-05,3.2,3.667
2.41015625,-3.2236410946822274e-05,-2.9793753752956404e-05,-5.4688780495918176e-05,-2.9302991577019893e-05,3.2,3.667
2.4140625,-2.6369572207217485e-05,-2.9302991577019893e-05,-3.955322884260316e-05,-2.9793753752956404e-05,3.2,3.667
2.41796875,-3.1254886594949226e-05,-3.9062466666666634e-05,-4.44385432303349e-05,-3.858285817654685e-05,3.2,3.667
2.421875,-3.955322884260316e-05,-4.492930540627142e-05,-5.4209172005798394e-05,-4.004399101853968e-05,3.2,3.667
2.42578125,-4.5899676072327735e-05,-4.492930540627142e-05,-5.51795426718547e-05,-3.9062466666666634e-05,3.2,3.667
2.4296875,-4.492930540627142e-05,-4.394778105439839e-05,-5.322764765392536e-05,-3.564943880674446e-05,3.2,3.667
2.43359375,-4.883309544213013e-05,-4.639043824826426e-05,-4.492930540627142e-05,-4.639043824826426e-05,3.2,3.667
2.4375,-4.785157109025708e-05,-4.7371962600137306e-05,-3.955322884260316e-05,-5.2246123302052305e-05,3.2,3.667
2.44140625,-4.0534753194476205e-05,-4.44385432303349e-05,-3.955322884260316e-05,-3.9062466666666634e-05,3.2,3.667
2.4453125,-4.394778105439839e-05,-4.785157109025708e-05,-4.492930540627142e-05,-4.102551537041273e-05,3.2,3.667
2.44921875,-3.614020098268098e-05,-3.1745648770885764e-05,-3.2236410946822274e-05,-4.639043824826426e-05,3.2,3.667
2.453125,-2.8321467225146846e-05,-2.6860334383154026e-05,-2.7351096559090533e-05,-4.688120042420078e-05,3.2,3.667
2.45703125,-3.614020098268098e-05,-3.4188305964751634e-05,-2.9793753752956404e-05,-4.492930540627142e-05,3.2,3.667
2.4609375,-3.809209600061032e-05,-3.2236410946822274e-05,-2.8812229401083356e-05,-4.1505123860532504e-05,3.2,3.667
2.46484375,-3.564943880674446e-05,-3.028451592889294e-05,-2.6369572207217485e-05,-3.614020098268098e-05,3.2,3.667
2.46875,-3.1254886594949226e-05,-2.9302991577019893e-05,-2.2956544347295306e-05,-4.102551537041273e-05,3.2,3.667
2.47265625,-2.6860334383154026e-05,-3.1254886594949226e-05,-2.9302991577019893e-05,-3.6630963158617505e-05,3.2,3.667
2.4765625,-3.1745648770885764e-05,-3.711057164873729e-05,-3.515867663080793e-05,-2.8812229401083356e-05,3.2,3.667
2.48046875,-2.9302991577019893e-05,-3.858285817654685e-05,-4.248664821240555e-05,-4.199588603646903e-05,3.2,3.667
2.484375,-4.3457018878461864e-05,-4.44385432303349e-05,-4.785157109025708e-05,-4.785157109025708e-05,3.2,3.667
2.48828125,-5.616106702372775e-05,-4.981461979400318e-05,-4.102551537041273e-05,-2.8812229401083356e-05,3.2,3.667
2.4921875,-4.3457018878461864e-05,-4.785157109025708e-05,-3.2716019436942076e-05,-1.7580467783627027e-05,3.2,3.667
2.49609375,-4.492930540627142e-05,-4.5420067582207946e-05,-2.7351096559090533e-05,-2.7841858735027043e-05,3.2,3.667
2.5,-3.614020098268098e-05,-4.102551537041273e-05,-2.5889963717097714e-05,-2.9793753752956404e-05,3.2,3.667
2.50390625,-1.9532362801556388e-05,-3.320678161287859e-05,-1.8561992135500075e-05,-2.3447306523231843e-05,3.2,3.667
2.5078125,-2.1495411505302483e-05,-3.028451592889294e-05,-1.7100859293507255e-05,-2.5399201541161176e-05,3.2,3.667
2.51171875,-2.2465782171358795e-05,-2.392691501335162e-05,-6.839468342107239e-06,-3.4188305964751634e-05,3.2,3.667
2.515625,-2.7841858735027043e-05,-2.2956544347295306e-05,2.920006747539503e-06,-3.2716019436942076e-05,3.2,3.667
2.51953125,-2.9302991577019893e-05,-1.7580467783627027e-05,-1.2706307081712026e-05,-2.3447306523231843e-05,3.2,3.667
2.5234375,-2.392691501335162e-05,-1.8561992135500075e-05,-2.4908439365224666e-05,-3.1254886594949226e-05,3.2,3.667
2.52734375,-2.7841858735027043e-05,-2.1495411505302483e-05,-2.9302991577019893e-05,-4.004399101853968e-05,3.2,3.667
2.53125,-3.6630963158617505e-05,-1.4658202099641385e-05,-2.8812229401083356e-05,-3.614020098268098e-05,3.2,3.667
2.53515625,-3.564943880674446e-05,-2.0023124977492925e-05,-2.9793753752956404e-05,-2.5399201541161176e-05,3.2,3.667
2.5390625,-3.0764124419012716e-05,-2.5889963717097714e-05,-3.028451592889294e-05,-2.2465782171358795e-05,3.2,3.667
2.54296875,-2.7351096559090533e-05,-2.5889963717097714e-05,-3.6630963158617505e-05,-2.9302991577019893e-05,3.2,3.667
2.546875,-3.028451592889294e-05,-3.320678161287859e-05,-3.9062466666666634e-05,-2.9302991577019893e-05,3.2,3.667
2.55078125,-2.7841858735027043e-05,-3.2716019436942076e-05,-3.028451592889294e-05,-2.7351096559090533e-05,3.2,3.667
2.5546875,-2.4908439365224666e-05,-2.4908439365224666e-05,-2.9793753752956404e-05,-3.858285817654685e-05,3.2,3.667
2.55859375,-3.2716019436942076e-05,-2.5889963717097714e-05,-2.392691501335162e-05,-4.199588603646903e-05,3.2,3.667
2.5625,-2.8812229401083356e-05,-2.4908439365224666e-05,-2.0513887153429435e-05,-3.760133382467382e-05,3.2,3.667
2.56640625,-2.2956544347295306e-05,-2.7841858735027043e-05,-2.6860334383154026e-05,-3.1254886594949226e-05,3.2,3.667
2.5703125,-2.9793753752956404e-05,-2.4908439365224666e-05,-1.3185915571831827e-05,-3.1254886594949226e-05,3.2,3.667
2.57421875,-4.102551537041273e-05,-2.8321467225146846e-05,-1.1724782729838977e-05,-3.4188305964751634e-05,3.2,3.667
2.578125,-3.2716019436942076e-05,-1.9052754311436616e-05,-1.6610097117570745e-05,-1.8071229959563565e-05,3.2,3.667
2.58203125,-2.0023124977492925e-05,-1.3676677747768337e-05,-1.9532362801556388e-05,-1.7580467783627027e-05,3.2,3.667
2.5859375,-2.8812229401083356e-05,-2.6860334383154026e-05,-2.2956544347295306e-05,-4.0534753194476205e-05,3.2,3.667
2.58984375,-3.6630963158617505e-05,-3.028451592889294e-05,-2.1004649329365945e-05,-3.9062466666666634e-05,3.2,3.667
2.59375,-3.1254886594949226e-05,-2.1495411505302483e-05,-1.6119334941634208e-05,-3.515867663080793e-05,3.2,3.667
2.59765625,-3.955322884260316e-05,-2.2956544347295306e-05,-2.5889963717097714e-05,-4.1505123860532504e-05,3.2,3.667
2.6015625,-5.0784990460059476e-05,-2.7841858735027043e-05,-2.1495411505302483e-05,-3.9062466666666634e-05,3.2,3.667
2.60546875,-4.0534753194476205e-05,-2.6369572207217485e-05,-1.2215544905775516e-05,-2.8812229401083356e-05,3.2,3.667
2.609375,-3.1745648770885764e-05,-2.9302991577019893e-05,-2.5889963717097714e-05,-1.3185915571831827e-05,3.2,3.667
2.61328125,-3.1745648770885764e-05,-2.8321467225146846e-05,-1.9532362801556388e-05,-1.1234020553902467e-05,3.2,3.667
2.6171875,-3.0764124419012716e-05,-3.467906814068816e-05,-2.8321467225146846e-05,-2.5889963717097714e-05,3.2,3.667
2.62109375,-3.320678161287859e-05,-3.9062466666666634e-05,-5.0294228284122966e-05,-4.2977410388342075e-05,3.2,3.667
2.625,-2.7351096559090533e-05,-3.369754378881511e-05,-4.785157109025708e-05,-3.6630963158617505e-05,3.2,3.667
2.62890625,-8.791363360036598e-06,-2.4908439365224666e-05,-3.1745648770885764e-05,-2.3447306523231843e-05,3.2,3.667
2.6328125,-1.2706307081712026e-05,-2.6860334383154026e-05,-2.6369572207217485e-05,-3.2716019436942076e-05,3.2,3.667
2.63671875,-2.2465782171358795e-05,-3.369754378881511e-05,-3.1254886594949226e-05,-3.955322884260316e-05,3.2,3.667
2.640625,-2.4417677189288125e-05,-2.1495411505302483e-05,-2.5399201541161176e-05,-3.2716019436942076e-05,3.2,3.667
2.64453125,-3.760133382467382e-05,-2.5889963717097714e-05,-2.4417677189288125e-05,-3.369754378881511e-05,3.2,3.667
2.6484375,-3.760133382467382e-05,-2.8321467225146846e-05,-1.6119334941634208e-05,-3.564943880674446e-05,3.2,3.667
2.65234375,-3.515867663080793e-05,-2.8321467225146846e-05,-1.1724782729838977e-05,-2.9793753752956404e-05,3.2,3.667
2.65625,-4.3457018878461864e-05,-3.028451592889294e-05,-2.2465782171358795e-05,-3.467906814068816e-05,3.2,3.667
2.66015625,-4.248664821240555e-05,-2.8812229401083356e-05,-2.8812229401083356e-05,-4.199588603646903e-05,3.2,3.667
2.6640625,-4.199588603646903e-05,-3.320678161287859e-05,-4.004399101853968e-05,-3.369754378881511e-05,3.2,3.667
2.66796875,-4.3457018878461864e-05,-3.2236410946822274e-05,-3.9062466666666634e-05,-2.8812229401083356e-05,3.2,3.667
2.671875,-3.614020098268098e-05,-2.7841858735027043e-05,-3.1745648770885764e-05,-3.9062466666666634e-05,3.2,3.667
2.67578125,-3.369754378881511e-05,-2.5399201541161176e-05,-4.1505123860532504e-05,-3.809209600061032e-05,3.2,3.667
2.6796875,-3.4188305964751634e-05,-3.2716019436942076e-05,-5.2736885477988836e-05,-3.760133382467382e-05,3.2,3.667
2.68359375,-2.9793753752956404e-05,-4.199588603646903e-05,-5.0784990460059476e-05,-4.394778105439839e-05,3.2,3.667
2.6875,-4.004399101853968e-05,-4.5899676072327735e-05,-5.1275752635996e-05,-4.2977410388342075e-05,3.2,3.667
2.69140625,-4.7371962600137306e-05,-4.3457018878461864e-05,-3.9062466666666634e-05,-4.2977410388342075e-05,3.2,3.667
2.6953125,-3.858285817654685e-05,-4.004399101853968e-05,-2.8812229401083356e-05,-4.932385761806665e-05,3.2,3.667
2.69921875,-3.2236410946822274e-05,-4.0534753194476205e-05,-4.7371962600137306e-05,-4.199588603646903e-05,3.2,3.667
2.703125,-3.1745648770885764e-05,-3.760133382467382e-05,-5.762219986572057e-05,-2.5399201541161176e-05,3.2,3.667
2.70703125,-3.028451592889294e-05,-3.564943880674446e-05,-5.957409488364993e-05,-2.7841858735027043e-05,3.2,3.667
2.7109375,-3.6630963158617505e-05,-4.5420067582207946e-05,-6.103522772564275e-05,-3.1745648770885764e-05,3.2,3.667
2.71484375,-3.515867663080793e-05,-4.3457018878461864e-05,-5.1766514811932523e-05,-2.1495411505302483e-05,3.2,3.667
2.71875,-4.004399101853968e-05,-4.7371962600137306e-05,-4.981461979400318e-05,-3.2236410946822274e-05,3.2,3.667
2.72265625,-4.004399101853968e-05,-4.44385432303349e-05,-5.2246123302052305e-05,-2.9302991577019893e-05,3.2,3.667
2.7265625,-3.467906814068816e-05,-4.102551537041273e-05,-4.394778105439839e-05,-1.9052754311436616e-05,3.2,3.667
2.73046875,-4.688120042420078e-05,-3.760133382467382e-05,-4.102551537041273e-05,-2.9302991577019893e-05,3.2,3.667
2.734375,-4.932385761806665e-05,-2.4417677189288125e-05,-3.4188305964751634e-05,-3.369754378881511e-05,3.2,3.667
2.73828125,-3.4188305964751634e-05,-1.5628572765697698e-05,-2.5399201541161176e-05,-4.004399101853968e-05,3.2,3.667
2.7421875,-2.5889963717097714e-05,-1.3185915571831827e-05,-2.5889963717097714e-05,-3.711057164873729e-05,3.2,3.667
2.74609375,-2.5889963717097714e-05,-1.5137810589761159e-05,-2.4908439365224666e-05,-3.0764124419012716e-05,3.2,3.667
2.75,-1.9052754311436616e-05,-6.839468342107239e-06,-1.8561992135500075e-05,-2.9302991577019893e-05,3.2,3.667
2.75390625,-2.3447306523231843e-05,-1.2215544905775516e-05,-1.1724782729838977e-05,-2.7841858735027043e-05,3.2,3.667
2.7578125,-3.467906814068816e-05,-3.1745648770885764e-05,-2.4417677189288125e-05,-2.5399201541161176e-05,3.2,3.667
2.76171875,-3.1254886594949226e-05,-3.6630963158617505e-05,-3.711057164873729e-05,-2.1975019995422258e-05,3.2,3.667
2.765625,-4.004399101853968e-05,-4.492930540627142e-05,-4.44385432303349e-05,-3.1745648770885764e-05,3.2,3.667
2.76953125,-4.785157109025708e-05,-5.1275752635996e-05,-4.932385761806665e-05,-2.8812229401083356e-05,3.2,3.667
2.7734375,-4.883309544213013e-05,-5.4688780495918176e-05,-5.3718409829861884e-05,-2.2465782171358795e-05,3.2,3.667
2.77734375,-4.5420067582207946e-05,-5.6640675513847536e-05,-5.5670304847791224e-05,-3.2236410946822274e-05,3.2,3.667
2.78125,-4.102551537041273e-05,-5.6640675513847536e-05,-4.981461979400318e-05,-2.7351096559090533e-05,3.2,3.667
2.78515625,-3.467906814068816e-05,-4.688120042420078e-05,-4.102551537041273e-05,-1.1724782729838977e-05,3.2,3.667
2.7890625,-3.4188305964751634e-05,-3.9062466666666634e-05,-3.4188305964751634e-05,-1.9052754311436616e-05,3.2,3.667
2.79296875,-3.515867663080793e-05,-3.955322884260316e-05,-3.858285817654685e-05,-2.9302991577019893e-05,3.2,3.667
2.796875,-3.0764124419012716e-05,-3.515867663080793e-05,-3.028451592889294e-05,-2.9793753752956404e-05,3.2,3.667
2.80078125,-3.0764124419012716e-05,-2.8321467225146846e-05,-2.1975019995422258e-05,-3.4188305964751634e-05,3.2,3.667
2.8046875,-3.614020098268098e-05,-2.3447306523231843e-05,-2.9302991577019893e-05,-2.4417677189288125e-05,3.2,3.667
2.80859375,-3.369754378881511e-05,-2.5399201541161176e-05,-3.028451592889294e-05,-2.7841858735027043e-05,3.2,3.667
2.8125,-2.7351096559090533e-05,-2.6860334383154026e-05,-2.3447306523231843e-05,-4.2977410388342075e-05,3.2,3.667
2.81640625,-3.369754378881511e-05,-3.858285817654685e-05,-2.5889963717097714e-05,-3.467906814068816e-05,3.2,3.667
2.8203125,-4.004399101853968e-05,-5.2736885477988836e-05,-3.858285817654685e-05,-2.1975019995422258e-05,3.2,3.667
2.82421875,-4.639043824826426e-05,-5.860372421759362e-05,-4.981461979400318e-05,-1.6119334941634208e-05,3.2,3.667
2.828125,-4.199588603646903e-05,-5.908333270771341e-05,-4.3457018878461864e-05,-1.6119334941634208e-05,3.2,3.667
2.83203125,-3.028451592889294e-05,-5.0294228284122966e-05,-4.004399101853968e-05,-1.8561992135500075e-05,3.2,3.667
2.8359375,-2.3447306523231843e-05,-4.1505123860532504e-05,-3.564943880674446e-05,-1.2215544905775516e-05,3.2,3.667
2.83984375,-3.614020098268098e-05,-5.2736885477988836e-05,-4.5899676072327735e-05,-1.9052754311436616e-05,3.2,3.667
2.84375,-4.44385432303349e-05,-5.5670304847791224e-05,-4.5420067582207946e-05,-3.0764124419012716e-05,3.2,3.667
2.84765625,-3.6630963158617505e-05,-4.7371962600137306e-05,-4.199588603646903e-05,-3.2716019436942076e-05,3.2,3.667
2.8515625,-2.9793753752956404e-05,-5.0294228284122966e-05,-5.2736885477988836e-05,-2.4908439365224666e-05,3.2,3.667
2.85546875,-3.320678161287859e-05,-5.3718409829861884e-05,-4.883309544213013e-05,-3.0764124419012716e-05,3.2,3.667
2.859375,-4.1505123860532504e-05,-4.688120042420078e-05,-5.0784990460059476e-05,-3.2716019436942076e-05,3.2,3.667
2.86328125,-3.515867663080793e-05,-4.688120042420078e-05,-4.7371962600137306e-05,-2.1495411505302483e-05,3.2,3.667
2.8671875,-3.028451592889294e-05,-4.932385761806665e-05,-4.932385761806665e-05,-2.7351096559090533e-05,3.2,3.667
2.87109375,-2.8812229401083356e-05,-3.9062466666666634e-05,-4.5899676072327735e-05,-3.515867663080793e-05,3.2,3.667
2.875,-3.028451592889294e-05,-3.2716019436942076e-05,-3.320678161287859e-05,-4.492930540627142e-05,3.2,3.667
2.87890625,-2.7841858735027043e-05,-3.320678161287859e-05,-3.028451592889294e-05,-4.492930540627142e-05,3.2,3.667
2.8828125,-2.8321467225146846e-05,-3.467906814068816e-05,-4.44385432303349e-05,-3.955322884260316e-05,3.2,3.667
2.88671875,-3.614020098268098e-05,-3.515867663080793e-05,-4.5420067582207946e-05,-4.102551537041273e-05,3.2,3.667
2.890625,-3.2236410946822274e-05,-3.4188305964751634e-05,-2.392691501335162e-05,-2.7841858735027043e-05,3.2,3.667
2.89453125,-2.9793753752956404e-05,-4.102551537041273e-05,-2.7351096559090533e-05,-1.8561992135500075e-05,3.2,3.667
2.8984375,-3.2236410946822274e-05,-5.0784990460059476e-05,-3.9062466666666634e-05,-2.5889963717097714e-05,3.2,3.667
2.90234375,-3.369754378881511e-05,-5.2246123302052305e-05,-3.2716019436942076e-05,-1.2706307081712026e-05,3.2,3.667
2.90625,-4.004399101853968e-05,-5.2736885477988836e-05,-3.564943880674446e-05,-4.396811148241369e-06,3.2,3.667
2.91015625,-4.44385432303349e-05,-5.860372421759362e-05,-4.394778105439839e-05,-1.6610097117570745e-05,3.2,3.667
2.9140625,-4.5420067582207946e-05,-7.031509432516973e-05,-4.981461979400318e-05,-3.2716019436942076e-05,3.2,3.667
2.91796875,-4.1505123860532504e-05,-6.836319930724037e-05,-5.0294228284122966e-05,-4.639043824826426e-05,3.2,3.667
2.921875,-3.4188305964751634e-05,-5.2246123302052305e-05,-4.199588603646903e-05,-3.320678161287859e-05,3.2,3.667
2.92578125,-3.2716019436942076e-05,-4.981461979400318e-05,-4.5420067582207946e-05,-3.955322884260316e-05,3.2,3.667
2.9296875,-4.199588603646903e-05,-5.0784990460059476e-05,-4.5899676072327735e-05,-4.981461979400318e-05,3.2,3.667
2.93359375,-4.492930540627142e-05,-5.1766514811932523e-05,-4.44385432303349e-05,-4.394778105439839e-05,3.2,3.667
2.9375,-2.7841858735027043e-05,-4.0534753194476205e-05,-4.7371962600137306e-05,-3.955322884260316e-05,3.2,3.667
2.94140625,-2.1004649329365945e-05,-2.6860334383154026e-05,-4.785157109025708e-05,-3.2716019436942076e-05,3.2,3.667
2.9453125,-3.1745648770885764e-05,-1.7580467783627027e-05,-4.102551537041273e-05,-2.7351096559090533e-05,3.2,3.667
2.94921875,-2.3447306523231843e-05,-8.791363360036598e-06,-2.4908439365224666e-05,-2.9302991577019893e-05,3.2,3.667
2.953125,-1.8071229959563565e-05,-1.7100859293507255e-05,-2.6369572207217485e-05,-4.0534753194476205e-05,3.2,3.667
2.95703125,-3.711057164873729e-05,-3.4188305964751634e-05,-3.711057164873729e-05,-5.322764765392536e-05,3.2,3.667
2.9609375,-4.5899676072327735e-05,-4.0534753194476205e-05,-4.5899676072327735e-05,-4.004399101853968e-05,3.2,3.667
2.96484375,-3.6630963158617505e-05,-4.0534753194476205e-05,-5.8112962041657094e-05,-2.2956544347295306e-05,3.2,3.667
2.96875,-3.711057164873729e-05,-4.004399101853968e-05,-5.2736885477988836e-05,-2.5399201541161176e-05,3.2,3.667
2.97265625,-4.248664821240555e-05,-4.5899676072327735e-05,-4.5899676072327735e-05,-3.320678161287859e-05,3.2,3.667
2.9765625,-2.8812229401083356e-05,-4.2977410388342075e-05,-3.467906814068816e-05,-3.6630963158617505e-05,3.2,3.667
2.98046875,-2.6860334383154026e-05,-4.3457018878461864e-05,-3.2236410946822274e-05,-4.199588603646903e-05,3.2,3.667
2.984375,-3.4188305964751634e-05,-4.932385761806665e-05,-4.883309544213013e-05,-4.2977410388342075e-05,3.2,3.667
2.98828125,-3.1254886594949226e-05,-4.5420067582207946e-05,-4.639043824826426e-05,-4.5899676072327735e-05,3.2,3.667
2.9921875,-4.394778105439839e-05,-4.981461979400318e-05,-3.711057164873729e-05,-4.394778105439839e-05,3.2,3.667
2.99609375,-5.3718409829861884e-05,-5.5670304847791224e-05,-3.1254886594949226e-05,-4.44385432303349e-05,3.2,3.667
3.0,-4.639043824826426e-05,-4.004399101853968e-05,-2.5889963717097714e-05,-4.3457018878461864e-05,3.2,3.667
3.00390625,-2.6860334383154026e-05,-2.7841858735027043e-05,-1.4658202099641385e-05,-3.1254886594949226e-05,3.2,3.667
3.0078125,-1.9532362801556388e-05,-3.809209600061032e-05,-1.7100859293507255e-05,-2.5889963717097714e-05,3.2,3.667
3.01171875,-2.6369572207217485e-05,-4.0534753194476205e-05,-2.1975019995422258e-05,-2.7351096559090533e-05,3.2,3.667
3.015625,-2.0023124977492925e-05,-2.9302991577019893e-05,-1.4167439923704875e-05,-2.0513887153429435e-05,3.2,3.667
3.01953125,-2.0513887153429435e-05,-2.2465782171358795e-05,-1.6119334941634208e-05,-2.7351096559090533e-05,3.2,3.667
3.0234375,-2.3447306523231843e-05,-2.0513887153429435e-05,-2.4417677189288125e-05,-3.858285817654685e-05,3.2,3.667
3.02734375,-3.515867663080793e-05,-1.5628572765697698e-05,-2.0513887153429435e-05,-3.858285817654685e-05,3.2,3.667
3.03125,-4.44385432303349e-05,-1.5628572765697698e-05,-1.6119334941634208e-05,-3.564943880674446e-05,3.2,3.667
3.03515625,-3.369754378881511e-05,-2.0513887153429435e-05,-1.1234020553902467e-05,-4.492930540627142e-05,3.2,3.667
3.0390625,-3.0764124419012716e-05,-2.0023124977492925e-05,-2.0023124977492925e-05,-5.6640675513847536e-05,3.2,3.667
3.04296875,-4.102551537041273e-05,-2.6860334383154026e-05,-4.639043824826426e-05,-5.2246123302052305e-05,3.2,3.667
3.046875,-4.248664821240555e-05,-2.7351096559090533e-05,-5.616106702372775e-05,-4.5899676072327735e-05,3.2,3.667
3.05078125,-2.7351096559090533e-05,-1.2706307081712026e-05,-4.248664821240555e-05,-4.1505123860532504e-05,3.2,3.667
3.0546875,-1.3676677747768337e-05,-2.5399201541161176e-05,-4.639043824826426e-05,-4.639043824826426e-05,3.2,3.667
3.05859375,-1.9052754311436616e-05,-4.492930540627142e-05,-7.129661867704277e-05,-5.762219986572057e-05,3.2,3.667
3.0625,-2.6369572207217485e-05,-3.9062466666666634e-05,-6.739282864118407e-05,-4.8342333266193605e-05,3.2,3.667
3.06640625,-3.2236410946822274e-05,-3.467906814068816e-05,-4.2977410388342075e-05,-3.711057164873729e-05,3.2,3.667
3.0703125,-4.1505123860532504e-05,-4.688120042420078e-05,-3.4188305964751634e-05,-3.955322884260316e-05,3.2,3.667
3.07421875,-4.5420067582207946e-05,-5.2736885477988836e-05,-4.492930540627142e-05,-3.614020098268098e-05,3.2,3.667
3.078125,-4.492930540627142e-05,-5.1275752635996e-05,-4.5899676072327735e-05,-2.9302991577019893e-05,3.2,3.667
3.08203125,-4.102551537041273e-05,-5.0294228284122966e-05,-4.5899676072327735e-05,-2.8321467225146846e-05,3.2,3.667
3.0859375,-3.4188305964751634e-05,-3.760133382467382e-05,-3.760133382467382e-05,-2.7351096559090533e-05,3.2,3.667
3.08984375,-3.6630963158617505e-05,-3.2716019436942076e-05,-2.6860334383154026e-05,-1.6610097117570745e-05,3.2,3.667
3.09375,-4.5420067582207946e-05,-3.760133382467382e-05,-3.4188305964751634e-05,-2.0023124977492925e-05,3.2,3.667
3.09765625,-4.1505123860532504e-05,-4.2977410388342075e-05,-4.004399101853968e-05,-3.320678161287859e-05,3.2,3.667
3.1015625,-3.1254886594949226e-05,-5.0784990460059476e-05,-3.614020098268098e-05,-3.369754378881511e-05,3.2,3.667
3.10546875,-2.7351096559090533e-05,-5.0784990460059476e-05,-3.760133382467382e-05,-3.028451592889294e-05,3.2,3.667
3.109375,-3.711057164873729e-05,-4.785157109025708e-05,-4.3457018878461864e-05,-3.1254886594949226e-05,3.2,3.667
3.11328125,-4.0534753194476205e-05,-5.0784990460059476e-05,-3.955322884260316e-05,-2.7841858735027043e-05,3.2,3.667
3.1171875,-2.7841858735027043e-05,-5.51795426718547e-05,-3.614020098268098e-05,-1.9532362801556388e-05,3.2,3.667
3.12109375,-2.4908439365224666e-05,-4.44385432303349e-05,-4.199588603646903e-05,-1.6119334941634208e-05,3.2,3.667
3.125,-4.102551537041273e-05,-4.199588603646903e-05,-5.860372421759362e-05,-2.8812229401083356e-05,3.2,3.667
3.12890625,-3.9062466666666634e-05,-4.492930540627142e-05,-5.5670304847791224e-05,-3.614020098268098e-05,3.2,3.667
3.1328125,-3.955322884260316e-05,-4.248664821240555e-05,-5.0294228284122966e-05,-3.4188305964751634e-05,3.2,3.667
3.13671875,-4.004399101853968e-05,-3.4188305964751634e-05,-4.981461979400318e-05,-3.2716019436942076e-05,3.2,3.667
3.140625,-3.614020098268098e-05,-2.4417677189288125e-05,-4.199588603646903e-05,-3.515867663080793e-05,3.2,3.667
3.14453125,-4.7371962600137306e-05,-1.8071229959563565e-05,-4.2977410388342075e-05,-3.1254886594949226e-05,3.2,3.667
3.1484375,-4.883309544213013e-05,-2.5889963717097714e-05,-5.0294228284122966e-05,-2.7351096559090533e-05,3.2,3.667
3.15234375,-3.6630963158617505e-05,-3.809209600061032e-05,-5.2736885477988836e-05,-2.8812229401083356e-05,3.2,3.667
3.15625,-2.8321467225146846e-05,-3.711057164873729e-05,-4.8342333266193605e-05,-3.4188305964751634e-05,3.2,3.667
3.16015625,-2.2956544347295306e-05,-2.7841858735027043e-05,-5.0294228284122966e-05,-3.564943880674446e-05,3.2,3.667
3.1640625,-2.0513887153429435e-05,-2.2465782171358795e-05,-5.0294228284122966e-05,-2.7841858735027043e-05,3.2,3.667
3.16796875,-2.1495411505302483e-05,-2.1004649329365945e-05,-4.639043824826426e-05,-2.4417677189288125e-05,3.2,3.667
3.171875,-2.4417677189288125e-05,-2.6369572207217485e-05,-4.199588603646903e-05,-3.028451592889294e-05,3.2,3.667
3.17578125,-1.9532362801556388e-05,-2.5889963717097714e-05,-2.8812229401083356e-05,-2.7841858735027043e-05,3.2,3.667
3.1796875,-1.6119334941634208e-05,-2.1975019995422258e-05,-3.2236410946822274e-05,-2.1495411505302483e-05,3.2,3.667
3.18359375,-2.1004649329365945e-05,-2.6369572207217485e-05,-4.394778105439839e-05,-3.1745648770885764e-05,3.2,3.667
3.1875,-2.9302991577019893e-05,-1.9532362801556388e-05,-3.809209600061032e-05,-3.2716019436942076e-05,3.2,3.667
3.19140625,-3.2236410946822274e-05,-1.3185915571831827e-05,-2.5399201541161176e-05,-3.2716019436942076e-05,3.2,3.667
3.1953125,-3.028451592889294e-05,-1.7100859293507255e-05,-2.392691501335162e-05,-3.2716019436942076e-05,3.2,3.667
3.19921875,-3.1254886594949226e-05,-1.8071229959563565e-05,-2.4908439365224666e-05,-2.1975019995422258e-05,3.2,3.667
3.203125,-3.1745648770885764e-05,-2.7351096559090533e-05,-3.467906814068816e-05,-2.1975019995422258e-05,3.2,3.667
3.20703125,-3.6630963158617505e-05,-3.955322884260316e-05,-3.809209600061032e-05,-2.5889963717097714e-05,3.2,3.667
3.2109375,-3.6630963158617505e-05,-3.9062466666666634e-05,-2.6369572207217485e-05,-2.1495411505302483e-05,3.2,3.667
3.21484375,-2.5399201541161176e-05,-2.5399201541161176e-05,-2.0513887153429435e-05,-2.9793753752956404e-05,3.2,3.667
3.21875,-1.8071229959563565e-05,-2.0513887153429435e-05,-2.0513887153429435e-05,-3.6630963158617505e-05,3.2,3.667
3.22265625,-2.8321467225146846e-05,-2.9793753752956404e-05,-3.564943880674446e-05,-3.2236410946822274e-05,3.2,3.667
3.2265625,-2.8321467225146846e-05,-2.0513887153429435e-05,-4.0534753194476205e-05,-3.1745648770885764e-05,3.2,3.667
3.23046875,-1.5628572765697698e-05,-8.311754869916796e-06,-2.7351096559090533e-05,-3.028451592889294e-05,3.2,3.667
3.234375,-2.7841858735027043e-05,-1.9532362801556388e-05,-3.467906814068816e-05,-3.369754378881511e-05,3.2,3.667
3.23828125,-2.8321467225146846e-05,-2.3447306523231843e-05,-3.4188305964751634e-05,-2.5889963717097714e-05,3.2,3.667
3.2421875,-2.6860334383154026e-05,-1.6119334941634208e-05,-3.467906814068816e-05,-2.4908439365224666e-05,3.2,3.667
3.24609375,-3.760133382467382e-05,-2.2465782171358795e-05,-4.2977410388342075e-05,-3.2716019436942076e-05,3.2,3.667
3.25,-3.614020098268098e-05,-2.5889963717097714e-05,-3.858285817654685e-05,-3.809209600061032e-05,3.2,3.667
3.25390625,-2.8812229401083356e-05,-1.9532362801556388e-05,-2.2465782171358795e-05,-3.564943880674446e-05,3.2,3.667
3.2578125,-2.7841858735027043e-05,-2.6369572207217485e-05,-3.2716019436942076e-05,-2.9302991577019893e-05,3.2,3.667
3.26171875,-3.369754378881511e-05,-4.0534753194476205e-05,-4.2977410388342075e-05,-3.711057164873729e-05,3.2,3.667
3.265625,-2.5889963717097714e-05,-4.3457018878461864e-05,-3.1254886594949226e-05,-3.1745648770885764e-05,3.2,3.667
3.26953125,-2.9793753752956404e-05,-3.564943880674446e-05,-2.9793753752956404e-05,-1.4167439923704875e-05,3.2,3.667
3.2734375,-4.248664821240555e-05,-3.858285817654685e-05,-3.809209600061032e-05,-2.9302991577019893e-05,3.2,3.667
3.27734375,-4.004399101853968e-05,-5.5670304847791224e-05,-5.2246123302052305e-05,-3.858285817654685e-05,3.2,3.667
3.28125,-3.4188305964751634e-05,-6.0064857059586454e-05,-4.785157109025708e-05,-3.2716019436942076e-05,3.2,3.667
3.28515625,-2.8321467225146846e-05,-4.492930540627142e-05,-2.8321467225146846e-05,-3.028451592889294e-05,3.2,3.667
3.2890625,-2.1495411505302483e-05,-3.515867663080793e-05,-2.2465782171358795e-05,-2.392691501335162e-05,3.2,3.667
3.29296875,-2.9302991577019893e-05,-3.614020098268098e-05,-3.1745648770885764e-05,-3.711057164873729e-05,3.2,3.667
3.296875,-2.8321467225146846e-05,-2.5399201541161176e-05,-3.1745648770885764e-05,-3.614020098268098e-05,3.2,3.667
3.30078125,-2.1495411505302483e-05,-2.392691501335162e-05,-3.711057164873729e-05,-3.369754378881511e-05,3.2,3.667
3.3046875,-2.1004649329365945e-05,-1.9052754311436616e-05,-3.9062466666666634e-05,-4.199588603646903e-05,3.2,3.667
3.30859375,-2.0513887153429435e-05,-3.4264404821850572e-06,-1.9052754311436616e-05,-4.004399101853968e-05,3.2,3.667
3.3125,-2.4417677189288125e-05,-4.887573324177878e-06,-1.1234020553902467e-05,-3.4188305964751634e-05,3.2,3.667
3.31640625,-2.6860334383154026e-05,-1.3676677747768337e-05,-2.2956544347295306e-05,-3.369754378881511e-05,3.2,3.667
3.3203125,-2.9793753752956404e-05,-1.3185915571831827e-05,-3.4188305964751634e-05,-4.394778105439839e-05,3.2,3.667
3.32421875,-3.809209600061032e-05,-1.9532362801556388e-05,-3.9062466666666634e-05,-4.981461979400318e-05,3.2,3.667
3.328125,-4.102551537041273e-05,-2.7841858735027043e-05,-3.369754378881511e-05,-4.199588603646903e-05,3.2,3.667
3.33203125,-3.6630963158617505e-05,-3.564943880674446e-05,-3.809209600061032e-05,-3.760133382467382e-05,3.2,3.667
3.3359375,-3.0764124419012716e-05,-4.199588603646903e-05,-4.0534753194476205e-05,-3.9062466666666634e-05,3.2,3.667
3.33984375,-3.760133382467382e-05,-4.785157109025708e-05,-4.932385761806665e-05,-3.858285817654685e-05,3.2,3.667
3.34375,-4.199588603646903e-05,-6.0555619235522965e-05,-6.739282864118407e-05,-5.2246123302052305e-05,3.2,3.667
3.34765625,-3.1254886594949226e-05,-5.616106702372775e-05,-6.787243713130385e-05,-5.1766514811932523e-05,3.2,3.667
3.3515625,-3.369754378881511e-05,-5.4209172005798394e-05,-5.0294228284122966e-05,-4.004399101853968e-05,3.2,3.667
3.35546875,-3.320678161287859e-05,-5.7131437689784046e-05,-3.809209600061032e-05,-3.955322884260316e-05,3.2,3.667
3.359375,-2.6860334383154026e-05,-5.7131437689784046e-05,-5.51795426718547e-05,-5.0784990460059476e-05,3.2,3.667
3.36328125,-2.4908439365224666e-05,-4.688120042420078e-05,-5.51795426718547e-05,-4.3457018878461864e-05,3.2,3.667
3.3671875,-2.8812229401083356e-05,-4.1505123860532504e-05,-4.0534753194476205e-05,-2.5889963717097714e-05,3.2,3.667
3.37109375,-3.809209600061032e-05,-5.2246123302052305e-05,-4.1505123860532504e-05,-4.102551537041273e-05,3.2,3.667
3.375,-4.199588603646903e-05,-5.0784990460059476e-05,-3.955322884260316e-05,-4.199588603646903e-05,3.2,3.667
3.37890625,-4.2977410388342075e-05,-4.639043824826426e-05,-2.8812229401083356e-05,-3.760133382467382e-05,3.2,3.667
3.3828125,-4.248664821240555e-05,-5.2246123302052305e-05,-3.028451592889294e-05,-4.102551537041273e-05,3.2,3.667
3.38671875,-2.9793753752956404e-05,-4.688120042420078e-05,-3.564943880674446e-05,-4.004399101853968e-05,3.2,3.667
3.390625,-2.0023124977492925e-05,-3.809209600061032e-05,-3.6630963158617505e-05,-3.955322884260316e-05,3.2,3.667
3.39453125,-2.9302991577019893e-05,-3.1254886594949226e-05,-3.1254886594949226e-05,-4.248664821240555e-05,3.2,3.667
3.3984375,-3.515867663080793e-05,-3.320678161287859e-05,-1.3185915571831827e-05,-3.809209600061032e-05,3.2,3.667
3.40234375,-3.4188305964751634e-05,-4.2977410388342075e-05,-2.8321467225146846e-05,-4.004399101853968e-05,3.2,3.667
3.40625,-3.711057164873729e-05,-5.0294228284122966e-05,-6.0064857059586454e-05,-5.762219986572057e-05,3.2,3.667
3.41015625,-4.004399101853968e-05,-5.0784990460059476e-05,-5.322764765392536e-05,-6.396864709544515e-05,3.2,3.667
3.4140625,-4.102551537041273e-05,-4.981461979400318e-05,-4.199588603646903e-05,-4.883309544213013e-05,3.2,3.667
3.41796875,-4.0534753194476205e-05,-5.4209172005798394e-05,-5.7131437689784046e-05,-4.639043824826426e-05,3.2,3.667
3.421875,-3.760133382467382e-05,-5.1766514811932523e-05,-5.957409488364993e-05,-4.8342333266193605e-05,3.2,3.667
3.42578125,-3.1254886594949226e-05,-3.858285817654685e-05,-4.394778105439839e-05,-3.955322884260316e-05,3.2,3.667
3.4296875,-2.6860334383154026e-05,-4.199588603646903e-05,-3.6630963158617505e-05,-3.858285817654685e-05,3.2,3.667
3.43359375,-2.8321467225146846e-05,-5.322764765392536e-05,-2.9793753752956404e-05,-4.102551537041273e-05,3.2,3.667
3.4375,-2.2956544347295306e-05,-3.760133382467382e-05,-2.1004649329365945e-05,-3.320678161287859e-05,3.2,3.667
3.44140625,-2.6369572207217485e-05,-3.1745648770885764e-05,-1.7580467783627027e-05,-2.8812229401083356e-05,3.2,3.667
3.4453125,-4.7371962600137306e-05,-4.3457018878461864e-05,-2.0023124977492925e-05,-4.0534753194476205e-05,3.2,3.667
3.44921875,-4.785157109025708e-05,-4.932385761806665e-05,-2.7351096559090533e-05,-5.6640675513847536e-05,3.2,3.667
3.453125,-5.5670304847791224e-05,-5.4209172005798394e-05,-3.4188305964751634e-05,-5.616106702372775e-05,3.2,3.667
3.45703125,-5.1766514811932523e-05,-4.7371962600137306e-05,-3.2716019436942076e-05,-4.3457018878461864e-05,3.2,3.667
3.4609375,-3.369754378881511e-05,-4.5420067582207946e-05,-4.102551537041273e-05,-3.809209600061032e-05,3.2,3.667
3.46484375,-3.2716019436942076e-05,-4.492930540627142e-05,-5.5670304847791224e-05,-3.711057164873729e-05,3.2,3.667
3.46875,-2.6369572207217485e-05,-3.1745648770885764e-05,-3.809209600061032e-05,-3.320678161287859e-05,3.2,3.667
3.47265625,-1.7580467783627027e-05,-2.392691501335162e-05,-2.6369572207217485e-05,-3.6630963158617505e-05,3.2,3.667
3.4765625,-2.1495411505302483e-05,-3.858285817654685e-05,-4.2977410388342075e-05,-4.5420067582207946e-05,3.2,3.667
3.48046875,-2.6860334383154026e-05,-4.248664821240555e-05,-4.785157109025708e-05,-4.44385432303349e-05,3.2,3.667
3.484375,-2.6369572207217485e-05,-2.8812229401083356e-05,-3.760133382467382e-05,-4.8342333266193605e-05,3.2,3.667
3.48828125,-2.9302991577019893e-05,-2.1495411505302483e-05,-3.2716019436942076e-05,-5.860372421759362e-05,3.2,3.667
3.4921875,-4.639043824826426e-05,-2.8321467225146846e-05,-3.515867663080793e-05,-5.0784990460059476e-05,3.2,3.667
3.49609375,-4.5420067582207946e-05,-2.8321467225146846e-05,-3.760133382467382e-05,-3.467906814068816e-05,3.2,3.667
3.5,-3.515867663080793e-05,-2.9793753752956404e-05,-4.0534753194476205e-05,-2.9793753752956404e-05,3.2,3.667
3.50390625,-3.711057164873729e-05,-3.2236410946822274e-05,-4.394778105439839e-05,-3.0764124419012716e-05,3.2,3.667
3.5078125,-3.2236410946822274e-05,-3.028451592889294e-05,-3.760133382467382e-05,-2.1004649329365945e-05,3.2,3.667
3.51171875,-1.8561992135500075e-05,-2.0513887153429435e-05,-2.7351096559090533e-05,-1.9532362801556388e-05,3.2,3.667
3.515625,-2.4417677189288125e-05,-1.9052754311436616e-05,-2.9793753752956404e-05,-3.760133382467382e-05,3.2,3.667
3.51953125,-3.9062466666666634e-05,-3.1745648770885764e-05,-4.199588603646903e-05,-4.102551537041273e-05,3.2,3.667
3.5234375,-3.955322884260316e-05,-4.44385432303349e-05,-5.322764765392536e-05,-4.394778105439839e-05,3.2,3.667
3.52734375,-2.4908439365224666e-05,-3.711057164873729e-05,-3.955322884260316e-05,-4.44385432303349e-05,3.2,3.667
3.53125,-2.1004649329365945e-05,-3.028451592889294e-05,-2.7841858735027043e-05,-3.2716019436942076e-05,3.2,3.667
3.53515625,-4.004399101853968e-05,-4.639043824826426e-05,-4.0534753194476205e-05,-3.9062466666666634e-05,3.2,3.667
3.5390625,-4.394778105439839e-05,-4.44385432303349e-05,-4.5899676072327735e-05,-4.102551537041273e-05,3.2,3.667
3.54296875,-4.2977410388342075e-05,-4.5420067582207946e-05,-4.932385761806665e-05,-4.199588603646903e-05,3.2,3.667
3.546875,-4.7371962600137306e-05,-4.102551537041273e-05,-3.809209600061032e-05,-5.2246123302052305e-05,3.2,3.667
3.55078125,-4.5899676072327735e-05,-4.199588603646903e-05,-2.8812229401083356e-05,-4.5899676072327735e-05,3.2,3.667
3.5546875,-3.2716019436942076e-05,-4.1505123860532504e-05,-3.858285817654685e-05,-3.711057164873729e-05,3.2,3.667
3.55859375,-2.9302991577019893e-05,-3.4188305964751634e-05,-3.614020098268098e-05,-4.248664821240555e-05,3.2,3.667
3.5625,-3.760133382467382e-05,-4.785157109025708e-05,-4.5899676072327735e-05,-3.955322884260316e-05,3.2,3.667
3.56640625,-3.614020098268098e-05,-4.3457018878461864e-05,-4.44385432303349e-05,-3.6630963158617505e-05,3.2,3.667
3.5703125,-3.028451592889294e-05,-3.809209600061032e-05,-4.004399101853968e-05,-3.809209600061032e-05,3.2,3.667
3.57421875,-2.9302991577019893e-05,-3.858285817654685e-05,-4.3457018878461864e-05,-3.515867663080793e-05,3.2,3.667
3.578125,-2.6369572207217485e-05,-3.2716019436942076e-05,-3.4188305964751634e-05,-2.9302991577019893e-05,3.2,3.667
3.58203125,-2.4908439365224666e-05,-3.1745648770885764e-05,-3.4188305964751634e-05,-3.1745648770885764e-05,3.2,3.667
3.5859375,-3.515867663080793e-05,-3.614020098268098e-05,-4.492930540627142e-05,-3.6630963158617505e-05,3.2,3.667
3.58984375,-3.1745648770885764e-05,-3.028451592889294e-05,-4.199588603646903e-05,-3.6630963158617505e-05,3.2,3.667
3.59375,-2.1004649329365945e-05,-2.1495411505302483e-05,-1.9052754311436616e-05,-3.9062466666666634e-05,3.2,3.667
3.59765625,-1.1724782729838977e-05,-1.7100859293507255e-05,-1.1234020553902467e-05,-2.9302991577019893e-05,3.2,3.667
3.6015625,-1.9532362801556388e-05,-1.8561992135500075e-05,-2.8812229401083356e-05,-3.320678161287859e-05,3.2,3.667
3.60546875,-3.711057164873729e-05,-3.515867663080793e-05,-4.8342333266193605e-05,-4.5899676072327735e-05,3.2,3.667
3.609375,-3.711057164873729e-05,-4.2977410388342075e-05,-4.932385761806665e-05,-5.0294228284122966e-05,3.2,3.667
3.61328125,-3.711057164873729e-05,-4.785157109025708e-05,-4.639043824826426e-05,-5.762219986572057e-05,3.2,3.667
3.6171875,-3.858285817654685e-05,-4.883309544213013e-05,-4.0534753194476205e-05,-4.248664821240555e-05,3.2,3.667
3.62109375,-4.102551537041273e-05,-5.0294228284122966e-05,-4.785157109025708e-05,-2.5889963717097714e-05,3.2,3.667
3.625,-2.7351096559090533e-05,-4.5420067582207946e-05,-4.785157109025708e-05,-2.7841858735027043e-05,3.2,3.667
3.62890625,-2.8812229401083356e-05,-4.5899676072327735e-05,-4.0534753194476205e-05,-3.809209600061032e-05,3.2,3.667
3.6328125,-3.4188305964751634e-05,-3.2236410946822274e-05,-3.369754378881511e-05,-3.6630963158617505e-05,3.2,3.667
3.63671875,-2.8812229401083356e-05,-1.9532362801556388e-05,-1.2706307081712026e-05,-3.0764124419012716e-05,3.2,3.667
3.640625,-3.564943880674446e-05,-2.7841858735027043e-05,-1.6119334941634208e-05,-3.955322884260316e-05,3.2,3.667
3.64453125,-3.564943880674446e-05,-2.1004649329365945e-05,-3.2716019436942076e-05,-3.9062466666666634e-05,3.2,3.667
3.6484375,-2.9793753752956404e-05,-6.348706166170728e-06,-2.392691501335162e-05,-3.1254886594949226e-05,3.2,3.667
3.65234375,-2.7351096559090533e-05,-8.311754869916796e-06,-1.5628572765697698e-05,-3.1254886594949226e-05,3.2,3.667
3.65625,-3.515867663080793e-05,-2.1004649329365945e-05,-2.5399201541161176e-05,-4.3457018878461864e-05,3.2,3.667
3.66015625,-4.394778105439839e-05,-2.3447306523231843e-05,-3.564943880674446e-05,-4.688120042420078e-05,3.2,3.667
3.6640625,-4.1505123860532504e-05,-2.5399201541161176e-05,-3.369754378881511e-05,-4.492930540627142e-05,3.2,3.667
3.66796875,-2.7841858735027043e-05,-1.4658202099641385e-05,-2.6860334383154026e-05,-4.492930540627142e-05,3.2,3.667
3.671875,-3.2236410946822274e-05,-1.6119334941634208e-05,-2.7841858735027043e-05,-4.102551537041273e-05,3.2,3.667
3.67578125,-4.2977410388342075e-05,-3.2716019436942076e-05,-4.44385432303349e-05,-4.2977410388342075e-05,3.2,3.667
3.6796875,-3.564943880674446e-05,-3.858285817654685e-05,-5.7131437689784046e-05,-4.2977410388342075e-05,3.2,3.667
3.68359375,-3.1254886594949226e-05,-3.955322884260316e-05,-4.932385761806665e-05,-5.2736885477988836e-05,3.2,3.667
3.6875,-3.6630963158617505e-05,-4.688120042420078e-05,-4.785157109025708e-05,-5.7131437689784046e-05,3.2,3.667
3.69140625,-3.809209600061032e-05,-4.3457018878461864e-05,-4.932385761806665e-05,-4.639043824826426e-05,3.2,3.667
3.6953125,-4.102551537041273e-05,-3.711057164873729e-05,-4.102551537041273e-05,-4.5420067582207946e-05,3.2,3.667
3.69921875,-4.932385761806665e-05,-4.8342333266193605e-05,-4.5899676072327735e-05,-4.8342333266193605e-05,3.2,3.667
3.703125,-3.515867663080793e-05,-4.5899676072327735e-05,-5.4688780495918176e-05,-4.2977410388342075e-05,3.2,3.667
3.70703125,-2.1004649329365945e-05,-3.369754378881511e-05,-4.5420067582207946e-05,-3.320678161287859e-05,3.2,3.667
3.7109375,-2.4417677189288125e-05,-3.369754378881511e-05,-3.028451592889294e-05,-3.809209600061032e-05,3.2,3.667
3.71484375,-2.4417677189288125e-05,-3.760133382467382e-05,-3.1254886594949226e-05,-4.004399101853968e-05,3.2,3.667
3.71875,-3.2716019436942076e-05,-4.5420067582207946e-05,-4.004399101853968e-05,-3.614020098268098e-05,3.2,3.667
3.72265625,-3.515867663080793e-05,-4.639043824826426e-05,-4.3457018878461864e-05,-4.0534753194476205e-05,3.2,3.667
3.7265625,-4.199588603646903e-05,-4.8342333266193605e-05,-4.3457018878461864e-05,-4.2977410388342075e-05,3.2,3.667
3.73046875,-4.492930540627142e-05,-4.883309544213013e-05,-4.1505123860532504e-05,-4.883309544213013e-05,3.2,3.667
3.734375,-4.1505123860532504e-05,-5.2736885477988836e-05,-4.785157109025708e-05,-4.981461979400318e-05,3.2,3.667
3.73828125,-4.5899676072327735e-05,-4.785157109025708e-05,-5.0294228284122966e-05,-4.932385761806665e-05,3.2,3.667
3.7421875,-4.102551537041273e-05,-4.004399101853968e-05,-5.1275752635996e-05,-4.8342333266193605e-05,3.2,3.667
3.74609375,-3.4188305964751634e-05,-3.467906814068816e-05,-4.3457018878461864e-05,-4.004399101853968e-05,3.2,3.667
3.75,-3.1254886594949226e-05,-2.4908439365224666e-05,-2.9793753752956404e-05,-2.9302991577019893e-05,3.2,3.667
3.75390625,-3.6630963158617505e-05,-3.028451592889294e-05,-3.614020098268098e-05,-3.760133382467382e-05,3.2,3.667
3.7578125,-3.955322884260316e-05,-3.2716019436942076e-05,-3.0764124419012716e-05,-3.4188305964751634e-05,3.2,3.667
3.76171875,-3.564943880674446e-05,-3.515867663080793e-05,-3.320678161287859e-05,-3.614020098268098e-05,3.2,3.667
3.765625,-2.8812229401083356e-05,-3.320678161287859e-05,-4.0534753194476205e-05,-4.932385761806665e-05,3.2,3.667
3.76953125,-2.7841858735027043e-05,-2.9302991577019893e-05,-2.7351096559090533e-05,-3.809209600061032e-05,3.2,3.667
3.7734375,-3.711057164873729e-05,-3.858285817654685e-05,-3.028451592889294e-05,-3.809209600061032e-05,3.2,3.667
3.77734375,-4.44385432303349e-05,-4.199588603646903e-05,-4.3457018878461864e-05,-4.1505123860532504e-05,3.2,3.667
3.78125,-4.785157109025708e-05,-3.6630963158617505e-05,-4.7371962600137306e-05,-3.809209600061032e-05,3.2,3.667
3.78515625,-3.711057164873729e-05,-3.467906814068816e-05,-3.955322884260316e-05,-4.492930540627142e-05,3.2,3.667
3.7890625,-3.028451592889294e-05,-4.492930540627142e-05,-3.515867663080793e-05,-4.0534753194476205e-05,3.2,3.667
3.79296875,-4.248664821240555e-05,-5.2736885477988836e-05,-4.492930540627142e-05,-3.760133382467382e-05,3.2,3.667
3.796875,-3.858285817654685e-05,-5.616106702372775e-05,-5.616106702372775e-05,-5.0294228284122966e-05,3.2,3.667
3.80078125,-2.392691501335162e-05,-5.860372421759362e-05,-5.957409488364993e-05,-5.2246123302052305e-05,3.2,3.667
3.8046875,-2.0023124977492925e-05,-4.8342333266193605e-05,-5.0784990460059476e-05,-2.9302991577019893e-05,3.2,3.667
3.80859375,-2.6369572207217485e-05,-5.0294228284122966e-05,-4.932385761806665e-05,-2.4908439365224666e-05,3.2,3.667
3.8125,-2.4908439365224666e-05,-4.199588603646903e-05,-4.5899676072327735e-05,-2.9302991577019893e-05,3.2,3.667
3.81640625,-2.1495411505302483e-05,-3.1254886594949226e-05,-2.8812229401083356e-05,-3.1745648770885764e-05,3.2,3.667
3.8203125,-2.6860334383154026e-05,-2.8321467225146846e-05,-2.1495411505302483e-05,-3.1254886594949226e-05,3.2,3.667
3.82421875,-3.515867663080793e-05,-2.8812229401083356e-05,-2.8812229401083356e-05,-3.955322884260316e-05,3.2,3.667
3.828125,-3.2716019436942076e-05,-3.320678161287859e-05,-2.0023124977492925e-05,-4.7371962600137306e-05,3.2,3.667
3.83203125,-3.028451592889294e-05,-3.4188305964751634e-05,-1.8561992135500075e-05,-3.4188305964751634e-05,3.2,3.667
3.8359375,-3.858285817654685e-05,-3.369754378881511e-05,-2.7841858735027043e-05,-2.8812229401083356e-05,3.2,3.667
3.83984375,-4.102551537041273e-05,-2.9793753752956404e-05,-2.8812229401083356e-05,-2.6860334383154026e-05,3.2,3.667
3.84375,-2.392691501335162e-05,-2.5399201541161176e-05,-3.1254886594949226e-05,-2.1004649329365945e-05,3.2,3.667
3.84765625,-1.4167439923704875e-05,-2.6369572207217485e-05,-3.564943880674446e-05,-2.5889963717097714e-05,3.2,3.667
3.8515625,-1.8071229959563565e-05,-3.564943880674446e-05,-4.2977410388342075e-05,-3.467906814068816e-05,3.2,3.667
3.85546875,-2.0023124977492925e-05,-4.1505123860532504e-05,-4.7371962600137306e-05,-3.4188305964751634e-05,3.2,3.667
3.859375,-3.320678161287859e-05,-4.5420067582207946e-05,-5.1275752635996e-05,-4.7371962600137306e-05,3.2,3.667
3.86328125,-4.785157109025708e-05,-4.639043824826426e-05,-6.542977993743798e-05,-5.0294228284122966e-05,3.2,3.667
3.8671875,-3.9062466666666634e-05,-5.51795426718547e-05,-6.836319930724037e-05,-3.760133382467382e-05,3.2,3.667
3.87109375,-2.8321467225146846e-05,-6.103522772564275e-05,-6.59205421133745e-05,-3.9062466666666634e-05,3.2,3.667
3.875,-3.369754378881511e-05,-5.51795426718547e-05,-6.396864709544515e-05,-3.955322884260316e-05,3.2,3.667
3.87890625,-3.0764124419012716e-05,-5.1275752635996e-05,-5.616106702372775e-05,-3.4188305964751634e-05,3.2,3.667
3.8828125,-3.0764124419012716e-05,-6.201675207751581e-05,-6.347788491950862e-05,-3.0764124419012716e-05,3.2,3.667
3.88671875,-3.467906814068816e-05,-5.8112962041657094e-05,-6.396864709544515e-05,-2.8812229401083356e-05,3.2,3.667
3.890625,-2.8812229401083356e-05,-4.199588603646903e-05,-4.639043824826426e-05,-3.955322884260316e-05,3.2,3.667
3.89453125,-2.8812229401083356e-05,-4.3457018878461864e-05,-3.6630963158617505e-05,-4.883309544213013e-05,3.2,3.667
3.8984375,-2.6369572207217485e-05,-4.5420067582207946e-05,-4.0534753194476205e-05,-3.369754378881511e-05,3.2,3.667
3.90234375,-3.1745648770885764e-05,-4.5420067582207946e-05,-4.932385761806665e-05,-3.564943880674446e-05,3.2,3.667
3.90625,-4.3457018878461864e-05,-5.3718409829861884e-05,-5.1766514811932523e-05,-4.932385761806665e-05,3.2,3.667
3.91015625,-3.858285817654685e-05,-4.44385432303349e-05,-4.639043824826426e-05,-4.1505123860532504e-05,3.2,3.667
3.9140625,-3.858285817654685e-05,-4.492930540627142e-05,-4.2977410388342075e-05,-2.7351096559090533e-05,3.2,3.667
3.91796875,-4.785157109025708e-05,-6.299827642938886e-05,-4.785157109025708e-05,-3.028451592889294e-05,3.2,3.667
3.921875,-4.3457018878461864e-05,-5.3718409829861884e-05,-3.614020098268098e-05,-3.564943880674446e-05,3.2,3.667
3.92578125,-4.0534753194476205e-05,-3.858285817654685e-05,-2.5889963717097714e-05,-3.4188305964751634e-05,3.2,3.667
3.9296875,-4.004399101853968e-05,-3.564943880674446e-05,-3.515867663080793e-05,-3.2716019436942076e-05,3.2,3.667
3.93359375,-2.9302991577019893e-05,-2.7351096559090533e-05,-2.5399201541161176e-05,-2.392691501335162e-05,3.2,3.667
3.9375,-2.2956544347295306e-05,-2.7841858735027043e-05,-2.8812229401083356e-05,-2.1495411505302483e-05,3.2,3.667
3.94140625,-2.392691501335162e-05,-2.7351096559090533e-05,-3.858285817654685e-05,-1.6119334941634208e-05,3.2,3.667
3.9453125,-2.6860334383154026e-05,-2.8321467225146846e-05,-3.6630963158617505e-05,-1.8561992135500075e-05,3.2,3.667
3.94921875,-2.8321467225146846e-05,-3.1254886594949226e-05,-3.1254886594949226e-05,-2.4417677189288125e-05,3.2,3.667
3.953125,-2.8812229401083356e-05,-3.1254886594949226e-05,-3.0764124419012716e-05,-1.4658202099641385e-05,3.2,3.667
3.95703125,-3.0764124419012716e-05,-3.760133382467382e-05,-3.2236410946822274e-05,-1.5137810589761159e-05,3.2,3.667
3.9609375,-3.4188305964751634e-05,-3.809209600061032e-05,-3.9062466666666634e-05,-2.3447306523231843e-05,3.2,3.667
3.96484375,-2.6860334383154026e-05,-3.564943880674446e-05,-4.0534753194476205e-05,-2.6860334383154026e-05,3.2,3.667
3.96875,-3.1254886594949226e-05,-3.1254886594949226e-05,-2.4417677189288125e-05,-2.6369572207217485e-05,3.2,3.667
3.97265625,-4.199588603646903e-05,-2.7841858735027043e-05,-2.2465782171358795e-05,-1.6119334941634208e-05,3.2,3.667
3.9765625,-3.9062466666666634e-05,-3.6630963158617505e-05,-3.1254886594949226e-05,-2.2956544347295306e-05,3.2,3.667
3.98046875,-3.760133382467382e-05,-3.515867663080793e-05,-3.1745648770885764e-05,-2.8812229401083356e-05,3.2,3.667
3.984375,-2.9793753752956404e-05,-2.9793753752956404e-05,-3.515867663080793e-05,-2.6369572207217485e-05,3.2,3.667
3.98828125,-2.7351096559090533e-05,-3.760133382467382e-05,-4.004399101853968e-05,-2.8812229401083356e-05,3.2,3.667
3.9921875,-3.467906814068816e-05,-4.102551537041273e-05,-2.8812229401083356e-05,-3.320678161287859e-05,3.2,3.667
3.99609375,-4.0534753194476205e-05,-4.0534753194476205e-05,-2.5399201541161176e-05,-3.467906814068816e-05,3.2,3.667
4.0,-4.102551537041273e-05,-4.004399101853968e-05,-3.0764124419012716e-05,-3.467906814068816e-05,3.2,3.667
4.00390625,-4.0534753194476205e-05,-3.809209600061032e-05,-3.4188305964751634e-05,-3.4188305964751634e-05,3.2,3.667
4.0078125,-4.785157109025708e-05,-4.8342333266193605e-05,-4.2977410388342075e-05,-3.614020098268098e-05,3.2,3.667
4.01171875,-3.955322884260316e-05,-4.639043824826426e-05,-3.4188305964751634e-05,-3.614020098268098e-05,3.2,3.667
4.015625,-2.2465782171358795e-05,-4.199588603646903e-05,-3.0764124419012716e-05,-3.369754378881511e-05,3.2,3.667
4.01953125,-2.2956544347295306e-05,-5.1766514811932523e-05,-4.492930540627142e-05,-3.320678161287859e-05,3.2,3.667
4.0234375,-3.1254886594949226e-05,-5.51795426718547e-05,-5.1766514811932523e-05,-3.9062466666666634e-05,3.2,3.667
4.02734375,-3.1745648770885764e-05,-4.883309544213013e-05,-3.564943880674446e-05,-4.883309544213013e-05,3.2,3.667
4.03125,-4.004399101853968e-05,-4.639043824826426e-05,-3.6630963158617505e-05,-4.639043824826426e-05,3.2,3.667
4.03515625,-5.3718409829861884e-05,-5.7131437689784046e-05,-4.785157109025708e-05,-4.1505123860532504e-05,3.2,3.667
4.0390625,-4.5420067582207946e-05,-5.4688780495918176e-05,-4.0534753194476205e-05,-3.858285817654685e-05,3.2,3.667
4.04296875,-2.9793753752956404e-05,-4.394778105439839e-05,-4.1505123860532504e-05,-3.858285817654685e-05,3.2,3.667
4.046875,-3.1745648770885764e-05,-4.394778105439839e-05,-5.2736885477988836e-05,-4.2977410388342075e-05,3.2,3.667
4.05078125,-3.564943880674446e-05,-3.2716019436942076e-05,-4.492930540627142e-05,-3.760133382467382e-05,3.2,3.667
4.0546875,-2.2956544347295306e-05,-2.2465782171358795e-05,-3.2236410946822274e-05,-3.564943880674446e-05,3.2,3.667
4.05859375,-2.6369572207217485e-05,-2.4908439365224666e-05,-3.320678161287859e-05,-3.1745648770885764e-05,3.2,3.667
4.0625,-3.515867663080793e-05,-2.9302991577019893e-05,-3.858285817654685e-05,-3.028451592889294e-05,3.2,3.667
4.06640625,-2.5889963717097714e-05,-2.7351096559090533e-05,-4.5899676072327735e-05,-3.858285817654685e-05,3.2,3.667
4.0703125,-2.6369572207217485e-05,-2.392691501335162e-05,-4.492930540627142e-05,-4.5899676072327735e-05,3.2,3.667
4.07421875,-3.614020098268098e-05,-3.028451592889294e-05,-4.492930540627142e-05,-5.2736885477988836e-05,3.2,3.667
4.078125,-3.6630963158617505e-05,-3.320678161287859e-05,-4.785157109025708e-05,-4.8342333266193605e-05,3.2,3.667
4.08203125,-2.8321467225146846e-05,-3.0764124419012716e-05,-3.711057164873729e-05,-3.2236410946822274e-05,3.2,3.667
4.0859375,-2.6860334383154026e-05,-2.9793753752956404e-05,-2.4908439365224666e-05,-3.711057164873729e-05,3.2,3.667
4.08984375,-2.9302991577019893e-05,-4.004399101853968e-05,-3.0764124419012716e-05,-3.711057164873729e-05,3.2,3.667
4.09375,-3.711057164873729e-05,-5.3718409829861884e-05,-4.199588603646903e-05,-4.1505123860532504e-05,3.2,3.667
4.09765625,-3.4188305964751634e-05,-3.711057164873729e-05,-4.7371962600137306e-05,-5.2736885477988836e-05,3.2,3.667
4.1015625,-2.6860334383154026e-05,-3.2236410946822274e-05,-4.102551537041273e-05,-5.2246123302052305e-05,3.2,3.667
4.10546875,-3.760133382467382e-05,-4.492930540627142e-05,-3.320678161287859e-05,-4.2977410388342075e-05,3.2,3.667
4.109375,-3.1745648770885764e-05,-3.1745648770885764e-05,-2.8321467225146846e-05,-3.1745648770885764e-05,3.2,3.667
