timestamp,TP9,AF7,AF8,TP10,Valence,Arousal
0.0,-0.0009243032192309453,1.7070611421377907e-05,3.401865841153599e-06,-1.4629894511329806e-05,6.5714,4.2143
0.00390625,-0.0009701911508216983,3.890035326161609e-06,1.365342502632183e-05,-7.307352236209642e-06,6.5714,4.2143
0.0078125,-0.0009657976254566262,3.401865841153599e-06,2.1952306271458016e-05,-9.260030176241686e-06,6.5714,4.2143
0.01171875,-0.0009672621339116502,2.913696356145588e-06,2.1464136786450005e-05,-6.819182751201631e-06,6.5714,4.2143
0.015625,-0.0009687266423666742,1.4491879011215552e-06,8.77173017624172e-06,-6.819182751201631e-06,6.5714,4.2143
0.01953125,-0.0009653094559716182,1.4629763996337851e-05,-6.819182751201631e-06,-8.283691206225664e-06,6.5714,4.2143
0.0234375,-0.0009750728456717784,2.1464136786450005e-05,9.610184161135442e-07,-1.2189047086289752e-05,6.5714,4.2143
0.02734375,-0.0009462708460563058,2.3416814726482047e-05,1.365342502632183e-05,-5.842843781185608e-06,6.5714,4.2143
0.03125,-0.0009208860328358892,5.354543781185643e-06,-1.937487901121521e-06,-5.354674296177598e-06,6.5714,4.2143
0.03515625,-0.0009648212864866102,-1.5320553902477717e-08,7.795391206225697e-06,-6.3310132661936195e-06,6.5714,4.2143
0.0390625,-0.0009697029813366902,3.4156543396658294e-05,8.77173017624172e-06,-9.748199661249696e-06,6.5714,4.2143
0.04296875,-0.0009672621339116502,3.610922133669034e-05,-1.44931841611351e-06,-1.170087760128174e-05,6.5714,4.2143
0.046875,-0.0009667739644266422,3.0251187516594204e-05,2.5369492666514095e-05,-1.937487901121521e-06,6.5714,4.2143
0.05078125,-0.0009335784394460975,3.0251187516594204e-05,2.488132318150608e-05,-1.44931841611351e-06,6.5714,4.2143
0.0546875,-0.0009448063376012816,2.7322170606546137e-05,-1.755891142137787e-05,-4.72979446097488e-07,6.5714,4.2143
0.05859375,-0.0009682384728816663,2.439315369649807e-05,-3.073948751659417e-05,-1.937487901121521e-06,6.5714,4.2143
0.0625,-0.00095749874421149,3.0251187516594204e-05,6.330882751201665e-06,-1.2677216571297761e-05,6.5714,4.2143
0.06640625,-0.0009506643714213777,3.659739082169834e-05,5.319515331197072e-05,-7.795521721217652e-06,6.5714,4.2143
0.0703125,-0.00095749874421149,3.610922133669034e-05,3.1227526486610226e-05,-5.842843781185608e-06,6.5714,4.2143
0.07421875,-0.000957986913696498,2.6345831636530114e-05,-3.5133012881666264e-05,-1.170087760128174e-05,6.5714,4.2143
0.078125,-0.0009843480658869306,1.8535119876401938e-05,-7.795521721217652e-06,-9.748199661249696e-06,6.5714,4.2143
0.08203125,-0.000866180539922179,4.001457721675442e-05,2.292864524147404e-05,-2.9138268711375426e-06,6.5714,4.2143
0.0859375,-0.0005693124718516823,3.1227526486610226e-05,7.307221721217687e-06,-8.771860691233675e-06,6.5714,4.2143
0.08984375,-0.00042429562421149,4.7284893110553325e-07,3.890035326161609e-06,-6.819182751201631e-06,6.5714,4.2143
0.09375,-0.0004907171847653925,1.1700747086289786e-05,-6.3310132661936195e-06,-7.307352236209642e-06,6.5714,4.2143
0.09765625,-0.0005644307770016022,3.4156543396658294e-05,-1.44931841611351e-06,-1.9023419876401904e-05,6.5714,4.2143
0.1015625,-0.000599090810437171,4.0990916186770444e-05,3.401865841153599e-06,-1.560623348134583e-05,6.5714,4.2143
0.10546875,-0.000647450100045777,2.829850957656216e-05,9.748069146257742e-06,-8.283691206225664e-06,6.5714,4.2143
0.109375,-0.0006664887099610895,1.365342502632183e-05,1.0724408116273763e-05,-1.072453863126572e-05,6.5714,4.2143
0.11328125,-0.0008745099317601281,1.5606102966353874e-05,1.4491879011215552e-06,-9.748199661249696e-06,6.5714,4.2143
0.1171875,-0.0009819072184618905,1.3165255541313818e-05,7.795391206225697e-06,-4.3783353261615755e-06,6.5714,4.2143
0.12109375,-0.000960427761121538,5.354543781185643e-06,-1.44931841611351e-06,-1.4629894511329806e-05,6.5714,4.2143
0.125,-0.0009682384728816663,3.0739357001602215e-05,4.7284893110553325e-07,-2.3905114726482013e-05,6.5714,4.2143
0.12890625,-0.0009682384728816663,4.1479085671778456e-05,2.1464136786450005e-05,-1.658257245136185e-05,6.5714,4.2143
0.1328125,-0.0009682384728816663,1.5606102966353874e-05,1.0724408116273763e-05,-1.170087760128174e-05,6.5714,4.2143
0.13671875,-0.0009682384728816663,3.890035326161609e-06,-1.4141725026321795e-05,-1.2189047086289752e-05,6.5714,4.2143
0.140625,-0.0009687266423666742,2.488132318150608e-05,1.937357386129566e-06,-1.2189047086289752e-05,6.5714,4.2143
0.14453125,-0.0009667739644266422,3.5132882366674316e-05,1.2188916571297797e-05,-1.4629894511329806e-05,6.5714,4.2143
0.1484375,-0.0009643331170016021,3.5132882366674316e-05,1.0236238631265752e-05,-1.170087760128174e-05,6.5714,4.2143
0.15234375,-0.0009643331170016021,2.976301803158619e-05,2.6834001121538125e-05,-9.260030176241686e-06,6.5714,4.2143
0.15625,-0.0008896431857953766,3.8550068761730395e-05,1.2188916571297797e-05,-9.260030176241686e-06,6.5714,4.2143
0.16015625,-0.0008368903708216983,3.610922133669034e-05,-9.260030176241686e-06,-2.425657386129532e-06,6.5714,4.2143
0.1640625,-0.0007861207443808652,3.4156543396658294e-05,3.806189927672238e-05,-1.5320553902477717e-08,6.5714,4.2143
0.16796875,-0.0007236045397070268,6.0029526102082876e-05,7.275244330510416e-05,-3.401996356145554e-06,6.5714,4.2143
0.171875,-0.000865692370437171,4.001457721675442e-05,3.610922133669034e-05,-5.354674296177598e-06,6.5714,4.2143
0.17578125,-0.0008437247436118105,1.3165255541313818e-05,-4.72979446097488e-07,-6.3310132661936195e-06,6.5714,4.2143
0.1796875,-0.0006103492191851681,3.8550068761730395e-05,7.307221721217687e-06,-1.3165386056305774e-05,6.5714,4.2143
0.18359375,-0.0005185428454108492,5.2218814341954696e-05,2.6834001121538125e-05,-1.3165386056305774e-05,6.5714,4.2143
0.1875,-0.0005907919291920347,4.34317636118105e-05,4.294359412680248e-05,-7.795521721217652e-06,6.5714,4.2143
0.19140625,-0.0007060304382467383,5.1730644856946685e-05,2.878667906157017e-05,-9.260030176241686e-06,6.5714,4.2143
0.1953125,-0.000643056574680705,4.5872611036850557e-05,-7.795521721217652e-06,-9.260030176241686e-06,6.5714,4.2143
0.19921875,-0.0006528199643808651,1.1700747086289786e-05,5.354543781185643e-06,-8.771860691233675e-06,6.5714,4.2143
0.203125,-0.0006772284386312656,1.9999628331425975e-05,3.3668373911650276e-05,-3.890165841153565e-06,6.5714,4.2143
0.20703125,-0.0007665939649805448,4.5872611036850557e-05,5.1730644856946685e-05,-2.425657386129532e-06,6.5714,4.2143
0.2109375,-0.000914539829530785,5.270698382696271e-05,4.001457721675442e-05,-6.819182751201631e-06,6.5714,4.2143
0.21484375,-0.0007656176260105287,4.684895000686658e-05,5.354543781185643e-06,-5.842843781185608e-06,6.5714,4.2143
0.21875,-0.000734374778970016,4.050274670176243e-05,8.77173017624172e-06,-4.3783353261615755e-06,6.5714,4.2143
0.22265625,-0.000690409014726482,4.636078052185856e-05,2.3904984211490058e-05,-3.890165841153565e-06,6.5714,4.2143
0.2265625,-0.000643056574680705,5.124247537193867e-05,3.46447128816663e-05,-1.121270811627373e-05,6.5714,4.2143
0.23046875,-0.0007231163702220187,4.34317636118105e-05,4.001457721675442e-05,-7.307352236209642e-06,6.5714,4.2143
0.234375,-0.0006943143706065461,2.829850957656216e-05,3.318020442664227e-05,-1.5320553902477717e-08,6.5714,4.2143
0.23828125,-0.0007079831161867704,1.365342502632183e-05,5.075430588693066e-05,-1.937487901121521e-06,6.5714,4.2143
0.2421875,-0.0006762520996612498,2.6834001121538125e-05,4.831345846189061e-05,-3.401996356145554e-06,6.5714,4.2143
0.24609375,-0.0006674650489311054,3.0739357001602215e-05,3.0739357001602215e-05,-1.0236369146257707e-05,6.5714,4.2143
0.25,-0.0006664887099610895,2.1952306271458016e-05,3.90382382467384e-05,-6.819182751201631e-06,6.5714,4.2143
0.25390625,-0.0006752757606912337,2.9274848546578178e-05,4.7825288976882595e-05,-1.937487901121521e-06,6.5714,4.2143
0.2578125,-0.0007040777603067063,2.878667906157017e-05,4.831345846189061e-05,-1.5320553902477717e-08,6.5714,4.2143
0.26171875,-0.0005863984038269626,2.9274848546578178e-05,5.66123397070268e-05,-2.9138268711375426e-06,6.5714,4.2143
0.265625,-0.0006791811165712978,4.245542464179448e-05,6.10058650720989e-05,-1.121270811627373e-05,6.5714,4.2143
0.26953125,-0.000732879759922179,4.440810258182652e-05,3.7085560306706354e-05,-1.937487901121521e-06,6.5714,4.2143
0.2734375,-0.0006059556938200961,2.2440475756466028e-05,1.6094272451361885e-05,-4.3783353261615755e-06,6.5714,4.2143
0.27734375,-0.0006552608118059052,1.7070611421377907e-05,2.3904984211490058e-05,-1.609440296635384e-05,6.5714,4.2143
0.28125,-0.0006733230827512017,3.659739082169834e-05,4.245542464179448e-05,-9.260030176241686e-06,6.5714,4.2143
0.28515625,-0.0006142545750652323,5.758867867704282e-05,5.2218814341954696e-05,-9.748199661249696e-06,6.5714,4.2143
0.2890625,-0.0005400223027512016,5.075430588693066e-05,5.2218814341954696e-05,-1.072453863126572e-05,6.5714,4.2143
0.29296875,-0.0006264588121904325,4.1479085671778456e-05,2.7322170606546137e-05,-4.866504811169587e-06,6.5714,4.2143
0.296875,-0.0006249943037354086,3.5132882366674316e-05,1.8535119876401938e-05,-6.3310132661936195e-06,6.5714,4.2143
0.30078125,-0.0007006605739116502,3.806189927672238e-05,3.610922133669034e-05,-6.3310132661936195e-06,6.5714,4.2143
0.3046875,-0.0008476300994918745,3.0251187516594204e-05,4.1479085671778456e-05,-3.890165841153565e-06,6.5714,4.2143
0.30859375,-0.0006674650489311054,3.171569597161824e-05,4.440810258182652e-05,-2.9138268711375426e-06,6.5714,4.2143
0.3125,-0.0005429513196612497,2.7810340091554148e-05,3.5132882366674316e-05,-5.842843781185608e-06,6.5714,4.2143
0.31640625,-0.0005995789799221789,2.5369492666514095e-05,1.5117933481345863e-05,-9.748199661249696e-06,6.5714,4.2143
0.3203125,-0.0006352458629205768,4.196725515678646e-05,1.8046950391393927e-05,-8.283691206225664e-06,6.5714,4.2143
0.32421875,-0.0005473448450263218,3.3668373911650276e-05,4.1479085671778456e-05,3.401865841153599e-06,6.5714,4.2143
0.328125,-0.00048681182888532846,4.050274670176243e-05,3.610922133669034e-05,1.2188916571297797e-05,6.5714,4.2143
0.33203125,-0.000558572743181506,4.391993309681851e-05,1.6582441936369896e-05,8.77173017624172e-06,6.5714,4.2143
0.3359375,-0.0006415920662256809,2.878667906157017e-05,2.5857662151522106e-05,1.365342502632183e-05,6.5714,4.2143
0.33984375,-0.0006210889478553445,4.001457721675442e-05,4.001457721675442e-05,2.3416814726482047e-05,6.5714,4.2143
0.34375,-0.0005429513196612497,4.245542464179448e-05,4.880162794689862e-05,2.5857662151522106e-05,6.5714,4.2143
0.34765625,-0.0005849338953719386,3.4156543396658294e-05,5.5636000737010774e-05,1.9999628331425975e-05,6.5714,4.2143
0.3515625,-0.0006249943037354086,2.976301803158619e-05,4.7337119491874584e-05,1.7070611421377907e-05,6.5714,4.2143
0.35546875,-0.0005522265398764019,2.9274848546578178e-05,1.8535119876401938e-05,1.6582441936369896e-05,6.5714,4.2143
0.359375,-0.0006757639301762417,3.269203494163426e-05,8.77173017624172e-06,1.6582441936369896e-05,6.5714,4.2143
0.36328125,-0.0006083965412451361,1.6094272451361885e-05,3.220386545662624e-05,1.6582441936369896e-05,6.5714,4.2143
0.3671875,-0.0003378896253650721,2.7322170606546137e-05,4.0990916186770444e-05,1.5117933481345863e-05,6.5714,4.2143
0.37109375,-0.0003867065738658732,2.292864524147404e-05,8.77173017624172e-06,1.6582441936369896e-05,6.5714,4.2143
0.375,-0.0004916935237354085,-7.307352236209642e-06,-1.5320553902477717e-08,1.902328936140995e-05,6.5714,4.2143
0.37890625,-0.0005058504388006409,9.610184161135442e-07,1.4491879011215552e-06,1.9999628331425975e-05,6.5714,4.2143
0.3828125,-0.00038231304850080104,3.1227526486610226e-05,1.755878090638592e-05,2.0975967301441994e-05,6.5714,4.2143
0.38671875,-0.00036278626910048065,2.976301803158619e-05,2.5369492666514095e-05,1.5606102966353874e-05,6.5714,4.2143
0.390625,-0.0003759668451956969,2.1952306271458016e-05,2.3416814726482047e-05,1.902328936140995e-05,6.5714,4.2143
0.39453125,-0.00046432552198214693,2.5857662151522106e-05,1.755878090638592e-05,2.829850957656216e-05,6.5714,4.2143
0.3984375,-0.0006088847107301442,4.866374296177632e-06,-1.5320553902477717e-08,1.6094272451361885e-05,6.5714,4.2143
0.40234375,-0.000335448777940032,2.5857662151522106e-05,2.2440475756466028e-05,1.1700747086289786e-05,6.5714,4.2143
0.40625,-0.00010399542086060881,4.196725515678646e-05,4.050274670176243e-05,1.902328936140995e-05,6.5714,4.2143
0.41015625,-0.00013767911532616155,4.1479085671778456e-05,4.0990916186770444e-05,1.8535119876401938e-05,6.5714,4.2143
0.4140625,-0.0002768379291462577,4.977796691691464e-05,4.294359412680248e-05,2.292864524147404e-05,6.5714,4.2143
0.41796875,-0.000290506674726482,1.6582441936369896e-05,1.4141594511329842e-05,2.878667906157017e-05,6.5714,4.2143
0.421875,-0.0001381672848111696,5.842713266193654e-06,-1.4141725026321795e-05,7.795391206225697e-06,6.5714,4.2143
0.42578125,-9.42320311604486e-05,3.269203494163426e-05,5.842713266193654e-06,4.7284893110553325e-07,6.5714,4.2143
0.4296875,-0.00010350725137560079,1.2188916571297797e-05,-1.4629894511329806e-05,7.795391206225697e-06,6.5714,4.2143
0.43359375,-0.0001962594535271229,-9.61148931105499e-07,-3.318033494163422e-05,7.307221721217687e-06,6.5714,4.2143
0.4375,-0.000156229555756466,-3.1715826486610186e-05,-1.7070741936369862e-05,2.1464136786450005e-05,6.5714,4.2143
0.44140625,-0.00012791572562600135,-5.465979228198671e-05,-4.196738567177842e-05,2.3416814726482047e-05,6.5714,4.2143
0.4453125,-8.690948888532842e-05,-4.97780974319066e-05,-6.637585992217897e-05,2.7322170606546137e-05,6.5714,4.2143
0.44921875,-1.7070741936369862e-05,-8.54449804303044e-05,-9.130301425040053e-05,4.1479085671778456e-05,6.5714,4.2143
0.453125,-0.0001918659281620508,-0.0001440253186312657,-0.0001391436237811856,4.34317636118105e-05,6.5714,4.2143
0.45703125,-8.446864146028837e-05,-0.00018014986052185852,-0.000200683489485008,3.806189927672238e-05,6.5714,4.2143
0.4609375,0.0002846485103913939,-0.00020214799794003203,-0.00023485535343556875,3.0739357001602215e-05,6.5714,4.2143
0.46484375,0.00036717966395056074,-0.0002329026754955367,-0.00023485535343556875,3.7573729791714366e-05,6.5714,4.2143
0.46875,0.0002665862394460975,-0.0002577993192309453,-0.00027830243760128173,4.050274670176243e-05,6.5714,4.2143
0.47265625,0.0001816142384618906,-0.0002973410475165942,-0.0003290720640421149,4.977796691691464e-05,6.5714,4.2143
0.4765625,0.00020947040970016023,-0.0003486293540352483,-0.00034521216764019227,4.9289797431906635e-05,6.5714,4.2143
0.48046875,0.00022802085013046464,-0.0003237021997070267,-0.0003202850133119707,5.66123397070268e-05,6.5714,4.2143
0.484375,0.00027049159532616156,-0.00029685287803158614,-0.0003071044372167544,6.982342639505609e-05,6.5714,4.2143
0.48828125,7.665779918516825e-05,-0.00031345064052185854,-0.00032077318279697867,5.1730644856946685e-05,6.5714,4.2143
0.4921875,-0.0001337737594460975,-0.0003232140302220188,-0.00033248925043717094,3.90382382467384e-05,6.5714,4.2143
0.49609375,0.00014841871348134585,-0.0003129624710368505,-0.0003413068117601281,4.9289797431906635e-05,6.5714,4.2143
0.5,0.0004418695951567865,-0.0002787906070862897,-0.0002992937254566262,5.319515331197072e-05,6.5714,4.2143
0.50390625,0.0005224480707759213,-0.00023827253983062485,-0.00025340579386587316,4.245542464179448e-05,6.5714,4.2143
0.5078125,0.00047167844433508815,-0.00022216294682536047,-0.00023534352292057677,3.46447128816663e-05,6.5714,4.2143
0.51171875,0.00047411929176012816,-0.0002114232181551842,-0.0002148404045502403,3.5132882366674316e-05,6.5714,4.2143
0.515625,0.0005170782064408331,-0.00017087464030670634,-0.00018551972485694664,3.1227526486610226e-05,6.5714,4.2143
0.51953125,0.00047753647815518426,-0.00013572643738612953,-0.0001698983013366903,2.1952306271458016e-05,6.5714,4.2143
0.5234375,0.0005268415961409933,-0.00013279742047608145,-0.00016404026751659417,1.8046950391393927e-05,6.5714,4.2143
0.52734375,0.0005478328839963378,-0.0001030190818905928,-0.00012303403077592126,1.365342502632183e-05,6.5714,4.2143
0.53125,0.0005146373590157931,-8.446864146028837e-05,-0.00011034162416571295,1.0724408116273763e-05,6.5714,4.2143
0.53515625,0.0004116030870862898,-9.130301425040053e-05,-0.00011424698004577704,1.5606102966353874e-05,6.5714,4.2143
0.5390625,0.0003735258672556649,-5.4171622796978696e-05,-6.933538742504003e-05,1.902328936140995e-05,6.5714,4.2143
0.54296875,0.0005248889182009614,-3.890165841153565e-06,-1.8535250391393893e-05,1.3165255541313818e-05,6.5714,4.2143
0.546875,0.000421854646271458,-1.2189047086289752e-05,-1.804708090638588e-05,-9.748199661249696e-06,6.5714,4.2143
0.55078125,0.00040232786687113755,-2.195243678644997e-05,-2.097609781643395e-05,-1.7070741936369862e-05,6.5714,4.2143
0.5546875,0.0005585726126665141,2.0487797816433986e-05,-1.44931841611351e-06,-6.819182751201631e-06,6.5714,4.2143
0.55859375,0.0005424630196612497,4.1479085671778456e-05,-1.937487901121521e-06,-1.2677216571297761e-05,6.5714,4.2143
0.5625,0.0006020502074250401,3.659739082169834e-05,2.7810340091554148e-05,-1.755891142137787e-05,6.5714,4.2143
0.56640625,0.0006235296647653925,6.247037352712293e-05,7.90986466102083e-05,-7.795521721217652e-06,6.5714,4.2143
0.5703125,0.000689432545241474,9.667274807049669e-05,7.324061279011216e-05,-1.560623348134583e-05,6.5714,4.2143
0.57421875,0.0006318285460105288,7.324061279011216e-05,4.34317636118105e-05,-2.146426730144196e-05,6.5714,4.2143
0.578125,0.0005385576637811856,6.835891794003205e-05,4.831345846189061e-05,-9.260030176241686e-06,6.5714,4.2143
0.58203125,0.00041697295142137787,9.276739219043261e-05,7.861047712520029e-05,-4.866504811169587e-06,6.5714,4.2143
0.5859375,0.00028660118833142596,0.00010497162931563287,9.71609175555047e-05,-1.5118063996337817e-05,6.5714,4.2143
0.58984375,0.0004257600021515221,0.00011668769695582514,0.00010350712086060884,-1.5118063996337817e-05,6.5714,4.2143
0.59375,0.0005009686134355688,0.00013426179841611355,0.00010545979880064089,-8.283691206225664e-06,6.5714,4.2143
0.59765625,0.00043601156133669033,0.00011327051056076907,7.128793485008013e-05,-1.0236369146257707e-05,6.5714,4.2143
0.6015625,0.0004296653580315862,0.00010204261240558482,8.251583300526438e-05,-7.795521721217652e-06,6.5714,4.2143
0.60546875,0.00048339451197528037,0.00013914349326619364,0.00010887698519569697,-1.2677216571297761e-05,6.5714,4.2143
0.609375,0.0005165900369558252,0.00013474996790112154,0.00012986827305104144,-1.609440296635384e-05,6.5714,4.2143
0.61328125,0.0004570028491920348,0.00011375868004577707,0.0001274274256260014,-5.842843781185608e-06,6.5714,4.2143
0.6171875,0.00045407383228198675,0.00012156939180590525,9.667274807049669e-05,-6.3310132661936195e-06,6.5714,4.2143
0.62109375,0.00045407383228198675,0.00013377362893110555,0.00012254573077592128,-7.307352236209642e-06,6.5714,4.2143
0.625,0.00055466725678645,0.00011961671386587322,0.00014988322193636988,2.4255268711375773e-06,6.5714,4.2143
0.62890625,0.0005512500703913939,9.227922270542459e-05,0.0001371908153261616,-1.44931841611351e-06,6.5714,4.2143
0.6328125,0.00040135152790112157,0.00010936515468070498,0.00011522318850080111,-4.866504811169587e-06,6.5714,4.2143
0.63671875,0.0005556435957564661,0.00013035644253604946,0.0001191285443808652,3.890035326161609e-06,6.5714,4.2143
0.640625,0.0004955987491004806,0.00013279728996108952,0.00011815220541084917,6.819052236209676e-06,6.5714,4.2143
0.64453125,0.0005898154597070267,0.0001230339002609293,0.00012010488335088121,4.378204811169621e-06,6.5714,4.2143
0.6484375,0.000910146173650721,0.00011278234107576106,0.00011571135798580912,-4.72979446097488e-07,6.5714,4.2143
0.65234375,0.0008847613604303044,9.71609175555047e-05,0.00010643613777065691,3.401865841153599e-06,6.5714,4.2143
0.65625,0.0008261505116365301,9.227922270542459e-05,0.00010692430725566493,5.354543781185643e-06,6.5714,4.2143
0.66015625,0.0008056473932661936,0.00012156939180590525,0.000110341493650721,3.890035326161609e-06,6.5714,4.2143
0.6640625,0.0009301611225360494,0.00010692430725566493,0.0001279155951110094,-1.5320553902477717e-08,6.5714,4.2143
0.66796875,0.000955057766271458,0.00011766403592584118,0.00013230912047608147,2.913696356145588e-06,6.5714,4.2143
0.671875,0.000913075190560769,9.61845785854887e-05,0.00010887698519569697,5.842713266193654e-06,6.5714,4.2143
0.67578125,0.0008378665792767223,4.001457721675442e-05,9.130288373540858e-05,4.866374296177632e-06,6.5714,4.2143
0.6796875,0.0007612239701304646,8.251583300526438e-05,7.861047712520029e-05,1.937357386129566e-06,6.5714,4.2143
0.68359375,0.0009291847835660335,0.00012108122232089725,0.00010350712086060884,4.378204811169621e-06,6.5714,4.2143
0.6875,-0.0009814190489768825,0.00010448345983062488,0.00011180600210574503,6.819052236209676e-06,6.5714,4.2143
0.69140625,0.0009828834269169147,7.03115958800641e-05,8.007498558022432e-05,8.283560691233709e-06,6.5714,4.2143
0.6953125,0.0008774388181551843,6.10058650720989e-05,7.177610433508813e-05,9.259899661249731e-06,6.5714,4.2143
0.69921875,0.0009013591229205768,9.227922270542459e-05,8.73975278553445e-05,6.330882751201665e-06,6.5714,4.2143
0.703125,-0.0009892297607370108,0.00011668769695582514,8.544484991531244e-05,9.748069146257742e-06,6.5714,4.2143
0.70703125,0.0009970403419821468,0.00010497162931563287,7.275244330510416e-05,5.842713266193654e-06,6.5714,4.2143
0.7109375,0.0009340664784161135,8.105132455024035e-05,0.00011668769695582514,7.307221721217687e-06,6.5714,4.2143
0.71484375,0.0008578815281620508,9.130288373540858e-05,0.00010936515468070498,1.4629763996337851e-05,6.5714,4.2143
0.71875,0.000909658004165713,7.861047712520029e-05,8.007498558022432e-05,8.77173017624172e-06,6.5714,4.2143
0.72265625,0.0008798796655802244,6.738257897001604e-05,9.520823961547266e-05,1.0724408116273763e-05,6.5714,4.2143
0.7265625,0.0008818323435202563,0.00010594796828564891,0.00010399529034561686,1.4629763996337851e-05,6.5714,4.2143
0.73046875,0.0009950876640421149,8.398034146028841e-05,0.00010350712086060884,1.902328936140995e-05,6.5714,4.2143
0.734375,0.0007968603425360494,7.226427382009615e-05,0.00010399529034561686,1.7070611421377907e-05,6.5714,4.2143
0.73828125,0.0007358391569100481,0.00010204261240558482,8.983837528038453e-05,1.4141594511329842e-05,6.5714,4.2143
0.7421875,0.0009740963761867705,7.665779918516825e-05,9.276739219043261e-05,1.7070611421377907e-05,6.5714,4.2143
0.74609375,-0.0009863007438269628,7.226427382009615e-05,9.276739219043261e-05,9.748069146257742e-06,6.5714,4.2143
0.75,0.0009711673592767224,7.51932907301442e-05,7.812230764019227e-05,6.330882751201665e-06,6.5714,4.2143
0.75390625,0.0009452943765712978,6.10058650720989e-05,7.763413815518427e-05,1.5606102966353874e-05,6.5714,4.2143
0.7578125,0.0009765372236118105,8.446851094529643e-05,0.0001010662734355688,2.3416814726482047e-05,6.5714,4.2143
0.76171875,0.0009775135625818266,7.958681609521631e-05,0.0001274274256260014,2.2440475756466028e-05,6.5714,4.2143
0.765625,0.0009921586471320668,7.47051212451362e-05,0.00012352206974593728,1.8535119876401938e-05,6.5714,4.2143
0.76953125,0.0008383547487617304,8.495668043030443e-05,0.00013084461202105745,2.1464136786450005e-05,6.5714,4.2143
0.7734375,0.0006796691555413137,6.787074845502406e-05,0.0001230339002609293,2.3904984211490058e-05,6.5714,4.2143
0.77734375,0.000827615020091554,3.659739082169834e-05,7.372878227512018e-05,1.4141594511329842e-05,6.5714,4.2143
0.78125,0.0009213740718059052,6.835891794003205e-05,0.00010204261240558482,1.365342502632183e-05,6.5714,4.2143
0.78515625,0.0008930602416754406,7.079976536507211e-05,0.00012254573077592128,2.2440475756466028e-05,6.5714,4.2143
0.7890625,0.0007885614612909133,3.220386545662624e-05,9.130288373540858e-05,2.6345831636530114e-05,6.5714,4.2143
0.79296875,0.0006196243088853284,5.5636000737010774e-05,7.324061279011216e-05,2.7322170606546137e-05,6.5714,4.2143
0.796875,0.0006030265463950561,4.1479085671778456e-05,5.71005091920348e-05,2.292864524147404e-05,6.5714,4.2143
0.80078125,0.0006816218334813459,2.6834001121538125e-05,6.539939043717099e-05,1.8046950391393927e-05,6.5714,4.2143
0.8046875,0.0007118883415518425,6.198220404211491e-05,8.30040024902724e-05,1.902328936140995e-05,6.5714,4.2143
0.80859375,0.0006557488507759212,4.977796691691464e-05,7.665779918516825e-05,2.2440475756466028e-05,6.5714,4.2143
0.8125,0.0005834692564019226,1.902328936140995e-05,6.442305146715498e-05,2.5369492666514095e-05,6.5714,4.2143
0.81640625,0.0004535856627969787,2.5857662151522106e-05,5.8076848162050824e-05,2.488132318150608e-05,6.5714,4.2143
0.8203125,0.00048095366455024036,4.1479085671778456e-05,4.831345846189061e-05,1.8046950391393927e-05,6.5714,4.2143
0.82421875,0.0006103490886701762,4.0990916186770444e-05,6.539939043717099e-05,1.902328936140995e-05,6.5714,4.2143
0.828125,0.00036034529116044865,5.124247537193867e-05,8.83738668253605e-05,3.171569597161824e-05,6.5714,4.2143
0.83203125,0.0002973409170016022,3.952640773174641e-05,6.149403455710691e-05,2.3416814726482047e-05,6.5714,4.2143
0.8359375,0.0005034094608606088,-4.866504811169587e-06,4.0990916186770444e-05,1.3165255541313818e-05,6.5714,4.2143
0.83984375,0.0005341641384161136,4.5872611036850557e-05,8.105132455024035e-05,1.755878090638592e-05,6.5714,4.2143
0.84375,0.0005009686134355688,6.10058650720989e-05,8.73975278553445e-05,2.1952306271458016e-05,6.5714,4.2143
0.84765625,0.0004535856627969787,3.5132882366674316e-05,7.324061279011216e-05,1.6094272451361885e-05,6.5714,4.2143
0.8515625,0.0004008633584161135,4.636078052185856e-05,5.612417022201878e-05,1.755878090638592e-05,6.5714,4.2143
0.85546875,0.0003818247485008011,6.5887559922179e-05,5.954135661707486e-05,2.829850957656216e-05,6.5714,4.2143
0.859375,0.0005009686134355688,5.66123397070268e-05,5.856501764705884e-05,3.269203494163426e-05,6.5714,4.2143
0.86328125,0.0004091622396612497,3.659739082169834e-05,4.196725515678646e-05,2.976301803158619e-05,6.5714,4.2143
0.8671875,0.000330536441982147,5.368332279697873e-05,6.0029526102082876e-05,2.7810340091554148e-05,6.5714,4.2143
0.87109375,0.00045602651022201877,3.7085560306706354e-05,5.66123397070268e-05,3.318020442664227e-05,6.5714,4.2143
0.875,0.0004877880373403525,3.0739357001602215e-05,3.562105185168232e-05,3.269203494163426e-05,6.5714,4.2143
0.87890625,0.000509267494680705,4.245542464179448e-05,3.90382382467384e-05,2.878667906157017e-05,6.5714,4.2143
0.8828125,0.000553690917816434,5.465966176699475e-05,5.075430588693066e-05,2.9274848546578178e-05,6.5714,4.2143
0.88671875,0.0006035147158800641,7.324061279011216e-05,6.295854301213094e-05,3.171569597161824e-05,6.5714,4.2143
0.890625,0.0006445209526207371,4.977796691691464e-05,5.124247537193867e-05,3.4156543396658294e-05,6.5714,4.2143
0.89453125,0.0006567251897459373,4.196725515678646e-05,2.976301803158619e-05,3.220386545662624e-05,6.5714,4.2143
0.8984375,0.0007236044091920348,4.9289797431906635e-05,3.90382382467384e-05,3.0739357001602215e-05,6.5714,4.2143
0.90234375,0.0008115054270862899,3.7573729791714366e-05,5.075430588693066e-05,3.269203494163426e-05,6.5714,4.2143
0.90625,0.0009111225126207371,4.880162794689862e-05,6.051769558709088e-05,3.220386545662624e-05,6.5714,4.2143
0.91015625,0.0008998946144655527,5.075430588693066e-05,6.982342639505609e-05,3.3668373911650276e-05,6.5714,4.2143
0.9140625,0.0009086816651956969,3.952640773174641e-05,6.491122095216298e-05,3.3668373911650276e-05,6.5714,4.2143
0.91796875,0.000994599494557107,4.440810258182652e-05,5.075430588693066e-05,3.806189927672238e-05,6.5714,4.2143
0.921875,0.0009931349861020827,4.636078052185856e-05,6.393488198214696e-05,3.5132882366674316e-05,6.5714,4.2143
0.92578125,0.0009882532912520027,4.538444155184254e-05,7.958681609521631e-05,3.1227526486610226e-05,6.5714,4.2143
0.9296875,-0.0009989931504371709,4.196725515678646e-05,6.787074845502406e-05,3.269203494163426e-05,6.5714,4.2143
0.93359375,0.0009995117,4.050274670176243e-05,5.465966176699475e-05,3.269203494163426e-05,6.5714,4.2143
0.9375,0.000998993019922179,3.659739082169834e-05,5.856501764705884e-05,3.806189927672238e-05,6.5714,4.2143
0.94140625,-0.000999481319922179,5.026613640192266e-05,6.738257897001604e-05,4.001457721675442e-05,6.5714,4.2143
0.9453125,0.000995575833527123,5.612417022201878e-05,7.128793485008013e-05,3.7085560306706354e-05,6.5714,4.2143
0.94921875,0.000998504850437171,3.7573729791714366e-05,7.958681609521631e-05,3.5132882366674316e-05,6.5714,4.2143
0.953125,-0.0009989931504371709,4.0990916186770444e-05,7.079976536507211e-05,3.46447128816663e-05,6.5714,4.2143
0.95703125,0.0008437246130968184,6.738257897001604e-05,6.393488198214696e-05,2.976301803158619e-05,6.5714,4.2143
0.9609375,0.0007651293260105287,7.714596867017625e-05,6.539939043717099e-05,2.5857662151522106e-05,6.5714,4.2143
0.96484375,0.0009282084445960174,6.0029526102082876e-05,7.90986466102083e-05,3.3668373911650276e-05,6.5714,4.2143
0.96875,0.0008686517674250401,4.440810258182652e-05,7.275244330510416e-05,3.7085560306706354e-05,6.5714,4.2143
0.97265625,0.0007997893594460975,4.977796691691464e-05,6.295854301213094e-05,3.46447128816663e-05,6.5714,4.2143
0.9765625,0.00069284973163653,3.5132882366674316e-05,6.933525691004809e-05,2.829850957656216e-05,6.5714,4.2143
0.98046875,0.0006259705121904325,3.562105185168232e-05,7.03115958800641e-05,2.7810340091554148e-05,6.5714,4.2143
0.984375,0.000734374648455024,6.247037352712293e-05,7.665779918516825e-05,2.7810340091554148e-05,6.5714,4.2143
0.98828125,0.0006577015287159533,6.051769558709088e-05,7.665779918516825e-05,2.829850957656216e-05,6.5714,4.2143
0.9921875,0.0005717531887617304,3.952640773174641e-05,5.905318713206685e-05,3.7085560306706354e-05,6.5714,4.2143
0.99609375,0.0004960869185854887,3.90382382467384e-05,5.758867867704282e-05,3.3668373911650276e-05,6.5714,4.2143
1.0,0.0004555383407370108,3.7085560306706354e-05,6.198220404211491e-05,2.6834001121538125e-05,6.5714,4.2143
1.00390625,0.00045846735764705883,3.46447128816663e-05,5.66123397070268e-05,2.829850957656216e-05,6.5714,4.2143
1.0078125,0.00043161803597161825,5.612417022201878e-05,6.10058650720989e-05,2.5369492666514095e-05,6.5714,4.2143
1.01171875,0.0004091622396612497,4.831345846189061e-05,6.051769558709088e-05,2.5369492666514095e-05,6.5714,4.2143
1.015625,0.00023680790086060886,2.488132318150608e-05,6.149403455710691e-05,3.318020442664227e-05,6.5714,4.2143
1.01953125,0.00030368712030670635,4.391993309681851e-05,6.051769558709088e-05,3.318020442664227e-05,6.5714,4.2143
1.0234375,0.00048583535940032043,7.324061279011216e-05,6.5887559922179e-05,3.0739357001602215e-05,6.5714,4.2143
1.02734375,0.0004140439345113298,5.856501764705884e-05,7.90986466102083e-05,3.220386545662624e-05,6.5714,4.2143
1.03125,0.0003583926132204166,4.0990916186770444e-05,7.128793485008013e-05,2.6834001121538125e-05,6.5714,4.2143
1.03515625,0.0002836721714213779,4.4896272066834534e-05,4.7825288976882595e-05,1.8535119876401938e-05,6.5714,4.2143
1.0390625,0.0003374013253650721,4.880162794689862e-05,4.9289797431906635e-05,1.6094272451361885e-05,6.5714,4.2143
1.04296875,0.0003105214930968185,4.001457721675442e-05,5.856501764705884e-05,1.5606102966353874e-05,6.5714,4.2143
1.046875,0.0003002699339116503,5.612417022201878e-05,7.079976536507211e-05,2.0975967301441994e-05,6.5714,4.2143
1.05078125,0.00019772383146715496,3.952640773174641e-05,7.275244330510416e-05,3.0739357001602215e-05,6.5714,4.2143
1.0546875,1.9999628331425975e-05,4.880162794689862e-05,5.856501764705884e-05,3.220386545662624e-05,6.5714,4.2143
1.05859375,0.00018454325537193867,6.884708742504007e-05,5.71005091920348e-05,2.9274848546578178e-05,6.5714,4.2143
1.0625,0.0003080806456717785,5.8076848162050824e-05,6.491122095216298e-05,2.488132318150608e-05,6.5714,4.2143
1.06640625,0.0002612163751110094,7.616962970016024e-05,6.982342639505609e-05,2.7322170606546137e-05,6.5714,4.2143
1.0703125,0.00017087450979171435,5.954135661707486e-05,6.344671249713895e-05,2.5857662151522106e-05,6.5714,4.2143
1.07421875,8.935020579537654e-05,3.806189927672238e-05,4.538444155184254e-05,2.3416814726482047e-05,6.5714,4.2143
1.078125,0.00017087450979171435,4.9289797431906635e-05,3.5132882366674316e-05,1.951145884641796e-05,6.5714,4.2143
1.08203125,0.00017917339103685055,4.7825288976882595e-05,4.538444155184254e-05,2.2440475756466028e-05,6.5714,4.2143
1.0859375,0.00013914349326619364,4.977796691691464e-05,7.079976536507211e-05,3.171569597161824e-05,6.5714,4.2143
1.08984375,0.0001596466116365301,5.5636000737010774e-05,6.491122095216298e-05,2.6834001121538125e-05,6.5714,4.2143
1.09375,0.0001635519675165942,4.880162794689862e-05,5.075430588693066e-05,2.829850957656216e-05,6.5714,4.2143
1.09765625,0.00012010488335088121,3.7085560306706354e-05,4.5872611036850557e-05,2.488132318150608e-05,6.5714,4.2143
1.1015625,0.00011424684953078509,3.806189927672238e-05,4.4896272066834534e-05,1.6094272451361885e-05,6.5714,4.2143
1.10546875,0.00022460366373540857,4.9289797431906635e-05,5.905318713206685e-05,1.9999628331425975e-05,6.5714,4.2143
1.109375,7.616962970016024e-05,5.514783125200276e-05,5.905318713206685e-05,2.3904984211490058e-05,6.5714,4.2143
1.11328125,3.806189927672238e-05,5.71005091920348e-05,3.7085560306706354e-05,1.902328936140995e-05,6.5714,4.2143
1.1171875,0.0002250918332204166,3.7573729791714366e-05,1.8535119876401938e-05,1.3165255541313818e-05,6.5714,4.2143
1.12109375,0.00021337576558022432,4.050274670176243e-05,3.7573729791714366e-05,1.8046950391393927e-05,6.5714,4.2143
1.125,0.00020068335897001601,5.075430588693066e-05,5.124247537193867e-05,2.0975967301441994e-05,6.5714,4.2143
1.12890625,0.0001640401370016022,2.6345831636530114e-05,3.46447128816663e-05,1.755878090638592e-05,6.5714,4.2143
1.1328125,0.00017429169618677045,1.755878090638592e-05,1.9999628331425975e-05,2.2440475756466028e-05,6.5714,4.2143
1.13671875,0.0001635519675165942,3.1227526486610226e-05,9.259899661249731e-06,2.5369492666514095e-05,6.5714,4.2143
1.140625,0.0001591584421515221,3.171569597161824e-05,1.4141594511329842e-05,2.1952306271458016e-05,6.5714,4.2143
1.14453125,8.398034146028841e-05,2.829850957656216e-05,3.220386545662624e-05,2.3416814726482047e-05,6.5714,4.2143
1.1484375,6.819052236209676e-06,2.6834001121538125e-05,3.659739082169834e-05,1.8535119876401938e-05,6.5714,4.2143
1.15234375,0.00014890688296635387,2.976301803158619e-05,3.7573729791714366e-05,1.365342502632183e-05,6.5714,4.2143
1.15625,0.0002045887148500801,1.5117933481345863e-05,2.6834001121538125e-05,1.2677086056305808e-05,6.5714,4.2143
1.16015625,0.00019333030610208288,2.6345831636530114e-05,1.6582441936369896e-05,1.2677086056305808e-05,6.5714,4.2143
1.1640625,0.00023192620601052873,3.806189927672238e-05,2.976301803158619e-05,1.4141594511329842e-05,6.5714,4.2143
1.16796875,0.00024217776519569695,3.5132882366674316e-05,4.440810258182652e-05,1.755878090638592e-05,6.5714,4.2143
1.171875,0.00023143803652552074,4.0990916186770444e-05,3.1227526486610226e-05,1.8046950391393927e-05,6.5714,4.2143
1.17578125,0.00019674749249713893,3.4156543396658294e-05,1.951145884641796e-05,1.4141594511329842e-05,6.5714,4.2143
1.1796875,0.00021825746043030442,2.439315369649807e-05,2.5857662151522106e-05,1.365342502632183e-05,6.5714,4.2143
1.18359375,0.00023534339240558483,2.9274848546578178e-05,4.440810258182652e-05,5.842713266193654e-06,6.5714,4.2143
1.1875,0.00019970702000000003,6.295854301213094e-05,6.344671249713895e-05,9.610184161135442e-07,6.5714,4.2143
1.19140625,0.00015720576421149007,6.0029526102082876e-05,5.124247537193867e-05,1.902328936140995e-05,6.5714,4.2143
1.1953125,0.00016550464545662626,8.283560691233709e-06,1.0236238631265752e-05,3.806189927672238e-05,6.5714,4.2143
1.19921875,0.0002221628163103685,-4.3783353261615755e-06,4.866374296177632e-06,2.9274848546578178e-05,6.5714,4.2143
1.203125,0.0001454896965712978,2.878667906157017e-05,5.612417022201878e-05,2.488132318150608e-05,6.5714,4.2143
1.20703125,0.00018454325537193867,3.171569597161824e-05,5.2218814341954696e-05,3.659739082169834e-05,6.5714,4.2143
1.2109375,0.0003554635963103685,2.7322170606546137e-05,2.5857662151522106e-05,3.952640773174641e-05,6.5714,4.2143
1.21484375,0.0003349604779400321,2.0487797816433986e-05,2.5369492666514095e-05,4.7337119491874584e-05,6.5714,4.2143
1.21875,0.0002665862394460975,1.3165255541313818e-05,2.7322170606546137e-05,4.9289797431906635e-05,6.5714,4.2143
1.22265625,0.00026072820562600136,2.976301803158619e-05,6.149403455710691e-05,4.880162794689862e-05,6.5714,4.2143
1.2265625,0.00033788949485008015,3.5132882366674316e-05,7.324061279011216e-05,5.026613640192266e-05,6.5714,4.2143
1.23046875,0.0003564399352803845,4.0990916186770444e-05,6.689440948500802e-05,4.880162794689862e-05,6.5714,4.2143
1.234375,0.0003154031879468986,3.318020442664227e-05,7.177610433508813e-05,4.7825288976882595e-05,6.5714,4.2143
1.23828125,0.0002084940707301442,1.2188916571297797e-05,6.198220404211491e-05,5.124247537193867e-05,6.5714,4.2143
1.2421875,0.0002524293243808652,3.1227526486610226e-05,8.251583300526438e-05,5.270698382696271e-05,6.5714,4.2143
1.24609375,0.0003915881382009613,5.270698382696271e-05,0.00010985332416571298,5.319515331197072e-05,6.5714,4.2143
1.25,0.00038377742644083313,3.269203494163426e-05,0.00010057810395056078,5.319515331197072e-05,6.5714,4.2143
1.25390625,0.0003691323418905928,3.318020442664227e-05,7.714596867017625e-05,5.1730644856946685e-05,6.5714,4.2143
1.2578125,0.00022460366373540857,3.0251187516594204e-05,7.03115958800641e-05,4.880162794689862e-05,6.5714,4.2143
1.26171875,0.00019772383146715496,4.684895000686658e-05,7.861047712520029e-05,4.196725515678646e-05,6.5714,4.2143
1.265625,0.0004418695951567865,6.344671249713895e-05,6.835891794003205e-05,4.1479085671778456e-05,6.5714,4.2143
1.26953125,0.0004399169172167544,5.368332279697873e-05,6.491122095216298e-05,4.5872611036850557e-05,6.5714,4.2143
1.2734375,0.00036132163013046463,5.075430588693066e-05,5.71005091920348e-05,4.34317636118105e-05,6.5714,4.2143
1.27734375,0.000333984138970016,2.2440475756466028e-05,5.368332279697873e-05,3.7573729791714366e-05,6.5714,4.2143
1.28125,0.0003632743080704967,2.0487797816433986e-05,8.349217197528039e-05,3.5132882366674316e-05,6.5714,4.2143
1.28515625,0.00032663108610208284,4.880162794689862e-05,8.30040024902724e-05,3.90382382467384e-05,6.5714,4.2143
1.2890625,0.0003154031879468986,4.7337119491874584e-05,7.226427382009615e-05,3.46447128816663e-05,6.5714,4.2143
1.29296875,0.00037010868086060885,4.636078052185856e-05,8.593301940032045e-05,3.318020442664227e-05,6.5714,4.2143
1.296875,0.00020263603691004809,4.1479085671778456e-05,7.324061279011216e-05,3.90382382467384e-05,6.5714,4.2143
1.30078125,0.0002304616975555047,4.391993309681851e-05,8.349217197528039e-05,4.440810258182652e-05,6.5714,4.2143
1.3046875,0.000465789899922179,6.5887559922179e-05,0.00011522318850080111,4.5872611036850557e-05,6.5714,4.2143
1.30859375,0.00045163298485694663,5.465966176699475e-05,0.00010643613777065691,4.050274670176243e-05,6.5714,4.2143
1.3125,0.00029587640854657817,4.245542464179448e-05,8.251583300526438e-05,3.90382382467384e-05,6.5714,4.2143
1.31640625,0.0002480357990157931,3.90382382467384e-05,7.275244330510416e-05,3.171569597161824e-05,6.5714,4.2143
1.3203125,0.0003935408161409934,3.90382382467384e-05,8.105132455024035e-05,2.829850957656216e-05,6.5714,4.2143
1.32421875,0.0004535856627969787,3.806189927672238e-05,0.00010692430725566493,3.806189927672238e-05,6.5714,4.2143
1.328125,0.00044138142567177845,4.245542464179448e-05,0.00010301895137560084,3.3668373911650276e-05,6.5714,4.2143
1.33203125,0.00032614291661707485,5.270698382696271e-05,8.056315506523234e-05,2.878667906157017e-05,6.5714,4.2143
1.3359375,0.00026219271408102544,4.050274670176243e-05,7.03115958800641e-05,2.7322170606546137e-05,6.5714,4.2143
1.33984375,0.0004687494274250401,5.124247537193867e-05,7.812230764019227e-05,2.6834001121538125e-05,6.5714,4.2143
1.34375,0.0006079082412451362,6.149403455710691e-05,9.61845785854887e-05,3.0251187516594204e-05,6.5714,4.2143
1.34765625,0.0005849337648569467,3.952640773174641e-05,8.690935837033648e-05,3.1227526486610226e-05,6.5714,4.2143
1.3515625,0.0005019449524055848,3.3668373911650276e-05,8.007498558022432e-05,3.46447128816663e-05,6.5714,4.2143
1.35546875,0.0004887643763103684,4.245542464179448e-05,7.51932907301442e-05,3.46447128816663e-05,6.5714,4.2143
1.359375,0.0005121965115907531,5.270698382696271e-05,6.982342639505609e-05,3.3668373911650276e-05,6.5714,4.2143
1.36328125,0.000507314816740673,4.636078052185856e-05,7.665779918516825e-05,3.318020442664227e-05,6.5714,4.2143
1.3671875,0.0004863235288853285,4.196725515678646e-05,6.835891794003205e-05,3.220386545662624e-05,6.5714,4.2143
1.37109375,0.00041648478193636993,3.7085560306706354e-05,6.051769558709088e-05,3.318020442664227e-05,6.5714,4.2143
1.375,0.0004457749510368505,2.9274848546578178e-05,5.1730644856946685e-05,3.5132882366674316e-05,6.5714,4.2143
1.37890625,0.0004623727135271229,4.1479085671778456e-05,3.46447128816663e-05,3.0251187516594204e-05,6.5714,4.2143
1.3828125,0.0005263534266559853,4.9289797431906635e-05,5.5636000737010774e-05,2.6345831636530114e-05,6.5714,4.2143
1.38671875,0.0006762519691462578,3.46447128816663e-05,7.079976536507211e-05,3.1227526486610226e-05,6.5714,4.2143
1.390625,0.0005004804439505608,3.318020442664227e-05,6.5887559922179e-05,3.269203494163426e-05,6.5714,4.2143
1.39453125,0.00047948915609521633,5.124247537193867e-05,6.442305146715498e-05,3.610922133669034e-05,6.5714,4.2143
1.3984375,0.0006660004099610895,5.8076848162050824e-05,6.0029526102082876e-05,3.806189927672238e-05,6.5714,4.2143
1.40234375,0.0006620950540810254,4.9289797431906635e-05,6.051769558709088e-05,3.4156543396658294e-05,6.5714,4.2143
1.40625,0.0006723466132661937,4.880162794689862e-05,7.177610433508813e-05,2.829850957656216e-05,6.5714,4.2143
1.41015625,0.0006176716309452964,5.1730644856946685e-05,7.861047712520029e-05,3.171569597161824e-05,6.5714,4.2143
1.4140625,0.0006069319022751201,4.391993309681851e-05,5.124247537193867e-05,3.318020442664227e-05,6.5714,4.2143
1.41796875,0.0006147426140352484,4.001457721675442e-05,5.368332279697873e-05,3.318020442664227e-05,6.5714,4.2143
1.421875,0.0006147426140352484,6.640624000000002e-05,0.00011571135798580912,2.6345831636530114e-05,6.5714,4.2143
1.42578125,0.0005121965115907531,6.198220404211491e-05,0.00011424684953078509,1.5606102966353874e-05,6.5714,4.2143
1.4296875,0.000420878307301442,2.488132318150608e-05,5.856501764705884e-05,1.2677086056305808e-05,6.5714,4.2143
1.43359375,0.0005453920365712978,3.8550068761730395e-05,4.831345846189061e-05,6.819052236209676e-06,6.5714,4.2143
1.4375,0.0006391510882856489,6.442305146715498e-05,6.247037352712293e-05,5.354543781185643e-06,6.5714,4.2143
1.44140625,0.0006293876985854886,7.47051212451362e-05,9.61845785854887e-05,-9.748199661249696e-06,6.5714,4.2143
1.4453125,0.0005932326461020828,6.344671249713895e-05,9.032654476539255e-05,-1.4141725026321795e-05,6.5714,4.2143
1.44921875,0.0006162071224902723,6.884708742504007e-05,7.616962970016024e-05,-1.2677216571297761e-05,6.5714,4.2143
1.453125,0.0005961616630121309,8.78856973403525e-05,8.30040024902724e-05,-2.9763148546578148e-05,6.5714,4.2143
1.45703125,0.00059960936,8.153949403524835e-05,8.642118888532846e-05,-3.025131803158616e-05,6.5714,4.2143
1.4609375,0.00069040888421149,8.642118888532846e-05,0.00011375868004577707,-2.2928775756465994e-05,6.5714,4.2143
1.46484375,0.0006703939353261615,9.325556167544062e-05,0.00011619952747081714,-3.073948751659417e-05,6.5714,4.2143
1.46875,0.0006664885794460976,9.71609175555047e-05,0.00011766403592584118,-2.9763148546578148e-05,6.5714,4.2143
1.47265625,0.0005986025104371709,9.227922270542459e-05,0.00010692430725566493,-2.536962318150605e-05,6.5714,4.2143
1.4765625,0.0005385576637811856,8.642118888532846e-05,8.251583300526438e-05,-2.5857792666514058e-05,6.5714,4.2143
1.48046875,0.0006616068845960173,0.00010448345983062488,0.00010497162931563287,-1.999975884641793e-05,6.5714,4.2143
1.484375,0.0005810284089768826,0.00010936515468070498,0.00013084461202105745,-9.748199661249696e-06,6.5714,4.2143
1.48828125,0.0005727295277317464,9.862542601052873e-05,0.00011522318850080111,-6.3310132661936195e-06,6.5714,4.2143
1.4921875,0.0006957787485465781,9.71609175555047e-05,9.520823961547266e-05,-6.819182751201631e-06,6.5714,4.2143
1.49609375,0.0006508671559258412,7.763413815518427e-05,8.935020579537654e-05,-5.354674296177598e-06,6.5714,4.2143
1.5,0.0006049792243350881,7.226427382009615e-05,9.862542601052873e-05,-7.307352236209642e-06,6.5714,4.2143
1.50390625,0.0006274350206454567,8.398034146028841e-05,0.00011131783262073704,-2.425657386129532e-06,6.5714,4.2143
1.5078125,0.000642568274680705,8.495668043030443e-05,0.00012352206974593728,-3.401996356145554e-06,6.5714,4.2143
1.51171875,0.0005834692564019226,9.276739219043261e-05,0.00011961671386587322,-9.260030176241686e-06,6.5714,4.2143
1.515625,0.0006079082412451362,8.30040024902724e-05,0.00010350712086060884,-4.3783353261615755e-06,6.5714,4.2143
1.51953125,0.0005644306464866102,6.491122095216298e-05,0.00011522318850080111,4.7284893110553325e-07,6.5714,4.2143
1.5234375,0.0005634543075165942,8.593301940032045e-05,0.00011717586644083316,-4.72979446097488e-07,6.5714,4.2143
1.52734375,0.0007182345448569467,9.325556167544062e-05,0.0001230339002609293,-1.937487901121521e-06,6.5714,4.2143
1.53125,0.0007289742735271229,7.079976536507211e-05,0.0001332854594460975,9.259899661249731e-06,6.5714,4.2143
1.53515625,0.0006630713930510415,7.665779918516825e-05,0.00013182095099107348,1.0236238631265752e-05,6.5714,4.2143
1.5390625,0.0006118135971252003,8.544484991531244e-05,0.00013914349326619364,-1.44931841611351e-06,6.5714,4.2143
1.54296875,0.0005863982733119706,8.593301940032045e-05,0.00016159928957656217,-1.5320553902477717e-08,6.5714,4.2143
1.546875,0.0006030265463950561,7.568146021515222e-05,0.00016745732339665828,4.866374296177632e-06,6.5714,4.2143
1.55078125,0.0006074200717601281,5.612417022201878e-05,0.00016159928957656217,1.0724408116273763e-05,6.5714,4.2143
1.5546875,0.0005741940361867704,5.124247537193867e-05,0.00014939505245136189,1.5117933481345863e-05,6.5714,4.2143
1.55859375,0.0005170782064408331,6.247037352712293e-05,0.00016257562854657816,1.0724408116273763e-05,6.5714,4.2143
1.5625,0.000552714578846418,8.30040024902724e-05,0.00019284213661707484,9.259899661249731e-06,6.5714,4.2143
1.56640625,0.0005326996299610895,8.935020579537654e-05,0.00021142308764019228,8.77173017624172e-06,6.5714,4.2143
1.5703125,0.0004697257663950561,6.10058650720989e-05,0.00020214786742504004,7.307221721217687e-06,6.5714,4.2143
1.57421875,0.000507802986225681,5.124247537193867e-05,0.00017380352670176243,1.1700747086289786e-05,6.5714,4.2143
1.578125,0.00035790444373540853,7.372878227512018e-05,0.00018405508588693065,8.283560691233709e-06,6.5714,4.2143
1.58203125,0.0003544872573403525,9.130288373540858e-05,0.00022167464682536052,1.3165255541313818e-05,6.5714,4.2143
1.5859375,0.000552714578846418,0.00010057810395056078,0.00023143803652552074,2.913696356145588e-06,6.5714,4.2143
1.58984375,0.0005170782064408331,0.00011619952747081714,0.00023876057880064088,1.937357386129566e-06,6.5714,4.2143
1.59375,0.0004257600021515221,0.00010643613777065691,0.0002211864773403525,1.9999628331425975e-05,6.5714,4.2143
1.59765625,0.00043259437494163423,0.00011131783262073704,0.00022313915528038454,1.2677086056305808e-05,6.5714,4.2143
1.6015625,0.0004882762068253605,0.00014304884914625773,0.0002651217309910735,1.365342502632183e-05,6.5714,4.2143
1.60546875,0.0006020502074250401,0.00014402518811627377,0.0002802549850263218,1.2188916571297797e-05,6.5714,4.2143
1.609375,0.0007138410194918746,0.00014060800172121767,0.0002729324427512017,2.439315369649807e-05,6.5714,4.2143
1.61328125,0.0005190308843808653,0.00012596291717097735,0.0002465712905607691,3.269203494163426e-05,6.5714,4.2143
1.6171875,0.0003574162742504006,0.0001274274256260014,0.0002392487482856489,2.1952306271458016e-05,6.5714,4.2143
1.62109375,0.000509267494680705,0.00014353701863126575,0.000244618612620737,2.2440475756466028e-05,6.5714,4.2143
1.625,0.00055222640936141,0.0001332854594460975,0.00023876057880064088,2.976301803158619e-05,6.5714,4.2143
1.62890625,0.0004330825444266423,0.00012449840871595332,0.00022948535858548867,2.9274848546578178e-05,6.5714,4.2143
1.6328125,0.00027830230708628974,0.00012059305283588923,0.000198700170437171,2.976301803158619e-05,6.5714,4.2143
1.63671875,0.00023192620601052873,0.00010790064622568095,0.00016941000133669033,3.610922133669034e-05,6.5714,4.2143
1.640625,0.00027390878172121766,0.0001015544429205768,0.0001459778660563058,3.46447128816663e-05,6.5714,4.2143
1.64453125,0.00021728112146028838,9.032654476539255e-05,0.00012938010356603342,2.878667906157017e-05,6.5714,4.2143
1.6484375,0.0001772207130968185,5.66123397070268e-05,0.0001191285443808652,3.5132882366674316e-05,6.5714,4.2143
1.65234375,4.684895000686658e-05,1.5117933481345863e-05,6.247037352712293e-05,4.245542464179448e-05,6.5714,4.2143
1.65625,-8.788582785534446e-05,9.472007013046466e-05,9.032654476539255e-05,3.7085560306706354e-05,6.5714,4.2143
1.66015625,-0.0005727296582467384,-0.0003603454216754406,-0.0004086742006912337,3.610922133669034e-05,6.5714,4.2143
1.6640625,-0.000999481319922179,-0.0009902060997070267,-0.001,3.8550068761730395e-05,6.5714,4.2143
1.66796875,-0.0009550578967864499,-0.0009643331170016021,-0.000958475083181506,4.001457721675442e-05,6.5714,4.2143
1.671875,-0.0009618922695765621,-0.0009526170493614099,-0.000956034235756466,4.5872611036850557e-05,6.5714,4.2143
1.67578125,-0.0009701911508216983,-0.0009726319982467384,-0.0009711674897917143,5.124247537193867e-05,6.5714,4.2143
1.6796875,-0.0009697029813366902,-0.0009682384728816663,-0.0009682384728816663,4.4896272066834534e-05,6.5714,4.2143
1.68359375,-0.0009638449475165941,-0.000963356778031586,-0.0009682384728816663,2.976301803158619e-05,6.5714,4.2143
1.6875,-0.000960427761121538,-0.0009755610151567864,-0.0009682384728816663,1.9999628331425975e-05,6.5714,4.2143
1.69140625,-0.000963356778031586,-0.0009077054567406729,-0.0009682384728816663,2.2440475756466028e-05,6.5714,4.2143
1.6953125,-0.0006816219639963378,-0.0007646412870405126,-0.0009682384728816663,2.292864524147404e-05,6.5714,4.2143
1.69921875,-0.00013963179326619362,-0.0006699058963561456,-0.0009682384728816663,1.8046950391393927e-05,6.5714,4.2143
1.703125,0.0002914828831815061,-0.0005883510817669947,-0.0009682384728816663,1.951145884641796e-05,6.5714,4.2143
1.70703125,0.0005063384777706569,-0.0005297707435660333,-0.0009682384728816663,2.439315369649807e-05,6.5714,4.2143
1.7109375,0.0007582949532204165,-0.0004741194222751201,-0.0009682384728816663,2.5369492666514095e-05,6.5714,4.2143
1.71484375,0.000994599494557107,-0.00041502040399633784,-0.0009682384728816663,2.2440475756466028e-05,6.5714,4.2143
1.71875,0.0009995117,-0.000380848540045777,-0.0009682384728816663,1.902328936140995e-05,6.5714,4.2143
1.72265625,0.0009931349861020827,-0.00033200108095216295,-0.0009682384728816663,2.1952306271458016e-05,6.5714,4.2143
1.7265625,-0.000998504980952163,-0.0002826959629663538,-0.0009687266423666742,3.220386545662624e-05,6.5714,4.2143
1.73046875,0.0009995117,-0.00024803592953078505,-0.0009662857949416342,2.7810340091554148e-05,6.5714,4.2143
1.734375,0.0009995117,-0.0002143522350652323,-0.0009677503033966582,2.0975967301441994e-05,6.5714,4.2143
1.73828125,0.0009995117,-0.0001879605722819867,-0.0009628686085465781,2.6345831636530114e-05,6.5714,4.2143
1.7421875,0.0009995117,-0.0001615994200915541,-0.0008745099317601281,2.829850957656216e-05,6.5714,4.2143
1.74609375,0.0009995117,-0.0001523241998764019,-0.0007558542363103684,2.7322170606546137e-05,6.5714,4.2143
1.75,0.0009995117,-0.0001298684035660334,-0.0006703940658411535,2.488132318150608e-05,6.5714,4.2143
1.75390625,0.0009995117,-0.00010204274292057677,-0.0005883510817669947,2.0975967301441994e-05,6.5714,4.2143
1.7578125,0.0009995117,-0.00010399542086060881,-0.0005253772182009614,2.6834001121538125e-05,6.5714,4.2143
1.76171875,0.0009995117,-9.520837013046461e-05,-0.0004545621322819867,3.0251187516594204e-05,6.5714,4.2143
1.765625,0.0009995117,-5.954148713206682e-05,-0.0003715733198306248,2.1952306271458016e-05,6.5714,4.2143
1.76953125,0.0009995117,-3.9526538246738366e-05,-0.00031149796258182646,2.3904984211490058e-05,6.5714,4.2143
1.7734375,0.0009995117,-3.22039959716182e-05,-0.0002582874887159533,2.976301803158619e-05,6.5714,4.2143
1.77734375,0.0009995117,-1.560623348134583e-05,-0.0002094705402151522,2.6345831636530114e-05,6.5714,4.2143
1.78125,0.0009995117,-6.819182751201631e-06,-0.0001484188439963378,2.3904984211490058e-05,6.5714,4.2143
1.78515625,0.0009995117,3.401865841153599e-06,-7.812243815518424e-05,2.5857662151522106e-05,6.5714,4.2143
1.7890625,0.0009995117,1.6582441936369896e-05,-1.9023419876401904e-05,2.6345831636530114e-05,6.5714,4.2143
1.79296875,0.0009995117,2.829850957656216e-05,2.0487797816433986e-05,2.5857662151522106e-05,6.5714,4.2143
1.796875,0.0009995117,5.465966176699475e-05,5.270698382696271e-05,2.6834001121538125e-05,6.5714,4.2143
1.80078125,0.0009995117,5.270698382696271e-05,8.78856973403525e-05,3.220386545662624e-05,6.5714,4.2143
1.8046875,0.0009995117,4.880162794689862e-05,0.00012938010356603342,3.269203494163426e-05,6.5714,4.2143
1.80859375,0.0009995117,5.612417022201878e-05,0.00018210240794689863,3.659739082169834e-05,6.5714,4.2143
1.8125,0.0009995117,6.5887559922179e-05,0.00022069830785534448,3.8550068761730395e-05,6.5714,4.2143
1.81640625,0.0009995117,8.398034146028841e-05,0.00024950030747081714,4.245542464179448e-05,6.5714,4.2143
1.8203125,0.0009995117,0.00011668769695582514,0.0002978290864866102,3.7573729791714366e-05,6.5714,4.2143
1.82421875,0.000998993019922179,0.00013572630687113757,0.0003237020691920348,1.9999628331425975e-05,6.5714,4.2143
1.828125,-0.001,0.00013474996790112154,0.00032028488279697875,2.3416814726482047e-05,6.5714,4.2143
1.83203125,0.000998016680952163,0.00013767898481116962,0.0003432593591851682,3.269203494163426e-05,6.5714,4.2143
1.8359375,0.000995575833527123,0.00013182095099107348,0.00035936895219043256,2.6834001121538125e-05,6.5714,4.2143
1.83984375,0.000996064003012131,0.00012059305283588923,0.0003632743080704967,1.9999628331425975e-05,6.5714,4.2143
1.84375,-0.0009945996250720988,0.00013182095099107348,0.00038328925695582514,6.819052236209676e-06,6.5714,4.2143
1.84765625,0.0009716555287617303,0.0001367026458411536,0.0004047687142961776,4.7284893110553325e-07,6.5714,4.2143
1.8515625,0.000913075190560769,0.0001284037645960174,0.0004072095617212177,-4.72979446097488e-07,6.5714,4.2143
1.85546875,0.0009535932578164339,0.0001284037645960174,0.0003950053245960174,-1.2677216571297761e-05,6.5714,4.2143
1.859375,0.0009335783089311055,0.0001508595609063859,0.0004135557650263218,-1.9023419876401904e-05,6.5714,4.2143
1.86328125,0.0009257675971709774,0.00018893678073701075,0.00044235776464179443,-3.073948751659417e-05,6.5714,4.2143
1.8671875,0.0009491997324513619,0.0001777088825818265,0.0004350352223666743,-3.65975213366903e-05,6.5714,4.2143
1.87109375,0.0009218622412909132,0.00017136267927672237,0.00044138142567177845,-4.440823309681848e-05,6.5714,4.2143
1.875,0.0008940365806454566,0.00018259057743190662,0.0004511448153719387,-4.2455555156786426e-05,6.5714,4.2143
1.87890625,0.0007617121396154726,0.0001816142384618906,0.00043601156133669033,-4.2943724641794444e-05,6.5714,4.2143
1.8828125,0.0008569051891920348,0.00017331535721675442,0.0004394287477317464,-5.173077537193864e-05,6.5714,4.2143
1.88671875,0.0009995117,0.0001777088825818265,0.0004535856627969787,-5.563613125200272e-05,6.5714,4.2143
1.890625,0.0009052644788006409,0.00018844861125200276,0.0004697257663950561,-5.758880919203477e-05,6.5714,4.2143
1.89453125,0.0008022302068711375,0.00017819705206683454,0.0004736311222751201,-4.9289927946898583e-05,6.5714,4.2143
1.8984375,0.000732391459922179,0.0001894249502220188,0.0004570028491920348,-4.733725000686654e-05,6.5714,4.2143
1.90234375,0.0008764624791851683,0.00020019518948500802,0.0004613963745571069,-4.1479216186770404e-05,6.5714,4.2143
1.90625,0.0009501760714213779,0.00019088945867704282,0.000467284918970016,-3.9038368761730354e-05,6.5714,4.2143
1.91015625,0.0008442127825818265,0.00017966156052185857,0.00045993186610208286,-3.65975213366903e-05,6.5714,4.2143
1.9140625,0.0007456025466102082,0.00018307874691691464,0.00045407383228198675,-3.5133012881666264e-05,6.5714,4.2143
1.91796875,0.0007539014278553445,0.00018063789949187458,0.00045065664588693065,-3.318033494163422e-05,6.5714,4.2143
1.921875,0.000772451868285649,0.00017331535721675442,0.0004511448153719387,-2.097609781643395e-05,6.5714,4.2143
1.92578125,0.0007704991903456168,0.00017868522155184253,0.0004418695951567865,-1.755891142137787e-05,6.5714,4.2143
1.9296875,0.0007665938344655527,0.00017429169618677045,0.00043552339185168234,-1.3653555541313785e-05,6.5714,4.2143
1.93359375,0.0007260452566170748,0.00017966156052185857,0.000423319154726482,-5.842843781185608e-06,6.5714,4.2143
1.9375,0.0007236044091920348,0.0001811260689768826,0.000422830985241474,-4.3783353261615755e-06,6.5714,4.2143
1.94140625,0.0006855271893614099,0.0001640401370016022,0.0004296653580315862,-9.61148931105499e-07,6.5714,4.2143
1.9453125,0.0006703939353261615,0.00015183589987640195,0.0004267363411215381,4.866374296177632e-06,6.5714,4.2143
1.94921875,0.0007206753922819868,0.00014451335760128176,0.00041502027348134585,1.937357386129566e-06,6.5714,4.2143
1.953125,0.0006088845802151523,0.00013816715429617763,0.00039988701944609754,9.610184161135442e-07,6.5714,4.2143
1.95703125,0.0006142544445502403,0.00015378857781643397,0.0003950053245960174,4.7284893110553325e-07,6.5714,4.2143
1.9609375,0.000781727088500801,0.00015525308627145802,0.00039207630768596936,1.937357386129566e-06,6.5714,4.2143
1.96484375,0.000776357224165713,0.00015427674730144199,0.0003857301043808652,6.819052236209676e-06,6.5714,4.2143
1.96875,0.0006845508503913939,0.00015232406936140994,0.000377919392620737,2.4255268711375773e-06,6.5714,4.2143
1.97265625,0.000644032783135729,0.00013182095099107348,0.00035936895219043256,1.937357386129566e-06,6.5714,4.2143
1.9765625,0.0006908970536964981,0.0001284037645960174,0.0003432593591851682,1.2677086056305808e-05,6.5714,4.2143
1.98046875,0.0006620950540810254,0.00013621447635614556,0.0003422830202151522,1.951145884641796e-05,6.5714,4.2143
1.984375,0.0006728347827512017,0.00014695420502632182,0.00034765288455024034,1.755878090638592e-05,6.5714,4.2143
1.98828125,0.0006269468511604486,0.00014353701863126575,0.0003549754268253605,2.0487797816433986e-05,6.5714,4.2143
1.9921875,0.0005248889182009614,0.00012059305283588923,0.0003413066812451362,1.8046950391393927e-05,6.5714,4.2143
1.99609375,0.0006738111217212176,0.00011229417159075305,0.00032419023867704284,1.7070611421377907e-05,6.5714,4.2143
2.0,0.000779286241075761,0.00012889193408102543,0.00033349596948500807,1.9999628331425975e-05,6.5714,4.2143
2.00390625,0.0007226280702220187,0.00012547474768596933,0.0003364249863950561,1.902328936140995e-05,6.5714,4.2143
2.0078125,0.0006982195959716182,0.00010887698519569697,0.0003413066812451362,1.8046950391393927e-05,6.5714,4.2143
2.01171875,0.0007617121396154726,0.00011717586644083316,0.00033788949485008015,1.755878090638592e-05,6.5714,4.2143
2.015625,0.000822245155756466,0.00010057810395056078,0.00031735586588693064,2.488132318150608e-05,6.5714,4.2143
2.01953125,0.0008593460366170749,9.130288373540858e-05,0.00030905698464179447,2.878667906157017e-05,6.5714,4.2143
2.0234375,0.0008945247501304646,0.00010741247674067293,0.0003285837640421149,2.7322170606546137e-05,6.5714,4.2143
2.02734375,0.000827615020091554,0.00011424684953078509,0.0003417948507301442,2.439315369649807e-05,6.5714,4.2143
2.03125,0.0007539014278553445,0.00012059305283588923,0.00033151278095216297,2.5369492666514095e-05,6.5714,4.2143
2.03515625,0.0006845508503913939,0.00010545979880064089,0.0003095451541268025,2.6834001121538125e-05,6.5714,4.2143
2.0390625,0.0006733229522362098,8.83738668253605e-05,0.0003012462728816663,2.6834001121538125e-05,6.5714,4.2143
2.04296875,0.0007534132583703365,8.251583300526438e-05,0.0002988054254566263,3.0739357001602215e-05,6.5714,4.2143
2.046875,0.0006259705121904325,8.251583300526438e-05,0.0002978290864866102,3.4156543396658294e-05,6.5714,4.2143
2.05078125,0.0005859101038269628,8.83738668253605e-05,0.00030759247618677044,3.7085560306706354e-05,6.5714,4.2143
2.0546875,0.0006562370202609293,0.00010790064622568095,0.00031247417103685057,3.659739082169834e-05,6.5714,4.2143
2.05859375,0.0005824929174319067,9.374373116044863e-05,0.0002953882390615702,3.562105185168232e-05,6.5714,4.2143
2.0625,0.0004272245106065461,5.905318713206685e-05,0.00027976681554131377,4.245542464179448e-05,6.5714,4.2143
2.06640625,0.0002768377986312657,7.47051212451362e-05,0.0002992935949416342,4.4896272066834534e-05,6.5714,4.2143
2.0703125,0.000242665934680705,8.642118888532846e-05,0.0003105214930968185,4.5872611036850557e-05,6.5714,4.2143
2.07421875,0.00013474996790112154,6.491122095216298e-05,0.0002973409170016022,4.050274670176243e-05,6.5714,4.2143
2.078125,-0.00015378870833142593,4.0990916186770444e-05,0.000289530205241474,3.171569597161824e-05,6.5714,4.2143
2.08203125,-0.0007260453871320668,3.659739082169834e-05,0.0002861130188464179,3.8550068761730395e-05,6.5714,4.2143
2.0859375,-0.0009931351166170747,4.5872611036850557e-05,0.00029099471369649804,4.1479085671778456e-05,6.5714,4.2143
2.08984375,-0.0009506643714213777,6.442305146715498e-05,0.0002914828831815061,4.34317636118105e-05,6.5714,4.2143
2.09375,-0.0009672621339116502,5.2218814341954696e-05,0.00027195610378118564,5.124247537193867e-05,6.5714,4.2143
2.09765625,-0.0009692148118516823,3.7085560306706354e-05,0.0002670744089311055,5.026613640192266e-05,6.5714,4.2143
2.1015625,-0.0009682384728816663,5.465966176699475e-05,0.00027195610378118564,4.4896272066834534e-05,6.5714,4.2143
2.10546875,-0.0009682384728816663,5.514783125200276e-05,0.00027195610378118564,4.5872611036850557e-05,6.5714,4.2143
2.109375,-0.0009682384728816663,2.878667906157017e-05,0.0002675625784161135,4.684895000686658e-05,6.5714,4.2143
2.11328125,-0.0009682384728816663,2.3416814726482047e-05,0.0002470594600457771,4.0990916186770444e-05,6.5714,4.2143
2.1171875,-0.0009682384728816663,4.196725515678646e-05,0.00023876057880064088,3.46447128816663e-05,6.5714,4.2143
2.12109375,-0.0009682384728816663,6.051769558709088e-05,0.0002480357990157931,3.0251187516594204e-05,6.5714,4.2143
2.125,-0.0009682384728816663,4.7337119491874584e-05,0.00027976681554131377,4.4896272066834534e-05,6.5714,4.2143
2.12890625,-0.0009682384728816663,2.292864524147404e-05,0.0002768377986312657,5.124247537193867e-05,6.5714,4.2143
2.1328125,-0.0009682384728816663,2.6834001121538125e-05,0.00024217776519569695,4.7825288976882595e-05,6.5714,4.2143
2.13671875,-0.0009682384728816663,2.1464136786450005e-05,0.00022558000270542458,5.124247537193867e-05,6.5714,4.2143
2.140625,-0.0009682384728816663,5.842713266193654e-06,0.00023583156189059282,5.270698382696271e-05,6.5714,4.2143
2.14453125,-0.0009682384728816663,1.0724408116273763e-05,0.0002612163751110094,5.2218814341954696e-05,6.5714,4.2143
2.1484375,-0.0009682384728816663,3.7573729791714366e-05,0.00025584651077592124,5.66123397070268e-05,6.5714,4.2143
2.15234375,-0.0009682384728816663,4.050274670176243e-05,0.00024559495159075305,5.758867867704282e-05,6.5714,4.2143
2.15625,-0.0009682384728816663,1.902328936140995e-05,0.0002529174938658732,4.9289797431906635e-05,6.5714,4.2143
2.16015625,-0.0009682384728816663,2.913696356145588e-06,0.0002700034258411536,5.124247537193867e-05,6.5714,4.2143
2.1640625,-0.0009682384728816663,8.77173017624172e-06,0.0002573110192309453,5.368332279697873e-05,6.5714,4.2143
2.16796875,-0.0009682384728816663,3.401865841153599e-06,0.0002524293243808652,5.5636000737010774e-05,6.5714,4.2143
2.171875,-0.0009682384728816663,-7.307352236209642e-06,0.00026414539202105746,6.689440948500802e-05,6.5714,4.2143
2.17578125,-0.0009682384728816663,2.4255268711375773e-06,0.0002802549850263218,6.295854301213094e-05,6.5714,4.2143
2.1796875,-0.0009682384728816663,-7.307352236209642e-06,0.00028123132399633785,4.831345846189061e-05,6.5714,4.2143
2.18359375,-0.0009682384728816663,-3.318033494163422e-05,0.0002577991887159533,5.417149228198674e-05,6.5714,4.2143
2.1875,-0.0009682384728816663,-3.610935185168229e-05,0.000242665934680705,5.124247537193867e-05,6.5714,4.2143
2.19140625,-0.0009643331170016021,-4.880175846189058e-05,0.00024217776519569695,4.050274670176243e-05,6.5714,4.2143
2.1953125,-0.0009745846761867704,-9.179118373540854e-05,0.00021484027403524837,4.050274670176243e-05,6.5714,4.2143
2.19921875,-0.0009340666089311055,-0.00010057823446555274,0.00017673254361181052,2.6834001121538125e-05,6.5714,4.2143
2.203125,-0.0008324968454566262,-0.0001166878274708171,0.00018307874691691464,1.9999628331425975e-05,6.5714,4.2143
2.20703125,-0.0008119937270862897,-9.716104807049665e-05,0.0002080059012451362,1.902328936140995e-05,6.5714,4.2143
2.2109375,-0.0007870970833508812,-0.00010155457343556876,0.00018454325537193867,8.283560691233709e-06,6.5714,4.2143
2.21484375,-0.000820292608331426,-0.0001440253186312657,0.00014646603554131383,7.307221721217687e-06,6.5714,4.2143
2.21875,-0.0008427484046417944,-0.00011717599695582511,0.00015525308627145802,6.819052236209676e-06,6.5714,4.2143
2.22265625,-0.0008222452862714579,-0.00010253091240558478,0.00016843366236667432,1.1700747086289786e-05,6.5714,4.2143
2.2265625,-0.0008007658289311054,-9.227935322041655e-05,0.00017233901824673838,9.610184161135442e-07,6.5714,4.2143
2.23046875,-0.0006303641680704967,-8.007511609521628e-05,0.00015525308627145802,-7.795521721217652e-06,6.5714,4.2143
2.234375,-0.0007636649480704966,-6.29586735271229e-05,0.0001596466116365301,-1.4141725026321795e-05,6.5714,4.2143
2.23828125,-0.0007846562359258411,-5.075443640192262e-05,0.00016452830648661023,-2.732230112153809e-05,6.5714,4.2143
2.2421875,-0.0004946225406454566,-3.073948751659417e-05,0.00016013478112153812,-2.732230112153809e-05,6.5714,4.2143
2.24609375,-0.0005024332524055848,1.7070611421377907e-05,0.0001855195943419547,-3.1715826486610186e-05,6.5714,4.2143
2.25,-0.0005195191843808653,7.795391206225697e-06,0.0001894249502220188,-3.073948751659417e-05,6.5714,4.2143
2.25390625,-0.0005712651497917142,2.878667906157017e-05,0.00019333030610208288,-2.3416945241474e-05,6.5714,4.2143
2.2578125,-0.0005346524384161136,7.812230764019227e-05,0.00020263603691004809,-2.488145369649804e-05,6.5714,4.2143
2.26171875,-0.0004990160660105287,7.324061279011216e-05,0.00020312420639505608,-2.8786809576562122e-05,6.5714,4.2143
2.265625,-0.00045309762382696265,9.032654476539255e-05,0.00023680790086060886,-3.562118236667428e-05,6.5714,4.2143
2.26953125,-0.0005756586751567864,8.642118888532846e-05,0.00023876057880064088,-3.2692165456626215e-05,6.5714,4.2143
2.2734375,-0.0007685466429205767,9.61845785854887e-05,0.00022704451116044863,-2.732230112153809e-05,6.5714,4.2143
2.27734375,-0.0004990160660105287,0.00011180600210574503,0.0002250918332204166,-3.073948751659417e-05,6.5714,4.2143
2.28125,-0.0002822077934813458,0.00010887698519569697,0.0002084940707301442,-3.073948751659417e-05,6.5714,4.2143
2.28515625,-0.0003515583709452964,0.00012449840871595332,0.00021532844352025636,-2.683413163653008e-05,6.5714,4.2143
2.2890625,-0.0003828012179858091,0.00012547474768596933,0.00022265098579537653,-2.9763148546578148e-05,6.5714,4.2143
2.29296875,-0.0004360116918516823,0.00012352206974593728,0.000199188339922179,-3.025131803158616e-05,6.5714,4.2143
2.296875,-0.00041648491245136187,0.00012547474768596933,0.0002041005453650721,-2.4393284211490024e-05,6.5714,4.2143
2.30078125,-0.0002592638276859693,0.0001240102392309453,0.00021142308764019228,-2.146426730144196e-05,6.5714,4.2143
2.3046875,-0.0001611112506065461,0.0001371908153261616,0.000198700170437171,-1.121270811627373e-05,6.5714,4.2143
2.30859375,-0.0002275328111604486,0.00013474996790112154,0.0002128875960952163,-1.937487901121521e-06,6.5714,4.2143
2.3125,-0.00026072833614099335,0.00010057810395056078,0.00021728112146028838,-6.3310132661936195e-06,6.5714,4.2143
2.31640625,-0.0003129624710368505,9.960176498054477e-05,0.0002041005453650721,-4.3783353261615755e-06,6.5714,4.2143
2.3203125,-0.000289530335756466,0.00011180600210574503,0.00020165969794003205,3.890035326161609e-06,6.5714,4.2143
2.32421875,-0.0001440253186312657,0.00012108122232089725,0.00020751773176012819,4.866374296177632e-06,6.5714,4.2143
2.328125,-0.00016501660648661018,0.00013572630687113757,0.00022362732476539254,4.7284893110553325e-07,6.5714,4.2143
2.33203125,-0.00020702969279011213,0.00012693925614099338,0.00021776929094529643,9.610184161135442e-07,6.5714,4.2143
2.3359375,-0.00020410067588006408,9.960176498054477e-05,0.0001860077638269627,7.307221721217687e-06,6.5714,4.2143
2.33984375,-0.00019723579249713894,9.032654476539255e-05,0.0001689218318516823,1.1212577601281776e-05,6.5714,4.2143
2.34375,-0.00016062308112153807,9.032654476539255e-05,0.00017673254361181052,1.4629763996337851e-05,6.5714,4.2143
2.34765625,-0.0003803603705607691,8.983837528038453e-05,0.0001860077638269627,2.2440475756466028e-05,6.5714,4.2143
2.3515625,-0.00040574518378118564,9.276739219043261e-05,0.00016648098442664225,1.902328936140995e-05,6.5714,4.2143
2.35546875,-0.00019381860610208284,8.935020579537654e-05,0.00013914349326619364,1.902328936140995e-05,6.5714,4.2143
2.359375,-0.00018307887743190658,8.446851094529643e-05,0.00013865532378118563,2.439315369649807e-05,6.5714,4.2143
2.36328125,-0.00028660131884641795,8.202766352025636e-05,0.00015671759472648205,1.902328936140995e-05,6.5714,4.2143
2.3671875,-0.0004404052172167544,7.275244330510416e-05,0.00015671759472648205,1.9999628331425975e-05,6.5714,4.2143
2.37109375,-0.0003085689456717784,5.368332279697873e-05,0.00012498657820096134,2.3904984211490058e-05,6.5714,4.2143
2.375,-0.00020849420124513616,4.880162794689862e-05,9.374373116044863e-05,2.3904984211490058e-05,6.5714,4.2143
2.37890625,-0.0002690272173861296,6.0029526102082876e-05,7.226427382009615e-05,2.3904984211490058e-05,6.5714,4.2143
2.3828125,-0.0003246785386770428,3.7573729791714366e-05,3.90382382467384e-05,2.829850957656216e-05,6.5714,4.2143
2.38671875,-0.00031345064052185854,2.1952306271458016e-05,1.902328936140995e-05,2.829850957656216e-05,6.5714,4.2143
2.390625,-0.00029831738648661017,2.9274848546578178e-05,6.330882751201665e-06,2.878667906157017e-05,6.5714,4.2143
2.39453125,-0.0003525347099153124,8.283560691233709e-06,-2.536962318150605e-05,2.9274848546578178e-05,6.5714,4.2143
2.3984375,-0.00035302287940032045,-1.072453863126572e-05,-5.0266266916914606e-05,2.439315369649807e-05,6.5714,4.2143
2.40234375,-0.0003491175235202563,-6.3310132661936195e-06,-4.09910467017624e-05,2.439315369649807e-05,6.5714,4.2143
2.40625,-0.0003173559964019226,-6.3310132661936195e-06,-5.319528382696267e-05,2.6834001121538125e-05,6.5714,4.2143
2.41015625,-0.0003735259977706569,-1.560623348134583e-05,-7.519342124513615e-05,2.9274848546578178e-05,6.5714,4.2143
2.4140625,-0.0004423578951567864,-1.8535250391393893e-05,-8.788582785534446e-05,3.3668373911650276e-05,6.5714,4.2143
2.41796875,-0.00036669162498054474,-9.748199661249696e-06,-0.00011424698004577704,4.1479085671778456e-05,6.5714,4.2143
2.421875,-0.0004033043363561455,-9.260030176241686e-06,-0.00011961684438086517,4.440810258182652e-05,6.5714,4.2143
2.42578125,-0.0002695153868711375,-9.260030176241686e-06,-0.0001254748782009613,4.050274670176243e-05,6.5714,4.2143
2.4296875,-2.536962318150605e-05,-2.536962318150605e-05,-0.00013719094584115356,4.1479085671778456e-05,6.5714,4.2143
2.43359375,-8.251596352025633e-05,-3.9526538246738366e-05,-0.00014207264069123369,3.90382382467384e-05,6.5714,4.2143
2.4375,-0.00018259070794689858,-3.757386030670632e-05,-0.00015525321678644996,3.7085560306706354e-05,6.5714,4.2143
2.44140625,-0.000201659828455024,-3.415667391165024e-05,-0.0001381672848111696,4.196725515678646e-05,6.5714,4.2143
2.4453125,-8.300413300526435e-05,-2.9763148546578148e-05,-0.00012449853923094528,4.4896272066834534e-05,6.5714,4.2143
2.44921875,-7.616976021515219e-05,-2.9763148546578148e-05,-0.00013523826790112152,4.050274670176243e-05,6.5714,4.2143
2.453125,-0.00010497175983062485,-3.415667391165024e-05,-0.00014256081017624168,4.0990916186770444e-05,6.5714,4.2143
2.45703125,-0.00019088958919203476,-3.318033494163422e-05,-0.00015330053884641794,5.075430588693066e-05,6.5714,4.2143
2.4609375,-0.0002626810140810254,-2.9763148546578148e-05,-0.00015769406421149002,5.1730644856946685e-05,6.5714,4.2143
2.46484375,-4.1479216186770404e-05,-3.610935185168229e-05,-0.00016745745391165024,4.7825288976882595e-05,6.5714,4.2143
2.46875,8.007498558022432e-05,-5.710063970702676e-05,-0.00018307887743190658,4.4896272066834534e-05,6.5714,4.2143
2.47265625,0.00010008993446555277,-8.398047197528036e-05,-0.00019040141970702676,4.391993309681851e-05,6.5714,4.2143
2.4765625,-4.866504811169587e-06,-9.42320311604486e-05,-0.00019918847043717095,4.050274670176243e-05,6.5714,4.2143
2.48046875,-8.771860691233675e-06,-0.00010887711571068892,-0.00020214799794003203,4.5872611036850557e-05,6.5714,4.2143
2.484375,0.0001332854594460975,-0.0001249867087159533,-0.00021776942146028836,6.051769558709088e-05,6.5714,4.2143
2.48828125,0.00013474996790112154,-0.0001435371491462577,-0.00024022521777065687,5.514783125200276e-05,6.5714,4.2143
2.4921875,8.056315506523234e-05,-0.00016257575906157014,-0.0002509649464408331,4.34317636118105e-05,6.5714,4.2143
2.49609375,7.795391206225697e-06,-0.00018942508073701073,-0.00027244440378118557,5.514783125200276e-05,6.5714,4.2143
2.5,2.878667906157017e-05,-0.00022411562476539254,-0.00032272586073701074,5.319515331197072e-05,6.5714,4.2143
2.50390625,3.171569597161824e-05,-0.000246571421075761,-0.0003676679639505607,3.806189927672238e-05,6.5714,4.2143
2.5078125,2.5857662151522106e-05,-0.00026072833614099335,-0.0003642507775555047,4.7825288976882595e-05,6.5714,4.2143
2.51171875,0.00017087450979171435,-0.00028367230193636984,-0.00038377755695582507,4.831345846189061e-05,6.5714,4.2143
2.515625,1.4491879011215552e-06,-0.0002929475221515221,-0.00040623335326619357,4.001457721675442e-05,6.5714,4.2143
2.51953125,4.7284893110553325e-07,-0.0002978292170016021,-0.0003901237602609292,5.2218814341954696e-05,6.5714,4.2143
2.5234375,0.00022313915528038454,-0.0002787906070862897,-0.00035936908270542455,4.977796691691464e-05,6.5714,4.2143
2.52734375,0.00018747227228198672,-0.00025194128541084914,-0.00033248925043717094,5.026613640192266e-05,6.5714,4.2143
2.53125,0.00020165969794003205,-0.0002753734206912337,-0.0003618099301304646,5.124247537193867e-05,6.5714,4.2143
2.53515625,0.0001010662734355688,-0.00029685287803158614,-0.00040476884481116955,5.465966176699475e-05,6.5714,4.2143
2.5390625,0.00012693925614099338,-0.00027195623429617763,-0.0003964699635660334,6.393488198214696e-05,6.5714,4.2143
2.54296875,0.00018356691640192266,-0.00023485535343556875,-0.0003535110488853284,5.319515331197072e-05,6.5714,4.2143
2.546875,0.00017282718773174643,-0.00022216294682536047,-0.00031833233537193866,4.5872611036850557e-05,6.5714,4.2143
2.55078125,3.220386545662624e-05,-0.00023339084498054472,-0.0003173559964019226,5.612417022201878e-05,6.5714,4.2143
2.5546875,-0.00010009006498054473,-0.00021776942146028836,-0.000290018505241474,6.491122095216298e-05,6.5714,4.2143
2.55859375,8.544484991531244e-05,-0.00017233914876173037,-0.0002626810140810254,5.514783125200276e-05,6.5714,4.2143
2.5625,0.00024413044313572902,-0.00015964674215152206,-0.00023876070931563284,6.442305146715498e-05,6.5714,4.2143
2.56640625,0.00025487017180590525,-0.00015525321678644996,-0.00020702969279011213,7.128793485008013e-05,6.5714,4.2143
2.5703125,0.00018063789949187458,-0.0001166878274708171,-0.000201171658970016,6.689440948500802e-05,6.5714,4.2143
2.57421875,0.00014451335760128176,-0.00011375881056076903,-0.00019088958919203476,7.324061279011216e-05,6.5714,4.2143
2.578125,0.00017429169618677045,-0.0001391436237811856,-0.0001742918267017624,7.177610433508813e-05,6.5714,4.2143
2.58203125,0.0001279155951110094,-0.00011717599695582511,-0.00014695433554131379,7.372878227512018e-05,6.5714,4.2143
2.5859375,0.0001904012891920348,-8.54449804303044e-05,-0.00012205769180590522,7.177610433508813e-05,6.5714,4.2143
2.58984375,0.00018063789949187458,-7.079989588006407e-05,-0.00010497175983062485,6.442305146715498e-05,6.5714,4.2143
2.59375,0.00010448345983062488,-4.2943724641794444e-05,-0.00010887711571068892,6.640624000000002e-05,6.5714,4.2143
2.59765625,8.056315506523234e-05,-5.3683453311970684e-05,-0.00010253091240558478,7.226427382009615e-05,6.5714,4.2143
2.6015625,3.562105185168232e-05,-7.616976021515219e-05,-7.031172639505606e-05,7.177610433508813e-05,6.5714,4.2143
2.60546875,0.00013865532378118563,-4.53845720668345e-05,-3.855019927672234e-05,6.295854301213094e-05,6.5714,4.2143
2.609375,-7.128806536507208e-05,-2.5857792666514058e-05,-2.3905114726482013e-05,5.758867867704282e-05,6.5714,4.2143
2.61328125,-0.00016941013185168226,-3.610935185168229e-05,-1.4629894511329806e-05,5.905318713206685e-05,6.5714,4.2143
2.6171875,5.8076848162050824e-05,-2.097609781643395e-05,-2.9138268711375426e-06,5.465966176699475e-05,6.5714,4.2143
2.62109375,9.813725652552073e-05,2.3904984211490058e-05,1.5117933481345863e-05,5.417149228198674e-05,6.5714,4.2143
2.625,5.856501764705884e-05,3.7573729791714366e-05,4.880162794689862e-05,5.856501764705884e-05,6.5714,4.2143
2.62890625,-4.636091103685052e-05,4.5872611036850557e-05,6.982342639505609e-05,5.856501764705884e-05,6.5714,4.2143
2.6328125,-1.2677216571297761e-05,4.391993309681851e-05,6.198220404211491e-05,5.465966176699475e-05,6.5714,4.2143
2.63671875,1.5606102966353874e-05,4.294359412680248e-05,5.417149228198674e-05,4.977796691691464e-05,6.5714,4.2143
2.640625,-1.4629894511329806e-05,5.417149228198674e-05,7.763413815518427e-05,4.9289797431906635e-05,6.5714,4.2143
2.64453125,-6.637585992217897e-05,8.007498558022432e-05,9.179105322041659e-05,4.7825288976882595e-05,6.5714,4.2143
2.6484375,-0.0001742918267017624,9.227922270542459e-05,0.0001010662734355688,3.7573729791714366e-05,6.5714,4.2143
2.65234375,5.354543781185643e-06,8.642118888532846e-05,9.179105322041659e-05,3.269203494163426e-05,6.5714,4.2143
2.65625,0.00014695420502632182,8.056315506523234e-05,7.47051212451362e-05,3.7573729791714366e-05,6.5714,4.2143
2.66015625,7.275244330510416e-05,8.495668043030443e-05,9.227922270542459e-05,4.0990916186770444e-05,6.5714,4.2143
2.6640625,3.401865841153599e-06,0.00010936515468070498,0.00011864037489585719,4.196725515678646e-05,6.5714,4.2143
2.66796875,-4.3431894126802455e-05,0.00011424684953078509,0.0001274274256260014,3.659739082169834e-05,6.5714,4.2143
2.671875,1.2188916571297797e-05,0.00011229417159075305,0.00012986827305104144,3.269203494163426e-05,6.5714,4.2143
2.67578125,7.568146021515222e-05,0.00010545979880064089,0.00012205756129091327,3.562105185168232e-05,6.5714,4.2143
2.6796875,6.884708742504007e-05,0.0001015544429205768,0.00011864037489585719,3.562105185168232e-05,6.5714,4.2143
2.68359375,4.0990916186770444e-05,0.0001191285443808652,0.00013963166275120166,3.7573729791714366e-05,6.5714,4.2143
2.6875,0.00012156939180590525,0.00010594796828564891,0.00015818210318150608,3.952640773174641e-05,6.5714,4.2143
2.69140625,7.616962970016024e-05,8.153949403524835e-05,0.00014939505245136189,4.001457721675442e-05,6.5714,4.2143
2.6953125,9.610184161135442e-07,8.446851094529643e-05,0.00014011983223620968,3.7573729791714366e-05,6.5714,4.2143
2.69921875,5.856501764705884e-05,9.61845785854887e-05,0.00014060800172121767,2.6834001121538125e-05,6.5714,4.2143
2.703125,9.610184161135442e-07,0.00010399529034561686,0.0001454896965712978,2.488132318150608e-05,6.5714,4.2143
2.70703125,6.10058650720989e-05,0.00010057810395056078,0.0001772207130968185,3.220386545662624e-05,6.5714,4.2143
2.7109375,0.00026463356150606545,0.00010887698519569697,0.00019970702000000003,3.5132882366674316e-05,6.5714,4.2143
2.71484375,0.0002119112571252003,0.00010985332416571298,0.00018405508588693065,3.7085560306706354e-05,6.5714,4.2143
2.71875,0.00015281223884641796,8.690935837033648e-05,0.00015769393369649808,3.610922133669034e-05,6.5714,4.2143
2.72265625,0.0001591584421515221,8.007498558022432e-05,0.00017624437412680247,3.952640773174641e-05,6.5714,4.2143
2.7265625,0.00021044674867017627,9.61845785854887e-05,0.00020068335897001601,4.294359412680248e-05,6.5714,4.2143
2.73046875,0.0002128875960952163,9.032654476539255e-05,0.00020068335897001601,4.050274670176243e-05,6.5714,4.2143
2.734375,0.00015281223884641796,8.935020579537654e-05,0.0001894249502220188,3.562105185168232e-05,6.5714,4.2143
2.73828125,5.905318713206685e-05,8.78856973403525e-05,0.00018503142485694669,3.5132882366674316e-05,6.5714,4.2143
2.7421875,-2.8786809576562122e-05,7.372878227512018e-05,0.00020068335897001601,3.5132882366674316e-05,6.5714,4.2143
2.74609375,0.0001508595609063859,7.275244330510416e-05,0.00021532844352025636,3.269203494163426e-05,6.5714,4.2143
2.75,0.0003251665776470588,6.884708742504007e-05,0.00022460366373540857,3.3668373911650276e-05,6.5714,4.2143
2.75390625,0.00022899718910048068,4.245542464179448e-05,0.00021386393506523234,3.806189927672238e-05,6.5714,4.2143
2.7578125,5.026613640192266e-05,3.952640773174641e-05,0.0002041005453650721,4.001457721675442e-05,6.5714,4.2143
2.76171875,0.00014695420502632182,4.636078052185856e-05,0.00020702956227512017,4.0990916186770444e-05,6.5714,4.2143
2.765625,0.0002787904765712978,4.5872611036850557e-05,0.00022704451116044863,3.952640773174641e-05,6.5714,4.2143
2.76953125,0.0002670744089311055,4.4896272066834534e-05,0.00023241437549553672,3.4156543396658294e-05,6.5714,4.2143
2.7734375,0.0002304616975555047,4.050274670176243e-05,0.00021972196888532845,3.806189927672238e-05,6.5714,4.2143
2.77734375,0.000155741255756466,3.8550068761730395e-05,0.0002163047824902724,4.050274670176243e-05,6.5714,4.2143
2.78125,0.0002089822402151522,3.3668373911650276e-05,0.00022753268064545665,3.8550068761730395e-05,6.5714,4.2143
2.78515625,0.00020214786742504004,3.318020442664227e-05,0.00022850901961547266,4.7825288976882595e-05,6.5714,4.2143
2.7890625,0.00018796044176699477,1.8535119876401938e-05,0.00021874562991531246,5.368332279697873e-05,6.5714,4.2143
2.79296875,0.00022997352807049672,-7.795521721217652e-06,0.00021581661300526436,5.612417022201878e-05,6.5714,4.2143
2.796875,3.90382382467384e-05,-2.9274979061570133e-05,0.00018698410279697873,5.465966176699475e-05,6.5714,4.2143
2.80078125,5.1730644856946685e-05,-4.392006361181047e-05,0.00014353701863126575,4.294359412680248e-05,6.5714,4.2143
2.8046875,0.00033837766433508814,-4.7825419491874556e-05,0.00014500152708628978,4.636078052185856e-05,6.5714,4.2143
2.80859375,0.0003471647150652323,-5.85651481620508e-05,0.00014646603554131383,4.9289797431906635e-05,6.5714,4.2143
2.8125,0.00020507688433508815,-9.86255565255207e-05,0.00011180600210574503,5.5636000737010774e-05,6.5714,4.2143
2.81640625,0.00016648098442664225,-0.00013523826790112152,7.958681609521631e-05,6.149403455710691e-05,6.5714,4.2143
2.8203125,0.00032907193352712296,-0.00015476504730144196,4.5872611036850557e-05,4.636078052185856e-05,6.5714,4.2143
2.82421875,0.00039109996871595327,-0.00017233914876173037,2.5369492666514095e-05,4.001457721675442e-05,6.5714,4.2143
2.828125,0.00041794929039139396,-0.00019967663992217894,1.9999628331425975e-05,4.9289797431906635e-05,6.5714,4.2143
2.83203125,0.0003496055624902724,-0.00019918847043717095,1.5117933481345863e-05,5.612417022201878e-05,6.5714,4.2143
2.8359375,0.00025926369717097734,-0.00017722084361181047,2.3416814726482047e-05,4.831345846189061e-05,6.5714,4.2143
2.83984375,0.0005488092229663539,-0.0002089823707301442,1.3165255541313818e-05,4.391993309681851e-05,6.5714,4.2143
2.84375,0.000772451868285649,-0.00023485535343556875,2.878667906157017e-05,5.1730644856946685e-05,6.5714,4.2143
2.84765625,0.0007661056649805448,-0.0002060533538200961,7.275244330510416e-05,5.8076848162050824e-05,6.5714,4.2143
2.8515625,0.0006264586816754406,-0.0002231392857953765,5.612417022201878e-05,6.10058650720989e-05,6.5714,4.2143
2.85546875,0.000553690917816434,-0.00023973704828564887,4.440810258182652e-05,6.149403455710691e-05,6.5714,4.2143
2.859375,0.0005737058667017624,-0.00022558013322041657,4.196725515678646e-05,6.149403455710691e-05,6.5714,4.2143
2.86328125,0.0005268415961409933,-0.00021728125197528037,2.0975967301441994e-05,4.7337119491874584e-05,6.5714,4.2143
2.8671875,0.00048095366455024036,-0.00019479494507209887,4.391993309681851e-05,4.001457721675442e-05,6.5714,4.2143
2.87109375,0.00030905698464179447,-0.00020507701485008008,3.171569597161824e-05,5.124247537193867e-05,6.5714,4.2143
2.875,0.00024168959571068896,-0.00024998860747081706,-4.050287721675439e-05,5.905318713206685e-05,6.5714,4.2143
2.87890625,0.0002524293243808652,-0.00021825759094529638,-2.7810470606546103e-05,5.905318713206685e-05,6.5714,4.2143
2.8828125,0.00025340566335088123,-0.00018551972485694664,-1.121270811627373e-05,5.124247537193867e-05,6.5714,4.2143
2.88671875,0.0004252718326665141,-0.00017331548773174638,4.378204811169621e-06,4.294359412680248e-05,6.5714,4.2143
2.890625,0.00022899718910048068,-0.00013719094584115356,4.196725515678646e-05,2.976301803158619e-05,6.5714,4.2143
2.89453125,9.667274807049669e-05,-0.0001440253186312657,-1.5320553902477717e-08,1.755878090638592e-05,6.5714,4.2143
2.8984375,0.0003710850198306249,-0.00011278247159075301,2.878667906157017e-05,7.307221721217687e-06,6.5714,4.2143
2.90234375,0.000377431223135729,-7.470525176012816e-05,7.665779918516825e-05,3.890035326161609e-06,6.5714,4.2143
2.90625,0.00032223756073701076,-4.3431894126802455e-05,9.520823961547266e-05,5.354543781185643e-06,6.5714,4.2143
2.91015625,0.00022997352807049672,-4.3783353261615755e-06,0.00010692430725566493,-1.2189047086289752e-05,6.5714,4.2143
2.9140625,0.0001904012891920348,-2.3416945241474e-05,6.835891794003205e-05,-2.195243678644997e-05,6.5714,4.2143
2.91796875,0.00018259057743190662,-1.7070741936369862e-05,8.398034146028841e-05,-2.683413163653008e-05,6.5714,4.2143
2.921875,0.0002080059012451362,2.3904984211490058e-05,0.0001191285443808652,-2.7810470606546103e-05,6.5714,4.2143
2.92578125,0.00011473501901579311,5.1730644856946685e-05,0.00012205756129091327,-2.536962318150605e-05,6.5714,4.2143
2.9296875,-5.4171622796978696e-05,7.665779918516825e-05,0.00015183589987640195,-3.22039959716182e-05,6.5714,4.2143
2.93359375,0.000155741255756466,8.056315506523234e-05,0.000155741255756466,-2.9274979061570133e-05,6.5714,4.2143
2.9375,0.0002919710526665141,9.569640910048068e-05,0.00014841871348134585,-1.9023419876401904e-05,6.5714,4.2143
2.94140625,0.0002524293243808652,0.0001230339002609293,0.0002041005453650721,-1.3653555541313785e-05,6.5714,4.2143
2.9453125,0.00022850901961547266,0.00012938010356603342,0.00022558000270542458,-1.3653555541313785e-05,6.5714,4.2143
2.94921875,0.00023680790086060886,0.00014890688296635387,0.00021825746043030442,-1.609440296635384e-05,6.5714,4.2143
2.953125,0.0002563346802609293,0.00014841871348134585,0.00022753268064545665,-1.4141725026321795e-05,6.5714,4.2143
2.95703125,0.00020507688433508815,0.00014793054399633786,0.00021972196888532845,-6.3310132661936195e-06,6.5714,4.2143
2.9609375,0.0002563346802609293,0.00017819705206683454,0.0002163047824902724,-8.771860691233675e-06,6.5714,4.2143
2.96484375,0.0002685389173861296,0.00019088945867704282,0.00022850901961547266,-9.260030176241686e-06,6.5714,4.2143
2.96875,0.0002538938328358892,0.00018307874691691464,0.000244618612620737,-8.771860691233675e-06,6.5714,4.2143
2.97265625,0.00024168959571068896,0.0001811260689768826,0.00022655634167544062,-1.170087760128174e-05,6.5714,4.2143
2.9765625,0.00020165969794003205,0.00018210240794689863,0.00021581661300526436,-1.121270811627373e-05,6.5714,4.2143
2.98046875,0.00028318400193636987,0.00017331535721675442,0.00023631973137560084,-1.2189047086289752e-05,6.5714,4.2143
2.984375,0.00027830230708628974,0.0001640401370016022,0.0002543820023208972,-9.260030176241686e-06,6.5714,4.2143
2.98828125,0.0003285837640421149,0.00018014973000686656,0.00027146793429617765,-1.0236369146257707e-05,6.5714,4.2143
2.9921875,0.00038475376541084917,0.00017966156052185857,0.00025828735820096135,-8.771860691233675e-06,6.5714,4.2143
2.99609375,0.000330536441982147,0.00016599281494163425,0.00023631973137560084,-4.866504811169587e-06,6.5714,4.2143
3.0,0.0007182345448569467,0.00016599281494163425,0.0002485239685008011,9.610184161135442e-07,6.5714,4.2143
3.00390625,-0.0009701911508216983,0.00016452830648661023,0.0002573110192309453,3.401865841153599e-06,6.5714,4.2143
3.0078125,0.0009858124438269628,0.00016648098442664225,0.0002670744089311055,-4.72979446097488e-07,6.5714,4.2143
3.01171875,0.000996064003012131,0.00017331535721675442,0.00027732596811627376,2.4255268711375773e-06,6.5714,4.2143
3.015625,-0.000999481319922179,0.0001640401370016022,0.00027195610378118564,3.890035326161609e-06,6.5714,4.2143
3.01953125,0.0009995117,0.00015818210318150608,0.00026463356150606545,-1.937487901121521e-06,6.5714,4.2143
3.0234375,0.0009995117,0.00015281223884641796,0.00025487017180590525,-6.3310132661936195e-06,6.5714,4.2143
3.02734375,0.0009995117,0.00016062295060654614,0.0002700034258411536,-9.61148931105499e-07,6.5714,4.2143
3.03125,0.0009995117,0.0001596466116365301,0.0002743969512062257,-1.5320553902477717e-08,6.5714,4.2143
3.03515625,0.0009995117,0.00013963166275120166,0.000242665934680705,-1.5320553902477717e-08,6.5714,4.2143
3.0390625,0.0009995117,0.00014793054399633786,0.00023778423983062487,6.330882751201665e-06,6.5714,4.2143
3.04296875,0.0009995117,0.00016501647597161822,0.00026463356150606545,2.913696356145588e-06,6.5714,4.2143
3.046875,0.0009995117,0.00018063789949187458,0.0002700034258411536,-6.3310132661936195e-06,6.5714,4.2143
3.05078125,0.0009995117,0.000155741255756466,0.0002660980699610895,-8.771860691233675e-06,6.5714,4.2143
3.0546875,0.0009995117,0.00012596291717097735,0.00026268088356603343,-2.9138268711375426e-06,6.5714,4.2143
3.05859375,0.0009995117,0.00012547474768596933,0.00025828735820096135,2.4255268711375773e-06,6.5714,4.2143
3.0625,0.0009995117,0.00013377362893110555,0.00026365722253604947,4.7284893110553325e-07,6.5714,4.2143
3.06640625,0.0009995117,0.00015378857781643397,0.00026219271408102544,-4.72979446097488e-07,6.5714,4.2143
3.0703125,0.000994599494557107,0.00014451335760128176,0.00023876057880064088,2.4255268711375773e-06,6.5714,4.2143
3.07421875,-0.0009853244048569467,0.00012889193408102543,0.0002167929519752804,3.890035326161609e-06,6.5714,4.2143
3.078125,0.0009321138004760815,0.00014353701863126575,0.00021337576558022432,-9.61148931105499e-07,6.5714,4.2143
3.08203125,0.000909658004165713,0.0001508595609063859,0.00021776929094529643,-7.795521721217652e-06,6.5714,4.2143
3.0859375,-0.000995087794557107,0.00014646603554131383,0.00021728112146028838,-9.748199661249696e-06,6.5714,4.2143
3.08984375,-0.0009975286419821468,0.00014011983223620968,0.0002211864773403525,-5.842843781185608e-06,6.5714,4.2143
3.09375,0.0009911823081620507,0.00012352206974593728,0.00022265098579537653,-6.3310132661936195e-06,6.5714,4.2143
3.09765625,0.0009535932578164339,0.00012449840871595332,0.0002163047824902724,-1.0236369146257707e-05,6.5714,4.2143
3.1015625,0.0009272321056260014,0.00013816715429617763,0.00022362732476539254,-7.307352236209642e-06,6.5714,4.2143
3.10546875,0.0009199095633508812,0.00014841871348134585,0.00023192620601052873,-6.3310132661936195e-06,6.5714,4.2143
3.109375,0.0009516405798764019,0.00013474996790112154,0.0002304616975555047,-1.072453863126572e-05,6.5714,4.2143
3.11328125,0.0008012538679011216,0.00013035644253604946,0.00022460366373540857,-1.2677216571297761e-05,6.5714,4.2143
3.1171875,0.0006552606812909132,0.00013230912047608147,0.00022899718910048068,-1.121270811627373e-05,6.5714,4.2143
3.12109375,0.0008359139013366904,0.00011961671386587322,0.0002504766464408331,-1.170087760128174e-05,6.5714,4.2143
3.125,0.0009345546479011215,0.00011717586644083316,0.00024608312107576104,-1.121270811627373e-05,6.5714,4.2143
3.12890625,0.0008627632230121309,0.00012889193408102543,0.0002163047824902724,-1.2677216571297761e-05,6.5714,4.2143
3.1328125,0.0007231162397070268,0.00015622942524147403,0.00022948535858548867,-1.658257245136185e-05,6.5714,4.2143
3.13671875,0.0006865035283314259,0.00013035644253604946,0.00020019518948500802,-1.9023419876401904e-05,6.5714,4.2143
3.140625,0.0007856324443808652,7.275244330510416e-05,0.00015183589987640195,-1.7070741936369862e-05,6.5714,4.2143
3.14453125,0.0008080882406912338,9.472007013046466e-05,0.0001952829840421149,-2.2440606271457983e-05,6.5714,4.2143
3.1484375,0.0007953958340810254,0.00010594796828564891,0.00019970702000000003,-2.146426730144196e-05,6.5714,4.2143
3.15234375,0.0006938260706065461,6.247037352712293e-05,0.00013572630687113757,-1.5118063996337817e-05,6.5714,4.2143
3.15625,0.0006533080033508812,6.10058650720989e-05,0.00012449840871595332,-1.7070741936369862e-05,6.5714,4.2143
3.16015625,0.0006616068845960173,8.544484991531244e-05,0.00014451335760128176,-1.4141725026321795e-05,6.5714,4.2143
3.1640625,0.0006406155967406729,0.00010790064622568095,0.00016843366236667432,-1.2677216571297761e-05,6.5714,4.2143
3.16796875,0.0006537961728358893,0.00013035644253604946,0.00020654139279011218,-1.609440296635384e-05,6.5714,4.2143
3.171875,0.0005063384777706569,0.00012205756129091327,0.00019625932301213094,-1.2677216571297761e-05,6.5714,4.2143
3.17578125,0.000509755664165713,0.00010594796828564891,0.0001596466116365301,-1.658257245136185e-05,6.5714,4.2143
3.1796875,0.0007153055279468986,9.472007013046466e-05,0.00014304884914625773,-1.804708090638588e-05,6.5714,4.2143
3.18359375,0.0006791809860563059,0.00010350712086060884,0.00016062295060654614,-1.4141725026321795e-05,6.5714,4.2143
3.1875,0.0005990906799221789,0.00010594796828564891,0.00017380352670176243,-2.146426730144196e-05,6.5714,4.2143
3.19140625,0.0005219599012909133,9.813725652552073e-05,0.00017819705206683454,-2.2440606271457983e-05,6.5714,4.2143
3.1953125,0.0005165900369558252,9.667274807049669e-05,0.00015525308627145802,-1.7070741936369862e-05,6.5714,4.2143
3.19921875,0.0005571081042114901,8.202766352025636e-05,0.00013035644253604946,-1.658257245136185e-05,6.5714,4.2143
3.203125,0.0005761467141268025,9.472007013046466e-05,0.00014890688296635387,-1.560623348134583e-05,6.5714,4.2143
3.20703125,0.0004628608830121309,0.00011180600210574503,0.00016159928957656217,-9.748199661249696e-06,6.5714,4.2143
3.2109375,0.0004428459341268025,9.667274807049669e-05,0.00015183589987640195,-6.819182751201631e-06,6.5714,4.2143
3.21484375,0.00048095366455024036,8.30040024902724e-05,0.00014060800172121767,-4.3783353261615755e-06,6.5714,4.2143
3.21875,0.00045407383228198675,7.324061279011216e-05,0.00012889193408102543,-5.354674296177598e-06,6.5714,4.2143
3.22265625,0.0005615016295765622,8.007498558022432e-05,0.0001240102392309453,-8.771860691233675e-06,6.5714,4.2143
3.2265625,0.0004902288847653926,8.251583300526438e-05,0.00013767898481116962,-4.3783353261615755e-06,6.5714,4.2143
3.23046875,0.00036132163013046463,7.226427382009615e-05,0.00013035644253604946,3.890035326161609e-06,6.5714,4.2143
3.234375,0.0005053621388006409,7.128793485008013e-05,0.00011522318850080111,4.866374296177632e-06,6.5714,4.2143
3.23828125,0.0005517382398764019,7.616962970016024e-05,0.00010448345983062488,8.283560691233709e-06,6.5714,4.2143
3.2421875,0.0005317232909910736,8.886203631036852e-05,0.00010350712086060884,8.77173017624172e-06,6.5714,4.2143
3.24609375,0.0005190308843808653,8.446851094529643e-05,0.00013621447635614556,5.842713266193654e-06,6.5714,4.2143
3.25,0.0004951105796154726,7.568146021515222e-05,0.0001332854594460975,5.354543781185643e-06,6.5714,4.2143
3.25390625,0.0004535856627969787,6.933525691004809e-05,9.61845785854887e-05,2.4255268711375773e-06,6.5714,4.2143
3.2578125,0.0004262481716365301,7.03115958800641e-05,8.446851094529643e-05,4.866374296177632e-06,6.5714,4.2143
3.26171875,0.000509755664165713,9.081471425040057e-05,0.00010790064622568095,1.2188916571297797e-05,6.5714,4.2143
3.265625,0.00040525688378118566,8.593301940032045e-05,0.00013426179841611355,1.365342502632183e-05,6.5714,4.2143
3.26953125,0.0003993988499610895,6.149403455710691e-05,0.0001240102392309453,1.0724408116273763e-05,6.5714,4.2143
3.2734375,0.0004296653580315862,4.977796691691464e-05,7.861047712520029e-05,1.1700747086289786e-05,6.5714,4.2143
3.27734375,0.00037499037571068897,6.393488198214696e-05,6.442305146715498e-05,1.1212577601281776e-05,6.5714,4.2143
3.28125,0.00046042003558709085,7.079976536507211e-05,6.884708742504007e-05,1.1700747086289786e-05,6.5714,4.2143
3.28515625,0.00039207630768596936,6.491122095216298e-05,6.393488198214696e-05,5.842713266193654e-06,6.5714,4.2143
3.2890625,0.00040623322275120164,6.295854301213094e-05,6.689440948500802e-05,2.913696356145588e-06,6.5714,4.2143
3.29296875,0.00042820084957656215,6.051769558709088e-05,4.9289797431906635e-05,5.354543781185643e-06,6.5714,4.2143
3.296875,0.00039207630768596936,5.612417022201878e-05,3.610922133669034e-05,5.354543781185643e-06,6.5714,4.2143
3.30078125,0.00031735586588693064,5.905318713206685e-05,5.368332279697873e-05,1.2188916571297797e-05,6.5714,4.2143
3.3046875,0.0002670744089311055,8.544484991531244e-05,7.568146021515222e-05,1.365342502632183e-05,6.5714,4.2143
3.30859375,0.0004140439345113298,6.442305146715498e-05,6.884708742504007e-05,1.3165255541313818e-05,6.5714,4.2143
3.3125,0.0004399169172167544,4.196725515678646e-05,4.196725515678646e-05,1.2677086056305808e-05,6.5714,4.2143
3.31640625,0.0003642506470405127,4.7337119491874584e-05,1.8046950391393927e-05,6.819052236209676e-06,6.5714,4.2143
3.3203125,0.00033349596948500807,5.124247537193867e-05,1.3165255541313818e-05,6.330882751201665e-06,6.5714,4.2143
3.32421875,0.00035936895219043256,6.198220404211491e-05,2.0487797816433986e-05,8.283560691233709e-06,6.5714,4.2143
3.328125,0.00040965040914625774,5.612417022201878e-05,2.2440475756466028e-05,1.4141594511329842e-05,6.5714,4.2143
3.33203125,0.00028318400193636987,4.1479085671778456e-05,1.4141594511329842e-05,1.755878090638592e-05,6.5714,4.2143
3.3359375,0.00024754762953078507,3.171569597161824e-05,-1.937487901121521e-06,1.2188916571297797e-05,6.5714,4.2143
3.33984375,0.00031735586588693064,4.7337119491874584e-05,-9.748199661249696e-06,1.0236238631265752e-05,6.5714,4.2143
3.34375,0.0003413066812451362,6.0029526102082876e-05,-2.9138268711375426e-06,1.3165255541313818e-05,6.5714,4.2143
3.34765625,0.0003149150184618906,6.198220404211491e-05,-2.425657386129532e-06,2.1952306271458016e-05,6.5714,4.2143
3.3515625,0.0002919710526665141,6.198220404211491e-05,9.610184161135442e-07,2.976301803158619e-05,6.5714,4.2143
3.35546875,0.00037010868086060885,4.245542464179448e-05,-2.146426730144196e-05,2.5369492666514095e-05,6.5714,4.2143
3.359375,0.000243642273650721,4.0990916186770444e-05,-2.097609781643395e-05,1.9999628331425975e-05,6.5714,4.2143
3.36328125,0.00024950030747081714,5.1730644856946685e-05,-1.937487901121521e-06,2.3416814726482047e-05,6.5714,4.2143
3.3671875,0.0004301535275165942,6.198220404211491e-05,-1.170087760128174e-05,2.292864524147404e-05,6.5714,4.2143
3.37109375,0.00039793434150606547,6.295854301213094e-05,-2.0487928331425938e-05,2.6834001121538125e-05,6.5714,4.2143
3.375,0.00031882037434195466,4.977796691691464e-05,-2.5857792666514058e-05,3.269203494163426e-05,6.5714,4.2143
3.37890625,0.00028074315451132986,4.294359412680248e-05,-3.22039959716182e-05,2.2440475756466028e-05,6.5714,4.2143
3.3828125,0.0003691323418905928,4.34317636118105e-05,-2.0487928331425938e-05,1.902328936140995e-05,6.5714,4.2143
3.38671875,0.0003666914944655528,5.124247537193867e-05,-1.072453863126572e-05,2.6345831636530114e-05,6.5714,4.2143
3.390625,0.00027244427326619363,4.245542464179448e-05,-2.8298640091554114e-05,2.439315369649807e-05,6.5714,4.2143
3.39453125,0.00019381847558709087,1.4629763996337851e-05,-3.2692165456626215e-05,2.5857662151522106e-05,6.5714,4.2143
3.3984375,0.00015476491678645,1.365342502632183e-05,-3.5133012881666264e-05,2.7810340091554148e-05,6.5714,4.2143
3.40234375,0.00034765288455024034,1.951145884641796e-05,-1.8535250391393893e-05,2.488132318150608e-05,6.5714,4.2143
3.40625,0.0004521211543419547,3.171569597161824e-05,4.866374296177632e-06,1.8535119876401938e-05,6.5714,4.2143
3.41015625,0.00033544864742504003,3.220386545662624e-05,-2.536962318150605e-05,1.8046950391393927e-05,6.5714,4.2143
3.4140625,0.00023241437549553672,2.488132318150608e-05,-3.610935185168229e-05,2.1952306271458016e-05,6.5714,4.2143
3.41796875,0.00025487017180590525,2.0975967301441994e-05,-2.9274979061570133e-05,2.1464136786450005e-05,6.5714,4.2143
3.421875,0.00036278613858548866,2.878667906157017e-05,-2.8786809576562122e-05,1.6582441936369896e-05,6.5714,4.2143
3.42578125,0.00037499037571068897,4.0990916186770444e-05,-2.0487928331425938e-05,1.8535119876401938e-05,6.5714,4.2143
3.4296875,0.0003251665776470588,3.5132882366674316e-05,-1.4141725026321795e-05,2.976301803158619e-05,6.5714,4.2143
3.43359375,0.0002519411548958572,2.1952306271458016e-05,-2.634596215152207e-05,3.4156543396658294e-05,6.5714,4.2143
3.4375,0.00026219271408102544,2.3416814726482047e-05,-3.9038368761730354e-05,2.1464136786450005e-05,6.5714,4.2143
3.44140625,0.0002841603409063859,1.902328936140995e-05,-2.634596215152207e-05,1.755878090638592e-05,6.5714,4.2143
3.4453125,0.00023534339240558483,2.829850957656216e-05,-4.3783353261615755e-06,2.2440475756466028e-05,6.5714,4.2143
3.44921875,0.0002968527475165942,3.171569597161824e-05,1.937357386129566e-06,3.318020442664227e-05,6.5714,4.2143
3.453125,0.0001811260689768826,-6.3310132661936195e-06,-3.073948751659417e-05,3.952640773174641e-05,6.5714,4.2143
3.45703125,0.00016159928957656217,-5.842843781185608e-06,-4.53845720668345e-05,2.976301803158619e-05,6.5714,4.2143
3.4609375,0.0003954934940810254,5.842713266193654e-06,-3.122765700160218e-05,2.5857662151522106e-05,6.5714,4.2143
3.46484375,0.0003813365790157931,7.795391206225697e-06,-4.1479216186770404e-05,3.318020442664227e-05,6.5714,4.2143
3.46875,0.0003105214930968185,1.6582441936369896e-05,-6.442318198214692e-05,2.829850957656216e-05,6.5714,4.2143
3.47265625,0.0002485239685008011,1.0236238631265752e-05,-7.665792970016021e-05,2.1952306271458016e-05,6.5714,4.2143
3.4765625,0.0002685389173861296,1.5117933481345863e-05,-7.861060764019224e-05,2.7322170606546137e-05,6.5714,4.2143
3.48046875,0.00030661613721675446,7.307221721217687e-06,-7.128806536507208e-05,2.5369492666514095e-05,6.5714,4.2143
3.484375,0.00035155824043030443,-3.401996356145554e-06,-6.051782610208284e-05,3.171569597161824e-05,6.5714,4.2143
3.48828125,0.0002631690530510414,3.401865841153599e-06,-5.85651481620508e-05,2.5857662151522106e-05,6.5714,4.2143
3.4921875,0.00013523813738612958,-3.890165841153565e-06,-7.031172639505606e-05,1.902328936140995e-05,6.5714,4.2143
3.49609375,0.0002631690530510414,-9.748199661249696e-06,-7.909877712520026e-05,3.3668373911650276e-05,6.5714,4.2143
3.5,0.00037596671468070495,2.0975967301441994e-05,-5.8076978677042786e-05,2.2440475756466028e-05,6.5714,4.2143
3.50390625,0.00035253457940032047,1.755878090638592e-05,-6.1005995587090846e-05,2.0975967301441994e-05,6.5714,4.2143
3.5078125,0.00030173444236667433,-3.073948751659417e-05,-9.325569219043258e-05,2.3904984211490058e-05,6.5714,4.2143
3.51171875,0.00031247417103685057,-1.170087760128174e-05,-8.593314991531242e-05,1.7070611421377907e-05,6.5714,4.2143
3.515625,0.00036717966395056074,1.937357386129566e-06,-0.00010009006498054473,1.4141594511329842e-05,6.5714,4.2143
3.51953125,0.0003330078,-2.425657386129532e-06,-0.00010399542086060881,1.0236238631265752e-05,6.5714,4.2143
3.5234375,0.00032223756073701076,2.0487797816433986e-05,-5.8076978677042786e-05,1.365342502632183e-05,6.5714,4.2143
3.52734375,0.0003080806456717785,2.1464136786450005e-05,-4.636091103685052e-05,2.1952306271458016e-05,6.5714,4.2143
3.53125,0.00030319895082169836,2.4255268711375773e-06,-5.8076978677042786e-05,1.2188916571297797e-05,6.5714,4.2143
3.53515625,0.0002612163751110094,7.307221721217687e-06,-6.247050404211488e-05,1.3165255541313818e-05,6.5714,4.2143
3.5390625,0.00024022508725566493,1.902328936140995e-05,-7.128806536507208e-05,2.5369492666514095e-05,6.5714,4.2143
3.54296875,0.0003676678334355688,1.902328936140995e-05,-5.173077537193864e-05,2.3416814726482047e-05,6.5714,4.2143
3.546875,0.00023876057880064088,3.269203494163426e-05,-1.2677216571297761e-05,2.976301803158619e-05,6.5714,4.2143
3.55078125,0.00019284213661707484,1.8046950391393927e-05,-1.170087760128174e-05,3.7573729791714366e-05,6.5714,4.2143
3.5546875,0.00037938390107576105,8.283560691233709e-06,-5.514796176699472e-05,3.46447128816663e-05,6.5714,4.2143
3.55859375,0.00035936895219043256,2.5857662151522106e-05,-7.22644043350881e-05,3.318020442664227e-05,6.5714,4.2143
3.5625,0.00031296234052185856,1.0236238631265752e-05,-6.588769043717095e-05,1.5117933481345863e-05,6.5714,4.2143
3.56640625,0.00032126122176699473,9.748069146257742e-06,-5.758880919203477e-05,6.819052236209676e-06,6.5714,4.2143
3.5703125,0.00039109996871595327,-3.401996356145554e-06,-6.835904845502402e-05,2.5369492666514095e-05,6.5714,4.2143
3.57421875,0.0003486292235202564,-3.415667391165024e-05,-9.374386167544058e-05,1.951145884641796e-05,6.5714,4.2143
3.578125,0.00031345051000686655,-4.196738567177842e-05,-0.00011522331901579306,6.819052236209676e-06,6.5714,4.2143
3.58203125,0.00030319895082169836,-5.758880919203477e-05,-0.00012352220026092925,1.755878090638592e-05,6.5714,4.2143
3.5859375,0.00027049159532616156,-8.10514550652323e-05,-0.0001391436237811856,2.1464136786450005e-05,6.5714,4.2143
3.58984375,0.00041697295142137787,-9.520837013046461e-05,-0.00018307887743190658,2.3416814726482047e-05,6.5714,4.2143
3.59375,0.0004433341036118105,-0.00013084474253604943,-0.0002275328111604486,3.1227526486610226e-05,6.5714,4.2143
3.59765625,0.0004086740701762417,-0.00016892196236667427,-0.0002621928445960174,3.610922133669034e-05,6.5714,4.2143
3.6015625,0.0004345470528816663,-0.00017233914876173037,-0.00026316918356603336,3.0251187516594204e-05,6.5714,4.2143
3.60546875,0.0004433341036118105,-0.00018942508073701073,-0.0002582874887159533,4.391993309681851e-05,6.5714,4.2143
3.609375,0.0004770483086701762,-0.00022411562476539254,-0.0002856249798764019,5.368332279697873e-05,6.5714,4.2143
3.61328125,0.0004345470528816663,-0.00023680803137560082,-0.00030515175927672237,3.562105185168232e-05,6.5714,4.2143
3.6171875,0.00042039013781643397,-0.000246571421075761,-0.00030515175927672237,4.050274670176243e-05,6.5714,4.2143
3.62109375,0.0004081859006912337,-0.00023436718395056076,-0.0002978292170016021,5.2218814341954696e-05,6.5714,4.2143
3.625,0.0004702139358800641,-0.00020507701485008008,-0.0002963647085465781,4.977796691691464e-05,6.5714,4.2143
3.62890625,0.0005185427148958572,-0.0001923540976470588,-0.0002768379291462577,4.636078052185856e-05,6.5714,4.2143
3.6328125,0.0004755838002151522,-0.0001918659281620508,-0.00027195623429617763,4.34317636118105e-05,6.5714,4.2143
3.63671875,0.0004838826814602884,-0.00020214799794003203,-0.00026853904790112153,3.806189927672238e-05,6.5714,4.2143
3.640625,0.0005234244097459372,-0.00019137775867704277,-0.00026121650562600134,3.952640773174641e-05,6.5714,4.2143
3.64453125,0.0006103490886701762,-0.00014597799657129775,-0.0002319263365255207,3.0251187516594204e-05,6.5714,4.2143
3.6484375,0.0006220651563103685,-0.00011327064107576103,-0.00018698423331197067,3.0739357001602215e-05,6.5714,4.2143
3.65234375,0.0005483210534813458,-0.00011131796313572899,-0.00018259070794689858,3.171569597161824e-05,6.5714,4.2143
3.65625,0.0005229362402609292,-7.079989588006407e-05,-0.00016013491163653008,2.0487797816433986e-05,6.5714,4.2143
3.66015625,0.00041648478193636993,-3.708569082169831e-05,-0.00012254586129091324,2.3416814726482047e-05,6.5714,4.2143
3.6640625,0.0004838826814602884,-2.097609781643395e-05,-8.10514550652323e-05,3.0251187516594204e-05,6.5714,4.2143
3.66796875,0.000641103766225681,-1.609440296635384e-05,-7.079989588006407e-05,2.6345831636530114e-05,6.5714,4.2143
3.671875,0.0005859101038269628,-2.3416945241474e-05,-7.909877712520026e-05,1.951145884641796e-05,6.5714,4.2143
3.67578125,0.00048534718991531244,1.4491879011215552e-06,-3.806202979171434e-05,2.1952306271458016e-05,6.5714,4.2143
3.6796875,0.0004613963745571069,2.829850957656216e-05,-1.072453863126572e-05,3.0739357001602215e-05,6.5714,4.2143
3.68359375,0.0005478328839963378,3.7573729791714366e-05,-1.560623348134583e-05,2.5369492666514095e-05,6.5714,4.2143
3.6875,0.0006074200717601281,6.933525691004809e-05,1.951145884641796e-05,7.307221721217687e-06,6.5714,4.2143
3.69140625,0.0006030265463950561,8.73975278553445e-05,4.050274670176243e-05,1.5117933481345863e-05,6.5714,4.2143
3.6953125,0.0004408932561867704,7.568146021515222e-05,3.5132882366674316e-05,1.365342502632183e-05,6.5714,4.2143
3.69921875,0.0003461883760952163,8.983837528038453e-05,3.318020442664227e-05,7.307221721217687e-06,6.5714,4.2143
3.703125,0.0005483210534813458,0.00010643613777065691,2.829850957656216e-05,6.819052236209676e-06,6.5714,4.2143
3.70703125,0.0006269468511604486,0.00011619952747081714,6.10058650720989e-05,7.795391206225697e-06,6.5714,4.2143
3.7109375,0.0005409985112062257,0.00011619952747081714,8.642118888532846e-05,-7.307352236209642e-06,6.5714,4.2143
3.71484375,0.00047167844433508815,0.00012010488335088121,8.495668043030443e-05,-1.121270811627373e-05,6.5714,4.2143
3.71875,0.0004702139358800641,0.00014011983223620968,0.00010643613777065691,2.913696356145588e-06,6.5714,4.2143
3.72265625,0.00048193000352025634,0.0001371908153261616,0.0001274274256260014,2.913696356145588e-06,6.5714,4.2143
3.7265625,0.0004985277660105287,0.00011619952747081714,0.00012352206974593728,4.7284893110553325e-07,6.5714,4.2143
3.73046875,0.0005405103417212177,8.202766352025636e-05,8.935020579537654e-05,6.819052236209676e-06,6.5714,4.2143
3.734375,0.0004106267481162737,7.128793485008013e-05,4.5872611036850557e-05,1.3165255541313818e-05,6.5714,4.2143
3.73828125,0.0003935408161409934,6.491122095216298e-05,2.0487797816433986e-05,-1.5320553902477717e-08,6.5714,4.2143
3.7421875,0.0005673596633966583,5.514783125200276e-05,5.354543781185643e-06,1.937357386129566e-06,6.5714,4.2143
3.74609375,0.0005824929174319067,4.245542464179448e-05,-1.2677216571297761e-05,8.77173017624172e-06,6.5714,4.2143
3.75,0.0005707768497917144,-3.401996356145554e-06,-4.3431894126802455e-05,1.0236238631265752e-05,6.5714,4.2143
3.75390625,0.0005239125792309453,-3.9526538246738366e-05,-8.886216682536047e-05,1.5606102966353874e-05,6.5714,4.2143
3.7578125,0.0005605252906065461,-6.588769043717095e-05,-0.00010057823446555274,1.4629763996337851e-05,6.5714,4.2143
3.76171875,0.0005849337648569467,-7.812243815518424e-05,-9.227935322041655e-05,1.1212577601281776e-05,6.5714,4.2143
3.765625,0.0005863982733119706,-8.153962455024032e-05,-0.00010594809880064086,1.1212577601281776e-05,6.5714,4.2143
3.76953125,0.0004970632575555047,-8.886216682536047e-05,-0.00012791572562600135,1.6582441936369896e-05,6.5714,4.2143
3.7734375,0.0003901236297459373,-9.960189549553672e-05,-0.00013133291202105743,1.365342502632183e-05,6.5714,4.2143
3.77734375,0.0005195190538658732,-0.00011766416644083312,-0.0001381672848111696,1.755878090638592e-05,6.5714,4.2143
3.78125,0.0005898154597070267,-0.00011327064107576103,-0.0001386554542961776,2.5369492666514095e-05,6.5714,4.2143
3.78515625,0.0005790757310368506,-6.933538742504003e-05,-0.00010692443777065688,1.365342502632183e-05,6.5714,4.2143
3.7890625,0.0005424630196612497,-6.247050404211488e-05,-0.000112294302105745,7.307221721217687e-06,6.5714,4.2143
3.79296875,0.00047070210536507206,-8.593314991531242e-05,-0.00012645121717097733,1.4629763996337851e-05,6.5714,4.2143
3.796875,0.0004955987491004806,-9.227935322041655e-05,-0.0001259630476859693,2.1952306271458016e-05,6.5714,4.2143
3.80078125,0.0005488092229663539,-7.568159073014417e-05,-0.00011864050541084913,2.3904984211490058e-05,6.5714,4.2143
3.8046875,0.0005829810869169146,-4.684908052185853e-05,-8.739765837033644e-05,1.7070611421377907e-05,6.5714,4.2143
3.80859375,0.0005302587825360494,-5.3683453311970684e-05,-6.982355691004805e-05,1.6094272451361885e-05,6.5714,4.2143
3.8125,0.0004790009866102083,-4.9289927946898583e-05,-6.0029656617074824e-05,2.2440475756466028e-05,6.5714,4.2143
3.81640625,0.00045846735764705883,-2.488145369649804e-05,-4.09910467017624e-05,1.2188916571297797e-05,6.5714,4.2143
3.8203125,0.00043601156133669033,4.7284893110553325e-07,-3.366850442664224e-05,1.5117933481345863e-05,6.5714,4.2143
3.82421875,0.0005424630196612497,3.1227526486610226e-05,-9.748199661249696e-06,2.1952306271458016e-05,6.5714,4.2143
3.828125,0.0004311298664866102,3.90382382467384e-05,7.795391206225697e-06,8.283560691233709e-06,6.5714,4.2143
3.83203125,0.0003554635963103685,4.5872611036850557e-05,-1.44931841611351e-06,3.890035326161609e-06,6.5714,4.2143
3.8359375,0.0004985277660105287,5.905318713206685e-05,-9.61148931105499e-07,1.0724408116273763e-05,6.5714,4.2143
3.83984375,0.0005082911557106889,6.787074845502406e-05,2.878667906157017e-05,1.902328936140995e-05,6.5714,4.2143
3.84375,0.0004804654950652323,8.349217197528039e-05,4.245542464179448e-05,1.365342502632183e-05,6.5714,4.2143
3.84765625,0.0004399169172167544,9.71609175555047e-05,1.8046950391393927e-05,1.0724408116273763e-05,6.5714,4.2143
3.8515625,0.00044626312052185857,0.00011424684953078509,3.90382382467384e-05,2.5369492666514095e-05,6.5714,4.2143
3.85546875,0.00045456200176699474,0.00010887698519569697,3.90382382467384e-05,2.829850957656216e-05,6.5714,4.2143
3.859375,0.0004350352223666743,7.079976536507211e-05,3.890035326161609e-06,1.4629763996337851e-05,6.5714,4.2143
3.86328125,0.0003652269860105288,5.905318713206685e-05,4.0990916186770444e-05,1.5606102966353874e-05,6.5714,4.2143
3.8671875,0.00030563979824673837,8.056315506523234e-05,7.275244330510416e-05,2.3416814726482047e-05,6.5714,4.2143
3.87109375,0.00042234281575646604,6.5887559922179e-05,-2.488145369649804e-05,1.5606102966353874e-05,6.5714,4.2143
3.875,0.0004790009866102083,1.9999628331425975e-05,-9.618470910048064e-05,8.283560691233709e-06,6.5714,4.2143
3.87890625,0.00044528678155184254,-9.748199661249696e-06,-8.202779403524831e-05,1.365342502632183e-05,6.5714,4.2143
3.8828125,0.00040232786687113755,-9.748199661249696e-06,-7.909877712520026e-05,1.5117933481345863e-05,6.5714,4.2143
3.88671875,0.00041453210399633786,-2.2928775756465994e-05,-7.812243815518424e-05,1.6094272451361885e-05,6.5714,4.2143
3.890625,0.00047509563073014425,-3.708569082169831e-05,-8.739765837033644e-05,1.1212577601281776e-05,6.5714,4.2143
3.89453125,0.000467284918970016,-5.710063970702676e-05,-0.00010985345468070495,8.77173017624172e-06,6.5714,4.2143
3.8984375,0.0004589555271320668,-9.130301425040053e-05,-0.0001079007767406729,2.5369492666514095e-05,6.5714,4.2143
3.90234375,0.00047167844433508815,-0.00010643626828564887,-0.00011278247159075301,2.439315369649807e-05,6.5714,4.2143
3.90625,0.000510243833650721,-0.000112294302105745,-0.0001342619289311055,1.5117933481345863e-05,6.5714,4.2143
3.91015625,0.00042478366318150605,-0.00011327064107576103,-0.00014646616605630577,1.755878090638592e-05,6.5714,4.2143
3.9140625,0.0003715731893156329,-0.0001303565730510414,-0.0001664811149416342,2.292864524147404e-05,6.5714,4.2143
3.91796875,0.00041013857863126573,-0.00014109630172121765,-0.0001821025384618906,1.6582441936369896e-05,6.5714,4.2143
3.921875,0.0003505819014602884,-0.0001337737594460975,-0.00017087464030670634,9.748069146257742e-06,6.5714,4.2143
3.92578125,0.00042868901906157014,-0.0001645284370016022,-0.00017331548773174638,3.318020442664227e-05,6.5714,4.2143
3.9296875,0.0005063384777706569,-0.00017819718258182648,-0.0001698983013366903,4.538444155184254e-05,6.5714,4.2143
3.93359375,0.00043552339185168234,-0.0001342619289311055,-0.00014646616605630577,3.0739357001602215e-05,6.5714,4.2143
3.9375,0.0004555383407370108,-0.00012352220026092925,-0.00014060813223620966,3.0251187516594204e-05,6.5714,4.2143
3.94140625,0.00043210620545662624,-0.00013279742047608145,-0.00015330053884641794,3.610922133669034e-05,6.5714,4.2143
3.9453125,0.0004887643763103684,-0.00011131796313572899,-0.00013230925099107346,4.9289797431906635e-05,6.5714,4.2143
3.94921875,0.0005034094608606088,-0.00010643626828564887,-0.00010594809880064086,4.9289797431906635e-05,6.5714,4.2143
3.953125,0.0004399169172167544,-0.00013230925099107346,-0.00014451348811627372,4.050274670176243e-05,6.5714,4.2143
3.95703125,0.00032126122176699473,-0.00013523826790112152,-0.0001703864708216983,4.440810258182652e-05,6.5714,4.2143
3.9609375,0.0003735258672556649,-0.00011864050541084913,-0.00014646616605630577,4.001457721675442e-05,6.5714,4.2143
3.96484375,0.000466796749485008,-0.00011034162416571295,-0.00012205769180590522,2.7810340091554148e-05,6.5714,4.2143
3.96875,0.00042429549369649806,-9.276752270542456e-05,-0.00012645121717097733,2.9274848546578178e-05,6.5714,4.2143
3.97265625,0.00046188454404211493,-9.960189549553672e-05,-0.0001342619289311055,4.440810258182652e-05,6.5714,4.2143
3.9765625,0.0003686441724055848,-0.00013328558996108947,-0.00011571148850080108,3.562105185168232e-05,6.5714,4.2143
3.98046875,0.0003071043067017624,-0.00012791572562600135,-0.00013133291202105743,3.0739357001602215e-05,6.5714,4.2143
3.984375,0.000467773088455024,-0.00010155457343556876,-0.00014256081017624168,3.3668373911650276e-05,6.5714,4.2143
3.98828125,0.0004951105796154726,-8.788582785534446e-05,-9.520837013046461e-05,3.0251187516594204e-05,6.5714,4.2143
3.9921875,0.00041306759554131384,-8.593314991531242e-05,-7.079989588006407e-05,2.9274848546578178e-05,6.5714,4.2143
3.99609375,0.00034765288455024034,-6.393501249713892e-05,-9.520837013046461e-05,2.439315369649807e-05,6.5714,4.2143
4.0,0.0003583926132204166,-4.7825419491874556e-05,-8.446864146028837e-05,2.7810340091554148e-05,6.5714,4.2143
4.00390625,0.00037059685034561684,-4.050287721675439e-05,-4.050287721675439e-05,2.7322170606546137e-05,6.5714,4.2143
4.0078125,0.0003500937319752804,-1.755891142137787e-05,-1.951158936140992e-05,1.8046950391393927e-05,6.5714,4.2143
4.01171875,0.00038328925695582514,-1.3653555541313785e-05,-7.795521721217652e-06,1.4629763996337851e-05,6.5714,4.2143
4.015625,0.0002651217309910735,-1.5118063996337817e-05,-9.260030176241686e-06,7.307221721217687e-06,6.5714,4.2143
4.01953125,0.00029490006957656213,1.8535119876401938e-05,8.283560691233709e-06,-1.44931841611351e-06,6.5714,4.2143
4.0234375,0.0004394287477317464,5.075430588693066e-05,2.5857662151522106e-05,-5.842843781185608e-06,6.5714,4.2143
4.02734375,0.0004184374598764019,6.738257897001604e-05,4.636078052185856e-05,-5.842843781185608e-06,6.5714,4.2143
4.03125,0.00040135152790112157,8.30040024902724e-05,7.372878227512018e-05,-1.5320553902477717e-08,6.5714,4.2143
4.03515625,0.00030661613721675446,8.983837528038453e-05,8.495668043030443e-05,-3.890165841153565e-06,6.5714,4.2143
4.0390625,0.0003227257302220188,0.00010204261240558482,0.0001010662734355688,-9.260030176241686e-06,6.5714,4.2143
4.04296875,0.00037450220622568093,0.00011961671386587322,0.00012547474768596933,-9.748199661249696e-06,6.5714,4.2143
4.046875,0.0003842655959258412,0.00012547474768596933,0.0001508595609063859,-9.260030176241686e-06,6.5714,4.2143
4.05078125,0.00026414539202105746,0.00013279728996108952,0.00016648098442664225,-6.3310132661936195e-06,6.5714,4.2143
4.0546875,0.0001635519675165942,0.00012645108665598537,0.0001630637980315862,-9.748199661249696e-06,6.5714,4.2143
4.05859375,0.0003080806456717785,0.00013182095099107348,0.00015281223884641796,-1.2189047086289752e-05,6.5714,4.2143
4.0625,0.00041502027348134585,0.0001591584421515221,0.00018063789949187458,-1.4141725026321795e-05,6.5714,4.2143
4.06640625,0.0003876827823208973,0.00017624437412680247,0.00020556505382009614,-1.170087760128174e-05,6.5714,4.2143
4.0703125,0.00030515162876173043,0.00017526803515678646,0.00021532844352025636,-8.283691206225664e-06,6.5714,4.2143
4.07421875,0.0002978290864866102,0.00017526803515678646,0.00021435210455024033,-1.3165386056305774e-05,6.5714,4.2143
4.078125,0.0003149150184618906,0.0001860077638269627,0.0002080059012451362,-9.748199661249696e-06,6.5714,4.2143
4.08203125,0.0002577991887159533,0.00018796044176699477,0.00023241437549553672,-3.401996356145554e-06,6.5714,4.2143
4.0859375,0.00028123132399633785,0.00019577115352712292,0.00027586145966124973,-6.3310132661936195e-06,6.5714,4.2143
4.08984375,0.0002465712905607691,0.00019970702000000003,0.00029441190009155414,-2.425657386129532e-06,6.5714,4.2143
4.09375,0.00020605322330510416,0.00018844861125200276,0.0002846485103913939,1.4491879011215552e-06,6.5714,4.2143
4.09765625,0.00019723566198214695,0.00018893678073701075,0.00026902708687113753,1.4491879011215552e-06,6.5714,4.2143
4.1015625,0.00018405508588693065,0.00019235396713206685,0.0002763496291462578,1.937357386129566e-06,6.5714,4.2143
4.10546875,0.000244618612620737,0.00018503142485694669,0.00029587640854657817,-1.5320553902477717e-08,6.5714,4.2143
