timestamp,TP9,AF7,AF8,TP10,Valence,Arousal
0.0,5.368308705272e-06,8.788172137026023e-06,2.6851890783550785e-05,-3.270845074387731e-05,6.8571,5.8571
0.00390625,-3.420740314335841e-06,-6.3481434119172845e-06,1.3671737117570771e-05,-4.003379821469443e-05,6.8571,5.8571
0.0078125,3.412146822308699e-06,1.3179276783398193e-05,2.1968325803006038e-05,-3.125158892195009e-05,6.8571,5.8571
0.01171875,1.806284176394294e-05,4.296628727397575e-05,2.343202735179676e-05,-1.5137192431525129e-05,6.8571,5.8571
0.015625,2.1968325803006038e-05,4.735739192034791e-05,2.9779293881132226e-05,-1.4165951216906986e-05,6.8571,5.8571
0.01953125,1.806284176394294e-05,3.3199157312886254e-05,3.759710168612193e-05,-2.0020757412069876e-05,6.8571,5.8571
0.0234375,1.9484452735179755e-06,2.0504624254215315e-05,1.708476082246129e-05,-2.7831725490196068e-05,6.8571,5.8571
0.02734375,-3.906360921644911e-06,2.733751139085985e-05,1.269365617608912e-05,-2.53967827267872e-05,6.8571,5.8571
0.03125,-2.4426593728541907e-06,2.0019003646906242e-05,3.075737482261388e-05,-1.9535136804760803e-05,6.8571,5.8571
0.03515625,-9.768006843671307e-06,9.75941335164417e-06,3.124983515678646e-05,-2.9787887373159366e-05,6.8571,5.8571
0.0390625,-1.1724168726634613e-05,2.926526214999626e-06,2.5388189234760062e-05,-1.9042676470588226e-05,6.8571,5.8571
0.04296875,5.368308705272e-06,1.904092270542459e-05,1.806284176394294e-05,-2.935119707026768e-06,6.8571,5.8571
0.046875,9.75941335164417e-06,3.4662858861676976e-05,4.1502585725185025e-05,-9.282386236362238e-06,6.8571,5.8571
0.05078125,-9.282386236362238e-06,1.5135438666361494e-05,4.58936903715572e-05,-3.0765968314641016e-05,6.8571,5.8571
0.0546875,-5.862522804608215e-06,1.4642978332188917e-05,2.0990244861524388e-05,-2.8809806431677717e-05,6.8571,5.8571
0.05859375,9.703643320363255e-07,1.4642978332188917e-05,2.9779293881132226e-05,-2.1484458960860598e-05,6.8571,5.8571
0.0625,4.3902277637903494e-06,1.8548462371252013e-05,4.0524504783703376e-05,-1.75789749217975e-05,6.8571,5.8571
0.06640625,-3.420740314335841e-06,2.8315592332341507e-05,1.904092270542459e-05,-1.7093354314488428e-05,6.8571,5.8571
0.0703125,-4.884441863126561e-06,2.490256862745099e-05,9.75941335164417e-06,-2.8324185824368647e-05,6.8571,5.8571
0.07421875,4.847437247272523e-07,1.708476082246129e-05,5.853929312581073e-06,-2.1976919295033175e-05,6.8571,5.8571
0.078125,-5.376902197299142e-06,5.368308705272e-06,2.1968325803006038e-05,-2.8809806431677717e-05,6.8571,5.8571
0.08203125,-1.9042676470588226e-05,-1.2209789333943683e-05,-4.933372167543943e-07,-4.24755807049668e-05,6.8571,5.8571
0.0859375,-1.2209789333943683e-05,1.9484452735179755e-06,-1.9570387655451178e-06,-4.0526258548867006e-05,6.8571,5.8571
0.08984375,2.44090560769056e-06,2.490256862745099e-05,1.3179276783398193e-05,-2.6368023941405342e-05,6.8571,5.8571
0.09375,-7.818684687571515e-06,6.832010254062723e-06,1.708476082246129e-05,-2.441870178530555e-05,6.8571,5.8571
0.09765625,-1.1724168726634613e-05,-2.4904322392614623e-05,1.6599140215152218e-05,-3.515023323414968e-05,6.8571,5.8571
0.1015625,-8.304305294880588e-06,-1.6607733707179355e-05,3.904607156481283e-06,-2.5882403334096272e-05,6.8571,5.8571
0.10546875,-1.7093354314488428e-05,-9.789578240634675e-07,-1.3673490882734405e-05,-3.710639511711298e-05,6.8571,5.8571
0.109375,-1.2209789333943683e-05,-8.768825818137315e-10,-1.2695409941252755e-05,-3.5642693568322256e-05,6.8571,5.8571
0.11328125,-1.0746087785152962e-05,-2.0020757412069876e-05,-7.818684687571515e-06,-2.686048427557792e-05,6.8571,5.8571
0.1171875,-1.2695409941252755e-05,-2.34406208438239e-05,-2.34406208438239e-05,-3.4664612626840606e-05,6.8571,5.8571
0.12109375,-5.862522804608215e-06,1.0251873685816747e-05,9.273792744335097e-06,-2.8324185824368647e-05,6.8571,5.8571
0.125,-6.3481434119172845e-06,1.0251873685816747e-05,1.269365617608912e-05,-3.0765968314641016e-05,6.8571,5.8571
0.12890625,-8.304305294880588e-06,1.4642978332188917e-05,2.44090560769056e-06,-2.6368023941405342e-05,6.8571,5.8571
0.1328125,-4.884441863126561e-06,2.6851890783550785e-05,1.8548462371252013e-05,-1.8557055863279154e-05,6.8571,5.8571
0.13671875,-9.768006843671307e-06,1.269365617608912e-05,2.2460786137178614e-05,-1.9042676470588226e-05,6.8571,5.8571
0.140625,-1.5629652765697705e-05,-8.304305294880588e-06,1.171557523460747e-05,-2.0020757412069876e-05,6.8571,5.8571
0.14453125,-1.7093354314488428e-05,2.926526214999626e-06,7.324470588235307e-06,-2.53967827267872e-05,6.8571,5.8571
0.1484375,-9.282386236362238e-06,2.2946406744487687e-05,2.0504624254215315e-05,-1.2209789333943683e-05,6.8571,5.8571
0.15234375,-2.4426593728541907e-06,-4.884441863126561e-06,2.926526214999626e-06,-1.9042676470588226e-05,6.8571,5.8571
0.15625,3.412146822308699e-06,-2.53967827267872e-05,-5.862522804608215e-06,-3.5642693568322256e-05,6.8571,5.8571
0.16015625,2.44090560769056e-06,-2.0513217746242452e-05,-2.1976919295033175e-05,-4.345366164644845e-05,6.8571,5.8571
0.1640625,5.368308705272e-06,-1.1724168726634613e-05,-1.0253627450980382e-05,-4.003379821469443e-05,6.8571,5.8571
0.16796875,2.0504624254215315e-05,-1.7093354314488428e-05,-6.3481434119172845e-06,-3.808447605859463e-05,6.8571,5.8571
0.171875,2.4410108293278413e-05,-2.441870178530555e-05,-4.7359145685511545e-05,-6.103175968566413e-05,6.8571,5.8571
0.17578125,2.8808052666514087e-05,-1.0746087785152962e-05,-3.66139347829404e-05,-6.249546123445485e-05,6.8571,5.8571
0.1796875,3.7104641351949355e-05,-1.4165951216906986e-05,-2.9302266765850297e-05,-6.0053678744182484e-05,6.8571,5.8571
0.18359375,3.027175421530481e-05,-2.441870178530555e-05,-4.931530756847485e-05,-6.493724372472724e-05,6.8571,5.8571
0.1875,2.5388189234760062e-05,-3.174404925612267e-05,-5.3220791607537945e-05,-6.395916278324558e-05,6.8571,5.8571
0.19140625,3.124983515678646e-05,-2.441870178530555e-05,-3.515023323414968e-05,-6.640094527351795e-05,6.8571,5.8571
0.1953125,3.8082722293431004e-05,-1.4651571824216056e-05,-1.1231708392462031e-05,-6.249546123445485e-05,6.8571,5.8571
0.19921875,2.0990244861524388e-05,-2.441870178530555e-05,-8.304305294880588e-06,-5.3220791607537945e-05,6.8571,5.8571
0.203125,1.073749429312582e-05,-2.686048427557792e-05,-1.8557055863279154e-05,-5.0286548783093e-05,6.8571,5.8571
0.20703125,1.9526543312733662e-05,-1.611527337300678e-05,-3.4178992019531534e-05,-4.9800928175783924e-05,6.8571,5.8571
0.2109375,2.0504624254215315e-05,-6.3481434119172845e-06,-1.0253627450980382e-05,-4.198996009765773e-05,6.8571,5.8571
0.21484375,9.273792744335097e-06,-1.0253627450980382e-05,-1.4165951216906986e-05,-5.7611896253910105e-05,6.8571,5.8571
0.21875,6.34638964675365e-06,-1.6607733707179355e-05,-3.710639511711298e-05,-7.274821180285343e-05,6.8571,5.8571
0.22265625,9.75941335164417e-06,-9.768006843671307e-06,-2.2462539902342248e-05,-5.614819470511939e-05,6.8571,5.8571
0.2265625,3.412146822308699e-06,-8.768825818137315e-10,-7.818684687571515e-06,-4.3939282253757524e-05,6.8571,5.8571
0.23046875,1.4628246662089096e-06,-8.304305294880588e-06,-7.326224353398935e-06,-4.491736319523917e-05,6.8571,5.8571
0.234375,2.44090560769056e-06,-2.8324185824368647e-05,-1.807143525597008e-05,-4.7359145685511545e-05,6.8571,5.8571
0.23828125,6.34638964675365e-06,-2.34406208438239e-05,-9.768006843671307e-06,-3.66139347829404e-05,6.8571,5.8571
0.2421875,9.703643320363255e-07,-2.0020757412069876e-05,-6.3481434119172845e-06,-3.66139347829404e-05,6.8571,5.8571
0.24609375,-8.304305294880588e-06,-1.1231708392462031e-05,-1.4651571824216056e-05,-4.345366164644845e-05,6.8571,5.8571
0.25,-3.906360921644911e-06,-7.818684687571515e-06,1.4628246662089096e-06,-3.954817760738536e-05,6.8571,5.8571
0.25390625,-8.768825818137315e-10,5.368308705272e-06,1.4642978332188917e-05,-3.368653168535896e-05,6.8571,5.8571
0.2578125,-9.282386236362238e-06,-1.611527337300678e-05,-9.768006843671307e-06,-3.808447605859463e-05,6.8571,5.8571
0.26171875,-1.8557055863279154e-05,-5.566257409781032e-05,-2.4904322392614623e-05,-4.24755807049668e-05,6.8571,5.8571
0.265625,-2.0020757412069876e-05,-3.125158892195009e-05,-1.75789749217975e-05,-3.612831417563133e-05,6.8571,5.8571
0.26953125,-1.4651571824216056e-05,-5.376902197299142e-06,-1.4165951216906986e-05,-3.027350798046844e-05,6.8571,5.8571
0.2734375,-6.840603746089865e-06,-2.0020757412069876e-05,-1.2695409941252755e-05,-3.270845074387731e-05,6.8571,5.8571
0.27734375,-4.933372167543943e-07,-3.710639511711298e-05,-2.1484458960860598e-05,-4.198996009765773e-05,6.8571,5.8571
0.28125,9.703643320363255e-07,-4.345366164644845e-05,-1.5629652765697705e-05,-4.0526258548867006e-05,6.8571,5.8571
0.28515625,-4.884441863126561e-06,-3.954817760738536e-05,9.703643320363255e-07,-3.710639511711298e-05,6.8571,5.8571
0.2890625,4.847437247272523e-07,-4.149749976348515e-05,1.0251873685816747e-05,-3.808447605859463e-05,6.8571,5.8571
0.29296875,1.4628246662089096e-06,-4.8337226626993195e-05,-4.398821255817492e-06,-4.345366164644845e-05,6.8571,5.8571
0.296875,-1.464578431372537e-06,-5.370641221484702e-05,-3.420740314335841e-06,-3.66139347829404e-05,6.8571,5.8571
0.30078125,1.0251873685816747e-05,-4.540298380254824e-05,1.269365617608912e-05,-2.34406208438239e-05,6.8571,5.8571
0.3046875,9.273792744335097e-06,-4.198996009765773e-05,-3.906360921644911e-06,-3.4664612626840606e-05,6.8571,5.8571
0.30859375,4.8826880979629335e-06,-4.3939282253757524e-05,-9.282386236362238e-06,-4.101187915617608e-05,6.8571,5.8571
0.3125,1.4157357724879844e-05,-3.2222830136568235e-05,1.6113519607843145e-05,-2.8324185824368647e-05,6.8571,5.8571
0.31640625,1.904092270542459e-05,-2.7831725490196068e-05,2.8315592332341507e-05,-2.1484458960860598e-05,6.8571,5.8571
0.3203125,1.073749429312582e-05,-4.540298380254824e-05,6.34638964675365e-06,-3.3200911078049884e-05,6.8571,5.8571
0.32421875,-9.789578240634675e-07,-5.175709005874722e-05,-1.4651571824216056e-05,-3.368653168535896e-05,6.8571,5.8571
0.328125,-3.906360921644911e-06,-4.0526258548867006e-05,-2.935119707026768e-06,-2.34406208438239e-05,6.8571,5.8571
0.33203125,-5.376902197299142e-06,-2.734610488288699e-05,1.708476082246129e-05,-2.1976919295033175e-05,6.8571,5.8571
0.3359375,-9.282386236362238e-06,-3.5642693568322256e-05,9.703643320363255e-07,-3.027350798046844e-05,6.8571,5.8571
0.33984375,-1.9042676470588226e-05,-4.198996009765773e-05,-5.862522804608215e-06,-2.8809806431677717e-05,6.8571,5.8571
0.34375,-2.4904322392614623e-05,-4.491736319523917e-05,-5.376902197299142e-06,-2.8324185824368647e-05,6.8571,5.8571
0.34765625,-1.3187870275425332e-05,-4.44317425879301e-05,-1.0746087785152962e-05,-3.954817760738536e-05,6.8571,5.8571
0.3515625,-1.3187870275425332e-05,-4.882284723430227e-05,-6.840603746089865e-06,-4.0526258548867006e-05,6.8571,5.8571
0.35546875,-1.3673490882734405e-05,-4.687352507820247e-05,-1.6607733707179355e-05,-3.515023323414968e-05,6.8571,5.8571
0.359375,-3.420740314335841e-06,-2.4904322392614623e-05,-7.326224353398935e-06,-2.2462539902342248e-05,6.8571,5.8571
0.36328125,-3.906360921644911e-06,-3.2222830136568235e-05,-3.420740314335841e-06,-1.4165951216906986e-05,6.8571,5.8571
0.3671875,-1.3187870275425332e-05,-3.515023323414968e-05,-3.270845074387731e-05,-3.66139347829404e-05,6.8571,5.8571
0.37109375,-1.0746087785152962e-05,-2.0513217746242452e-05,-2.0020757412069876e-05,-3.710639511711298e-05,6.8571,5.8571
0.375,-6.3481434119172845e-06,-3.710639511711298e-05,-4.884441863126561e-06,-2.4904322392614623e-05,6.8571,5.8571
0.37890625,2.44090560769056e-06,-4.149749976348515e-05,-9.789578240634675e-07,-2.392624145113297e-05,6.8571,5.8571
0.3828125,1.806284176394294e-05,-2.1976919295033175e-05,1.4157357724879844e-05,-1.807143525597008e-05,6.8571,5.8571
0.38671875,1.073749429312582e-05,-7.818684687571515e-06,1.3671737117570771e-05,-1.3673490882734405e-05,6.8571,5.8571
0.390625,5.368308705272e-06,-8.789925902189658e-06,2.2946406744487687e-05,-1.2695409941252755e-05,6.8571,5.8571
0.39453125,1.708476082246129e-05,8.788172137026023e-06,2.392448768596934e-05,-1.5629652765697705e-05,6.8571,5.8571
0.3984375,2.44090560769056e-06,-1.3673490882734405e-05,-3.420740314335841e-06,-2.34406208438239e-05,6.8571,5.8571
0.40234375,-6.840603746089865e-06,-4.7359145685511545e-05,-3.906360921644911e-06,-1.9535136804760803e-05,6.8571,5.8571
0.40625,-8.768825818137315e-10,-1.2209789333943683e-05,3.369161764705883e-05,-7.818684687571515e-06,6.8571,5.8571
0.41015625,-2.935119707026768e-06,-1.2209789333943683e-05,1.269365617608912e-05,-2.53967827267872e-05,6.8571,5.8571
0.4140625,-4.884441863126561e-06,-1.6607733707179355e-05,-7.326224353398935e-06,-2.2462539902342248e-05,6.8571,5.8571
0.41796875,-8.768825818137315e-10,5.368308705272e-06,2.1482705195696965e-05,-1.2695409941252755e-05,6.8571,5.8571
0.421875,-8.789925902189658e-06,-4.884441863126561e-06,2.490256862745099e-05,-1.8557055863279154e-05,6.8571,5.8571
0.42578125,-8.789925902189658e-06,-1.9042676470588226e-05,2.0504624254215315e-05,-1.5629652765697705e-05,6.8571,5.8571
0.4296875,-1.9570387655451178e-06,-1.611527337300678e-05,8.788172137026023e-06,-1.1231708392462031e-05,6.8571,5.8571
0.43359375,4.8826880979629335e-06,-1.1724168726634613e-05,-8.768825818137315e-10,-1.0253627450980382e-05,6.8571,5.8571
0.4375,1.6113519607843145e-05,-7.818684687571515e-06,6.832010254062723e-06,-1.6607733707179355e-05,6.8571,5.8571
0.44140625,1.4642978332188917e-05,-1.611527337300678e-05,1.4628246662089096e-06,-2.8324185824368647e-05,6.8571,5.8571
0.4453125,7.324470588235307e-06,-1.611527337300678e-05,-9.768006843671307e-06,-3.4664612626840606e-05,6.8571,5.8571
0.44921875,1.8548462371252013e-05,4.847437247272523e-07,4.847437247272523e-07,-2.2462539902342248e-05,6.8571,5.8571
0.453125,1.269365617608912e-05,-1.6607733707179355e-05,6.34638964675365e-06,-1.9535136804760803e-05,6.8571,5.8571
0.45703125,-1.464578431372537e-06,-5.077900911726557e-05,-1.2695409941252755e-05,-3.125158892195009e-05,6.8571,5.8571
0.4609375,4.3902277637903494e-06,-4.149749976348515e-05,-5.862522804608215e-06,-2.5882403334096272e-05,6.8571,5.8571
0.46484375,5.368308705272e-06,-3.515023323414968e-05,-5.376902197299142e-06,-2.441870178530555e-05,6.8571,5.8571
0.46875,-4.933372167543943e-07,-4.149749976348515e-05,-1.2209789333943683e-05,-3.5642693568322256e-05,6.8571,5.8571
0.47265625,2.926526214999626e-06,-2.7831725490196068e-05,-3.420740314335841e-06,-3.0765968314641016e-05,6.8571,5.8571
0.4765625,8.295711802853446e-06,-2.1484458960860598e-05,9.703643320363255e-07,-1.8557055863279154e-05,6.8571,5.8571
0.48046875,-5.862522804608215e-06,-2.7831725490196068e-05,-3.420740314335841e-06,-2.734610488288699e-05,6.8571,5.8571
0.484375,-8.789925902189658e-06,-3.027350798046844e-05,-7.818684687571515e-06,-3.954817760738536e-05,6.8571,5.8571
0.48828125,3.412146822308699e-06,-2.9302266765850297e-05,-1.9570387655451178e-06,-2.686048427557792e-05,6.8571,5.8571
0.4921875,-1.9570387655451178e-06,-2.8809806431677717e-05,-1.5137192431525129e-05,-1.2695409941252755e-05,6.8571,5.8571
0.49609375,-3.420740314335841e-06,-4.0526258548867006e-05,-5.862522804608215e-06,-3.906360921644911e-06,6.8571,5.8571
0.5,-4.933372167543943e-07,-4.687352507820247e-05,2.44090560769056e-06,-8.304305294880588e-06,6.8571,5.8571
0.50390625,-5.376902197299142e-06,-2.9787887373159366e-05,-1.9570387655451178e-06,-2.0020757412069876e-05,6.8571,5.8571
0.5078125,-6.840603746089865e-06,-1.807143525597008e-05,3.904607156481283e-06,-1.2209789333943683e-05,6.8571,5.8571
0.51171875,-4.884441863126561e-06,-7.818684687571515e-06,9.75941335164417e-06,-1.611527337300678e-05,6.8571,5.8571
0.515625,-2.935119707026768e-06,2.44090560769056e-06,1.6599140215152218e-05,-2.734610488288699e-05,6.8571,5.8571
0.51953125,-9.768006843671307e-06,4.3902277637903494e-06,1.6113519607843145e-05,-7.326224353398935e-06,6.8571,5.8571
0.5234375,-8.304305294880588e-06,-2.935119707026768e-06,2.926526214999626e-06,7.810091195544373e-06,6.8571,5.8571
0.52734375,-8.768825818137315e-10,-1.611527337300678e-05,-1.0253627450980382e-05,-8.768825818137315e-10,6.8571,5.8571
0.53125,-6.3481434119172845e-06,-1.2695409941252755e-05,-6.3481434119172845e-06,-1.1231708392462031e-05,6.8571,5.8571
0.53515625,-4.884441863126561e-06,-6.3481434119172845e-06,-4.398821255817492e-06,-7.818684687571515e-06,6.8571,5.8571
0.5390625,2.926526214999626e-06,-9.282386236362238e-06,1.171557523460747e-05,8.295711802853446e-06,6.8571,5.8571
0.54296875,-6.3481434119172845e-06,-6.3481434119172845e-06,4.0524504783703376e-05,1.708476082246129e-05,6.8571,5.8571
0.546875,-1.807143525597008e-05,-1.0253627450980382e-05,1.6113519607843145e-05,1.1229954627298398e-05,6.8571,5.8571
0.55078125,-2.0513217746242452e-05,-1.9042676470588226e-05,-1.464578431372537e-06,1.904092270542459e-05,6.8571,5.8571
0.5546875,-2.2955000236514828e-05,-1.8557055863279154e-05,4.8826880979629335e-06,2.5388189234760062e-05,6.8571,5.8571
0.55859375,-3.9055717273212774e-05,-2.392624145113297e-05,8.295711802853446e-06,1.269365617608912e-05,6.8571,5.8571
0.5625,-5.3220791607537945e-05,-3.368653168535896e-05,7.324470588235307e-06,-7.818684687571515e-06,6.8571,5.8571
0.56640625,-4.8337226626993195e-05,-2.53967827267872e-05,1.0251873685816747e-05,-1.0253627450980382e-05,6.8571,5.8571
0.5703125,-4.44317425879301e-05,-1.1724168726634613e-05,1.269365617608912e-05,1.9484452735179755e-06,6.8571,5.8571
0.57421875,-4.589544413672082e-05,-1.4165951216906986e-05,1.4642978332188917e-05,-2.4426593728541907e-06,6.8571,5.8571
0.578125,-3.759201572442205e-05,-1.6607733707179355e-05,2.2946406744487687e-05,-3.420740314335841e-06,6.8571,5.8571
0.58203125,-3.5642693568322256e-05,-9.768006843671307e-06,1.5621059273670568e-05,1.269365617608912e-05,6.8571,5.8571
0.5859375,-5.1264629724574646e-05,4.8826880979629335e-06,1.7577221156633867e-05,1.0251873685816747e-05,6.8571,5.8571
0.58984375,-5.0286548783093e-05,1.4628246662089096e-06,1.904092270542459e-05,-4.398821255817492e-06,6.8571,5.8571
0.59375,-4.296804103913938e-05,-3.906360921644911e-06,1.2201195841916544e-05,-3.420740314335841e-06,6.8571,5.8571
0.59765625,-4.0526258548867006e-05,-4.933372167543943e-07,1.708476082246129e-05,-4.398821255817492e-06,6.8571,5.8571
0.6015625,-4.589544413672082e-05,-1.3187870275425332e-05,6.832010254062723e-06,-4.398821255817492e-06,6.8571,5.8571
0.60546875,-5.468449315632867e-05,-1.0253627450980382e-05,3.412146822308699e-06,-1.464578431372537e-06,6.8571,5.8571
0.609375,-5.1264629724574646e-05,3.2221076371404604e-05,2.9779293881132226e-05,-7.326224353398935e-06,6.8571,5.8571
0.61328125,-3.5642693568322256e-05,4.58936903715572e-05,3.661902074464028e-05,6.832010254062723e-06,6.8571,5.8571
0.6171875,-2.4904322392614623e-05,1.4628246662089096e-06,2.1482705195696965e-05,1.904092270542459e-05,6.8571,5.8571
0.62109375,-2.441870178530555e-05,-1.9042676470588226e-05,1.7577221156633867e-05,3.904607156481283e-06,6.8571,5.8571
0.625,-2.7831725490196068e-05,-3.420740314335841e-06,2.1482705195696965e-05,-1.0253627450980382e-05,6.8571,5.8571
0.62890625,-2.686048427557792e-05,5.368308705272e-06,3.173545576409553e-05,-6.3481434119172845e-06,6.8571,5.8571
0.6328125,-2.5882403334096272e-05,1.171557523460747e-05,3.759710168612193e-05,-4.398821255817492e-06,6.8571,5.8571
0.63671875,-2.8809806431677717e-05,5.368308705272e-06,2.2946406744487687e-05,-1.1231708392462031e-05,6.8571,5.8571
0.640625,-3.027350798046844e-05,-7.326224353398935e-06,1.9484452735179755e-06,-1.6607733707179355e-05,6.8571,5.8571
0.64453125,-2.8324185824368647e-05,1.4642978332188917e-05,1.9526543312733662e-05,-6.3481434119172845e-06,6.8571,5.8571
0.6484375,-2.0998838353551525e-05,3.2221076371404604e-05,3.8082722293431004e-05,-1.9570387655451178e-06,6.8571,5.8571
0.65234375,-2.7831725490196068e-05,1.269365617608912e-05,1.708476082246129e-05,-1.1724168726634613e-05,6.8571,5.8571
0.65625,-1.8557055863279154e-05,1.9484452735179755e-06,7.810091195544373e-06,-1.4651571824216056e-05,6.8571,5.8571
0.66015625,-1.611527337300678e-05,-3.906360921644911e-06,-1.464578431372537e-06,-1.4165951216906986e-05,6.8571,5.8571
0.6640625,-2.9787887373159366e-05,3.412146822308699e-06,7.810091195544373e-06,-1.4651571824216056e-05,6.8571,5.8571
0.66796875,-1.807143525597008e-05,-1.9570387655451178e-06,1.1229954627298398e-05,-2.8809806431677717e-05,6.8571,5.8571
0.671875,-2.8809806431677717e-05,2.926526214999626e-06,4.847437247272523e-07,-2.9787887373159366e-05,6.8571,5.8571
0.67578125,-4.24755807049668e-05,1.269365617608912e-05,6.34638964675365e-06,-1.4165951216906986e-05,6.8571,5.8571
0.6796875,-3.954817760738536e-05,-7.326224353398935e-06,3.412146822308699e-06,-2.0998838353551525e-05,6.8571,5.8571
0.68359375,-4.345366164644845e-05,-1.0746087785152962e-05,-8.789925902189658e-06,-3.808447605859463e-05,6.8571,5.8571
0.6875,-3.9055717273212774e-05,1.708476082246129e-05,-2.935119707026768e-06,-2.0998838353551525e-05,6.8571,5.8571
0.69140625,-2.7831725490196068e-05,3.369161764705883e-05,2.0990244861524388e-05,9.703643320363255e-07,6.8571,5.8571
0.6953125,-2.4904322392614623e-05,1.8548462371252013e-05,1.1229954627298398e-05,-2.4426593728541907e-06,6.8571,5.8571
0.69921875,-2.0998838353551525e-05,-1.4651571824216056e-05,-1.611527337300678e-05,-6.3481434119172845e-06,6.8571,5.8571
0.703125,-2.441870178530555e-05,-7.326224353398935e-06,-1.464578431372537e-06,-8.789925902189658e-06,6.8571,5.8571
0.70703125,-1.9042676470588226e-05,8.295711802853446e-06,4.3902277637903494e-06,-1.3673490882734405e-05,6.8571,5.8571
0.7109375,-1.807143525597008e-05,-9.789578240634675e-07,3.412146822308699e-06,-1.611527337300678e-05,6.8571,5.8571
0.71484375,-2.53967827267872e-05,3.904607156481283e-06,-6.840603746089865e-06,-9.768006843671307e-06,6.8571,5.8571
0.71875,-1.5629652765697705e-05,4.8826880979629335e-06,-3.420740314335841e-06,2.44090560769056e-06,6.8571,5.8571
0.72265625,-2.0998838353551525e-05,-3.906360921644911e-06,3.904607156481283e-06,2.44090560769056e-06,6.8571,5.8571
0.7265625,-2.8809806431677717e-05,-3.420740314335841e-06,-1.9570387655451178e-06,-1.0746087785152962e-05,6.8571,5.8571
0.73046875,-2.5882403334096272e-05,4.8826880979629335e-06,9.273792744335097e-06,-1.0746087785152962e-05,6.8571,5.8571
0.734375,-1.7093354314488428e-05,2.0019003646906242e-05,2.636627017624171e-05,-8.768825818137315e-10,6.8571,5.8571
0.73828125,-1.6607733707179355e-05,1.6113519607843145e-05,2.8808052666514087e-05,-3.906360921644911e-06,6.8571,5.8571
0.7421875,-3.2222830136568235e-05,-1.0746087785152962e-05,-4.933372167543943e-07,-1.8557055863279154e-05,6.8571,5.8571
0.74609375,-3.027350798046844e-05,3.412146822308699e-06,-9.768006843671307e-06,-1.611527337300678e-05,6.8571,5.8571
0.75,-2.9787887373159366e-05,2.636627017624171e-05,1.4628246662089096e-06,-3.027350798046844e-05,6.8571,5.8571
0.75390625,-2.4904322392614623e-05,2.733751139085985e-05,2.0990244861524388e-05,-3.174404925612267e-05,6.8571,5.8571
0.7578125,-2.0020757412069876e-05,1.0251873685816747e-05,1.4157357724879844e-05,-2.686048427557792e-05,6.8571,5.8571
0.76171875,-2.53967827267872e-05,1.2201195841916544e-05,-4.884441863126561e-06,-3.5642693568322256e-05,6.8571,5.8571
0.765625,-2.1976919295033175e-05,1.708476082246129e-05,6.832010254062723e-06,-2.392624145113297e-05,6.8571,5.8571
0.76953125,-1.75789749217975e-05,2.392448768596934e-05,1.5621059273670568e-05,-1.2695409941252755e-05,6.8571,5.8571
0.7734375,-2.441870178530555e-05,1.3671737117570771e-05,9.75941335164417e-06,-2.0998838353551525e-05,6.8571,5.8571
0.77734375,-2.2462539902342248e-05,4.8826880979629335e-06,9.703643320363255e-07,-2.5882403334096272e-05,6.8571,5.8571
0.78125,-1.7093354314488428e-05,2.4410108293278413e-05,1.6113519607843145e-05,-1.2695409941252755e-05,6.8571,5.8571
0.78515625,-2.441870178530555e-05,1.6113519607843145e-05,2.343202735179676e-05,-2.5882403334096272e-05,6.8571,5.8571
0.7890625,-2.0998838353551525e-05,2.0990244861524388e-05,1.3179276783398193e-05,-2.9787887373159366e-05,6.8571,5.8571
0.79296875,-1.4651571824216056e-05,2.929367327382316e-05,2.733751139085985e-05,-1.9042676470588226e-05,6.8571,5.8571
0.796875,-5.862522804608215e-06,8.788172137026023e-06,2.490256862745099e-05,-2.392624145113297e-05,6.8571,5.8571
0.80078125,-1.3187870275425332e-05,-8.789925902189658e-06,5.368308705272e-06,-1.75789749217975e-05,6.8571,5.8571
0.8046875,-1.7093354314488428e-05,-8.768825818137315e-10,9.703643320363255e-07,-1.75789749217975e-05,6.8571,5.8571
0.80859375,-4.933372167543943e-07,1.269365617608912e-05,2.1482705195696965e-05,-2.1484458960860598e-05,6.8571,5.8571
0.8125,5.368308705272e-06,2.0019003646906242e-05,2.8315592332341507e-05,-1.75789749217975e-05,6.8571,5.8571
0.81640625,9.703643320363255e-07,1.6599140215152218e-05,1.3179276783398193e-05,-1.807143525597008e-05,6.8571,5.8571
0.8203125,-5.376902197299142e-06,-4.933372167543943e-07,4.3902277637903494e-06,-2.392624145113297e-05,6.8571,5.8571
0.82421875,-5.376902197299142e-06,7.324470588235307e-06,6.34638964675365e-06,-1.75789749217975e-05,6.8571,5.8571
0.828125,-1.0746087785152962e-05,9.75941335164417e-06,8.295711802853446e-06,-1.7093354314488428e-05,6.8571,5.8571
0.83203125,-1.7093354314488428e-05,-8.304305294880588e-06,-1.5137192431525129e-05,-3.5642693568322256e-05,6.8571,5.8571
0.8359375,-4.933372167543943e-07,1.3671737117570771e-05,-6.3481434119172845e-06,-2.9302266765850297e-05,6.8571,5.8571
0.83984375,-5.862522804608215e-06,-1.9570387655451178e-06,2.44090560769056e-06,-2.34406208438239e-05,6.8571,5.8571
0.84375,-1.3187870275425332e-05,-1.8557055863279154e-05,-1.7093354314488428e-05,-3.515023323414968e-05,6.8571,5.8571
0.84765625,-1.9570387655451178e-06,3.412146822308699e-06,-2.1976919295033175e-05,-3.808447605859463e-05,6.8571,5.8571
0.8515625,-1.0746087785152962e-05,5.368308705272e-06,-3.420740314335841e-06,-3.4178992019531534e-05,6.8571,5.8571
0.85546875,-6.3481434119172845e-06,-9.282386236362238e-06,5.853929312581073e-06,-2.8324185824368647e-05,6.8571,5.8571
0.859375,4.847437247272523e-07,-1.0253627450980382e-05,3.412146822308699e-06,-2.9787887373159366e-05,6.8571,5.8571
0.86328125,-1.0253627450980382e-05,-1.3673490882734405e-05,-1.4651571824216056e-05,-3.5642693568322256e-05,6.8571,5.8571
0.8671875,-1.4165951216906986e-05,-1.611527337300678e-05,-2.0513217746242452e-05,-3.515023323414968e-05,6.8571,5.8571
0.87109375,-8.789925902189658e-06,-4.398821255817492e-06,-8.768825818137315e-10,-3.174404925612267e-05,6.8571,5.8571
0.875,-1.2209789333943683e-05,-2.0513217746242452e-05,-1.807143525597008e-05,-4.149749976348515e-05,6.8571,5.8571
0.87890625,-1.5137192431525129e-05,-3.270845074387731e-05,-2.4904322392614623e-05,-4.198996009765773e-05,6.8571,5.8571
0.8828125,3.904607156481283e-06,-6.840603746089865e-06,-1.807143525597008e-05,-3.66139347829404e-05,6.8571,5.8571
0.88671875,2.44090560769056e-06,1.1229954627298398e-05,-1.4165951216906986e-05,-3.2222830136568235e-05,6.8571,5.8571
0.890625,-1.0253627450980382e-05,-8.304305294880588e-06,-2.1484458960860598e-05,-3.612831417563133e-05,6.8571,5.8571
0.89453125,2.44090560769056e-06,8.295711802853446e-06,-2.1484458960860598e-05,-4.9800928175783924e-05,6.8571,5.8571
0.8984375,7.810091195544373e-06,3.856834290074008e-05,-3.420740314335841e-06,-5.077900911726557e-05,6.8571,5.8571
0.90234375,-6.3481434119172845e-06,1.171557523460747e-05,-6.840603746089865e-06,-4.0526258548867006e-05,6.8571,5.8571
0.90625,-8.304305294880588e-06,-7.326224353398935e-06,-1.3187870275425332e-05,-2.392624145113297e-05,6.8571,5.8571
0.91015625,-1.3673490882734405e-05,-4.398821255817492e-06,-1.0253627450980382e-05,-1.2695409941252755e-05,6.8571,5.8571
0.9140625,-1.5629652765697705e-05,-7.326224353398935e-06,4.847437247272523e-07,9.703643320363255e-07,6.8571,5.8571
0.91796875,-1.5137192431525129e-05,-2.1976919295033175e-05,-1.0253627450980382e-05,4.8826880979629335e-06,6.8571,5.8571
0.921875,-3.270845074387731e-05,-2.2462539902342248e-05,-4.345366164644845e-05,-1.4651571824216056e-05,6.8571,5.8571
0.92578125,-3.515023323414968e-05,-1.807143525597008e-05,-3.4178992019531534e-05,-9.282386236362238e-06,6.8571,5.8571
0.9296875,-2.9302266765850297e-05,-2.2462539902342248e-05,-1.8557055863279154e-05,1.9484452735179755e-06,6.8571,5.8571
0.93359375,-2.7831725490196068e-05,-1.9570387655451178e-06,-1.0253627450980382e-05,7.810091195544373e-06,6.8571,5.8571
0.9375,-4.3939282253757524e-05,-2.0998838353551525e-05,-7.818684687571515e-06,1.171557523460747e-05,6.8571,5.8571
0.94140625,-5.712627564660104e-05,-2.441870178530555e-05,-1.1724168726634613e-05,7.810091195544373e-06,6.8571,5.8571
0.9453125,-5.7611896253910105e-05,-9.789578240634675e-07,2.44090560769056e-06,4.3902277637903494e-06,6.8571,5.8571
0.94921875,-5.077900911726557e-05,8.788172137026023e-06,1.269365617608912e-05,3.412146822308699e-06,6.8571,5.8571
0.953125,-4.0526258548867006e-05,1.1229954627298398e-05,1.9526543312733662e-05,1.073749429312582e-05,6.8571,5.8571
0.95703125,-3.85700966659037e-05,8.295711802853446e-06,2.4410108293278413e-05,3.904607156481283e-06,6.8571,5.8571
0.9609375,-2.734610488288699e-05,3.904607156481283e-06,2.5388189234760062e-05,1.4628246662089096e-06,6.8571,5.8571
0.96484375,-3.2222830136568235e-05,7.810091195544373e-06,2.0990244861524388e-05,-1.464578431372537e-06,6.8571,5.8571
0.96875,-4.687352507820247e-05,2.343202735179676e-05,1.1229954627298398e-05,-6.3481434119172845e-06,6.8571,5.8571
0.97265625,-3.027350798046844e-05,2.9779293881132226e-05,1.6113519607843145e-05,5.853929312581073e-06,6.8571,5.8571
0.9765625,-8.304305294880588e-06,2.929367327382316e-05,1.8548462371252013e-05,1.6113519607843145e-05,6.8571,5.8571
0.98046875,-2.0998838353551525e-05,6.34638964675365e-06,1.171557523460747e-05,-7.818684687571515e-06,6.8571,5.8571
0.984375,-3.759201572442205e-05,7.324470588235307e-06,1.7577221156633867e-05,-2.7831725490196068e-05,6.8571,5.8571
0.98828125,-2.6368023941405342e-05,4.833547286182957e-05,3.3199157312886254e-05,-1.1231708392462031e-05,6.8571,5.8571
0.9921875,-2.2462539902342248e-05,4.19882063324941e-05,7.324470588235307e-06,-8.304305294880588e-06,6.8571,5.8571
0.99609375,-1.9535136804760803e-05,1.269365617608912e-05,-4.884441863126561e-06,-9.282386236362238e-06,6.8571,5.8571
1.0,-1.3673490882734405e-05,1.7577221156633867e-05,2.6851890783550785e-05,8.788172137026023e-06,6.8571,5.8571
1.00390625,-1.8557055863279154e-05,3.075737482261388e-05,1.4642978332188917e-05,4.3902277637903494e-06,6.8571,5.8571
1.0078125,-2.1976919295033175e-05,1.8548462371252013e-05,-8.768825818137315e-10,-1.75789749217975e-05,6.8571,5.8571
1.01171875,-1.3673490882734405e-05,2.636627017624171e-05,1.5621059273670568e-05,-1.9535136804760803e-05,6.8571,5.8571
1.015625,-1.9042676470588226e-05,2.0990244861524388e-05,2.0990244861524388e-05,-1.8557055863279154e-05,6.8571,5.8571
1.01953125,-1.2695409941252755e-05,2.2460786137178614e-05,3.856834290074008e-05,-1.0746087785152962e-05,6.8571,5.8571
1.0234375,9.273792744335097e-06,2.636627017624171e-05,2.6851890783550785e-05,-1.2695409941252755e-05,6.8571,5.8571
1.02734375,-1.1231708392462031e-05,9.75941335164417e-06,-9.768006843671307e-06,-3.5642693568322256e-05,6.8571,5.8571
1.03125,-2.1976919295033175e-05,1.6113519607843145e-05,-8.789925902189658e-06,-2.7831725490196068e-05,6.8571,5.8571
1.03515625,-1.3673490882734405e-05,1.5135438666361494e-05,5.368308705272e-06,-1.75789749217975e-05,6.8571,5.8571
1.0390625,-3.420740314335841e-06,9.273792744335097e-06,7.324470588235307e-06,-2.686048427557792e-05,6.8571,5.8571
1.04296875,6.34638964675365e-06,3.661902074464028e-05,-8.789925902189658e-06,-2.734610488288699e-05,6.8571,5.8571
1.046875,-7.818684687571515e-06,5.32190378423743e-05,-2.4426593728541907e-06,-2.1484458960860598e-05,6.8571,5.8571
1.05078125,-4.398821255817492e-06,2.8315592332341507e-05,1.1229954627298398e-05,-1.4165951216906986e-05,6.8571,5.8571
1.0546875,6.832010254062723e-06,4.3902277637903494e-06,6.34638964675365e-06,-1.8557055863279154e-05,6.8571,5.8571
1.05859375,3.904607156481283e-06,3.412146822308699e-06,1.4628246662089096e-06,-3.270845074387731e-05,6.8571,5.8571
1.0625,5.368308705272e-06,1.4157357724879844e-05,-4.884441863126561e-06,-2.9787887373159366e-05,6.8571,5.8571
1.06640625,-1.807143525597008e-05,1.6113519607843145e-05,-9.282386236362238e-06,-1.8557055863279154e-05,6.8571,5.8571
1.0703125,-2.686048427557792e-05,1.7577221156633867e-05,-2.1484458960860598e-05,-2.9787887373159366e-05,6.8571,5.8571
1.07421875,-1.5137192431525129e-05,2.636627017624171e-05,-1.4651571824216056e-05,-3.9055717273212774e-05,6.8571,5.8571
1.078125,-6.840603746089865e-06,1.4157357724879844e-05,1.5135438666361494e-05,-2.1976919295033175e-05,6.8571,5.8571
1.08203125,5.368308705272e-06,-4.933372167543943e-07,1.3179276783398193e-05,-2.2462539902342248e-05,6.8571,5.8571
1.0859375,-7.326224353398935e-06,2.6851890783550785e-05,-7.326224353398935e-06,-3.808447605859463e-05,6.8571,5.8571
1.08984375,-2.0020757412069876e-05,3.759710168612193e-05,-4.884441863126561e-06,-3.5642693568322256e-05,6.8571,5.8571
1.09375,-1.5629652765697705e-05,3.8082722293431004e-05,1.171557523460747e-05,-2.686048427557792e-05,6.8571,5.8571
1.09765625,-8.304305294880588e-06,5.419711878385597e-05,2.0504624254215315e-05,-3.2222830136568235e-05,6.8571,5.8571
1.1015625,-6.840603746089865e-06,2.8315592332341507e-05,4.8826880979629335e-06,-4.149749976348515e-05,6.8571,5.8571
1.10546875,-4.884441863126561e-06,4.735739192034791e-05,-1.464578431372537e-06,-3.0765968314641016e-05,6.8571,5.8571
1.109375,-1.0253627450980382e-05,6.737727244983597e-05,2.9779293881132226e-05,-2.0513217746242452e-05,6.8571,5.8571
1.11328125,-3.906360921644911e-06,5.566082033264668e-05,3.271353670557718e-05,-3.2222830136568235e-05,6.8571,5.8571
1.1171875,1.4628246662089096e-06,3.9060803234912654e-05,-4.933372167543943e-07,-3.66139347829404e-05,6.8571,5.8571
1.12109375,2.44090560769056e-06,2.4410108293278413e-05,-1.464578431372537e-06,-2.2955000236514828e-05,6.8571,5.8571
1.125,9.703643320363255e-07,4.0524504783703376e-05,9.273792744335097e-06,-1.4651571824216056e-05,6.8571,5.8571
1.12890625,-1.0253627450980382e-05,4.735739192034791e-05,8.295711802853446e-06,-3.174404925612267e-05,6.8571,5.8571
1.1328125,-7.818684687571515e-06,3.9546423842221727e-05,8.295711802853446e-06,-3.85700966659037e-05,6.8571,5.8571
1.13671875,-3.420740314335841e-06,3.8082722293431004e-05,1.3179276783398193e-05,-2.734610488288699e-05,6.8571,5.8571
1.140625,-8.789925902189658e-06,5.71245218814374e-05,4.101012539101245e-05,-2.7831725490196068e-05,6.8571,5.8571
1.14453125,-2.0513217746242452e-05,5.175533629358359e-05,5.126971568627452e-05,-3.612831417563133e-05,6.8571,5.8571
1.1484375,-2.7831725490196068e-05,2.0990244861524388e-05,1.171557523460747e-05,-2.9302266765850297e-05,6.8571,5.8571
1.15234375,-3.027350798046844e-05,2.1968325803006038e-05,-1.1724168726634613e-05,-2.34406208438239e-05,6.8571,5.8571
1.15625,-3.0765968314641016e-05,2.5873809842069135e-05,8.788172137026023e-06,-2.441870178530555e-05,6.8571,5.8571
1.16015625,-2.734610488288699e-05,2.926526214999626e-06,2.44090560769056e-06,-2.53967827267872e-05,6.8571,5.8571
1.1640625,-2.734610488288699e-05,-5.376902197299142e-06,-8.304305294880588e-06,-2.5882403334096272e-05,6.8571,5.8571
1.16796875,-2.441870178530555e-05,1.5621059273670568e-05,4.8826880979629335e-06,-1.5629652765697705e-05,6.8571,5.8571
1.171875,-1.3187870275425332e-05,3.9060803234912654e-05,9.75941335164417e-06,-7.326224353398935e-06,6.8571,5.8571
1.17578125,-7.818684687571515e-06,2.0990244861524388e-05,3.904607156481283e-06,-1.7093354314488428e-05,6.8571,5.8571
1.1796875,-1.1724168726634613e-05,1.269365617608912e-05,-6.840603746089865e-06,-2.2462539902342248e-05,6.8571,5.8571
1.18359375,4.847437247272523e-07,4.0524504783703376e-05,1.1229954627298398e-05,-1.0253627450980382e-05,6.8571,5.8571
1.1875,-5.376902197299142e-06,4.00388841763943e-05,1.806284176394294e-05,-1.0253627450980382e-05,6.8571,5.8571
1.19140625,-3.270845074387731e-05,2.8808052666514087e-05,-1.2695409941252755e-05,-2.34406208438239e-05,6.8571,5.8571
1.1953125,-2.686048427557792e-05,2.5873809842069135e-05,-1.9535136804760803e-05,-2.4904322392614623e-05,6.8571,5.8571
1.19921875,-2.0513217746242452e-05,2.0019003646906242e-05,-5.862522804608215e-06,-2.6368023941405342e-05,6.8571,5.8571
1.203125,-2.9787887373159366e-05,1.5135438666361494e-05,2.44090560769056e-06,-2.8324185824368647e-05,6.8571,5.8571
1.20703125,-3.66139347829404e-05,-2.935119707026768e-06,-1.3187870275425332e-05,-2.7831725490196068e-05,6.8571,5.8571
1.2109375,-2.8809806431677717e-05,2.9779293881132226e-05,-1.4651571824216056e-05,-2.686048427557792e-05,6.8571,5.8571
1.21484375,-1.4165951216906986e-05,5.419711878385597e-05,-4.933372167543943e-07,-3.027350798046844e-05,6.8571,5.8571
1.21875,-2.5882403334096272e-05,1.6113519607843145e-05,-4.398821255817492e-06,-3.710639511711298e-05,6.8571,5.8571
1.22265625,-4.345366164644845e-05,1.4157357724879844e-05,-1.6607733707179355e-05,-3.515023323414968e-05,6.8571,5.8571
1.2265625,-2.2955000236514828e-05,4.687177131303885e-05,-1.75789749217975e-05,-2.8324185824368647e-05,6.8571,5.8571
1.23046875,-1.9535136804760803e-05,4.735739192034791e-05,-1.9535136804760803e-05,-4.101187915617608e-05,6.8571,5.8571
1.234375,-2.9302266765850297e-05,3.8082722293431004e-05,-2.734610488288699e-05,-3.759201572442205e-05,6.8571,5.8571
1.23828125,-3.270845074387731e-05,2.4410108293278413e-05,-2.441870178530555e-05,-2.7831725490196068e-05,6.8571,5.8571
1.2421875,-4.44317425879301e-05,1.6599140215152218e-05,-2.5882403334096272e-05,-3.3200911078049884e-05,6.8571,5.8571
1.24609375,-2.53967827267872e-05,4.00388841763943e-05,-1.4165951216906986e-05,-2.2462539902342248e-05,6.8571,5.8571
1.25,-2.0998838353551525e-05,3.515531919584955e-05,-5.862522804608215e-06,-2.734610488288699e-05,6.8571,5.8571
1.25390625,-3.2222830136568235e-05,2.5388189234760062e-05,-3.5642693568322256e-05,-4.882284723430227e-05,6.8571,5.8571
1.2578125,-2.9302266765850297e-05,2.733751139085985e-05,-3.710639511711298e-05,-4.6381064744029896e-05,6.8571,5.8571
1.26171875,-2.7831725490196068e-05,1.0251873685816747e-05,-2.34406208438239e-05,-3.515023323414968e-05,6.8571,5.8571
1.265625,-3.4178992019531534e-05,1.3179276783398193e-05,-2.34406208438239e-05,-4.198996009765773e-05,6.8571,5.8571
1.26953125,-4.149749976348515e-05,2.9779293881132226e-05,-2.2955000236514828e-05,-4.540298380254824e-05,6.8571,5.8571
1.2734375,-2.8324185824368647e-05,3.661902074464028e-05,-1.9042676470588226e-05,-3.4178992019531534e-05,6.8571,5.8571
1.27734375,-2.2955000236514828e-05,3.7104641351949355e-05,-1.8557055863279154e-05,-2.6368023941405342e-05,6.8571,5.8571
1.28125,-2.1976919295033175e-05,3.41772382543679e-05,-8.304305294880588e-06,-3.3200911078049884e-05,6.8571,5.8571
1.28515625,-1.4165951216906986e-05,3.6126560410467705e-05,-1.7093354314488428e-05,-3.954817760738536e-05,6.8571,5.8571
1.2890625,-9.768006843671307e-06,5.126971568627452e-05,-1.9570387655451178e-06,-2.686048427557792e-05,6.8571,5.8571
1.29296875,-2.34406208438239e-05,4.296628727397575e-05,1.1229954627298398e-05,-1.7093354314488428e-05,6.8571,5.8571
1.296875,-2.7831725490196068e-05,1.904092270542459e-05,-1.6607733707179355e-05,-2.7831725490196068e-05,6.8571,5.8571
1.30078125,-2.0998838353551525e-05,2.5873809842069135e-05,-1.3673490882734405e-05,-4.101187915617608e-05,6.8571,5.8571
1.3046875,-2.6368023941405342e-05,2.9779293881132226e-05,-1.75789749217975e-05,-4.7359145685511545e-05,6.8571,5.8571
1.30859375,-2.8324185824368647e-05,3.6126560410467705e-05,-6.840603746089865e-06,-4.296804103913938e-05,6.8571,5.8571
1.3125,-2.34406208438239e-05,3.564093980315863e-05,9.273792744335097e-06,-3.4664612626840606e-05,6.8571,5.8571
1.31640625,-2.53967827267872e-05,2.0990244861524388e-05,-4.933372167543943e-07,-3.027350798046844e-05,6.8571,5.8571
1.3203125,-2.53967827267872e-05,2.6851890783550785e-05,-1.0253627450980382e-05,-3.2222830136568235e-05,6.8571,5.8571
1.32421875,-2.686048427557792e-05,4.00388841763943e-05,-6.3481434119172845e-06,-3.515023323414968e-05,6.8571,5.8571
1.328125,-1.8557055863279154e-05,5.9566304371709774e-05,4.8826880979629335e-06,-1.9042676470588226e-05,6.8571,5.8571
1.33203125,-1.0746087785152962e-05,6.1030005920500496e-05,-3.420740314335841e-06,-2.0020757412069876e-05,6.8571,5.8571
1.3359375,-1.7093354314488428e-05,4.2480666666666675e-05,1.171557523460747e-05,-1.807143525597008e-05,6.8571,5.8571
1.33984375,-1.75789749217975e-05,3.2221076371404604e-05,1.171557523460747e-05,-1.9042676470588226e-05,6.8571,5.8571
1.34375,-1.8557055863279154e-05,3.7104641351949355e-05,-1.0253627450980382e-05,-3.710639511711298e-05,6.8571,5.8571
1.34765625,-1.807143525597008e-05,6.542795029373617e-05,5.368308705272e-06,-2.9302266765850297e-05,6.8571,5.8571
1.3515625,-1.4651571824216056e-05,7.177521682307165e-05,1.9526543312733662e-05,-2.53967827267872e-05,6.8571,5.8571
1.35546875,-1.8557055863279154e-05,5.517519972533762e-05,1.7577221156633867e-05,-3.3200911078049884e-05,6.8571,5.8571
1.359375,-1.5629652765697705e-05,5.3704658449683374e-05,1.269365617608912e-05,-3.4664612626840606e-05,6.8571,5.8571
1.36328125,-1.2695409941252755e-05,6.981905494010835e-05,2.5873809842069135e-05,-2.734610488288699e-05,6.8571,5.8571
1.3671875,-1.4165951216906986e-05,6.835535339131761e-05,2.490256862745099e-05,-3.3200911078049884e-05,6.8571,5.8571
1.37109375,-1.7093354314488428e-05,6.1030005920500496e-05,5.368308705272e-06,-4.44317425879301e-05,6.8571,5.8571
1.375,-1.9535136804760803e-05,7.470261992065309e-05,7.324470588235307e-06,-4.540298380254824e-05,6.8571,5.8571
1.37890625,-9.282386236362238e-06,9.716428294041352e-05,3.124983515678646e-05,-3.3200911078049884e-05,6.8571,5.8571
1.3828125,-5.862522804608215e-06,9.277317829404136e-05,4.0524504783703376e-05,-3.0765968314641016e-05,6.8571,5.8571
1.38671875,-9.282386236362238e-06,8.056426584267949e-05,2.636627017624171e-05,-4.101187915617608e-05,6.8571,5.8571
1.390625,-8.768825818137315e-10,9.814236388189517e-05,1.171557523460747e-05,-3.4664612626840606e-05,6.8571,5.8571
1.39453125,-5.862522804608215e-06,0.00011376430003814754,1.806284176394294e-05,-2.7831725490196068e-05,6.8571,5.8571
1.3984375,-1.9042676470588226e-05,0.00010204784792095827,1.9526543312733662e-05,-3.270845074387731e-05,6.8571,5.8571
1.40234375,-2.0513217746242452e-05,9.618620199893185e-05,3.412146822308699e-06,-4.6381064744029896e-05,6.8571,5.8571
1.40625,-1.9535136804760803e-05,0.0001015622273136492,3.904607156481283e-06,-5.077900911726557e-05,6.8571,5.8571
1.41015625,-1.5629652765697705e-05,0.00010937319539177539,1.4642978332188917e-05,-3.954817760738536e-05,6.8571,5.8571
1.4140625,-1.4651571824216056e-05,0.00011718416346990159,3.173545576409553e-05,-3.808447605859463e-05,6.8571,5.8571
1.41796875,-1.75789749217975e-05,0.00011766978407721066,3.515531919584955e-05,-4.345366164644845e-05,6.8571,5.8571
1.421875,-2.34406208438239e-05,0.0001249951315480278,3.3199157312886254e-05,-3.66139347829404e-05,6.8571,5.8571
1.42578125,-1.8557055863279154e-05,0.00012353142999923703,2.636627017624171e-05,-3.027350798046844e-05,6.8571,5.8571
1.4296875,-9.768006843671307e-06,0.0001279293743724727,2.2946406744487687e-05,-3.3200911078049884e-05,6.8571,5.8571
1.43359375,-1.1231708392462031e-05,0.0001279293743724727,2.5873809842069135e-05,-3.270845074387731e-05,6.8571,5.8571
1.4375,-1.0746087785152962e-05,0.00011035127633325703,2.0504624254215315e-05,-2.9787887373159366e-05,6.8571,5.8571
1.44140625,-4.398821255817492e-06,0.00010693141290150302,4.58936903715572e-05,-2.1484458960860598e-05,6.8571,5.8571
1.4453125,-5.862522804608215e-06,0.00010253346852826735,4.00388841763943e-05,-3.612831417563133e-05,6.8571,5.8571
1.44921875,-9.768006843671307e-06,0.00010204784792095827,1.1229954627298398e-05,-4.7359145685511545e-05,6.8571,5.8571
1.453125,-1.1231708392462031e-05,0.00010693141290150302,1.6599140215152218e-05,-3.515023323414968e-05,6.8571,5.8571
1.45703125,-1.0253627450980382e-05,9.76499035477226e-05,2.0019003646906242e-05,-2.2462539902342248e-05,6.8571,5.8571
1.4609375,-1.3673490882734405e-05,7.616632146944381e-05,1.6113519607843145e-05,-1.9535136804760803e-05,6.8571,5.8571
1.46484375,-9.282386236362238e-06,8.446974988174258e-05,1.4157357724879844e-05,-1.9535136804760803e-05,6.8571,5.8571
1.46875,1.4628246662089096e-06,0.00010643895256733042,3.2221076371404604e-05,-1.1724168726634613e-05,6.8571,5.8571
1.47265625,-1.464578431372537e-06,9.716428294041352e-05,3.661902074464028e-05,-1.3187870275425332e-05,6.8571,5.8571
1.4765625,-4.933372167543943e-07,6.933343433279927e-05,3.124983515678646e-05,-2.1484458960860598e-05,6.8571,5.8571
1.48046875,-1.9570387655451178e-06,5.4682739391165023e-05,3.661902074464028e-05,-1.7093354314488428e-05,6.8571,5.8571
1.484375,-4.398821255817492e-06,6.493548995956359e-05,3.8082722293431004e-05,-1.2695409941252755e-05,6.8571,5.8571
1.48828125,4.847437247272523e-07,7.177521682307165e-05,3.856834290074008e-05,-2.1484458960860598e-05,6.8571,5.8571
1.4921875,2.44090560769056e-06,5.517519972533762e-05,9.273792744335097e-06,-3.3200911078049884e-05,6.8571,5.8571
1.49609375,1.4157357724879844e-05,5.663890127412834e-05,8.788172137026023e-06,-2.1976919295033175e-05,6.8571,5.8571
1.5,6.832010254062723e-06,4.6386150705729776e-05,2.2946406744487687e-05,-1.7093354314488428e-05,6.8571,5.8571
1.50390625,9.273792744335097e-06,3.759710168612193e-05,5.368308705272e-06,-2.5882403334096272e-05,6.8571,5.8571
1.5078125,2.44090560769056e-06,4.1502585725185025e-05,4.847437247272523e-07,-2.7831725490196068e-05,6.8571,5.8571
1.51171875,-1.1231708392462031e-05,5.126971568627452e-05,4.3902277637903494e-06,-2.5882403334096272e-05,6.8571,5.8571
1.515625,-6.840603746089865e-06,5.077725535210194e-05,-4.933372167543943e-07,-3.174404925612267e-05,6.8571,5.8571
1.51953125,-1.0253627450980382e-05,3.7104641351949355e-05,-3.420740314335841e-06,-3.174404925612267e-05,6.8571,5.8571
1.5234375,-1.2209789333943683e-05,3.856834290074008e-05,-5.376902197299142e-06,-2.9787887373159366e-05,6.8571,5.8571
1.52734375,-9.282386236362238e-06,4.00388841763943e-05,-2.4426593728541907e-06,-3.125158892195009e-05,6.8571,5.8571
1.53125,-5.862522804608215e-06,4.687177131303885e-05,2.9779293881132226e-05,-2.7831725490196068e-05,6.8571,5.8571
1.53515625,-8.789925902189658e-06,3.3199157312886254e-05,2.636627017624171e-05,-3.368653168535896e-05,6.8571,5.8571
1.5390625,-9.282386236362238e-06,1.5621059273670568e-05,2.44090560769056e-06,-3.9055717273212774e-05,6.8571,5.8571
1.54296875,4.847437247272523e-07,2.8315592332341507e-05,1.4157357724879844e-05,-3.368653168535896e-05,6.8571,5.8571
1.546875,2.44090560769056e-06,4.6386150705729776e-05,2.4410108293278413e-05,-3.4178992019531534e-05,6.8571,5.8571
1.55078125,1.4628246662089096e-06,4.2480666666666675e-05,1.7577221156633867e-05,-3.954817760738536e-05,6.8571,5.8571
1.5546875,1.4628246662089096e-06,2.7829971725032434e-05,5.368308705272e-06,-3.808447605859463e-05,6.8571,5.8571
1.55859375,-9.768006843671307e-06,2.8808052666514087e-05,9.75941335164417e-06,-2.8809806431677717e-05,6.8571,5.8571
1.5625,-2.2462539902342248e-05,2.343202735179676e-05,2.1482705195696965e-05,-3.515023323414968e-05,6.8571,5.8571
1.56640625,-4.884441863126561e-06,3.271353670557718e-05,2.2460786137178614e-05,-4.8337226626993195e-05,6.8571,5.8571
1.5703125,1.9484452735179755e-06,4.101012539101245e-05,1.0251873685816747e-05,-4.9800928175783924e-05,6.8571,5.8571
1.57421875,-7.818684687571515e-06,3.271353670557718e-05,1.6599140215152218e-05,-3.759201572442205e-05,6.8571,5.8571
1.578125,-2.4426593728541907e-06,2.5873809842069135e-05,1.3671737117570771e-05,-2.7831725490196068e-05,6.8571,5.8571
1.58203125,-7.818684687571515e-06,4.8826880979629335e-06,-3.420740314335841e-06,-3.612831417563133e-05,6.8571,5.8571
1.5859375,-4.933372167543943e-07,1.269365617608912e-05,4.847437247272523e-07,-3.368653168535896e-05,6.8571,5.8571
1.58984375,6.34638964675365e-06,4.345190788128482e-05,1.269365617608912e-05,-3.027350798046844e-05,6.8571,5.8571
1.59375,-4.933372167543943e-07,4.00388841763943e-05,1.806284176394294e-05,-3.125158892195009e-05,6.8571,5.8571
1.59765625,4.847437247272523e-07,1.708476082246129e-05,8.295711802853446e-06,-4.8337226626993195e-05,6.8571,5.8571
1.6015625,4.847437247272523e-07,4.1502585725185025e-05,2.8808052666514087e-05,-4.345366164644845e-05,6.8571,5.8571
1.60546875,-6.3481434119172845e-06,4.491560943007553e-05,3.661902074464028e-05,-4.884441863126561e-06,6.8571,5.8571
1.609375,-1.5137192431525129e-05,-4.884441863126561e-06,-7.326224353398935e-06,-2.935119707026768e-06,6.8571,5.8571
1.61328125,-1.4651571824216056e-05,-2.5882403334096272e-05,-2.4904322392614623e-05,-1.9535136804760803e-05,6.8571,5.8571
1.6171875,-7.326224353398935e-06,-3.759201572442205e-05,-2.4904322392614623e-05,-2.53967827267872e-05,6.8571,5.8571
1.62109375,-6.3481434119172845e-06,-3.174404925612267e-05,-2.0513217746242452e-05,-1.7093354314488428e-05,6.8571,5.8571
1.625,-2.9302266765850297e-05,-5.4192032822156084e-05,-3.808447605859463e-05,-3.906360921644911e-06,6.8571,5.8571
1.62890625,-3.85700966659037e-05,-8.83769876859693e-05,-6.640094527351795e-05,1.806284176394294e-05,6.8571,5.8571
1.6328125,-3.368653168535896e-05,-8.593520519569694e-05,-8.788452735179673e-05,3.027175421530481e-05,6.8571,5.8571
1.63671875,-3.85700966659037e-05,-0.00010741878727397571,-0.00011474413474479284,2.5873809842069135e-05,6.8571,5.8571
1.640625,-4.9800928175783924e-05,-0.00014013320086213473,-0.00012938798995956358,1.7577221156633867e-05,6.8571,5.8571
1.64453125,-5.2242710666056295e-05,-0.0001425749833524071,-0.00012548250592050048,1.9526543312733662e-05,6.8571,5.8571
1.6484375,-5.1264629724574646e-05,-0.0001235331837644007,-0.00011132427131303881,3.173545576409553e-05,6.8571,5.8571
1.65234375,-7.421191335164414e-05,-0.00013915511992065307,-0.00011962769972533759,2.4410108293278413e-05,6.8571,5.8571
1.65625,-7.518999429312581e-05,-0.00015526951641107802,-0.00011474413474479284,2.490256862745099e-05,6.8571,5.8571
1.66015625,-7.079888964675361e-05,-0.00013720579776455325,-7.958793866636147e-05,2.0019003646906242e-05,6.8571,5.8571
1.6640625,-7.079888964675361e-05,-0.00010888248882276644,-6.884272776379031e-05,3.904607156481283e-06,6.8571,5.8571
1.66796875,-5.9075597802700834e-05,-9.03263098420691e-05,-6.640094527351795e-05,3.904607156481283e-06,6.8571,5.8571
1.671875,-5.566257409781032e-05,-8.69132861371786e-05,-7.470437368581673e-05,-3.420740314335841e-06,6.8571,5.8571
1.67578125,-4.784476629282061e-05,-8.447150364690623e-05,-6.34735421759365e-05,-9.789578240634675e-07,6.8571,5.8571
1.6796875,-4.589544413672082e-05,-7.226259119554436e-05,-5.0286548783093e-05,-4.933372167543943e-07,6.8571,5.8571
1.68359375,-4.540298380254824e-05,-5.0286548783093e-05,-5.1264629724574646e-05,-1.2209789333943683e-05,6.8571,5.8571
1.6875,-4.198996009765773e-05,-2.7831725490196068e-05,-1.611527337300678e-05,-1.7093354314488428e-05,6.8571,5.8571
1.69140625,-3.9055717273212774e-05,-1.3673490882734405e-05,5.853929312581073e-06,-2.2462539902342248e-05,6.8571,5.8571
1.6953125,-3.808447605859463e-05,-9.768006843671307e-06,-6.3481434119172845e-06,-2.1976919295033175e-05,6.8571,5.8571
1.69921875,-3.5642693568322256e-05,-1.0746087785152962e-05,-1.7093354314488428e-05,-1.9042676470588226e-05,6.8571,5.8571
1.703125,-2.6368023941405342e-05,5.368308705272e-06,-1.807143525597008e-05,-1.2695409941252755e-05,6.8571,5.8571
1.70703125,-2.34406208438239e-05,9.273792744335097e-06,-4.398821255817492e-06,-7.326224353398935e-06,6.8571,5.8571
1.7109375,-9.282386236362238e-06,2.5873809842069135e-05,1.806284176394294e-05,-1.1724168726634613e-05,6.8571,5.8571
1.71484375,-1.7093354314488428e-05,2.929367327382316e-05,1.269365617608912e-05,-1.7093354314488428e-05,6.8571,5.8571
1.71875,-2.5882403334096272e-05,-2.935119707026768e-06,5.368308705272e-06,-1.1724168726634613e-05,6.8571,5.8571
1.72265625,-1.2695409941252755e-05,9.273792744335097e-06,1.6113519607843145e-05,-4.884441863126561e-06,6.8571,5.8571
1.7265625,-2.1484458960860598e-05,2.733751139085985e-05,9.273792744335097e-06,-1.0253627450980382e-05,6.8571,5.8571
1.73046875,-2.686048427557792e-05,2.4410108293278413e-05,3.412146822308699e-06,-1.8557055863279154e-05,6.8571,5.8571
1.734375,-2.2462539902342248e-05,2.5873809842069135e-05,1.2201195841916544e-05,-2.9302266765850297e-05,6.8571,5.8571
1.73828125,-2.441870178530555e-05,2.8315592332341507e-05,1.4642978332188917e-05,-3.027350798046844e-05,6.8571,5.8571
1.7421875,-2.734610488288699e-05,2.5388189234760062e-05,1.0251873685816747e-05,-2.1976919295033175e-05,6.8571,5.8571
1.74609375,-2.0513217746242452e-05,3.3199157312886254e-05,1.171557523460747e-05,-1.7093354314488428e-05,6.8571,5.8571
1.75,-8.304305294880588e-06,5.175533629358359e-05,2.636627017624171e-05,-1.611527337300678e-05,6.8571,5.8571
1.75390625,-9.282386236362238e-06,6.1030005920500496e-05,4.735739192034791e-05,-2.2955000236514828e-05,6.8571,5.8571
1.7578125,-1.9535136804760803e-05,4.296628727397575e-05,3.075737482261388e-05,-3.270845074387731e-05,6.8571,5.8571
1.76171875,-2.34406208438239e-05,9.75941335164417e-06,-9.282386236362238e-06,-3.85700966659037e-05,6.8571,5.8571
1.765625,-2.5882403334096272e-05,8.295711802853446e-06,-1.9535136804760803e-05,-4.296804103913938e-05,6.8571,5.8571
1.76953125,-2.53967827267872e-05,1.4157357724879844e-05,-4.884441863126561e-06,-3.808447605859463e-05,6.8571,5.8571
1.7734375,-2.7831725490196068e-05,1.9484452735179755e-06,-2.0020757412069876e-05,-3.612831417563133e-05,6.8571,5.8571
1.77734375,-2.53967827267872e-05,-2.935119707026768e-06,-2.9787887373159366e-05,-3.808447605859463e-05,6.8571,5.8571
1.78125,-2.6368023941405342e-05,-1.0253627450980382e-05,-1.807143525597008e-05,-3.5642693568322256e-05,6.8571,5.8571
1.78515625,-2.9302266765850297e-05,-2.935119707026768e-06,-1.4165951216906986e-05,-3.368653168535896e-05,6.8571,5.8571
1.7890625,-1.7093354314488428e-05,2.7829971725032434e-05,-3.420740314335841e-06,-4.491736319523917e-05,6.8571,5.8571
1.79296875,-2.2462539902342248e-05,2.1482705195696965e-05,1.3671737117570771e-05,-4.7359145685511545e-05,6.8571,5.8571
1.796875,-2.6368023941405342e-05,1.8548462371252013e-05,2.2460786137178614e-05,-2.441870178530555e-05,6.8571,5.8571
1.80078125,-1.2695409941252755e-05,3.4662858861676976e-05,2.6851890783550785e-05,-6.3481434119172845e-06,6.8571,5.8571
1.8046875,-2.1484458960860598e-05,3.564093980315863e-05,3.124983515678646e-05,-7.818684687571515e-06,6.8571,5.8571
1.80859375,-2.5882403334096272e-05,2.636627017624171e-05,8.295711802853446e-06,-1.611527337300678e-05,6.8571,5.8571
1.8125,-1.75789749217975e-05,1.3671737117570771e-05,-8.768825818137315e-10,-1.2695409941252755e-05,6.8571,5.8571
1.81640625,-1.5137192431525129e-05,1.0251873685816747e-05,1.6599140215152218e-05,-1.6607733707179355e-05,6.8571,5.8571
1.8203125,4.847437247272523e-07,2.6851890783550785e-05,1.269365617608912e-05,-2.8809806431677717e-05,6.8571,5.8571
1.82421875,-1.8557055863279154e-05,2.2460786137178614e-05,8.295711802853446e-06,-3.270845074387731e-05,6.8571,5.8571
1.828125,-2.8809806431677717e-05,2.343202735179676e-05,1.1229954627298398e-05,-2.9787887373159366e-05,6.8571,5.8571
1.83203125,-1.0746087785152962e-05,3.4662858861676976e-05,1.5135438666361494e-05,-2.0998838353551525e-05,6.8571,5.8571
1.8359375,-1.2209789333943683e-05,1.708476082246129e-05,1.2201195841916544e-05,-2.5882403334096272e-05,6.8571,5.8571
1.83984375,-9.768006843671307e-06,1.6113519607843145e-05,1.5621059273670568e-05,-2.686048427557792e-05,6.8571,5.8571
1.84375,-1.4165951216906986e-05,2.490256862745099e-05,1.5135438666361494e-05,-3.5642693568322256e-05,6.8571,5.8571
1.84765625,-1.4165951216906986e-05,1.8548462371252013e-05,6.832010254062723e-06,-4.345366164644845e-05,6.8571,5.8571
1.8515625,-2.8324185824368647e-05,1.904092270542459e-05,-5.376902197299142e-06,-3.2222830136568235e-05,6.8571,5.8571
1.85546875,-3.027350798046844e-05,2.2460786137178614e-05,-1.2695409941252755e-05,-2.686048427557792e-05,6.8571,5.8571
1.859375,-1.75789749217975e-05,2.0019003646906242e-05,-9.282386236362238e-06,-2.9787887373159366e-05,6.8571,5.8571
1.86328125,-1.4165951216906986e-05,2.2946406744487687e-05,-4.933372167543943e-07,-3.270845074387731e-05,6.8571,5.8571
1.8671875,-1.8557055863279154e-05,6.34638964675365e-06,-2.392624145113297e-05,-4.7359145685511545e-05,6.8571,5.8571
1.87109375,-6.3481434119172845e-06,2.0019003646906242e-05,-2.1976919295033175e-05,-3.515023323414968e-05,6.8571,5.8571
1.875,-1.0253627450980382e-05,4.442998882276647e-05,-9.789578240634675e-07,-3.4178992019531534e-05,6.8571,5.8571
1.87890625,-3.125158892195009e-05,2.8315592332341507e-05,-3.906360921644911e-06,-5.175709005874722e-05,6.8571,5.8571
1.8828125,-2.8324185824368647e-05,1.0251873685816747e-05,-8.768825818137315e-10,-5.077900911726557e-05,6.8571,5.8571
1.88671875,-1.4651571824216056e-05,3.9060803234912654e-05,2.0990244861524388e-05,-4.882284723430227e-05,6.8571,5.8571
1.890625,-1.1231708392462031e-05,4.931355380331122e-05,2.636627017624171e-05,-3.710639511711298e-05,6.8571,5.8571
1.89453125,-1.9535136804760803e-05,3.271353670557718e-05,2.1482705195696965e-05,-2.686048427557792e-05,6.8571,5.8571
1.8984375,-1.75789749217975e-05,3.027175421530481e-05,7.324470588235307e-06,-2.9302266765850297e-05,6.8571,5.8571
1.90234375,-1.0746087785152962e-05,3.759710168612193e-05,-9.768006843671307e-06,-2.53967827267872e-05,6.8571,5.8571
1.90625,-1.1231708392462031e-05,4.5408069764248126e-05,1.3179276783398193e-05,-2.2955000236514828e-05,6.8571,5.8571
1.91015625,-6.840603746089865e-06,3.369161764705883e-05,1.5621059273670568e-05,-4.0526258548867006e-05,6.8571,5.8571
1.9140625,-3.420740314335841e-06,1.8548462371252013e-05,4.847437247272523e-07,-4.003379821469443e-05,6.8571,5.8571
1.91796875,-1.0746087785152962e-05,4.8826880979629335e-06,7.810091195544373e-06,-2.1976919295033175e-05,6.8571,5.8571
1.921875,-1.807143525597008e-05,1.9484452735179755e-06,1.269365617608912e-05,-2.0998838353551525e-05,6.8571,5.8571
1.92578125,-7.326224353398935e-06,6.34638964675365e-06,1.171557523460747e-05,-2.4904322392614623e-05,6.8571,5.8571
1.9296875,-3.420740314335841e-06,1.171557523460747e-05,-3.906360921644911e-06,-2.8809806431677717e-05,6.8571,5.8571
1.93359375,-1.4165951216906986e-05,1.8548462371252013e-05,-4.884441863126561e-06,-3.0765968314641016e-05,6.8571,5.8571
1.9375,-1.2695409941252755e-05,9.273792744335097e-06,1.708476082246129e-05,-1.8557055863279154e-05,6.8571,5.8571
1.94140625,-1.5629652765697705e-05,1.4157357724879844e-05,2.7829971725032434e-05,-9.282386236362238e-06,6.8571,5.8571
1.9453125,-8.789925902189658e-06,2.4410108293278413e-05,2.5388189234760062e-05,-1.611527337300678e-05,6.8571,5.8571
1.94921875,4.8826880979629335e-06,1.269365617608912e-05,2.343202735179676e-05,-2.5882403334096272e-05,6.8571,5.8571
1.953125,1.9484452735179755e-06,2.926526214999626e-06,-4.398821255817492e-06,-3.85700966659037e-05,6.8571,5.8571
1.95703125,-2.935119707026768e-06,-1.611527337300678e-05,-3.3200911078049884e-05,-6.054613907835507e-05,6.8571,5.8571
1.9609375,1.9484452735179755e-06,5.853929312581073e-06,-1.5137192431525129e-05,-6.249546123445485e-05,6.8571,5.8571
1.96484375,4.3902277637903494e-06,3.4662858861676976e-05,-9.789578240634675e-07,-5.566257409781032e-05,6.8571,5.8571
1.96875,1.7577221156633867e-05,3.4662858861676976e-05,3.904607156481283e-06,-6.15173802929732e-05,6.8571,5.8571
1.97265625,1.806284176394294e-05,1.6599140215152218e-05,5.368308705272e-06,-7.616807523460744e-05,6.8571,5.8571
1.9765625,9.75941335164417e-06,3.027175421530481e-05,1.4157357724879844e-05,-7.860985772487982e-05,6.8571,5.8571
1.98046875,1.171557523460747e-05,4.19882063324941e-05,1.1229954627298398e-05,-7.812423711757074e-05,6.8571,5.8571
1.984375,2.0990244861524388e-05,4.931355380331122e-05,5.853929312581073e-06,-8.05591798809796e-05,6.8571,5.8571
1.98828125,2.733751139085985e-05,8.251358799877928e-05,3.7104641351949355e-05,-7.274821180285343e-05,6.8571,5.8571
1.9921875,2.343202735179676e-05,9.521496078431372e-05,4.1502585725185025e-05,-6.640094527351795e-05,6.8571,5.8571
1.99609375,2.5873809842069135e-05,0.00010204784792095827,5.029163474479287e-05,-6.493724372472724e-05,6.8571,5.8571
2.0,1.5135438666361494e-05,8.251358799877928e-05,5.126971568627452e-05,-8.6420825803006e-05,6.8571,5.8571
2.00390625,7.810091195544373e-06,6.444986935225452e-05,3.661902074464028e-05,-9.374617327382313e-05,6.8571,5.8571
2.0078125,1.5135438666361494e-05,8.007180550850691e-05,4.345190788128482e-05,-8.397904331273364e-05,6.8571,5.8571
2.01171875,2.7829971725032434e-05,8.446974988174258e-05,3.759710168612193e-05,-8.886260829327838e-05,6.8571,5.8571
2.015625,2.343202735179676e-05,8.007180550850691e-05,2.8315592332341507e-05,-8.984068923476002e-05,6.8571,5.8571
2.01953125,1.6113519607843145e-05,8.104988644998856e-05,2.8315592332341507e-05,-8.007355927367055e-05,6.8571,5.8571
2.0234375,3.4662858861676976e-05,9.521496078431372e-05,2.929367327382316e-05,-7.177013086137176e-05,6.8571,5.8571
2.02734375,2.733751139085985e-05,7.177521682307165e-05,3.075737482261388e-05,-7.274821180285343e-05,6.8571,5.8571
2.03125,1.1229954627298398e-05,5.175533629358359e-05,3.124983515678646e-05,-7.079888964675361e-05,6.8571,5.8571
2.03515625,3.9060803234912654e-05,6.933343433279927e-05,4.345190788128482e-05,-5.175709005874722e-05,6.8571,5.8571
2.0390625,2.7829971725032434e-05,7.275329776455329e-05,5.175533629358359e-05,-4.101187915617608e-05,6.8571,5.8571
2.04296875,-7.326224353398935e-06,6.88478137254902e-05,4.882793319600215e-05,-4.491736319523917e-05,6.8571,5.8571
2.046875,-1.464578431372537e-06,5.126971568627452e-05,1.9526543312733662e-05,-6.15173802929732e-05,6.8571,5.8571
2.05078125,1.9526543312733662e-05,4.491560943007553e-05,1.904092270542459e-05,-5.370641221484702e-05,6.8571,5.8571
2.0546875,2.1968325803006038e-05,4.1502585725185025e-05,3.4662858861676976e-05,-3.2222830136568235e-05,6.8571,5.8571
2.05859375,1.4628246662089096e-06,2.490256862745099e-05,1.6599140215152218e-05,-3.515023323414968e-05,6.8571,5.8571
2.0625,-6.840603746089865e-06,2.490256862745099e-05,3.904607156481283e-06,-4.149749976348515e-05,6.8571,5.8571
2.06640625,-1.1231708392462031e-05,2.8315592332341507e-05,1.171557523460747e-05,-4.589544413672082e-05,6.8571,5.8571
2.0703125,-1.1231708392462031e-05,2.5873809842069135e-05,1.5621059273670568e-05,-4.345366164644845e-05,6.8571,5.8571
2.07421875,-5.376902197299142e-06,2.5388189234760062e-05,6.832010254062723e-06,-3.515023323414968e-05,6.8571,5.8571
2.078125,-8.304305294880588e-06,1.5621059273670568e-05,1.0251873685816747e-05,-3.3200911078049884e-05,6.8571,5.8571
2.08203125,-1.464578431372537e-06,5.853929312581073e-06,9.273792744335097e-06,-2.8809806431677717e-05,6.8571,5.8571
2.0859375,-4.933372167543943e-07,2.733751139085985e-05,1.9526543312733662e-05,-2.392624145113297e-05,6.8571,5.8571
2.08984375,-1.5137192431525129e-05,3.6126560410467705e-05,2.636627017624171e-05,-2.686048427557792e-05,6.8571,5.8571
2.09375,-1.7093354314488428e-05,2.0504624254215315e-05,2.0019003646906242e-05,-2.686048427557792e-05,6.8571,5.8571
2.09765625,-8.768825818137315e-10,1.708476082246129e-05,2.5388189234760062e-05,-1.2695409941252755e-05,6.8571,5.8571
2.1015625,4.847437247272523e-07,1.708476082246129e-05,1.4157357724879844e-05,-9.768006843671307e-06,6.8571,5.8571
2.10546875,-2.935119707026768e-06,1.1229954627298398e-05,1.171557523460747e-05,-1.1724168726634613e-05,6.8571,5.8571
2.109375,1.9484452735179755e-06,1.9526543312733662e-05,1.3179276783398193e-05,-2.4426593728541907e-06,6.8571,5.8571
2.11328125,3.412146822308699e-06,3.661902074464028e-05,3.173545576409553e-05,1.073749429312582e-05,6.8571,5.8571
2.1171875,7.324470588235307e-06,2.8808052666514087e-05,2.5873809842069135e-05,-2.4426593728541907e-06,6.8571,5.8571
2.12109375,1.0251873685816747e-05,2.2460786137178614e-05,6.832010254062723e-06,-1.1724168726634613e-05,6.8571,5.8571
2.125,-1.5629652765697705e-05,1.0251873685816747e-05,2.926526214999626e-06,-3.420740314335841e-06,6.8571,5.8571
2.12890625,-3.710639511711298e-05,1.9484452735179755e-06,-1.0253627450980382e-05,-1.0253627450980382e-05,6.8571,5.8571
2.1328125,-1.9042676470588226e-05,1.806284176394294e-05,4.3902277637903494e-06,-1.5137192431525129e-05,6.8571,5.8571
2.13671875,-9.789578240634675e-07,2.1968325803006038e-05,4.8826880979629335e-06,-1.2209789333943683e-05,6.8571,5.8571
2.140625,-8.768825818137315e-10,2.1482705195696965e-05,-1.464578431372537e-06,-1.0253627450980382e-05,6.8571,5.8571
2.14453125,-2.0998838353551525e-05,9.273792744335097e-06,-4.398821255817492e-06,-1.6607733707179355e-05,6.8571,5.8571
2.1484375,-2.8809806431677717e-05,-7.818684687571515e-06,1.3179276783398193e-05,-1.5629652765697705e-05,6.8571,5.8571
2.15234375,-2.5882403334096272e-05,-2.4426593728541907e-06,3.173545576409553e-05,-8.304305294880588e-06,6.8571,5.8571
2.15625,-2.686048427557792e-05,-6.3481434119172845e-06,-7.326224353398935e-06,-2.2462539902342248e-05,6.8571,5.8571
2.16015625,-3.4178992019531534e-05,-1.8557055863279154e-05,-1.4651571824216056e-05,-3.174404925612267e-05,6.8571,5.8571
2.1640625,-2.53967827267872e-05,9.75941335164417e-06,4.3902277637903494e-06,-2.0998838353551525e-05,6.8571,5.8571
2.16796875,-8.304305294880588e-06,1.806284176394294e-05,3.412146822308699e-06,-1.1231708392462031e-05,6.8571,5.8571
2.171875,-2.0513217746242452e-05,-8.768825818137315e-10,2.926526214999626e-06,-1.2209789333943683e-05,6.8571,5.8571
2.17578125,-3.027350798046844e-05,-1.4165951216906986e-05,4.847437247272523e-07,-1.3673490882734405e-05,6.8571,5.8571
2.1796875,-2.734610488288699e-05,-1.6607733707179355e-05,-2.0513217746242452e-05,-1.4651571824216056e-05,6.8571,5.8571
2.18359375,-2.441870178530555e-05,-1.5137192431525129e-05,-3.3200911078049884e-05,-1.4165951216906986e-05,6.8571,5.8571
2.1875,-1.7093354314488428e-05,-3.420740314335841e-06,-8.789925902189658e-06,-4.398821255817492e-06,6.8571,5.8571
2.19140625,-2.7831725490196068e-05,5.368308705272e-06,1.6113519607843145e-05,-8.304305294880588e-06,6.8571,5.8571
2.1953125,-2.9302266765850297e-05,-6.840603746089865e-06,2.392448768596934e-05,-1.1724168726634613e-05,6.8571,5.8571
2.19921875,-2.4904322392614623e-05,-2.441870178530555e-05,1.3671737117570771e-05,-9.789578240634675e-07,6.8571,5.8571
2.203125,-2.9787887373159366e-05,-1.4165951216906986e-05,-1.464578431372537e-06,5.853929312581073e-06,6.8571,5.8571
2.20703125,-2.441870178530555e-05,3.904607156481283e-06,3.904607156481283e-06,8.788172137026023e-06,6.8571,5.8571
2.2109375,-2.53967827267872e-05,2.392448768596934e-05,3.2221076371404604e-05,-2.935119707026768e-06,6.8571,5.8571
2.21484375,-2.1484458960860598e-05,2.0504624254215315e-05,2.1968325803006038e-05,-1.9042676470588226e-05,6.8571,5.8571
2.21875,-1.5137192431525129e-05,-1.2209789333943683e-05,-2.4904322392614623e-05,-2.6368023941405342e-05,6.8571,5.8571
2.22265625,-1.0253627450980382e-05,-8.789925902189658e-06,-3.66139347829404e-05,-2.686048427557792e-05,6.8571,5.8571
2.2265625,-9.282386236362238e-06,9.273792744335097e-06,-1.807143525597008e-05,-2.9302266765850297e-05,6.8571,5.8571
2.23046875,-3.420740314335841e-06,7.810091195544373e-06,-2.935119707026768e-06,-3.368653168535896e-05,6.8571,5.8571
2.234375,4.3902277637903494e-06,1.3671737117570771e-05,3.564093980315863e-05,-2.9787887373159366e-05,6.8571,5.8571
2.23828125,1.9484452735179755e-06,1.3179276783398193e-05,3.856834290074008e-05,-3.808447605859463e-05,6.8571,5.8571
2.2421875,-8.768825818137315e-10,-8.768825818137315e-10,-4.398821255817492e-06,-5.956805813687342e-05,6.8571,5.8571
2.24609375,1.3179276783398193e-05,3.173545576409553e-05,1.1229954627298398e-05,-4.931530756847485e-05,6.8571,5.8571
2.25,1.8548462371252013e-05,4.931355380331122e-05,2.7829971725032434e-05,-4.687352507820247e-05,6.8571,5.8571
2.25390625,1.2201195841916544e-05,3.759710168612193e-05,1.0251873685816747e-05,-5.4192032822156084e-05,6.8571,5.8571
2.2578125,-3.906360921644911e-06,2.9779293881132226e-05,-1.0746087785152962e-05,-5.858997719539177e-05,6.8571,5.8571
2.26171875,-8.789925902189658e-06,3.6126560410467705e-05,-2.935119707026768e-06,-5.614819470511939e-05,6.8571,5.8571
2.265625,7.810091195544373e-06,5.3704658449683374e-05,2.1482705195696965e-05,-3.85700966659037e-05,6.8571,5.8571
2.26953125,1.7577221156633867e-05,4.101012539101245e-05,1.9526543312733662e-05,-3.3200911078049884e-05,6.8571,5.8571
2.2734375,-5.862522804608215e-06,1.4157357724879844e-05,9.273792744335097e-06,-5.0286548783093e-05,6.8571,5.8571
2.27734375,-7.326224353398935e-06,2.5388189234760062e-05,8.788172137026023e-06,-5.4192032822156084e-05,6.8571,5.8571
2.28125,-3.420740314335841e-06,3.9546423842221727e-05,2.1482705195696965e-05,-4.296804103913938e-05,6.8571,5.8571
2.28515625,-1.611527337300678e-05,2.1968325803006038e-05,9.75941335164417e-06,-5.6633815312428456e-05,6.8571,5.8571
2.2890625,-2.1976919295033175e-05,2.6851890783550785e-05,-5.862522804608215e-06,-6.395916278324558e-05,6.8571,5.8571
2.29296875,-3.027350798046844e-05,3.9546423842221727e-05,1.8548462371252013e-05,-4.7359145685511545e-05,6.8571,5.8571
2.296875,-9.789578240634675e-07,2.4410108293278413e-05,1.4642978332188917e-05,-4.589544413672082e-05,6.8571,5.8571
2.30078125,1.3179276783398193e-05,1.8548462371252013e-05,2.44090560769056e-06,-5.0286548783093e-05,6.8571,5.8571
2.3046875,1.1229954627298398e-05,2.2460786137178614e-05,1.2201195841916544e-05,-4.589544413672082e-05,6.8571,5.8571
2.30859375,1.806284176394294e-05,2.9779293881132226e-05,1.3179276783398193e-05,-3.710639511711298e-05,6.8571,5.8571
2.3125,1.073749429312582e-05,2.6851890783550785e-05,9.273792744335097e-06,-3.174404925612267e-05,6.8571,5.8571
2.31640625,6.34638964675365e-06,7.810091195544373e-06,2.926526214999626e-06,-2.1484458960860598e-05,6.8571,5.8571
2.3203125,1.9526543312733662e-05,8.295711802853446e-06,-3.906360921644911e-06,-1.2209789333943683e-05,6.8571,5.8571
2.32421875,1.4157357724879844e-05,1.904092270542459e-05,8.295711802853446e-06,-1.9042676470588226e-05,6.8571,5.8571
2.328125,1.4157357724879844e-05,2.490256862745099e-05,1.6599140215152218e-05,-2.392624145113297e-05,6.8571,5.8571
2.33203125,1.708476082246129e-05,4.8826880979629335e-06,-1.5137192431525129e-05,-3.4178992019531534e-05,6.8571,5.8571
2.3359375,2.926526214999626e-06,-9.282386236362238e-06,-9.768006843671307e-06,-3.2222830136568235e-05,6.8571,5.8571
2.33984375,-7.818684687571515e-06,-8.789925902189658e-06,1.4642978332188917e-05,-2.53967827267872e-05,6.8571,5.8571
2.34375,-7.326224353398935e-06,-1.4165951216906986e-05,1.4628246662089096e-06,-3.027350798046844e-05,6.8571,5.8571
2.34765625,-9.768006843671307e-06,-1.75789749217975e-05,-1.9535136804760803e-05,-4.198996009765773e-05,6.8571,5.8571
2.3515625,-2.1484458960860598e-05,-1.8557055863279154e-05,-1.5629652765697705e-05,-4.7359145685511545e-05,6.8571,5.8571
2.35546875,-1.3673490882734405e-05,-1.0253627450980382e-05,4.8826880979629335e-06,-3.027350798046844e-05,6.8571,5.8571
2.359375,6.832010254062723e-06,1.1229954627298398e-05,5.853929312581073e-06,-2.2955000236514828e-05,6.8571,5.8571
2.36328125,3.904607156481283e-06,1.171557523460747e-05,9.75941335164417e-06,-3.2222830136568235e-05,6.8571,5.8571
2.3671875,5.853929312581073e-06,1.6113519607843145e-05,2.4410108293278413e-05,-4.491736319523917e-05,6.8571,5.8571
2.37109375,9.273792744335097e-06,2.6851890783550785e-05,3.4662858861676976e-05,-3.2222830136568235e-05,6.8571,5.8571
2.375,-7.326224353398935e-06,-1.8557055863279154e-05,1.6599140215152218e-05,-2.0020757412069876e-05,6.8571,5.8571
2.37890625,-1.3673490882734405e-05,-4.6381064744029896e-05,-1.5629652765697705e-05,-2.8324185824368647e-05,6.8571,5.8571
2.3828125,-1.0746087785152962e-05,-2.8809806431677717e-05,-1.4165951216906986e-05,-1.75789749217975e-05,6.8571,5.8571
2.38671875,-2.2462539902342248e-05,-2.686048427557792e-05,-3.174404925612267e-05,-1.4165951216906986e-05,6.8571,5.8571
2.390625,-2.734610488288699e-05,-3.9055717273212774e-05,-3.270845074387731e-05,-2.4426593728541907e-06,6.8571,5.8571
2.39453125,-2.53967827267872e-05,-4.6381064744029896e-05,-1.0253627450980382e-05,1.4642978332188917e-05,6.8571,5.8571
2.3984375,-1.9535136804760803e-05,-3.125158892195009e-05,-1.75789749217975e-05,1.3179276783398193e-05,6.8571,5.8571
2.40234375,-1.4651571824216056e-05,-2.1484458960860598e-05,-2.2462539902342248e-05,1.5135438666361494e-05,6.8571,5.8571
2.40625,-1.2695409941252755e-05,-1.4165951216906986e-05,2.926526214999626e-06,2.733751139085985e-05,6.8571,5.8571
2.41015625,-1.9535136804760803e-05,-1.2695409941252755e-05,3.904607156481283e-06,3.41772382543679e-05,6.8571,5.8571
2.4140625,-2.2462539902342248e-05,-3.368653168535896e-05,9.273792744335097e-06,3.9546423842221727e-05,6.8571,5.8571
2.41796875,-2.392624145113297e-05,-2.6368023941405342e-05,3.7104641351949355e-05,4.0524504783703376e-05,6.8571,5.8571
2.421875,-3.368653168535896e-05,-1.807143525597008e-05,1.4642978332188917e-05,2.343202735179676e-05,6.8571,5.8571
2.42578125,-2.7831725490196068e-05,-4.398821255817492e-06,1.5135438666361494e-05,2.4410108293278413e-05,6.8571,5.8571
2.4296875,-2.0020757412069876e-05,1.4642978332188917e-05,3.9060803234912654e-05,2.8808052666514087e-05,6.8571,5.8571
2.43359375,-1.5629652765697705e-05,2.1482705195696965e-05,3.173545576409553e-05,3.075737482261388e-05,6.8571,5.8571
2.4375,-1.807143525597008e-05,1.269365617608912e-05,2.8808052666514087e-05,2.7829971725032434e-05,6.8571,5.8571
2.44140625,-2.392624145113297e-05,2.343202735179676e-05,5.077725535210194e-05,1.6599140215152218e-05,6.8571,5.8571
2.4453125,-2.0998838353551525e-05,4.882793319600215e-05,7.665878180361639e-05,2.8315592332341507e-05,6.8571,5.8571
2.44921875,-2.53967827267872e-05,5.126971568627452e-05,7.177521682307165e-05,3.027175421530481e-05,6.8571,5.8571
2.453125,-2.1484458960860598e-05,4.6386150705729776e-05,5.419711878385597e-05,1.5135438666361494e-05,6.8571,5.8571
2.45703125,-2.0020757412069876e-05,6.444986935225452e-05,6.933343433279927e-05,1.4157357724879844e-05,6.8571,5.8571
2.4609375,-2.7831725490196068e-05,7.323891837186237e-05,0.00010204784792095827,1.6599140215152218e-05,6.8571,5.8571
2.46484375,-2.686048427557792e-05,5.8588223430228124e-05,0.00010448963041123065,6.832010254062723e-06,6.8571,5.8571
2.46875,-3.125158892195009e-05,6.054438531319142e-05,8.104988644998856e-05,-2.4426593728541907e-06,6.8571,5.8571
2.47265625,-2.734610488288699e-05,8.349166894026094e-05,9.081701641107806e-05,3.412146822308699e-06,6.8571,5.8571
2.4765625,-2.8324185824368647e-05,8.056426584267949e-05,0.00011376430003814754,4.3902277637903494e-06,6.8571,5.8571
2.48046875,-2.686048427557792e-05,7.079713588158999e-05,0.00011816224441138322,-2.935119707026768e-06,6.8571,5.8571
2.484375,-1.807143525597008e-05,8.202796739147021e-05,0.00010448963041123065,-8.789925902189658e-06,6.8571,5.8571
2.48828125,-1.2695409941252755e-05,8.788961331349661e-05,9.472250045014114e-05,-5.862522804608215e-06,6.8571,5.8571
2.4921875,-3.420740314335841e-06,9.37444195086595e-05,0.00011181497788204777,-3.420740314335841e-06,6.8571,5.8571
2.49609375,-7.818684687571515e-06,8.98389354695964e-05,0.00010741703350881209,-1.0746087785152962e-05,6.8571,5.8571
2.5,-2.0513217746242452e-05,5.810260282291905e-05,7.910056429388877e-05,-1.5629652765697705e-05,6.8571,5.8571
2.50390625,-2.0998838353551525e-05,6.0058764705882364e-05,6.981905494010835e-05,-8.304305294880588e-06,6.8571,5.8571
2.5078125,-7.818684687571515e-06,7.568070086213473e-05,8.398412927443351e-05,-5.376902197299142e-06,6.8571,5.8571
2.51171875,-1.3187870275425332e-05,6.1030005920500496e-05,8.104988644998856e-05,-1.3673490882734405e-05,6.8571,5.8571
2.515625,-1.6607733707179355e-05,5.761698221560999e-05,6.640603123521782e-05,-1.5629652765697705e-05,6.8571,5.8571
2.51953125,-1.2695409941252755e-05,5.3704658449683374e-05,8.59334514305333e-05,-5.376902197299142e-06,6.8571,5.8571
2.5234375,-1.2695409941252755e-05,3.6126560410467705e-05,8.59334514305333e-05,-1.1231708392462031e-05,6.8571,5.8571
2.52734375,-8.304305294880588e-06,2.929367327382316e-05,5.614644093995575e-05,-2.686048427557792e-05,6.8571,5.8571
2.53125,-1.0746087785152962e-05,3.515531919584955e-05,4.296628727397575e-05,-2.5882403334096272e-05,6.8571,5.8571
2.53515625,-8.789925902189658e-06,3.661902074464028e-05,2.636627017624171e-05,-2.1976919295033175e-05,6.8571,5.8571
2.5390625,-8.789925902189658e-06,3.075737482261388e-05,1.6113519607843145e-05,-1.9535136804760803e-05,6.8571,5.8571
2.54296875,-9.768006843671307e-06,1.1229954627298398e-05,2.392448768596934e-05,-1.8557055863279154e-05,6.8571,5.8571
2.546875,-3.420740314335841e-06,2.0990244861524388e-05,3.856834290074008e-05,-1.611527337300678e-05,6.8571,5.8571
2.55078125,-5.862522804608215e-06,4.101012539101245e-05,3.9060803234912654e-05,-2.0998838353551525e-05,6.8571,5.8571
2.5546875,-8.789925902189658e-06,6.34638964675365e-06,2.8315592332341507e-05,-2.34406208438239e-05,6.8571,5.8571
2.55859375,-6.840603746089865e-06,2.44090560769056e-06,2.733751139085985e-05,-1.6607733707179355e-05,6.8571,5.8571
2.5625,-9.789578240634675e-07,8.295711802853446e-06,1.904092270542459e-05,-1.2695409941252755e-05,6.8571,5.8571
2.56640625,-8.768825818137315e-10,4.8826880979629335e-06,2.8315592332341507e-05,-1.611527337300678e-05,6.8571,5.8571
2.5703125,4.847437247272523e-07,-3.906360921644911e-06,2.9779293881132226e-05,-2.0513217746242452e-05,6.8571,5.8571
2.57421875,-3.420740314335841e-06,-1.0746087785152962e-05,8.295711802853446e-06,-2.2955000236514828e-05,6.8571,5.8571
2.578125,-1.1724168726634613e-05,2.926526214999626e-06,5.853929312581073e-06,-2.0998838353551525e-05,6.8571,5.8571
2.58203125,-1.0253627450980382e-05,-9.282386236362238e-06,-1.1231708392462031e-05,-1.9042676470588226e-05,6.8571,5.8571
2.5859375,-1.9570387655451178e-06,-7.818684687571515e-06,-8.304305294880588e-06,-3.2222830136568235e-05,6.8571,5.8571
2.58984375,-4.884441863126561e-06,1.9484452735179755e-06,3.4662858861676976e-05,-3.0765968314641016e-05,6.8571,5.8571
2.59375,-9.282386236362238e-06,4.3902277637903494e-06,3.759710168612193e-05,-2.0513217746242452e-05,6.8571,5.8571
2.59765625,-4.884441863126561e-06,1.4157357724879844e-05,1.7577221156633867e-05,-1.7093354314488428e-05,6.8571,5.8571
2.6015625,-3.420740314335841e-06,3.412146822308699e-06,-1.9570387655451178e-06,-1.75789749217975e-05,6.8571,5.8571
2.60546875,-9.789578240634675e-07,5.853929312581073e-06,-2.441870178530555e-05,-2.392624145113297e-05,6.8571,5.8571
2.609375,-1.1231708392462031e-05,7.324470588235307e-06,1.4628246662089096e-06,-2.0513217746242452e-05,6.8571,5.8571
2.61328125,-3.270845074387731e-05,-1.2695409941252755e-05,1.6599140215152218e-05,-2.2462539902342248e-05,6.8571,5.8571
2.6171875,-3.5642693568322256e-05,-1.5629652765697705e-05,-1.3187870275425332e-05,-4.540298380254824e-05,6.8571,5.8571
2.62109375,-1.6607733707179355e-05,-2.935119707026768e-06,1.5135438666361494e-05,-3.66139347829404e-05,6.8571,5.8571
2.625,-6.840603746089865e-06,-8.789925902189658e-06,2.9779293881132226e-05,-2.392624145113297e-05,6.8571,5.8571
2.62890625,4.8826880979629335e-06,1.6599140215152218e-05,7.810091195544373e-06,-2.734610488288699e-05,6.8571,5.8571
2.6328125,9.75941335164417e-06,1.073749429312582e-05,3.412146822308699e-06,-2.7831725490196068e-05,6.8571,5.8571
2.63671875,-4.398821255817492e-06,-1.9535136804760803e-05,-8.768825818137315e-10,-2.5882403334096272e-05,6.8571,5.8571
2.640625,-1.2695409941252755e-05,-3.420740314335841e-06,4.3902277637903494e-06,-2.0513217746242452e-05,6.8571,5.8571
2.64453125,-1.5137192431525129e-05,-1.4651571824216056e-05,-2.4426593728541907e-06,-2.1484458960860598e-05,6.8571,5.8571
2.6484375,-1.2695409941252755e-05,-3.954817760738536e-05,-9.282386236362238e-06,-2.8324185824368647e-05,6.8571,5.8571
2.65234375,-4.884441863126561e-06,-2.8809806431677717e-05,-1.6607733707179355e-05,-3.3200911078049884e-05,6.8571,5.8571
2.65625,-5.376902197299142e-06,-2.1976919295033175e-05,-4.933372167543943e-07,-2.6368023941405342e-05,6.8571,5.8571
2.66015625,-8.789925902189658e-06,-4.0526258548867006e-05,-1.2695409941252755e-05,-3.174404925612267e-05,6.8571,5.8571
2.6640625,-5.376902197299142e-06,-4.44317425879301e-05,-3.0765968314641016e-05,-2.2955000236514828e-05,6.8571,5.8571
2.66796875,-1.1231708392462031e-05,-2.2955000236514828e-05,-1.6607733707179355e-05,-2.441870178530555e-05,6.8571,5.8571
2.671875,-3.2222830136568235e-05,-1.5137192431525129e-05,-1.807143525597008e-05,-4.3939282253757524e-05,6.8571,5.8571
2.67578125,-2.7831725490196068e-05,-4.884441863126561e-06,-1.5137192431525129e-05,-3.954817760738536e-05,6.8571,5.8571
2.6796875,-7.818684687571515e-06,1.3179276783398193e-05,-2.6368023941405342e-05,-4.44317425879301e-05,6.8571,5.8571
2.68359375,-2.1484458960860598e-05,-2.2462539902342248e-05,-3.4178992019531534e-05,-3.954817760738536e-05,6.8571,5.8571
2.6875,-2.53967827267872e-05,-2.34406208438239e-05,-3.4664612626840606e-05,-3.027350798046844e-05,6.8571,5.8571
2.69140625,-1.6607733707179355e-05,-8.304305294880588e-06,-2.6368023941405342e-05,-3.174404925612267e-05,6.8571,5.8571
2.6953125,-1.7093354314488428e-05,-2.8809806431677717e-05,-2.1976919295033175e-05,-2.9787887373159366e-05,6.8571,5.8571
2.69921875,-1.5629652765697705e-05,-1.4651571824216056e-05,-5.376902197299142e-06,-1.9535136804760803e-05,6.8571,5.8571
2.703125,-1.4651571824216056e-05,9.75941335164417e-06,7.810091195544373e-06,-1.5137192431525129e-05,6.8571,5.8571
2.70703125,-1.611527337300678e-05,-1.3187870275425332e-05,-2.441870178530555e-05,-3.710639511711298e-05,6.8571,5.8571
2.7109375,-1.0746087785152962e-05,-2.8809806431677717e-05,-1.75789749217975e-05,-3.3200911078049884e-05,6.8571,5.8571
2.71484375,-1.3187870275425332e-05,-2.686048427557792e-05,-1.7093354314488428e-05,-2.2955000236514828e-05,6.8571,5.8571
2.71875,-7.818684687571515e-06,-3.515023323414968e-05,-2.9302266765850297e-05,-2.8809806431677717e-05,6.8571,5.8571
2.72265625,-2.4426593728541907e-06,-2.1484458960860598e-05,-3.4664612626840606e-05,-3.3200911078049884e-05,6.8571,5.8571
2.7265625,-5.376902197299142e-06,4.3902277637903494e-06,-2.5882403334096272e-05,-2.1976919295033175e-05,6.8571,5.8571
2.73046875,-7.326224353398935e-06,-1.3673490882734405e-05,-8.304305294880588e-06,-2.53967827267872e-05,6.8571,5.8571
2.734375,-1.0746087785152962e-05,-2.2955000236514828e-05,-2.0020757412069876e-05,-4.0526258548867006e-05,6.8571,5.8571
2.73828125,-1.2695409941252755e-05,-1.3187870275425332e-05,-1.2695409941252755e-05,-2.6368023941405342e-05,6.8571,5.8571
2.7421875,-4.933372167543943e-07,1.4628246662089096e-06,-2.935119707026768e-06,-2.0998838353551525e-05,6.8571,5.8571
2.74609375,-5.862522804608215e-06,1.269365617608912e-05,1.4628246662089096e-06,-1.2209789333943683e-05,6.8571,5.8571
2.75,-2.686048427557792e-05,-3.906360921644911e-06,-2.935119707026768e-06,-1.5629652765697705e-05,6.8571,5.8571
2.75390625,-2.6368023941405342e-05,-5.376902197299142e-06,-1.7093354314488428e-05,-2.8809806431677717e-05,6.8571,5.8571
2.7578125,-2.0998838353551525e-05,8.295711802853446e-06,-2.392624145113297e-05,-2.686048427557792e-05,6.8571,5.8571
2.76171875,-2.0020757412069876e-05,-4.933372167543943e-07,-2.0020757412069876e-05,-1.4651571824216056e-05,6.8571,5.8571
2.765625,-2.1976919295033175e-05,-1.1231708392462031e-05,-2.2955000236514828e-05,-1.7093354314488428e-05,6.8571,5.8571
2.76953125,-2.0513217746242452e-05,-1.0746087785152962e-05,-2.8324185824368647e-05,-2.53967827267872e-05,6.8571,5.8571
2.7734375,-1.8557055863279154e-05,-1.3673490882734405e-05,-1.7093354314488428e-05,-1.4651571824216056e-05,6.8571,5.8571
2.77734375,-2.1484458960860598e-05,-1.75789749217975e-05,-2.1484458960860598e-05,-1.75789749217975e-05,6.8571,5.8571
2.78125,-2.686048427557792e-05,-2.0998838353551525e-05,-1.8557055863279154e-05,-2.686048427557792e-05,6.8571,5.8571
2.78515625,-2.392624145113297e-05,-1.5629652765697705e-05,-1.3673490882734405e-05,-3.125158892195009e-05,6.8571,5.8571
2.7890625,-2.441870178530555e-05,3.904607156481283e-06,-6.840603746089865e-06,-2.1976919295033175e-05,6.8571,5.8571
2.79296875,-2.5882403334096272e-05,4.847437247272523e-07,1.4642978332188917e-05,-5.862522804608215e-06,6.8571,5.8571
2.796875,-2.1976919295033175e-05,-1.4165951216906986e-05,-3.420740314335841e-06,-1.5137192431525129e-05,6.8571,5.8571
2.80078125,-1.3187870275425332e-05,7.324470588235307e-06,-8.304305294880588e-06,-1.807143525597008e-05,6.8571,5.8571
2.8046875,-1.0253627450980382e-05,1.0251873685816747e-05,6.832010254062723e-06,-1.4165951216906986e-05,6.8571,5.8571
2.80859375,-6.840603746089865e-06,3.412146822308699e-06,-1.464578431372537e-06,-2.34406208438239e-05,6.8571,5.8571
2.8125,-1.4165951216906986e-05,-6.3481434119172845e-06,4.847437247272523e-07,-2.6368023941405342e-05,6.8571,5.8571
2.81640625,-2.4904322392614623e-05,-3.2222830136568235e-05,2.0019003646906242e-05,-2.6368023941405342e-05,6.8571,5.8571
2.8203125,-2.53967827267872e-05,-3.9055717273212774e-05,2.8808052666514087e-05,-2.2462539902342248e-05,6.8571,5.8571
2.82421875,-2.8324185824368647e-05,-2.9787887373159366e-05,9.75941335164417e-06,-1.1231708392462031e-05,6.8571,5.8571
2.828125,-1.6607733707179355e-05,-8.304305294880588e-06,-4.884441863126561e-06,2.926526214999626e-06,6.8571,5.8571
2.83203125,-1.4165951216906986e-05,-1.807143525597008e-05,-1.2695409941252755e-05,-3.420740314335841e-06,6.8571,5.8571
2.8359375,-1.611527337300678e-05,-3.125158892195009e-05,2.926526214999626e-06,-1.1231708392462031e-05,6.8571,5.8571
2.83984375,-3.174404925612267e-05,-3.4178992019531534e-05,-2.4426593728541907e-06,-1.8557055863279154e-05,6.8571,5.8571
2.84375,-4.149749976348515e-05,-3.9055717273212774e-05,-3.2222830136568235e-05,-3.368653168535896e-05,6.8571,5.8571
2.84765625,-2.53967827267872e-05,-1.1231708392462031e-05,-1.0746087785152962e-05,-2.9787887373159366e-05,6.8571,5.8571
2.8515625,-3.954817760738536e-05,-1.9042676470588226e-05,-4.398821255817492e-06,-2.4904322392614623e-05,6.8571,5.8571
2.85546875,-4.9800928175783924e-05,-5.7611896253910105e-05,-1.0253627450980382e-05,-2.53967827267872e-05,6.8571,5.8571
2.859375,-3.66139347829404e-05,-6.835710715648125e-05,-2.2462539902342248e-05,-3.0765968314641016e-05,6.8571,5.8571
2.86328125,-3.710639511711298e-05,-6.93351880979629e-05,-2.34406208438239e-05,-1.75789749217975e-05,6.8571,5.8571
2.8671875,-4.44317425879301e-05,-6.73790262149996e-05,-1.4165951216906986e-05,-3.906360921644911e-06,6.8571,5.8571
2.87109375,-3.85700966659037e-05,-5.3220791607537945e-05,-1.75789749217975e-05,-4.884441863126561e-06,6.8571,5.8571
2.875,-4.003379821469443e-05,-6.395916278324558e-05,-2.1976919295033175e-05,1.1229954627298398e-05,6.8571,5.8571
2.87890625,-5.5170113763637733e-05,-9.765165731288623e-05,-4.149749976348515e-05,2.929367327382316e-05,6.8571,5.8571
2.8828125,-7.274821180285343e-05,-0.00010839686821545737,-3.4178992019531534e-05,2.5388189234760062e-05,6.8571,5.8571
2.88671875,-7.860985772487982e-05,-0.00010497700478370335,-3.515023323414968e-05,2.1482705195696965e-05,6.8571,5.8571
2.890625,-6.786464682230869e-05,-0.00010595508572518499,-4.296804103913938e-05,2.2460786137178614e-05,6.8571,5.8571
2.89453125,-7.470437368581673e-05,-8.739890674448766e-05,-2.392624145113297e-05,2.6851890783550785e-05,6.8571,5.8571
2.8984375,-7.518999429312581e-05,-5.712627564660104e-05,-1.4165951216906986e-05,2.343202735179676e-05,6.8571,5.8571
2.90234375,-6.542286433203631e-05,-4.540298380254824e-05,-9.768006843671307e-06,8.788172137026023e-06,6.8571,5.8571
2.90625,-5.9075597802700834e-05,-3.9055717273212774e-05,-9.768006843671307e-06,7.810091195544373e-06,6.8571,5.8571
2.91015625,-6.249546123445485e-05,-4.24755807049668e-05,9.703643320363255e-07,1.6599140215152218e-05,6.8571,5.8571
2.9140625,-6.103175968566413e-05,-4.882284723430227e-05,-5.376902197299142e-06,1.1229954627298398e-05,6.8571,5.8571
2.91796875,-5.566257409781032e-05,-5.370641221484702e-05,-1.0253627450980382e-05,8.295711802853446e-06,6.8571,5.8571
2.921875,-5.5170113763637733e-05,-4.540298380254824e-05,3.412146822308699e-06,1.5621059273670568e-05,6.8571,5.8571
2.92578125,-5.3220791607537945e-05,-2.8324185824368647e-05,2.44090560769056e-06,1.8548462371252013e-05,6.8571,5.8571
2.9296875,-5.712627564660104e-05,-3.174404925612267e-05,-9.789578240634675e-07,4.3902277637903494e-06,6.8571,5.8571
2.93359375,-5.1264629724574646e-05,-4.3939282253757524e-05,4.847437247272523e-07,6.832010254062723e-06,6.8571,5.8571
2.9375,-3.612831417563133e-05,-3.3200911078049884e-05,3.904607156481283e-06,6.832010254062723e-06,6.8571,5.8571
2.94140625,-3.4664612626840606e-05,-3.125158892195009e-05,6.832010254062723e-06,-3.420740314335841e-06,6.8571,5.8571
2.9453125,-4.296804103913938e-05,-4.198996009765773e-05,-6.3481434119172845e-06,-2.4426593728541907e-06,6.8571,5.8571
2.94921875,-3.759201572442205e-05,-1.7093354314488428e-05,1.9484452735179755e-06,-9.789578240634675e-07,6.8571,5.8571
2.953125,-2.9302266765850297e-05,-2.4426593728541907e-06,2.1968325803006038e-05,4.8826880979629335e-06,6.8571,5.8571
2.95703125,-3.4178992019531534e-05,-2.0020757412069876e-05,1.2201195841916544e-05,5.853929312581073e-06,6.8571,5.8571
2.9609375,-3.612831417563133e-05,-3.759201572442205e-05,4.3902277637903494e-06,-4.933372167543943e-07,6.8571,5.8571
2.96484375,-2.9787887373159366e-05,-2.4904322392614623e-05,5.368308705272e-06,-4.398821255817492e-06,6.8571,5.8571
2.96875,-3.270845074387731e-05,9.703643320363255e-07,1.5621059273670568e-05,2.44090560769056e-06,6.8571,5.8571
2.97265625,-3.0765968314641016e-05,2.343202735179676e-05,1.806284176394294e-05,9.75941335164417e-06,6.8571,5.8571
2.9765625,-2.441870178530555e-05,6.34638964675365e-06,-4.398821255817492e-06,-4.884441863126561e-06,6.8571,5.8571
2.98046875,-2.392624145113297e-05,-1.7093354314488428e-05,-1.9570387655451178e-06,-9.282386236362238e-06,6.8571,5.8571
2.984375,-2.9787887373159366e-05,-1.4651571824216056e-05,7.324470588235307e-06,-7.818684687571515e-06,6.8571,5.8571
2.98828125,-4.24755807049668e-05,-2.4426593728541907e-06,2.1482705195696965e-05,-1.8557055863279154e-05,6.8571,5.8571
2.9921875,-3.808447605859463e-05,-4.884441863126561e-06,-1.9570387655451178e-06,-3.4178992019531534e-05,6.8571,5.8571
2.99609375,-2.8324185824368647e-05,4.8826880979629335e-06,-7.326224353398935e-06,-3.270845074387731e-05,6.8571,5.8571
3.0,-2.392624145113297e-05,-2.935119707026768e-06,9.273792744335097e-06,-2.0513217746242452e-05,6.8571,5.8571
3.00390625,-2.5882403334096272e-05,-2.0513217746242452e-05,3.412146822308699e-06,-1.8557055863279154e-05,6.8571,5.8571
3.0078125,-3.027350798046844e-05,4.8826880979629335e-06,-9.768006843671307e-06,-1.9535136804760803e-05,6.8571,5.8571
3.01171875,-2.5882403334096272e-05,1.904092270542459e-05,-4.884441863126561e-06,-2.5882403334096272e-05,6.8571,5.8571
3.015625,-2.5882403334096272e-05,1.9526543312733662e-05,-1.1724168726634613e-05,-2.6368023941405342e-05,6.8571,5.8571
3.01953125,-1.9535136804760803e-05,3.904607156481283e-06,-2.441870178530555e-05,-2.2462539902342248e-05,6.8571,5.8571
3.0234375,-2.1484458960860598e-05,-2.2462539902342248e-05,-1.2209789333943683e-05,-2.9787887373159366e-05,6.8571,5.8571
3.02734375,-2.1976919295033175e-05,-9.768006843671307e-06,-1.5629652765697705e-05,-3.368653168535896e-05,6.8571,5.8571
3.03125,-1.3187870275425332e-05,1.6599140215152218e-05,-1.9570387655451178e-06,-3.3200911078049884e-05,6.8571,5.8571
3.03515625,-1.2209789333943683e-05,6.34638964675365e-06,3.904607156481283e-06,-2.8809806431677717e-05,6.8571,5.8571
3.0390625,-2.0020757412069876e-05,1.9484452735179755e-06,-2.1976919295033175e-05,-2.734610488288699e-05,6.8571,5.8571
3.04296875,-2.1484458960860598e-05,1.073749429312582e-05,-1.5629652765697705e-05,-3.270845074387731e-05,6.8571,5.8571
3.046875,-1.4651571824216056e-05,9.273792744335097e-06,-5.376902197299142e-06,-3.66139347829404e-05,6.8571,5.8571
3.05078125,-1.1724168726634613e-05,-8.768825818137315e-10,-2.1484458960860598e-05,-3.710639511711298e-05,6.8571,5.8571
3.0546875,-1.2209789333943683e-05,9.75941335164417e-06,-1.9535136804760803e-05,-2.4904322392614623e-05,6.8571,5.8571
3.05859375,-1.6607733707179355e-05,1.4157357724879844e-05,-4.933372167543943e-07,-2.1484458960860598e-05,6.8571,5.8571
3.0625,-1.807143525597008e-05,-1.9570387655451178e-06,-7.326224353398935e-06,-2.34406208438239e-05,6.8571,5.8571
3.06640625,-1.9042676470588226e-05,-1.9535136804760803e-05,-2.686048427557792e-05,-3.515023323414968e-05,6.8571,5.8571
3.0703125,-7.326224353398935e-06,-1.3673490882734405e-05,-3.174404925612267e-05,-5.5170113763637733e-05,6.8571,5.8571
3.07421875,-7.326224353398935e-06,3.412146822308699e-06,-2.0513217746242452e-05,-5.0286548783093e-05,6.8571,5.8571
3.078125,-1.5137192431525129e-05,-1.2695409941252755e-05,-6.3481434119172845e-06,-4.24755807049668e-05,6.8571,5.8571
3.08203125,-8.304305294880588e-06,2.44090560769056e-06,-3.420740314335841e-06,-4.687352507820247e-05,6.8571,5.8571
3.0859375,-4.933372167543943e-07,1.904092270542459e-05,2.44090560769056e-06,-4.3939282253757524e-05,6.8571,5.8571
3.08984375,-1.9570387655451178e-06,8.788172137026023e-06,-4.933372167543943e-07,-4.44317425879301e-05,6.8571,5.8571
3.09375,-1.9570387655451178e-06,1.3179276783398193e-05,-4.398821255817492e-06,-4.6381064744029896e-05,6.8571,5.8571
3.09765625,-3.906360921644911e-06,2.1968325803006038e-05,-3.420740314335841e-06,-4.784476629282061e-05,6.8571,5.8571
3.1015625,-4.884441863126561e-06,1.3671737117570771e-05,9.273792744335097e-06,-4.882284723430227e-05,6.8571,5.8571
3.10546875,-9.768006843671307e-06,4.847437247272523e-07,1.806284176394294e-05,-5.858997719539177e-05,6.8571,5.8571
3.109375,-3.906360921644911e-06,9.75941335164417e-06,7.810091195544373e-06,-6.0053678744182484e-05,6.8571,5.8571
3.11328125,1.2201195841916544e-05,1.6599140215152218e-05,-3.420740314335841e-06,-3.515023323414968e-05,6.8571,5.8571
3.1171875,2.926526214999626e-06,3.904607156481283e-06,-2.4426593728541907e-06,-2.7831725490196068e-05,6.8571,5.8571
3.12109375,-6.3481434119172845e-06,-3.906360921644911e-06,-8.789925902189658e-06,-2.9787887373159366e-05,6.8571,5.8571
3.125,-4.933372167543943e-07,4.8826880979629335e-06,-2.8809806431677717e-05,-3.3200911078049884e-05,6.8571,5.8571
3.12890625,-1.2209789333943683e-05,-2.0020757412069876e-05,-3.027350798046844e-05,-4.540298380254824e-05,6.8571,5.8571
3.1328125,-1.807143525597008e-05,-5.862522804608215e-06,-2.9302266765850297e-05,-4.8337226626993195e-05,6.8571,5.8571
3.13671875,-6.3481434119172845e-06,3.564093980315863e-05,-1.4165951216906986e-05,-3.9055717273212774e-05,6.8571,5.8571
3.140625,-5.376902197299142e-06,1.171557523460747e-05,-2.2955000236514828e-05,-5.858997719539177e-05,6.8571,5.8571
3.14453125,-2.4426593728541907e-06,-9.789578240634675e-07,-1.0746087785152962e-05,-8.69132861371786e-05,6.8571,5.8571
3.1484375,3.412146822308699e-06,-1.9570387655451178e-06,1.0251873685816747e-05,-6.93351880979629e-05,6.8571,5.8571
3.15234375,-8.768825818137315e-10,4.847437247272523e-07,-2.34406208438239e-05,-4.882284723430227e-05,6.8571,5.8571
3.15625,-9.789578240634675e-07,-5.376902197299142e-06,-4.345366164644845e-05,-4.784476629282061e-05,6.8571,5.8571
3.16015625,6.34638964675365e-06,-9.282386236362238e-06,-4.003379821469443e-05,-4.101187915617608e-05,6.8571,5.8571
3.1640625,5.853929312581073e-06,-2.935119707026768e-06,-3.2222830136568235e-05,-2.6368023941405342e-05,6.8571,5.8571
3.16796875,2.44090560769056e-06,-3.420740314335841e-06,-1.807143525597008e-05,-2.8809806431677717e-05,6.8571,5.8571
3.171875,-2.935119707026768e-06,-2.935119707026768e-06,-2.392624145113297e-05,-5.272833127336536e-05,6.8571,5.8571
3.17578125,-8.768825818137315e-10,-2.4426593728541907e-06,-2.2955000236514828e-05,-4.882284723430227e-05,6.8571,5.8571
3.1796875,1.1229954627298398e-05,-1.9570387655451178e-06,-1.3187870275425332e-05,-3.85700966659037e-05,6.8571,5.8571
3.18359375,7.324470588235307e-06,3.904607156481283e-06,-1.3673490882734405e-05,-4.7359145685511545e-05,6.8571,5.8571
3.1875,-4.398821255817492e-06,7.810091195544373e-06,-1.807143525597008e-05,-5.4192032822156084e-05,6.8571,5.8571
3.19140625,-8.768825818137315e-10,1.4157357724879844e-05,-2.0998838353551525e-05,-4.540298380254824e-05,6.8571,5.8571
3.1953125,-2.935119707026768e-06,1.073749429312582e-05,-2.441870178530555e-05,-5.2242710666056295e-05,6.8571,5.8571
3.19921875,-6.840603746089865e-06,9.703643320363255e-07,-2.1484458960860598e-05,-5.175709005874722e-05,6.8571,5.8571
3.203125,3.412146822308699e-06,9.273792744335097e-06,-3.515023323414968e-05,-4.198996009765773e-05,6.8571,5.8571
3.20703125,6.34638964675365e-06,8.788172137026023e-06,-2.34406208438239e-05,-4.784476629282061e-05,6.8571,5.8571
3.2109375,5.368308705272e-06,-5.862522804608215e-06,-3.906360921644911e-06,-3.759201572442205e-05,6.8571,5.8571
3.21484375,5.368308705272e-06,2.44090560769056e-06,-2.9787887373159366e-05,-4.296804103913938e-05,6.8571,5.8571
3.21875,1.5621059273670568e-05,9.75941335164417e-06,-5.7611896253910105e-05,-5.614819470511939e-05,6.8571,5.8571
3.22265625,1.0251873685816747e-05,1.073749429312582e-05,-3.612831417563133e-05,-4.9800928175783924e-05,6.8571,5.8571
3.2265625,1.2201195841916544e-05,2.2460786137178614e-05,-1.807143525597008e-05,-5.1264629724574646e-05,6.8571,5.8571
3.23046875,1.5135438666361494e-05,2.4410108293278413e-05,-1.5629652765697705e-05,-5.6633815312428456e-05,6.8571,5.8571
3.234375,-2.4426593728541907e-06,1.0251873685816747e-05,-2.34406208438239e-05,-6.0053678744182484e-05,6.8571,5.8571
3.23828125,1.9484452735179755e-06,-1.0746087785152962e-05,-3.027350798046844e-05,-5.272833127336536e-05,6.8571,5.8571
3.2421875,-1.9570387655451178e-06,-1.75789749217975e-05,-2.2955000236514828e-05,-4.931530756847485e-05,6.8571,5.8571
3.24609375,-9.282386236362238e-06,-9.789578240634675e-07,-3.174404925612267e-05,-5.8104356588082695e-05,6.8571,5.8571
3.25,-7.326224353398935e-06,6.832010254062723e-06,-2.9302266765850297e-05,-5.175709005874722e-05,6.8571,5.8571
3.25390625,-5.376902197299142e-06,8.295711802853446e-06,-2.686048427557792e-05,-3.9055717273212774e-05,6.8571,5.8571
3.2578125,-2.935119707026768e-06,8.295711802853446e-06,-7.818684687571515e-06,-3.174404925612267e-05,6.8571,5.8571
3.26171875,-4.398821255817492e-06,-1.6607733707179355e-05,-2.9302266765850297e-05,-3.5642693568322256e-05,6.8571,5.8571
3.265625,2.44090560769056e-06,-8.789925902189658e-06,-2.686048427557792e-05,-4.24755807049668e-05,6.8571,5.8571
3.26953125,6.832010254062723e-06,7.810091195544373e-06,6.832010254062723e-06,-4.198996009765773e-05,6.8571,5.8571
3.2734375,1.4628246662089096e-06,-1.7093354314488428e-05,-1.9042676470588226e-05,-3.954817760738536e-05,6.8571,5.8571
3.27734375,-4.884441863126561e-06,-3.3200911078049884e-05,-2.686048427557792e-05,-4.589544413672082e-05,6.8571,5.8571
3.28125,5.853929312581073e-06,-1.4651571824216056e-05,-2.1484458960860598e-05,-5.0286548783093e-05,6.8571,5.8571
3.28515625,1.904092270542459e-05,1.4157357724879844e-05,-1.3673490882734405e-05,-4.540298380254824e-05,6.8571,5.8571
3.2890625,4.8826880979629335e-06,1.6599140215152218e-05,2.44090560769056e-06,-3.66139347829404e-05,6.8571,5.8571
3.29296875,-2.0020757412069876e-05,8.788172137026023e-06,-1.6607733707179355e-05,-3.66139347829404e-05,6.8571,5.8571
3.296875,-1.75789749217975e-05,2.926526214999626e-06,-3.2222830136568235e-05,-4.101187915617608e-05,6.8571,5.8571
3.30078125,-7.326224353398935e-06,-2.4426593728541907e-06,-2.0998838353551525e-05,-4.0526258548867006e-05,6.8571,5.8571
3.3046875,-9.789578240634675e-07,-8.768825818137315e-10,-1.1231708392462031e-05,-4.0526258548867006e-05,6.8571,5.8571
3.30859375,7.810091195544373e-06,2.636627017624171e-05,-1.7093354314488428e-05,-4.0526258548867006e-05,6.8571,5.8571
3.3125,1.3671737117570771e-05,2.5873809842069135e-05,-1.0253627450980382e-05,-3.85700966659037e-05,6.8571,5.8571
3.31640625,2.0504624254215315e-05,2.2460786137178614e-05,2.926526214999626e-06,-2.34406208438239e-05,6.8571,5.8571
3.3203125,8.788172137026023e-06,1.171557523460747e-05,-1.4651571824216056e-05,-2.7831725490196068e-05,6.8571,5.8571
3.32421875,-4.933372167543943e-07,-9.789578240634675e-07,-3.2222830136568235e-05,-5.8104356588082695e-05,6.8571,5.8571
3.328125,-4.398821255817492e-06,1.6599140215152218e-05,-1.3187870275425332e-05,-5.956805813687342e-05,6.8571,5.8571
3.33203125,-3.906360921644911e-06,8.295711802853446e-06,-2.935119707026768e-06,-4.589544413672082e-05,6.8571,5.8571
3.3359375,-5.376902197299142e-06,-4.884441863126561e-06,-1.5137192431525129e-05,-3.85700966659037e-05,6.8571,5.8571
3.33984375,-3.906360921644911e-06,-2.4426593728541907e-06,-2.34406208438239e-05,-4.931530756847485e-05,6.8571,5.8571
3.34375,1.171557523460747e-05,1.1229954627298398e-05,-2.7831725490196068e-05,-6.34735421759365e-05,6.8571,5.8571
3.34765625,-4.933372167543943e-07,1.8548462371252013e-05,-8.789925902189658e-06,-5.370641221484702e-05,6.8571,5.8571
3.3515625,-1.4165951216906986e-05,3.412146822308699e-06,-1.2209789333943683e-05,-4.589544413672082e-05,6.8571,5.8571
3.35546875,-3.906360921644911e-06,1.269365617608912e-05,-2.0513217746242452e-05,-4.540298380254824e-05,6.8571,5.8571
3.359375,-4.933372167543943e-07,2.929367327382316e-05,1.9484452735179755e-06,-3.759201572442205e-05,6.8571,5.8571
3.36328125,-9.768006843671307e-06,1.4157357724879844e-05,8.295711802853446e-06,-2.8324185824368647e-05,6.8571,5.8571
3.3671875,-9.768006843671307e-06,8.788172137026023e-06,-1.611527337300678e-05,-4.24755807049668e-05,6.8571,5.8571
3.37109375,-2.4426593728541907e-06,2.5873809842069135e-05,-2.1484458960860598e-05,-4.7359145685511545e-05,6.8571,5.8571
3.375,1.9484452735179755e-06,3.075737482261388e-05,-6.840603746089865e-06,-4.589544413672082e-05,6.8571,5.8571
3.37890625,9.703643320363255e-07,2.392448768596934e-05,-1.9535136804760803e-05,-4.345366164644845e-05,6.8571,5.8571
3.3828125,-2.935119707026768e-06,2.0504624254215315e-05,-2.9787887373159366e-05,-4.0526258548867006e-05,6.8571,5.8571
3.38671875,2.926526214999626e-06,2.1968325803006038e-05,-1.3187870275425332e-05,-2.6368023941405342e-05,6.8571,5.8571
3.390625,7.810091195544373e-06,2.9779293881132226e-05,4.3902277637903494e-06,-1.807143525597008e-05,6.8571,5.8571
3.39453125,9.273792744335097e-06,2.929367327382316e-05,9.703643320363255e-07,-2.734610488288699e-05,6.8571,5.8571
3.3984375,9.273792744335097e-06,1.0251873685816747e-05,-1.1231708392462031e-05,-3.4178992019531534e-05,6.8571,5.8571
3.40234375,1.269365617608912e-05,5.368308705272e-06,6.832010254062723e-06,-2.686048427557792e-05,6.8571,5.8571
3.40625,9.273792744335097e-06,4.735739192034791e-05,3.271353670557718e-05,-1.4651571824216056e-05,6.8571,5.8571
3.41015625,-4.398821255817492e-06,4.19882063324941e-05,2.0990244861524388e-05,-2.53967827267872e-05,6.8571,5.8571
3.4140625,4.847437247272523e-07,1.0251873685816747e-05,3.904607156481283e-06,-3.808447605859463e-05,6.8571,5.8571
3.41796875,-8.768825818137315e-10,1.904092270542459e-05,1.269365617608912e-05,-3.5642693568322256e-05,6.8571,5.8571
3.421875,-8.789925902189658e-06,1.4642978332188917e-05,2.343202735179676e-05,-3.710639511711298e-05,6.8571,5.8571
3.42578125,-3.420740314335841e-06,1.171557523460747e-05,6.832010254062723e-06,-3.66139347829404e-05,6.8571,5.8571
3.4296875,-4.933372167543943e-07,3.4662858861676976e-05,-3.420740314335841e-06,-1.75789749217975e-05,6.8571,5.8571
3.43359375,-4.884441863126561e-06,2.8315592332341507e-05,4.8826880979629335e-06,-9.282386236362238e-06,6.8571,5.8571
3.4375,-8.304305294880588e-06,1.2201195841916544e-05,3.412146822308699e-06,-1.4651571824216056e-05,6.8571,5.8571
3.44140625,-5.862522804608215e-06,1.5621059273670568e-05,-2.4426593728541907e-06,-2.1484458960860598e-05,6.8571,5.8571
3.4453125,-7.818684687571515e-06,1.4642978332188917e-05,5.853929312581073e-06,-3.2222830136568235e-05,6.8571,5.8571
3.44921875,-5.376902197299142e-06,3.856834290074008e-05,2.2946406744487687e-05,-2.7831725490196068e-05,6.8571,5.8571
3.453125,-3.420740314335841e-06,3.9060803234912654e-05,1.6113519607843145e-05,-2.34406208438239e-05,6.8571,5.8571
3.45703125,-1.5137192431525129e-05,6.832010254062723e-06,-1.5629652765697705e-05,-3.4664612626840606e-05,6.8571,5.8571
3.4609375,-1.3187870275425332e-05,1.7577221156633867e-05,-4.884441863126561e-06,-3.125158892195009e-05,6.8571,5.8571
3.46484375,-5.862522804608215e-06,2.6851890783550785e-05,8.788172137026023e-06,-3.270845074387731e-05,6.8571,5.8571
3.46875,-9.768006843671307e-06,1.3671737117570771e-05,1.269365617608912e-05,-4.003379821469443e-05,6.8571,5.8571
3.47265625,-1.5629652765697705e-05,1.4157357724879844e-05,8.295711802853446e-06,-4.784476629282061e-05,6.8571,5.8571
3.4765625,-9.768006843671307e-06,3.41772382543679e-05,2.926526214999626e-06,-5.2242710666056295e-05,6.8571,5.8571
3.48046875,-2.7831725490196068e-05,4.0524504783703376e-05,2.1968325803006038e-05,-3.5642693568322256e-05,6.8571,5.8571
3.484375,-4.101187915617608e-05,-4.884441863126561e-06,-2.935119707026768e-06,-2.392624145113297e-05,6.8571,5.8571
3.48828125,-2.1484458960860598e-05,-1.0253627450980382e-05,-1.0253627450980382e-05,-2.1484458960860598e-05,6.8571,5.8571
3.4921875,-1.9535136804760803e-05,7.324470588235307e-06,-4.884441863126561e-06,-2.734610488288699e-05,6.8571,5.8571
3.49609375,-2.1484458960860598e-05,1.806284176394294e-05,-1.2695409941252755e-05,-1.4651571824216056e-05,6.8571,5.8571
3.5,-3.3200911078049884e-05,-7.818684687571515e-06,-2.2955000236514828e-05,-6.3481434119172845e-06,6.8571,5.8571
3.50390625,-3.3200911078049884e-05,-3.3200911078049884e-05,-3.66139347829404e-05,-1.2209789333943683e-05,6.8571,5.8571
3.5078125,-1.611527337300678e-05,-9.768006843671307e-06,-1.7093354314488428e-05,4.847437247272523e-07,6.8571,5.8571
3.51171875,-2.5882403334096272e-05,-1.5137192431525129e-05,-2.5882403334096272e-05,-1.5629652765697705e-05,6.8571,5.8571
3.515625,-2.9302266765850297e-05,-2.734610488288699e-05,-2.6368023941405342e-05,-3.368653168535896e-05,6.8571,5.8571
3.51953125,-2.686048427557792e-05,-2.0513217746242452e-05,-1.8557055863279154e-05,-2.53967827267872e-05,6.8571,5.8571
3.5234375,-3.4178992019531534e-05,4.3902277637903494e-06,-1.7093354314488428e-05,-1.4165951216906986e-05,6.8571,5.8571
3.52734375,-2.9787887373159366e-05,2.5388189234760062e-05,8.788172137026023e-06,-1.1231708392462031e-05,6.8571,5.8571
3.53125,-1.611527337300678e-05,2.343202735179676e-05,8.788172137026023e-06,-2.1484458960860598e-05,6.8571,5.8571
3.53515625,-1.2695409941252755e-05,1.3671737117570771e-05,-1.1231708392462031e-05,-2.6368023941405342e-05,6.8571,5.8571
3.5390625,-1.4165951216906986e-05,2.2946406744487687e-05,-4.398821255817492e-06,-1.611527337300678e-05,6.8571,5.8571
3.54296875,-2.0998838353551525e-05,2.5388189234760062e-05,-3.420740314335841e-06,-1.6607733707179355e-05,6.8571,5.8571
3.546875,-3.027350798046844e-05,8.788172137026023e-06,-2.686048427557792e-05,-2.441870178530555e-05,6.8571,5.8571
3.55078125,-2.0513217746242452e-05,3.027175421530481e-05,-3.5642693568322256e-05,-1.2695409941252755e-05,6.8571,5.8571
3.5546875,-2.9302266765850297e-05,2.733751139085985e-05,-1.9042676470588226e-05,-1.807143525597008e-05,6.8571,5.8571
3.55859375,-3.5642693568322256e-05,-1.9570387655451178e-06,-1.3673490882734405e-05,-2.9787887373159366e-05,6.8571,5.8571
3.5625,-2.4904322392614623e-05,-3.906360921644911e-06,-2.5882403334096272e-05,-3.5642693568322256e-05,6.8571,5.8571
3.56640625,-2.0998838353551525e-05,1.6113519607843145e-05,-1.5137192431525129e-05,-3.270845074387731e-05,6.8571,5.8571
3.5703125,-1.2209789333943683e-05,3.6126560410467705e-05,2.44090560769056e-06,-1.8557055863279154e-05,6.8571,5.8571
3.57421875,-6.3481434119172845e-06,1.708476082246129e-05,-1.5629652765697705e-05,-1.75789749217975e-05,6.8571,5.8571
3.578125,-9.282386236362238e-06,1.171557523460747e-05,-1.3187870275425332e-05,-1.5137192431525129e-05,6.8571,5.8571
3.58203125,-1.0253627450980382e-05,3.7104641351949355e-05,9.703643320363255e-07,-1.807143525597008e-05,6.8571,5.8571
3.5859375,-3.906360921644911e-06,5.175533629358359e-05,1.5621059273670568e-05,-1.5629652765697705e-05,6.8571,5.8571
3.58984375,-7.326224353398935e-06,3.4662858861676976e-05,1.9526543312733662e-05,-1.2695409941252755e-05,6.8571,5.8571
3.59375,-1.0746087785152962e-05,2.733751139085985e-05,-3.906360921644911e-06,-1.611527337300678e-05,6.8571,5.8571
3.59765625,-2.4426593728541907e-06,4.687177131303885e-05,8.295711802853446e-06,-5.862522804608215e-06,6.8571,5.8571
3.6015625,-8.789925902189658e-06,2.5388189234760062e-05,4.8826880979629335e-06,-1.2209789333943683e-05,6.8571,5.8571
3.60546875,-1.611527337300678e-05,5.853929312581073e-06,-1.0746087785152962e-05,-2.392624145113297e-05,6.8571,5.8571
3.609375,-1.7093354314488428e-05,1.4157357724879844e-05,-1.9570387655451178e-06,-2.0020757412069876e-05,6.8571,5.8571
3.61328125,-2.2955000236514828e-05,3.075737482261388e-05,-3.906360921644911e-06,-1.75789749217975e-05,6.8571,5.8571
3.6171875,-3.368653168535896e-05,2.2460786137178614e-05,-1.2695409941252755e-05,-3.027350798046844e-05,6.8571,5.8571
3.62109375,-2.9302266765850297e-05,1.6113519607843145e-05,-1.7093354314488428e-05,-4.44317425879301e-05,6.8571,5.8571
3.625,-1.75789749217975e-05,2.0990244861524388e-05,-4.398821255817492e-06,-4.3939282253757524e-05,6.8571,5.8571
3.62890625,-1.75789749217975e-05,5.126971568627452e-05,2.343202735179676e-05,-2.6368023941405342e-05,6.8571,5.8571
3.6328125,-2.0513217746242452e-05,4.687177131303885e-05,2.8808052666514087e-05,-1.5137192431525129e-05,6.8571,5.8571
3.63671875,-2.5882403334096272e-05,4.8826880979629335e-06,-2.935119707026768e-06,-2.6368023941405342e-05,6.8571,5.8571
3.640625,-2.0020757412069876e-05,6.832010254062723e-06,-1.0253627450980382e-05,-3.759201572442205e-05,6.8571,5.8571
3.64453125,-1.1231708392462031e-05,3.075737482261388e-05,1.708476082246129e-05,-3.515023323414968e-05,6.8571,5.8571
3.6484375,-1.1231708392462031e-05,3.564093980315863e-05,2.636627017624171e-05,-2.734610488288699e-05,6.8571,5.8571
3.65234375,-1.75789749217975e-05,2.2460786137178614e-05,2.926526214999626e-06,-2.0998838353551525e-05,6.8571,5.8571
3.65625,-2.4904322392614623e-05,3.173545576409553e-05,-1.3187870275425332e-05,-8.304305294880588e-06,6.8571,5.8571
3.66015625,-2.5882403334096272e-05,4.296628727397575e-05,-1.1724168726634613e-05,2.44090560769056e-06,6.8571,5.8571
3.6640625,-2.53967827267872e-05,4.101012539101245e-05,-7.818684687571515e-06,-5.376902197299142e-06,6.8571,5.8571
3.66796875,-1.2209789333943683e-05,5.810260282291905e-05,7.810091195544373e-06,-1.2209789333943683e-05,6.8571,5.8571
3.671875,-1.2695409941252755e-05,5.71245218814374e-05,1.806284176394294e-05,-2.0513217746242452e-05,6.8571,5.8571
3.67578125,-1.611527337300678e-05,2.2460786137178614e-05,1.806284176394294e-05,-2.1484458960860598e-05,6.8571,5.8571
3.6796875,-1.2209789333943683e-05,-1.4165951216906986e-05,2.44090560769056e-06,-1.5137192431525129e-05,6.8571,5.8571
3.68359375,-1.4165951216906986e-05,-3.420740314335841e-06,-2.4426593728541907e-06,-2.0513217746242452e-05,6.8571,5.8571
3.6875,-1.3673490882734405e-05,2.5873809842069135e-05,1.269365617608912e-05,-3.270845074387731e-05,6.8571,5.8571
3.69140625,-2.4426593728541907e-06,3.661902074464028e-05,2.1968325803006038e-05,-2.8809806431677717e-05,6.8571,5.8571
3.6953125,8.295711802853446e-06,5.9080683764400714e-05,2.343202735179676e-05,-1.0253627450980382e-05,6.8571,5.8571
3.69921875,4.847437247272523e-07,6.396424874494544e-05,7.324470588235307e-06,-2.0020757412069876e-05,6.8571,5.8571
3.703125,1.3179276783398193e-05,9.521496078431372e-05,-1.2209789333943683e-05,-2.53967827267872e-05,6.8571,5.8571
3.70703125,2.1968325803006038e-05,0.00012158210784313725,-8.768825818137315e-10,-7.818684687571515e-06,6.8571,5.8571
3.7109375,5.368308705272e-06,6.396424874494544e-05,-4.933372167543943e-07,-9.768006843671307e-06,6.8571,5.8571
3.71484375,-1.1231708392462031e-05,5.853929312581073e-06,-7.818684687571515e-06,-1.7093354314488428e-05,6.8571,5.8571
3.71875,-1.6607733707179355e-05,1.9484452735179755e-06,-9.789578240634675e-07,-1.7093354314488428e-05,6.8571,5.8571
3.72265625,-1.2695409941252755e-05,5.853929312581073e-06,2.5388189234760062e-05,-6.3481434119172845e-06,6.8571,5.8571
3.7265625,-1.4651571824216056e-05,-7.326224353398935e-06,2.8315592332341507e-05,-1.1724168726634613e-05,6.8571,5.8571
3.73046875,-1.3673490882734405e-05,4.847437247272523e-07,-1.9570387655451178e-06,-2.34406208438239e-05,6.8571,5.8571
3.734375,2.2460786137178614e-05,1.269365617608912e-05,-5.862522804608215e-06,-2.8324185824368647e-05,6.8571,5.8571
3.73828125,3.3199157312886254e-05,3.904607156481283e-06,-8.789925902189658e-06,-4.931530756847485e-05,6.8571,5.8571
3.7421875,1.806284176394294e-05,-2.734610488288699e-05,-6.15173802929732e-05,-6.884272776379031e-05,6.8571,5.8571
3.74609375,1.708476082246129e-05,-1.6607733707179355e-05,-7.568245462729837e-05,-7.568245462729837e-05,6.8571,5.8571
3.75,2.2460786137178614e-05,-1.9570387655451178e-06,-5.6633815312428456e-05,-8.886260829327838e-05,6.8571,5.8571
3.75390625,3.41772382543679e-05,-1.464578431372537e-06,-6.884272776379031e-05,-8.886260829327838e-05,6.8571,5.8571
3.7578125,3.564093980315863e-05,2.44090560769056e-06,-7.274821180285343e-05,-8.49571242542153e-05,6.8571,5.8571
3.76171875,4.1502585725185025e-05,-2.9302266765850297e-05,-7.226259119554436e-05,-9.081877017624168e-05,6.8571,5.8571
3.765625,3.8082722293431004e-05,-1.7093354314488428e-05,-8.251534176394293e-05,-9.570233515678642e-05,6.8571,5.8571
3.76953125,1.9526543312733662e-05,-5.376902197299142e-06,-6.835710715648125e-05,-0.0001118098919203479,6.8571,5.8571
3.7734375,1.904092270542459e-05,-1.5629652765697705e-05,-7.763177678339817e-05,-0.00011522975535210192,6.8571,5.8571
3.77734375,4.19882063324941e-05,1.4628246662089096e-06,-9.716603670557715e-05,-9.374617327382313e-05,6.8571,5.8571
3.78125,4.882793319600215e-05,9.75941335164417e-06,-7.812423711757074e-05,-8.6420825803006e-05,6.8571,5.8571
3.78515625,3.661902074464028e-05,-3.420740314335841e-06,-7.12845102540627e-05,-0.0001020496016861219,6.8571,5.8571
3.7890625,2.6851890783550785e-05,-2.734610488288699e-05,-8.6420825803006e-05,-0.00011230235225452047,6.8571,5.8571
3.79296875,2.9779293881132226e-05,-1.8557055863279154e-05,-6.591532466620887e-05,-9.813727792019529e-05,6.8571,5.8571
3.796875,1.708476082246129e-05,-7.326224353398935e-06,-5.1264629724574646e-05,-0.00010155714135194933,6.8571,5.8571
3.80078125,2.926526214999626e-06,-8.768825818137315e-10,-6.15173802929732e-05,-0.00011034619037155717,6.8571,5.8571
3.8046875,1.4157357724879844e-05,1.708476082246129e-05,-4.9800928175783924e-05,-8.886260829327838e-05,6.8571,5.8571
3.80859375,1.806284176394294e-05,2.4410108293278413e-05,-4.003379821469443e-05,-8.153726082246126e-05,6.8571,5.8571
3.8125,1.1229954627298398e-05,5.077725535210194e-05,-2.34406208438239e-05,-9.130439078355076e-05,6.8571,5.8571
3.81640625,-1.464578431372537e-06,6.249370746929123e-05,-1.5629652765697705e-05,-8.6420825803006e-05,6.8571,5.8571
3.8203125,-1.0253627450980382e-05,4.296628727397575e-05,-9.282386236362238e-06,-7.372629274433507e-05,6.8571,5.8571
3.82421875,-1.5629652765697705e-05,3.173545576409553e-05,-2.935119707026768e-06,-6.73790262149996e-05,6.8571,5.8571
3.828125,-1.7093354314488428e-05,5.71245218814374e-05,-3.906360921644911e-06,-6.640094527351795e-05,6.8571,5.8571
3.83203125,-2.2955000236514828e-05,4.0524504783703376e-05,-6.840603746089865e-06,-7.12845102540627e-05,6.8571,5.8571
3.8359375,-2.686048427557792e-05,1.3671737117570771e-05,-1.2695409941252755e-05,-7.030642931258105e-05,6.8571,5.8571
3.83984375,-2.2462539902342248e-05,4.00388841763943e-05,5.853929312581073e-06,-6.054613907835507e-05,6.8571,5.8571
3.84375,-2.1484458960860598e-05,4.491560943007553e-05,1.806284176394294e-05,-5.1264629724574646e-05,6.8571,5.8571
3.84765625,-2.734610488288699e-05,4.833547286182957e-05,2.926526214999626e-06,-5.4192032822156084e-05,6.8571,5.8571
3.8515625,-2.1976919295033175e-05,4.58936903715572e-05,7.324470588235307e-06,-4.345366164644845e-05,6.8571,5.8571
3.85546875,-1.9042676470588226e-05,2.8808052666514087e-05,2.0019003646906242e-05,-4.101187915617608e-05,6.8571,5.8571
3.859375,-2.2955000236514828e-05,3.759710168612193e-05,2.733751139085985e-05,-4.44317425879301e-05,6.8571,5.8571
3.86328125,-1.3187870275425332e-05,6.933343433279927e-05,4.39443682154574e-05,-2.734610488288699e-05,6.8571,5.8571
3.8671875,-1.8557055863279154e-05,8.251358799877928e-05,3.564093980315863e-05,-3.4664612626840606e-05,6.8571,5.8571
3.87109375,-2.5882403334096272e-05,8.300604833295186e-05,-8.768825818137315e-10,-4.24755807049668e-05,6.8571,5.8571
3.875,-2.686048427557792e-05,8.642591176470588e-05,-2.4426593728541907e-06,-3.66139347829404e-05,6.8571,5.8571
3.87890625,-1.9535136804760803e-05,3.8082722293431004e-05,2.7829971725032434e-05,-2.9787887373159366e-05,6.8571,5.8571
3.8828125,-2.34406208438239e-05,2.4410108293278413e-05,3.661902074464028e-05,-2.2955000236514828e-05,6.8571,5.8571
3.88671875,-4.0526258548867006e-05,5.4682739391165023e-05,3.759710168612193e-05,-2.441870178530555e-05,6.8571,5.8571
3.890625,-4.149749976348515e-05,3.369161764705883e-05,2.733751139085985e-05,-3.174404925612267e-05,6.8571,5.8571
3.89453125,-2.9787887373159366e-05,2.926526214999626e-06,2.1968325803006038e-05,-2.9787887373159366e-05,6.8571,5.8571
3.8984375,-3.270845074387731e-05,-4.933372167543943e-07,1.4157357724879844e-05,-2.2462539902342248e-05,6.8571,5.8571
3.90234375,-3.4178992019531534e-05,-8.768825818137315e-10,2.926526214999626e-06,-3.0765968314641016e-05,6.8571,5.8571
3.90625,-2.686048427557792e-05,-9.282386236362238e-06,8.295711802853446e-06,-4.491736319523917e-05,6.8571,5.8571
3.91015625,-2.7831725490196068e-05,-9.768006843671307e-06,8.788172137026023e-06,-3.9055717273212774e-05,6.8571,5.8571
3.9140625,-2.4904322392614623e-05,1.8548462371252013e-05,1.4642978332188917e-05,-1.4651571824216056e-05,6.8571,5.8571
3.91796875,-2.6368023941405342e-05,5.853929312581073e-06,2.490256862745099e-05,-9.768006843671307e-06,6.8571,5.8571
3.921875,-3.710639511711298e-05,-1.4165951216906986e-05,-8.768825818137315e-10,-2.9302266765850297e-05,6.8571,5.8571
3.92578125,-3.2222830136568235e-05,5.368308705272e-06,-6.3481434119172845e-06,-2.686048427557792e-05,6.8571,5.8571
3.9296875,-1.75789749217975e-05,3.027175421530481e-05,1.4642978332188917e-05,-1.1724168726634613e-05,6.8571,5.8571
3.93359375,-3.759201572442205e-05,2.343202735179676e-05,1.269365617608912e-05,-1.9535136804760803e-05,6.8571,5.8571
3.9375,-3.270845074387731e-05,2.392448768596934e-05,5.853929312581073e-06,-2.8324185824368647e-05,6.8571,5.8571
3.94140625,-1.3187870275425332e-05,2.5388189234760062e-05,1.3671737117570771e-05,-2.686048427557792e-05,6.8571,5.8571
3.9453125,-1.611527337300678e-05,2.0504624254215315e-05,-4.933372167543943e-07,-2.4904322392614623e-05,6.8571,5.8571
3.94921875,-2.392624145113297e-05,3.8082722293431004e-05,-2.0998838353551525e-05,-2.686048427557792e-05,6.8571,5.8571
3.953125,-2.6368023941405342e-05,6.832010254062723e-06,-3.420740314335841e-06,-2.686048427557792e-05,6.8571,5.8571
3.95703125,-2.392624145113297e-05,-3.0765968314641016e-05,6.34638964675365e-06,-2.34406208438239e-05,6.8571,5.8571
3.9609375,-2.7831725490196068e-05,-2.4904322392614623e-05,2.343202735179676e-05,-2.0513217746242452e-05,6.8571,5.8571
3.96484375,-3.0765968314641016e-05,-1.4651571824216056e-05,8.788172137026023e-06,-2.1976919295033175e-05,6.8571,5.8571
3.96875,-2.8809806431677717e-05,9.273792744335097e-06,-7.818684687571515e-06,-2.2955000236514828e-05,6.8571,5.8571
3.97265625,-1.807143525597008e-05,3.2221076371404604e-05,1.2201195841916544e-05,4.847437247272523e-07,6.8571,5.8571
3.9765625,-2.7831725490196068e-05,9.273792744335097e-06,1.1229954627298398e-05,1.9484452735179755e-06,6.8571,5.8571
3.98046875,-2.53967827267872e-05,-1.8557055863279154e-05,-1.3673490882734405e-05,-1.7093354314488428e-05,6.8571,5.8571
3.984375,-1.2695409941252755e-05,-3.027350798046844e-05,-4.003379821469443e-05,-2.53967827267872e-05,6.8571,5.8571
3.98828125,-3.027350798046844e-05,-1.7093354314488428e-05,-1.75789749217975e-05,-2.8324185824368647e-05,6.8571,5.8571
3.9921875,-4.149749976348515e-05,5.853929312581073e-06,1.6113519607843145e-05,-2.0020757412069876e-05,6.8571,5.8571
3.99609375,-2.5882403334096272e-05,-9.789578240634675e-07,1.6599140215152218e-05,-1.75789749217975e-05,6.8571,5.8571
4.0,-8.768825818137315e-10,-4.933372167543943e-07,1.9484452735179755e-06,-1.7093354314488428e-05,6.8571,5.8571
4.00390625,1.3671737117570771e-05,7.324470588235307e-06,1.3179276783398193e-05,-1.3673490882734405e-05,6.8571,5.8571
4.0078125,5.368308705272e-06,5.3704658449683374e-05,3.515531919584955e-05,-1.9535136804760803e-05,6.8571,5.8571
4.01171875,4.8826880979629335e-06,6.249370746929123e-05,3.412146822308699e-06,-3.954817760738536e-05,6.8571,5.8571
4.015625,1.4642978332188917e-05,3.9060803234912654e-05,2.44090560769056e-06,-4.9800928175783924e-05,6.8571,5.8571
4.01953125,1.6599140215152218e-05,2.2946406744487687e-05,2.490256862745099e-05,-5.4192032822156084e-05,6.8571,5.8571
4.0234375,1.073749429312582e-05,-4.933372167543943e-07,1.904092270542459e-05,-5.1264629724574646e-05,6.8571,5.8571
4.02734375,2.0990244861524388e-05,2.4410108293278413e-05,2.0504624254215315e-05,-4.345366164644845e-05,6.8571,5.8571
4.03125,2.5388189234760062e-05,4.491560943007553e-05,1.4157357724879844e-05,-4.0526258548867006e-05,6.8571,5.8571
