timestamp,TP9,AF7,AF8,TP10,Valence,Arousal
0.0,2.294730370946813e-05,2.3434132036316382e-05,1.6591489442282663e-05,9.588909468222225e-07,6.1333,6.2
0.00390625,2.5381445343709372e-05,1.7078317769130906e-05,1.7078317769130906e-05,4.7206261997396833e-07,6.1333,6.2
0.0078125,2.5868273670557628e-05,1.3156645136186682e-05,6.827876887159448e-06,-5.015940337225259e-07,6.1333,6.2
0.01171875,2.5868273670557628e-05,-3.422563994812023e-06,3.4658229571984347e-05,9.588909468222225e-07,6.1333,6.2
0.015625,2.3920960363164625e-05,7.314705214007688e-06,2.4894617016861133e-05,2.9062042542152114e-06,6.1333,6.2
0.01953125,2.145977271076515e-05,3.611871455252908e-05,-1.2699348223086986e-05,4.393735252918204e-06,6.1333,6.2
0.0234375,2.3920960363164625e-05,2.0972944383916895e-05,-4.883048975356772e-06,4.393735252918204e-06,6.1333,6.2
0.02734375,2.635510199740588e-05,2.3920960363164625e-05,1.610466111543441e-05,6.341048560311193e-06,6.1333,6.2
0.03125,2.684193032425412e-05,2.5868273670557628e-05,1.8051974422827397e-05,6.827876887159448e-06,6.1333,6.2
0.03515625,2.4407788690012877e-05,1.8538802749675653e-05,1.6591489442282663e-05,3.87986090791172e-06,6.1333,6.2
0.0390625,1.902563107652391e-05,-2.1002475797665454e-05,1.4157347808041408e-05,6.341048560311193e-06,6.1333,6.2
0.04296875,2.4894617016861133e-05,-2.3463663450064942e-05,-2.4489073411155287e-06,5.367391906614699e-06,6.1333,6.2
0.046875,2.8789243631647122e-05,-1.0752034915693996e-05,-9.778378261997488e-06,3.3930325810634655e-06,6.1333,6.2
0.05078125,2.3920960363164625e-05,-2.395049177691318e-05,7.314705214007688e-06,8.775190194552436e-06,6.1333,6.2
0.0546875,2.7815586977950614e-05,-1.1238863242542237e-05,4.880563579766445e-06,6.341048560311193e-06,6.1333,6.2
0.05859375,3.173725961089485e-05,1.932547600518717e-06,-1.4765706874271699e-08,6.341048560311193e-06,6.1333,6.2
0.0625,2.9276071958495364e-05,3.0249728612191873e-05,-1.1238863242542237e-05,1.0722503501945439e-05,6.1333,6.2
0.06640625,2.9276071958495364e-05,2.4894617016861133e-05,-1.9055162490272464e-05,1.0722503501945439e-05,6.1333,6.2
0.0703125,3.0249728612191873e-05,-5.015940337225259e-07,4.880563579766445e-06,1.120933182879368e-05,6.1333,6.2
0.07421875,3.122338526588837e-05,-8.31789328145274e-06,-1.4752506874190202e-06,1.2182988482490188e-05,6.1333,6.2
0.078125,3.611871455252908e-05,-8.804721608300993e-06,-2.002881914396896e-05,8.288361867704197e-06,6.1333,6.2
0.08203125,3.2224087937743094e-05,2.294730370946813e-05,-1.8568334163424212e-05,4.393735252918204e-06,6.1333,6.2
0.0859375,2.7328758651102375e-05,1.3670519481193167e-05,-5.8837516472114964e-06,8.288361867704197e-06,6.1333,6.2
0.08984375,3.31977445914396e-05,-1.4765706874271699e-08,1.0722503501945439e-05,8.775190194552436e-06,6.1333,6.2
0.09375,3.073655693904011e-05,2.0486116057068656e-05,1.4457192736704627e-06,8.775190194552436e-06,6.1333,6.2
0.09765625,2.7328758651102375e-05,4.393735252918204e-06,1.0235675175097185e-05,8.775190194552436e-06,6.1333,6.2
0.1015625,3.0249728612191873e-05,7.801533540855943e-06,1.8538802749675653e-05,3.87986090791172e-06,6.1333,6.2
0.10546875,3.2224087937743094e-05,1.5131004461737916e-05,1.4644176134889662e-05,6.827876887159448e-06,6.1333,6.2
0.109375,2.9762900285343617e-05,-2.5897805084306184e-05,-2.4489073411155287e-06,1.0235675175097185e-05,6.1333,6.2
0.11328125,2.635510199740588e-05,7.314705214007688e-06,-1.710784918287946e-05,1.120933182879368e-05,6.1333,6.2
0.1171875,2.7328758651102375e-05,2.4894617016861133e-05,-1.9620790142672746e-06,1.2669816809338428e-05,6.1333,6.2
0.12109375,2.9276071958495364e-05,9.26201852140069e-06,-2.935735667963769e-06,1.0235675175097185e-05,6.1333,6.2
0.125,2.830241530479887e-05,3.514505789883259e-05,4.880563579766445e-06,1.1696160155641934e-05,6.1333,6.2
0.12890625,2.635510199740588e-05,9.26201852140069e-06,1.7565146095979158e-05,1.120933182879368e-05,6.1333,6.2
0.1328125,2.7815586977950614e-05,-2.935735667963769e-06,8.775190194552436e-06,1.120933182879368e-05,6.1333,6.2
0.13671875,3.173725961089485e-05,1.902563107652391e-05,-1.4765706874271699e-08,1.2182988482490188e-05,6.1333,6.2
0.140625,3.2710916264591344e-05,-5.8837516472114964e-06,3.3930325810634655e-06,9.26201852140069e-06,6.1333,6.2
0.14453125,3.0249728612191873e-05,-1.1725691569390491e-05,1.4644176134889662e-05,9.26201852140069e-06,6.1333,6.2
0.1484375,2.3434132036316382e-05,4.880563579766445e-06,3.0249728612191873e-05,1.4644176134889662e-05,6.1333,6.2
0.15234375,2.3434132036316382e-05,-5.015940337225259e-07,1.1696160155641934e-05,1.0235675175097185e-05,6.1333,6.2
0.15625,2.4407788690012877e-05,-2.7358290064850924e-05,1.610466111543441e-05,6.341048560311193e-06,6.1333,6.2
0.16015625,2.635510199740588e-05,-3.222657333333342e-05,1.3156645136186682e-05,1.0235675175097185e-05,6.1333,6.2
0.1640625,2.7815586977950614e-05,-1.0265206588845742e-05,-1.0752034915693996e-05,9.26201852140069e-06,6.1333,6.2
0.16796875,2.2460475382619874e-05,-1.8568334163424212e-05,8.775190194552436e-06,8.288361867704197e-06,6.1333,6.2
0.171875,1.99992877302204e-05,-1.0265206588845742e-05,2.4407788690012877e-05,3.3930325810634655e-06,6.1333,6.2
0.17578125,2.3434132036316382e-05,-1.7594677509727717e-05,4.7206261997396833e-07,2.419375927366971e-06,6.1333,6.2
0.1796875,2.5868273670557628e-05,-4.347771688715961e-05,-1.318617654993524e-05,7.801533540855943e-06,6.1333,6.2
0.18359375,2.3920960363164625e-05,-1.8568334163424212e-05,1.9512459403372147e-05,6.341048560311193e-06,6.1333,6.2
0.1875,2.3434132036316382e-05,4.393735252918204e-06,1.7565146095979158e-05,3.87986090791172e-06,6.1333,6.2
0.19140625,2.5381445343709372e-05,-1.4752506874190202e-06,-9.884223605707803e-07,7.801533540855943e-06,6.1333,6.2
0.1953125,2.684193032425412e-05,-5.396923320363257e-06,-1.4765706874271699e-08,1.120933182879368e-05,6.1333,6.2
0.19921875,3.073655693904011e-05,1.610466111543441e-05,4.880563579766445e-06,1.120933182879368e-05,6.1333,6.2
0.203125,3.0249728612191873e-05,5.0290828067444774e-05,-2.4489073411155287e-06,1.3156645136186682e-05,6.1333,6.2
0.20703125,2.5381445343709372e-05,2.0972944383916895e-05,2.145977271076515e-05,1.902563107652391e-05,6.1333,6.2
0.2109375,2.5868273670557628e-05,-1.2212519896238732e-05,2.2460475382619874e-05,1.8538802749675653e-05,6.1333,6.2
0.21484375,2.7815586977950614e-05,6.341048560311193e-06,-5.015940337225259e-07,1.6591489442282663e-05,6.1333,6.2
0.21875,2.635510199740588e-05,8.775190194552436e-06,-1.4765706874271699e-08,1.8538802749675653e-05,6.1333,6.2
0.22265625,2.4894617016861133e-05,1.5131004461737916e-05,1.610466111543441e-05,1.902563107652391e-05,6.1333,6.2
0.2265625,2.4894617016861133e-05,2.2460475382619874e-05,3.368457291828784e-05,2.145977271076515e-05,6.1333,6.2
0.23046875,2.684193032425412e-05,1.2669816809338428e-05,3.0249728612191873e-05,2.0972944383916895e-05,6.1333,6.2
0.234375,2.830241530479887e-05,2.294730370946813e-05,4.393735252918204e-06,1.8538802749675653e-05,6.1333,6.2
0.23828125,2.9762900285343617e-05,3.073655693904011e-05,4.052721551232156e-05,1.902563107652391e-05,6.1333,6.2
0.2421875,3.0249728612191873e-05,2.1946601037613403e-05,4.3935013800259294e-05,1.99992877302204e-05,6.1333,6.2
0.24609375,2.635510199740588e-05,3.173725961089485e-05,6.827876887159448e-06,1.8538802749675653e-05,6.1333,6.2
0.25,2.7328758651102375e-05,1.6591489442282663e-05,2.3920960363164625e-05,1.610466111543441e-05,6.1333,6.2
0.25390625,2.7815586977950614e-05,2.419375927366971e-06,1.8538802749675653e-05,1.5617832788586155e-05,6.1333,6.2
0.2578125,2.3920960363164625e-05,2.0972944383916895e-05,1.120933182879368e-05,1.6591489442282663e-05,6.1333,6.2
0.26171875,1.8538802749675653e-05,7.314705214007688e-06,2.684193032425412e-05,2.0972944383916895e-05,6.1333,6.2
0.265625,1.8538802749675653e-05,4.393735252918204e-06,4.539549878080405e-05,2.145977271076515e-05,6.1333,6.2
0.26953125,2.0972944383916895e-05,2.3434132036316382e-05,3.368457291828784e-05,1.9512459403372147e-05,6.1333,6.2
0.2734375,2.3434132036316382e-05,4.344818547341106e-05,1.610466111543441e-05,1.902563107652391e-05,6.1333,6.2
0.27734375,2.7328758651102375e-05,5.175131304798952e-05,2.0972944383916895e-05,1.8538802749675653e-05,6.1333,6.2
0.28125,2.5381445343709372e-05,2.684193032425412e-05,1.5131004461737916e-05,2.0972944383916895e-05,6.1333,6.2
0.28515625,2.1946601037613403e-05,8.288361867704197e-06,9.74884684824893e-06,1.9512459403372147e-05,6.1333,6.2
0.2890625,2.145977271076515e-05,1.5131004461737916e-05,3.173725961089485e-05,1.8051974422827397e-05,6.1333,6.2
0.29296875,2.5381445343709372e-05,2.4407788690012877e-05,3.9039684513618595e-05,2.2460475382619874e-05,6.1333,6.2
0.296875,2.3434132036316382e-05,1.9512459403372147e-05,4.4908670453955806e-05,2.3434132036316382e-05,6.1333,6.2
0.30078125,2.0486116057068656e-05,3.4658229571984347e-05,2.684193032425412e-05,2.2460475382619874e-05,6.1333,6.2
0.3046875,2.2460475382619874e-05,2.830241530479887e-05,8.288361867704197e-06,2.294730370946813e-05,6.1333,6.2
0.30859375,2.3920960363164625e-05,3.173725961089485e-05,4.636915543450055e-05,2.145977271076515e-05,6.1333,6.2
0.3125,2.294730370946813e-05,4.929012539559005e-05,5.369862635538251e-05,1.99992877302204e-05,6.1333,6.2
0.31640625,2.2460475382619874e-05,4.7342812088197065e-05,5.3211798028534276e-05,1.7078317769130906e-05,6.1333,6.2
0.3203125,2.684193032425412e-05,5.9080783968871486e-05,5.272496970168603e-05,1.4157347808041408e-05,6.1333,6.2
0.32421875,2.684193032425412e-05,2.8789243631647122e-05,1.99992877302204e-05,1.7565146095979158e-05,6.1333,6.2
0.328125,2.3920960363164625e-05,-1.9620790142672746e-06,1.8051974422827397e-05,2.145977271076515e-05,6.1333,6.2
0.33203125,2.2460475382619874e-05,2.9276071958495364e-05,3.41714012451361e-05,1.8051974422827397e-05,6.1333,6.2
0.3359375,2.4894617016861133e-05,6.005444062256799e-05,4.052721551232156e-05,1.2669816809338428e-05,6.1333,6.2
0.33984375,2.684193032425412e-05,3.514505789883259e-05,3.173725961089485e-05,1.120933182879368e-05,6.1333,6.2
0.34375,2.294730370946813e-05,2.4894617016861133e-05,5.418545468223078e-05,1.5131004461737916e-05,6.1333,6.2
0.34765625,2.1946601037613403e-05,7.614682142671845e-05,8.104215071335918e-05,1.6591489442282663e-05,6.1333,6.2
0.3515625,2.4894617016861133e-05,4.4421842127107564e-05,6.492272389105048e-05,1.3670519481193167e-05,6.1333,6.2
0.35546875,2.4407788690012877e-05,2.9062042542152114e-06,4.247452881971455e-05,1.3670519481193167e-05,6.1333,6.2
0.359375,2.2460475382619874e-05,2.9762900285343617e-05,1.5617832788586155e-05,1.3670519481193167e-05,6.1333,6.2
0.36328125,2.1946601037613403e-05,3.368457291828784e-05,4.001334116731507e-05,1.4157347808041408e-05,6.1333,6.2
0.3671875,2.0486116057068656e-05,3.5631886225680845e-05,6.005444062256799e-05,1.8051974422827397e-05,6.1333,6.2
0.37109375,2.1946601037613403e-05,4.3935013800259294e-05,3.122338526588837e-05,1.8051974422827397e-05,6.1333,6.2
0.375,2.635510199740588e-05,5.0290828067444774e-05,3.9039684513618595e-05,1.5617832788586155e-05,6.1333,6.2
0.37890625,2.3920960363164625e-05,3.709237120622558e-05,5.8566909623865e-05,1.5131004461737916e-05,6.1333,6.2
0.3828125,2.294730370946813e-05,2.684193032425412e-05,6.638320887159522e-05,1.9512459403372147e-05,6.1333,6.2
0.38671875,2.4894617016861133e-05,4.880329706874181e-05,5.613276798962377e-05,2.145977271076515e-05,6.1333,6.2
0.390625,2.7328758651102375e-05,4.980399974059654e-05,3.073655693904011e-05,1.8051974422827397e-05,6.1333,6.2
0.39453125,2.635510199740588e-05,6.787073987029822e-05,2.9276071958495364e-05,1.8051974422827397e-05,6.1333,6.2
0.3984375,2.2460475382619874e-05,6.151492560311275e-05,6.248858225680924e-05,2.0486116057068656e-05,6.1333,6.2
0.40234375,2.7328758651102375e-05,6.787073987029822e-05,5.759325297016852e-05,1.9512459403372147e-05,6.1333,6.2
0.40625,2.7815586977950614e-05,5.613276798962377e-05,3.8552856186770326e-05,1.902563107652391e-05,6.1333,6.2
0.41015625,2.7328758651102375e-05,2.7328758651102375e-05,5.956761229571975e-05,1.610466111543441e-05,6.1333,6.2
0.4140625,2.8789243631647122e-05,4.539549878080405e-05,6.492272389105048e-05,1.5617832788586155e-05,6.1333,6.2
0.41796875,2.684193032425412e-05,5.369862635538251e-05,4.001334116731507e-05,1.99992877302204e-05,6.1333,6.2
0.421875,2.8789243631647122e-05,4.101404383916983e-05,4.880329706874181e-05,1.8538802749675653e-05,6.1333,6.2
0.42578125,3.2710916264591344e-05,4.4908670453955806e-05,5.418545468223078e-05,1.6591489442282663e-05,6.1333,6.2
0.4296875,3.41714012451361e-05,6.540955221789875e-05,5.369862635538251e-05,1.5617832788586155e-05,6.1333,6.2
0.43359375,3.173725961089485e-05,4.980399974059654e-05,5.2238141374837764e-05,1.8051974422827397e-05,6.1333,6.2
0.4375,3.122338526588837e-05,4.7342812088197065e-05,5.0290828067444774e-05,1.7565146095979158e-05,6.1333,6.2
0.44140625,3.2710916264591344e-05,7.17653664850842e-05,5.272496970168603e-05,1.4157347808041408e-05,6.1333,6.2
0.4453125,2.8789243631647122e-05,5.1264484721141286e-05,5.175131304798952e-05,2.0486116057068656e-05,6.1333,6.2
0.44921875,2.7328758651102375e-05,2.9762900285343617e-05,4.101404383916983e-05,2.3920960363164625e-05,6.1333,6.2
0.453125,2.5381445343709372e-05,3.2710916264591344e-05,3.5631886225680845e-05,2.5381445343709372e-05,6.1333,6.2
0.45703125,1.9512459403372147e-05,6.297541058365749e-05,4.539549878080405e-05,2.830241530479887e-05,6.1333,6.2
0.4609375,2.2460475382619874e-05,4.101404383916983e-05,6.0541268949416234e-05,2.5381445343709372e-05,6.1333,6.2
0.46484375,2.635510199740588e-05,2.419375927366971e-06,6.3949067237354e-05,2.2460475382619874e-05,6.1333,6.2
0.46875,2.635510199740588e-05,3.2710916264591344e-05,4.001334116731507e-05,2.294730370946813e-05,6.1333,6.2
0.47265625,2.7328758651102375e-05,4.344818547341106e-05,3.122338526588837e-05,2.3434132036316382e-05,6.1333,6.2
0.4765625,2.7815586977950614e-05,4.247452881971455e-05,4.980399974059654e-05,2.145977271076515e-05,6.1333,6.2
0.48046875,3.2224087937743094e-05,5.759325297016852e-05,5.9080783968871486e-05,2.1946601037613403e-05,6.1333,6.2
0.484375,3.4658229571984347e-05,5.175131304798952e-05,5.077765639429302e-05,2.0972944383916895e-05,6.1333,6.2
0.48828125,3.2224087937743094e-05,4.2961357146562816e-05,5.418545468223078e-05,1.8051974422827397e-05,6.1333,6.2
0.4921875,2.9762900285343617e-05,5.515911133592726e-05,4.880329706874181e-05,2.0972944383916895e-05,6.1333,6.2
0.49609375,2.684193032425412e-05,5.0290828067444774e-05,4.78296404150453e-05,2.5381445343709372e-05,6.1333,6.2
0.5,2.5868273670557628e-05,4.831646874189354e-05,5.956761229571975e-05,2.2460475382619874e-05,6.1333,6.2
0.50390625,3.122338526588837e-05,3.2224087937743094e-05,4.150087216601807e-05,1.7565146095979158e-05,6.1333,6.2
0.5078125,3.368457291828784e-05,2.7328758651102375e-05,3.8552856186770326e-05,1.99992877302204e-05,6.1333,6.2
0.51171875,3.073655693904011e-05,5.175131304798952e-05,5.661959631647201e-05,2.2460475382619874e-05,6.1333,6.2
0.515625,3.073655693904011e-05,4.831646874189354e-05,4.636915543450055e-05,1.902563107652391e-05,6.1333,6.2
0.51953125,2.9762900285343617e-05,2.9276071958495364e-05,4.6855983761348795e-05,1.8051974422827397e-05,6.1333,6.2
0.5234375,2.5868273670557628e-05,4.247452881971455e-05,4.78296404150453e-05,1.99992877302204e-05,6.1333,6.2
0.52734375,2.635510199740588e-05,5.369862635538251e-05,4.636915543450055e-05,2.294730370946813e-05,6.1333,6.2
0.53125,2.9762900285343617e-05,5.1264484721141286e-05,5.2238141374837764e-05,2.5381445343709372e-05,6.1333,6.2
0.53515625,2.7815586977950614e-05,4.052721551232156e-05,5.564593966277553e-05,2.3434132036316382e-05,6.1333,6.2
0.5390625,2.7815586977950614e-05,2.0972944383916895e-05,4.1987700492866305e-05,2.0486116057068656e-05,6.1333,6.2
0.54296875,2.9276071958495364e-05,3.5631886225680845e-05,4.344818547341106e-05,1.99992877302204e-05,6.1333,6.2
0.546875,2.635510199740588e-05,6.540955221789875e-05,5.077765639429302e-05,2.0972944383916895e-05,6.1333,6.2
0.55078125,2.7815586977950614e-05,5.564593966277553e-05,5.1264484721141286e-05,2.2460475382619874e-05,6.1333,6.2
0.5546875,2.830241530479887e-05,3.806602785992208e-05,4.1987700492866305e-05,2.145977271076515e-05,6.1333,6.2
0.55859375,2.8789243631647122e-05,2.0486116057068656e-05,3.709237120622558e-05,1.8538802749675653e-05,6.1333,6.2
0.5625,2.8789243631647122e-05,1.8051974422827397e-05,4.588232710765231e-05,1.9512459403372147e-05,6.1333,6.2
0.56640625,2.7328758651102375e-05,4.052721551232156e-05,3.952651284046684e-05,2.145977271076515e-05,6.1333,6.2
0.5703125,2.635510199740588e-05,4.3935013800259294e-05,4.4908670453955806e-05,2.145977271076515e-05,6.1333,6.2
0.57421875,2.7815586977950614e-05,3.368457291828784e-05,4.150087216601807e-05,1.902563107652391e-05,6.1333,6.2
0.578125,3.5631886225680845e-05,3.5631886225680845e-05,3.368457291828784e-05,1.7565146095979158e-05,6.1333,6.2
0.58203125,3.514505789883259e-05,3.8552856186770326e-05,4.539549878080405e-05,2.145977271076515e-05,6.1333,6.2
0.5859375,3.368457291828784e-05,4.539549878080405e-05,5.467228300907902e-05,1.8538802749675653e-05,6.1333,6.2
0.58984375,3.514505789883259e-05,4.3935013800259294e-05,4.831646874189354e-05,1.0722503501945439e-05,6.1333,6.2
0.59375,3.122338526588837e-05,3.806602785992208e-05,1.7078317769130906e-05,1.5617832788586155e-05,6.1333,6.2
0.59765625,3.073655693904011e-05,3.952651284046684e-05,2.4894617016861133e-05,2.3434132036316382e-05,6.1333,6.2
0.6015625,3.611871455252908e-05,5.661959631647201e-05,3.757919953307385e-05,2.0486116057068656e-05,6.1333,6.2
0.60546875,3.368457291828784e-05,5.418545468223078e-05,1.902563107652391e-05,1.8051974422827397e-05,6.1333,6.2
0.609375,2.7815586977950614e-05,4.588232710765231e-05,1.5617832788586155e-05,2.5868273670557628e-05,6.1333,6.2
0.61328125,3.2710916264591344e-05,2.3920960363164625e-05,3.5631886225680845e-05,2.635510199740588e-05,6.1333,6.2
0.6171875,3.41714012451361e-05,5.367391906614699e-06,3.2710916264591344e-05,1.5131004461737916e-05,6.1333,6.2
0.62109375,2.9276071958495364e-05,2.7815586977950614e-05,3.2710916264591344e-05,1.7078317769130906e-05,6.1333,6.2
0.625,2.7328758651102375e-05,4.247452881971455e-05,3.2224087937743094e-05,1.9512459403372147e-05,6.1333,6.2
0.62890625,2.8789243631647122e-05,1.7565146095979158e-05,2.635510199740588e-05,2.145977271076515e-05,6.1333,6.2
0.6328125,2.4407788690012877e-05,2.8789243631647122e-05,2.3434132036316382e-05,2.5381445343709372e-05,6.1333,6.2
0.63671875,2.3434132036316382e-05,2.3434132036316382e-05,1.99992877302204e-05,1.7565146095979158e-05,6.1333,6.2
0.640625,2.9276071958495364e-05,1.6591489442282663e-05,1.0235675175097185e-05,2.0486116057068656e-05,6.1333,6.2
0.64453125,2.9276071958495364e-05,2.5381445343709372e-05,1.4457192736704627e-06,3.41714012451361e-05,6.1333,6.2
0.6484375,2.4407788690012877e-05,1.5131004461737916e-05,5.854220233462939e-06,3.2224087937743094e-05,6.1333,6.2
0.65234375,2.294730370946813e-05,-9.884223605707803e-07,-3.909392321660263e-06,2.4894617016861133e-05,6.1333,6.2
0.65625,2.9762900285343617e-05,1.6591489442282663e-05,2.419375927366971e-06,3.073655693904011e-05,6.1333,6.2
0.66015625,3.806602785992208e-05,2.7815586977950614e-05,-1.4765706874271699e-08,3.4658229571984347e-05,6.1333,6.2
0.6640625,2.9762900285343617e-05,-9.778378261997488e-06,-9.778378261997488e-06,3.611871455252908e-05,6.1333,6.2
0.66796875,2.145977271076515e-05,-2.7358290064850924e-05,2.419375927366971e-06,4.4908670453955806e-05,6.1333,6.2
0.671875,2.7815586977950614e-05,-1.9541990817120703e-05,3.0249728612191873e-05,4.880329706874181e-05,6.1333,6.2
0.67578125,3.122338526588837e-05,-2.24629607782102e-05,-2.051564747081721e-05,3.806602785992208e-05,6.1333,6.2
0.6796875,3.41714012451361e-05,-1.6134192529182967e-05,-8.399265208819723e-05,3.709237120622558e-05,6.1333,6.2
0.68359375,3.4658229571984347e-05,-3.27404476783399e-05,-6.15444570168613e-05,4.344818547341106e-05,6.1333,6.2
0.6875,3.4658229571984347e-05,-2.6384633411154423e-05,-3.173974500648517e-05,4.247452881971455e-05,6.1333,6.2
0.69140625,3.6605542879377336e-05,-1.0265206588845742e-05,-3.6635074293125895e-05,4.101404383916983e-05,6.1333,6.2
0.6953125,3.6605542879377336e-05,-1.8568334163424212e-05,-3.809555927367064e-05,4.4421842127107564e-05,6.1333,6.2
0.69921875,3.31977445914396e-05,-2.2949789105058457e-05,-1.1238863242542237e-05,4.831646874189354e-05,6.1333,6.2
0.703125,3.368457291828784e-05,-3.760873094682239e-05,-3.0279260025940422e-05,4.539549878080405e-05,6.1333,6.2
0.70703125,3.5631886225680845e-05,-4.2017231906614864e-05,-5.178084446173808e-05,4.4908670453955806e-05,6.1333,6.2
0.7109375,3.41714012451361e-05,-2.5897805084306184e-05,-2.687146173800268e-05,4.4421842127107564e-05,6.1333,6.2
0.71484375,3.2710916264591344e-05,-8.31789328145274e-06,-1.1238863242542237e-05,4.052721551232156e-05,6.1333,6.2
0.71875,3.31977445914396e-05,-4.299088856031137e-05,-2.541097675745793e-05,3.757919953307385e-05,6.1333,6.2
0.72265625,3.41714012451361e-05,-3.760873094682239e-05,-5.226767278858633e-05,2.9276071958495364e-05,6.1333,6.2
0.7265625,3.173725961089485e-05,-8.804721608300993e-06,-2.051564747081721e-05,2.9762900285343617e-05,6.1333,6.2
0.73046875,3.173725961089485e-05,-2.197613245136195e-05,1.3156645136186682e-05,2.684193032425412e-05,6.1333,6.2
0.734375,3.2224087937743094e-05,-5.015940337225259e-07,-1.662102085603121e-05,1.7565146095979158e-05,6.1333,6.2
0.73828125,3.368457291828784e-05,-2.002881914396896e-05,-1.6134192529182967e-05,1.5617832788586155e-05,6.1333,6.2
0.7421875,3.2710916264591344e-05,-4.4938201867704365e-05,1.3156645136186682e-05,1.3670519481193167e-05,6.1333,6.2
0.74609375,3.2224087937743094e-05,-3.909392321660263e-06,4.7206261997396833e-07,7.801533540855943e-06,6.1333,6.2
0.75,3.5631886225680845e-05,2.5868273670557628e-05,2.419375927366971e-06,1.932547600518717e-06,6.1333,6.2
0.75390625,1.8051974422827397e-05,2.4407788690012877e-05,8.775190194552436e-06,9.588909468222225e-07,6.1333,6.2
0.7578125,5.854220233462939e-06,2.7815586977950614e-05,4.7206261997396833e-07,4.7206261997396833e-07,6.1333,6.2
0.76171875,8.288361867704197e-06,1.99992877302204e-05,1.5617832788586155e-05,2.419375927366971e-06,6.1333,6.2
0.765625,9.74884684824893e-06,2.7815586977950614e-05,3.0249728612191873e-05,2.419375927366971e-06,6.1333,6.2
0.76953125,9.74884684824893e-06,3.173725961089485e-05,3.073655693904011e-05,-2.4489073411155287e-06,6.1333,6.2
0.7734375,7.801533540855943e-06,1.9512459403372147e-05,6.827876887159448e-06,-2.4489073411155287e-06,6.1333,6.2
0.77734375,1.120933182879368e-05,3.0249728612191873e-05,1.2669816809338428e-05,-2.4489073411155287e-06,6.1333,6.2
0.78125,7.314705214007688e-06,2.8789243631647122e-05,3.611871455252908e-05,-1.9620790142672746e-06,6.1333,6.2
0.78515625,7.314705214007688e-06,2.7328758651102375e-05,4.588232710765231e-05,-9.884223605707803e-07,6.1333,6.2
0.7890625,1.5617832788586155e-05,4.588232710765231e-05,3.073655693904011e-05,-2.4489073411155287e-06,6.1333,6.2
0.79296875,1.6591489442282663e-05,6.346223891050573e-05,1.8538802749675653e-05,-1.4765706874271699e-08,6.1333,6.2
0.796875,1.3670519481193167e-05,4.344818547341106e-05,3.2224087937743094e-05,2.419375927366971e-06,6.1333,6.2
0.80078125,1.5131004461737916e-05,1.9512459403372147e-05,2.9276071958495364e-05,-1.4765706874271699e-08,6.1333,6.2
0.8046875,1.902563107652391e-05,3.2710916264591344e-05,2.4894617016861133e-05,-5.015940337225259e-07,6.1333,6.2
0.80859375,2.2460475382619874e-05,3.6605542879377336e-05,3.073655693904011e-05,1.932547600518717e-06,6.1333,6.2
0.8125,2.294730370946813e-05,4.880329706874181e-05,2.5868273670557628e-05,1.4457192736704627e-06,6.1333,6.2
0.81640625,2.1946601037613403e-05,6.735686552529173e-05,4.247452881971455e-05,-3.422563994812023e-06,6.1333,6.2
0.8203125,1.99992877302204e-05,5.077765639429302e-05,5.175131304798952e-05,-5.015940337225259e-07,6.1333,6.2
0.82421875,1.8538802749675653e-05,2.1946601037613403e-05,2.9762900285343617e-05,1.932547600518717e-06,6.1333,6.2
0.828125,1.8538802749675653e-05,2.635510199740588e-05,3.122338526588837e-05,1.4457192736704627e-06,6.1333,6.2
0.83203125,1.7565146095979158e-05,3.806602785992208e-05,3.6605542879377336e-05,2.419375927366971e-06,6.1333,6.2
0.8359375,1.7078317769130906e-05,3.2710916264591344e-05,2.4894617016861133e-05,3.3930325810634655e-06,6.1333,6.2
0.83984375,1.8051974422827397e-05,2.8789243631647122e-05,3.4658229571984347e-05,3.3930325810634655e-06,6.1333,6.2
0.84375,1.9512459403372147e-05,2.7815586977950614e-05,4.3935013800259294e-05,7.314705214007688e-06,6.1333,6.2
0.84765625,1.99992877302204e-05,3.31977445914396e-05,5.077765639429302e-05,5.367391906614699e-06,6.1333,6.2
0.8515625,2.2460475382619874e-05,2.4407788690012877e-05,5.175131304798952e-05,3.87986090791172e-06,6.1333,6.2
0.85546875,2.294730370946813e-05,4.001334116731507e-05,3.4658229571984347e-05,5.854220233462939e-06,6.1333,6.2
0.859375,2.294730370946813e-05,6.346223891050573e-05,3.806602785992208e-05,2.9062042542152114e-06,6.1333,6.2
0.86328125,2.4407788690012877e-05,5.2238141374837764e-05,3.2710916264591344e-05,3.3930325810634655e-06,6.1333,6.2
0.8671875,2.4407788690012877e-05,3.9039684513618595e-05,4.929012539559005e-05,4.880563579766445e-06,6.1333,6.2
0.87109375,2.2460475382619874e-05,7.079170983138771e-05,6.0541268949416234e-05,3.3930325810634655e-06,6.1333,6.2
0.875,2.1946601037613403e-05,7.860800907911791e-05,3.122338526588837e-05,5.854220233462939e-06,6.1333,6.2
0.87890625,2.1946601037613403e-05,4.539549878080405e-05,1.5617832788586155e-05,5.854220233462939e-06,6.1333,6.2
0.8828125,1.610466111543441e-05,3.0249728612191873e-05,2.4407788690012877e-05,8.288361867704197e-06,6.1333,6.2
0.88671875,1.610466111543441e-05,3.173725961089485e-05,4.636915543450055e-05,1.3670519481193167e-05,6.1333,6.2
0.890625,2.4407788690012877e-05,4.2961357146562816e-05,4.3935013800259294e-05,1.2182988482490188e-05,6.1333,6.2
0.89453125,2.4407788690012877e-05,4.052721551232156e-05,3.368457291828784e-05,8.288361867704197e-06,6.1333,6.2
0.8984375,2.0972944383916895e-05,3.514505789883259e-05,2.7328758651102375e-05,7.314705214007688e-06,6.1333,6.2
0.90234375,2.1946601037613403e-05,3.8552856186770326e-05,3.9039684513618595e-05,9.26201852140069e-06,6.1333,6.2
0.90625,2.0486116057068656e-05,3.611871455252908e-05,4.052721551232156e-05,1.120933182879368e-05,6.1333,6.2
0.91015625,1.99992877302204e-05,4.101404383916983e-05,3.757919953307385e-05,1.0235675175097185e-05,6.1333,6.2
0.9140625,1.9512459403372147e-05,3.611871455252908e-05,2.294730370946813e-05,1.0235675175097185e-05,6.1333,6.2
0.91796875,2.145977271076515e-05,3.514505789883259e-05,3.8552856186770326e-05,1.0722503501945439e-05,6.1333,6.2
0.921875,2.3920960363164625e-05,7.225219481193247e-05,4.980399974059654e-05,1.0235675175097185e-05,6.1333,6.2
0.92578125,2.5381445343709372e-05,6.735686552529173e-05,4.001334116731507e-05,1.2182988482490188e-05,6.1333,6.2
0.9296875,2.4407788690012877e-05,3.368457291828784e-05,4.150087216601807e-05,1.4157347808041408e-05,6.1333,6.2
0.93359375,2.3434132036316382e-05,6.200175392996099e-05,2.684193032425412e-05,1.120933182879368e-05,6.1333,6.2
0.9375,2.684193032425412e-05,5.613276798962377e-05,2.830241530479887e-05,1.120933182879368e-05,6.1333,6.2
0.94140625,2.684193032425412e-05,3.952651284046684e-05,5.8566909623865e-05,1.5617832788586155e-05,6.1333,6.2
0.9453125,2.7815586977950614e-05,5.369862635538251e-05,6.10280972762645e-05,1.902563107652391e-05,6.1333,6.2
0.94921875,2.830241530479887e-05,4.344818547341106e-05,3.757919953307385e-05,2.0972944383916895e-05,6.1333,6.2
0.953125,3.122338526588837e-05,4.78296404150453e-05,3.806602785992208e-05,1.9512459403372147e-05,6.1333,6.2
0.95703125,3.122338526588837e-05,6.638320887159522e-05,3.611871455252908e-05,2.0486116057068656e-05,6.1333,6.2
0.9609375,2.635510199740588e-05,4.4421842127107564e-05,3.757919953307385e-05,1.9512459403372147e-05,6.1333,6.2
0.96484375,2.1946601037613403e-05,3.6605542879377336e-05,5.808008129701676e-05,1.8538802749675653e-05,6.1333,6.2
0.96875,2.1946601037613403e-05,4.78296404150453e-05,5.613276798962377e-05,1.9512459403372147e-05,6.1333,6.2
0.97265625,2.4894617016861133e-05,5.175131304798952e-05,2.7328758651102375e-05,1.99992877302204e-05,6.1333,6.2
0.9765625,2.4407788690012877e-05,5.0290828067444774e-05,2.1946601037613403e-05,1.99992877302204e-05,6.1333,6.2
0.98046875,2.1946601037613403e-05,3.4658229571984347e-05,4.831646874189354e-05,1.7078317769130906e-05,6.1333,6.2
0.984375,2.3920960363164625e-05,5.2238141374837764e-05,4.7342812088197065e-05,1.7078317769130906e-05,6.1333,6.2
0.98828125,2.4894617016861133e-05,4.4421842127107564e-05,2.5868273670557628e-05,2.2460475382619874e-05,6.1333,6.2
0.9921875,2.3434132036316382e-05,1.4157347808041408e-05,3.5631886225680845e-05,2.3920960363164625e-05,6.1333,6.2
0.99609375,2.5381445343709372e-05,3.073655693904011e-05,5.613276798962377e-05,2.1946601037613403e-05,6.1333,6.2
1.0,2.7815586977950614e-05,3.9039684513618595e-05,5.710642464332028e-05,1.9512459403372147e-05,6.1333,6.2
1.00390625,2.4894617016861133e-05,3.611871455252908e-05,2.5868273670557628e-05,1.9512459403372147e-05,6.1333,6.2
1.0078125,2.0486116057068656e-05,2.2460475382619874e-05,2.9276071958495364e-05,1.6591489442282663e-05,6.1333,6.2
1.01171875,2.145977271076515e-05,3.122338526588837e-05,6.005444062256799e-05,1.5617832788586155e-05,6.1333,6.2
1.015625,2.2460475382619874e-05,3.173725961089485e-05,4.929012539559005e-05,2.0486116057068656e-05,6.1333,6.2
1.01953125,2.2460475382619874e-05,3.2710916264591344e-05,3.122338526588837e-05,2.0486116057068656e-05,6.1333,6.2
1.0234375,2.2460475382619874e-05,5.272496970168603e-05,3.709237120622558e-05,2.0486116057068656e-05,6.1333,6.2
1.02734375,2.3434132036316382e-05,4.150087216601807e-05,6.10280972762645e-05,2.0486116057068656e-05,6.1333,6.2
1.03125,2.5381445343709372e-05,3.514505789883259e-05,5.077765639429302e-05,1.7565146095979158e-05,6.1333,6.2
1.03515625,2.5381445343709372e-05,4.588232710765231e-05,3.122338526588837e-05,1.4157347808041408e-05,6.1333,6.2
1.0390625,2.4894617016861133e-05,4.247452881971455e-05,4.831646874189354e-05,1.3670519481193167e-05,6.1333,6.2
1.04296875,2.4894617016861133e-05,4.4908670453955806e-05,3.8552856186770326e-05,1.2669816809338428e-05,6.1333,6.2
1.046875,2.7815586977950614e-05,6.10280972762645e-05,4.052721551232156e-05,8.775190194552436e-06,6.1333,6.2
1.05078125,2.8789243631647122e-05,2.5868273670557628e-05,5.956761229571975e-05,1.4644176134889662e-05,6.1333,6.2
1.0546875,2.3920960363164625e-05,1.0722503501945439e-05,5.759325297016852e-05,2.0972944383916895e-05,6.1333,6.2
1.05859375,2.3920960363164625e-05,3.6605542879377336e-05,3.8552856186770326e-05,2.145977271076515e-05,6.1333,6.2
1.0625,2.4407788690012877e-05,3.6605542879377336e-05,1.7078317769130906e-05,1.902563107652391e-05,6.1333,6.2
1.06640625,2.3920960363164625e-05,4.150087216601807e-05,1.902563107652391e-05,1.7565146095979158e-05,6.1333,6.2
1.0703125,2.3920960363164625e-05,3.806602785992208e-05,3.8552856186770326e-05,1.9512459403372147e-05,6.1333,6.2
1.07421875,2.4407788690012877e-05,5.3211798028534276e-05,5.0290828067444774e-05,1.9512459403372147e-05,6.1333,6.2
1.078125,2.7328758651102375e-05,3.6605542879377336e-05,2.9276071958495364e-05,1.99992877302204e-05,6.1333,6.2
1.08203125,2.7815586977950614e-05,1.932547600518717e-06,2.294730370946813e-05,1.902563107652391e-05,6.1333,6.2
1.0859375,2.5868273670557628e-05,2.9276071958495364e-05,3.8552856186770326e-05,2.145977271076515e-05,6.1333,6.2
1.08984375,2.5868273670557628e-05,4.150087216601807e-05,4.6855983761348795e-05,2.1946601037613403e-05,6.1333,6.2
1.09375,2.635510199740588e-05,2.7328758651102375e-05,3.806602785992208e-05,2.2460475382619874e-05,6.1333,6.2
1.09765625,2.635510199740588e-05,2.9762900285343617e-05,3.41714012451361e-05,2.2460475382619874e-05,6.1333,6.2
1.1015625,3.122338526588837e-05,5.515911133592726e-05,3.709237120622558e-05,1.7565146095979158e-05,6.1333,6.2
1.10546875,3.173725961089485e-05,5.175131304798952e-05,2.3920960363164625e-05,1.8051974422827397e-05,6.1333,6.2
1.109375,2.9276071958495364e-05,3.8552856186770326e-05,3.073655693904011e-05,1.902563107652391e-05,6.1333,6.2
1.11328125,3.173725961089485e-05,3.806602785992208e-05,3.806602785992208e-05,1.7078317769130906e-05,6.1333,6.2
1.1171875,3.122338526588837e-05,5.175131304798952e-05,3.073655693904011e-05,1.9512459403372147e-05,6.1333,6.2
1.12109375,2.830241530479887e-05,5.710642464332028e-05,4.3935013800259294e-05,1.9512459403372147e-05,6.1333,6.2
1.125,2.684193032425412e-05,5.0290828067444774e-05,5.077765639429302e-05,2.1946601037613403e-05,6.1333,6.2
1.12890625,2.9276071958495364e-05,4.4421842127107564e-05,4.7342812088197065e-05,2.0972944383916895e-05,6.1333,6.2
1.1328125,2.9276071958495364e-05,2.5381445343709372e-05,2.3920960363164625e-05,1.8051974422827397e-05,6.1333,6.2
1.13671875,2.3920960363164625e-05,3.173725961089485e-05,2.1946601037613403e-05,2.0486116057068656e-05,6.1333,6.2
1.140625,2.7328758651102375e-05,4.588232710765231e-05,3.4658229571984347e-05,1.8538802749675653e-05,6.1333,6.2
1.14453125,3.0249728612191873e-05,2.2460475382619874e-05,3.2224087937743094e-05,1.8538802749675653e-05,6.1333,6.2
1.1484375,2.4407788690012877e-05,2.8789243631647122e-05,3.4658229571984347e-05,2.145977271076515e-05,6.1333,6.2
1.15234375,2.0486116057068656e-05,3.757919953307385e-05,4.588232710765231e-05,2.1946601037613403e-05,6.1333,6.2
1.15625,2.2460475382619874e-05,2.3920960363164625e-05,4.831646874189354e-05,1.902563107652391e-05,6.1333,6.2
1.16015625,2.294730370946813e-05,3.2224087937743094e-05,2.4894617016861133e-05,2.0486116057068656e-05,6.1333,6.2
1.1640625,2.4407788690012877e-05,5.272496970168603e-05,3.806602785992208e-05,1.9512459403372147e-05,6.1333,6.2
1.16796875,2.635510199740588e-05,4.4421842127107564e-05,4.7342812088197065e-05,1.5617832788586155e-05,6.1333,6.2
1.171875,2.5381445343709372e-05,1.902563107652391e-05,4.588232710765231e-05,1.7565146095979158e-05,6.1333,6.2
1.17578125,2.5868273670557628e-05,1.7078317769130906e-05,3.709237120622558e-05,1.902563107652391e-05,6.1333,6.2
1.1796875,2.5868273670557628e-05,2.684193032425412e-05,4.247452881971455e-05,2.0972944383916895e-05,6.1333,6.2
1.18359375,2.294730370946813e-05,4.052721551232156e-05,4.539549878080405e-05,2.0972944383916895e-05,6.1333,6.2
1.1875,2.145977271076515e-05,2.635510199740588e-05,1.902563107652391e-05,1.99992877302204e-05,6.1333,6.2
1.19140625,2.0972944383916895e-05,9.74884684824893e-06,3.709237120622558e-05,2.1946601037613403e-05,6.1333,6.2
1.1953125,2.3920960363164625e-05,2.8789243631647122e-05,3.6605542879377336e-05,2.2460475382619874e-05,6.1333,6.2
1.19921875,2.5381445343709372e-05,2.7328758651102375e-05,3.2710916264591344e-05,2.145977271076515e-05,6.1333,6.2
1.203125,2.3434132036316382e-05,3.073655693904011e-05,3.806602785992208e-05,2.1946601037613403e-05,6.1333,6.2
1.20703125,2.3920960363164625e-05,3.757919953307385e-05,4.4908670453955806e-05,2.294730370946813e-05,6.1333,6.2
1.2109375,2.0972944383916895e-05,3.122338526588837e-05,5.175131304798952e-05,2.3920960363164625e-05,6.1333,6.2
1.21484375,1.99992877302204e-05,5.175131304798952e-05,3.952651284046684e-05,2.3434132036316382e-05,6.1333,6.2
1.21875,2.635510199740588e-05,5.369862635538251e-05,3.611871455252908e-05,1.99992877302204e-05,6.1333,6.2
1.22265625,3.173725961089485e-05,4.4421842127107564e-05,4.1987700492866305e-05,1.8538802749675653e-05,6.1333,6.2
1.2265625,3.073655693904011e-05,5.8566909623865e-05,2.3920960363164625e-05,1.902563107652391e-05,6.1333,6.2
1.23046875,2.684193032425412e-05,6.492272389105048e-05,3.709237120622558e-05,2.145977271076515e-05,6.1333,6.2
1.234375,2.3920960363164625e-05,4.636915543450055e-05,5.613276798962377e-05,2.5868273670557628e-05,6.1333,6.2
1.23828125,2.3434132036316382e-05,4.980399974059654e-05,5.808008129701676e-05,2.7328758651102375e-05,6.1333,6.2
1.2421875,2.1946601037613403e-05,6.151492560311275e-05,5.9080783968871486e-05,2.5868273670557628e-05,6.1333,6.2
1.24609375,2.3434132036316382e-05,5.175131304798952e-05,4.539549878080405e-05,2.3434132036316382e-05,6.1333,6.2
1.25,2.7815586977950614e-05,5.564593966277553e-05,5.661959631647201e-05,2.2460475382619874e-05,6.1333,6.2
1.25390625,2.7815586977950614e-05,4.78296404150453e-05,4.052721551232156e-05,2.635510199740588e-05,6.1333,6.2
1.2578125,2.7328758651102375e-05,2.4407788690012877e-05,2.684193032425412e-05,2.7328758651102375e-05,6.1333,6.2
1.26171875,2.7815586977950614e-05,2.684193032425412e-05,4.6855983761348795e-05,2.7815586977950614e-05,6.1333,6.2
1.265625,2.4894617016861133e-05,3.368457291828784e-05,4.101404383916983e-05,2.684193032425412e-05,6.1333,6.2
1.26953125,2.3920960363164625e-05,4.929012539559005e-05,3.6605542879377336e-05,2.5868273670557628e-05,6.1333,6.2
1.2734375,2.830241530479887e-05,4.052721551232156e-05,3.709237120622558e-05,2.3920960363164625e-05,6.1333,6.2
1.27734375,2.7815586977950614e-05,3.122338526588837e-05,5.3211798028534276e-05,2.2460475382619874e-05,6.1333,6.2
1.28125,2.4894617016861133e-05,1.7565146095979158e-05,4.539549878080405e-05,2.4894617016861133e-05,6.1333,6.2
1.28515625,2.3920960363164625e-05,1.3670519481193167e-05,1.2182988482490188e-05,2.5868273670557628e-05,6.1333,6.2
1.2890625,2.7328758651102375e-05,3.6605542879377336e-05,3.6605542879377336e-05,2.5868273670557628e-05,6.1333,6.2
1.29296875,3.122338526588837e-05,4.2961357146562816e-05,4.2961357146562816e-05,2.7815586977950614e-05,6.1333,6.2
1.296875,3.073655693904011e-05,3.611871455252908e-05,1.902563107652391e-05,2.7328758651102375e-05,6.1333,6.2
1.30078125,2.7815586977950614e-05,3.31977445914396e-05,3.173725961089485e-05,2.3920960363164625e-05,6.1333,6.2
1.3046875,2.4407788690012877e-05,4.539549878080405e-05,4.2961357146562816e-05,2.3920960363164625e-05,6.1333,6.2
1.30859375,2.4894617016861133e-05,4.1987700492866305e-05,2.5381445343709372e-05,2.3920960363164625e-05,6.1333,6.2
1.3125,2.635510199740588e-05,2.635510199740588e-05,2.5381445343709372e-05,1.902563107652391e-05,6.1333,6.2
1.31640625,3.2224087937743094e-05,3.41714012451361e-05,2.0972944383916895e-05,1.4644176134889662e-05,6.1333,6.2
1.3203125,3.41714012451361e-05,3.368457291828784e-05,2.830241530479887e-05,1.3670519481193167e-05,6.1333,6.2
1.32421875,3.173725961089485e-05,3.6605542879377336e-05,4.001334116731507e-05,1.0722503501945439e-05,6.1333,6.2
1.328125,3.4658229571984347e-05,4.150087216601807e-05,2.9276071958495364e-05,9.74884684824893e-06,6.1333,6.2
1.33203125,3.2710916264591344e-05,3.4658229571984347e-05,1.5617832788586155e-05,1.120933182879368e-05,6.1333,6.2
1.3359375,3.514505789883259e-05,5.9080783968871486e-05,-1.0265206588845742e-05,7.801533540855943e-06,6.1333,6.2
1.33984375,3.806602785992208e-05,4.929012539559005e-05,1.2669816809338428e-05,9.74884684824893e-06,6.1333,6.2
1.34375,3.173725961089485e-05,1.4157347808041408e-05,1.9512459403372147e-05,1.6591489442282663e-05,6.1333,6.2
1.34765625,2.9276071958495364e-05,1.9512459403372147e-05,-5.015940337225259e-07,1.7078317769130906e-05,6.1333,6.2
1.3515625,3.173725961089485e-05,3.9039684513618595e-05,1.7565146095979158e-05,1.6591489442282663e-05,6.1333,6.2
1.35546875,3.0249728612191873e-05,4.636915543450055e-05,1.5617832788586155e-05,2.294730370946813e-05,6.1333,6.2
1.359375,3.2710916264591344e-05,2.635510199740588e-05,2.1946601037613403e-05,2.294730370946813e-05,6.1333,6.2
1.36328125,3.2710916264591344e-05,4.3935013800259294e-05,4.001334116731507e-05,1.8051974422827397e-05,6.1333,6.2
1.3671875,3.2224087937743094e-05,7.030488150453944e-05,3.073655693904011e-05,2.2460475382619874e-05,6.1333,6.2
1.37109375,3.173725961089485e-05,6.248858225680924e-05,3.173725961089485e-05,2.684193032425412e-05,6.1333,6.2
1.375,2.830241530479887e-05,5.9080783968871486e-05,2.635510199740588e-05,2.7328758651102375e-05,6.1333,6.2
1.37890625,3.122338526588837e-05,5.418545468223078e-05,2.9762900285343617e-05,2.684193032425412e-05,6.1333,6.2
1.3828125,3.368457291828784e-05,4.78296404150453e-05,3.4658229571984347e-05,2.7815586977950614e-05,6.1333,6.2
1.38671875,2.9762900285343617e-05,3.4658229571984347e-05,4.4908670453955806e-05,3.173725961089485e-05,6.1333,6.2
1.390625,2.635510199740588e-05,4.831646874189354e-05,6.492272389105048e-05,3.4658229571984347e-05,6.1333,6.2
1.39453125,3.0249728612191873e-05,4.929012539559005e-05,4.539549878080405e-05,3.2710916264591344e-05,6.1333,6.2
1.3984375,2.7815586977950614e-05,1.610466111543441e-05,2.145977271076515e-05,3.41714012451361e-05,6.1333,6.2
1.40234375,2.4894617016861133e-05,1.902563107652391e-05,3.4658229571984347e-05,3.2224087937743094e-05,6.1333,6.2
1.40625,2.9762900285343617e-05,4.2961357146562816e-05,3.368457291828784e-05,2.9762900285343617e-05,6.1333,6.2
1.41015625,2.9276071958495364e-05,4.101404383916983e-05,2.9762900285343617e-05,3.2710916264591344e-05,6.1333,6.2
1.4140625,2.9762900285343617e-05,3.8552856186770326e-05,2.9276071958495364e-05,3.31977445914396e-05,6.1333,6.2
1.41796875,3.122338526588837e-05,3.952651284046684e-05,2.9762900285343617e-05,3.368457291828784e-05,6.1333,6.2
1.421875,2.9762900285343617e-05,3.368457291828784e-05,4.150087216601807e-05,3.514505789883259e-05,6.1333,6.2
1.42578125,2.9276071958495364e-05,4.980399974059654e-05,3.6605542879377336e-05,3.368457291828784e-05,6.1333,6.2
1.4296875,3.122338526588837e-05,5.661959631647201e-05,2.8789243631647122e-05,3.41714012451361e-05,6.1333,6.2
1.43359375,3.073655693904011e-05,3.8552856186770326e-05,3.2710916264591344e-05,3.41714012451361e-05,6.1333,6.2
1.4375,2.9276071958495364e-05,4.2961357146562816e-05,3.5631886225680845e-05,3.514505789883259e-05,6.1333,6.2
1.44140625,2.5868273670557628e-05,3.709237120622558e-05,3.2224087937743094e-05,3.806602785992208e-05,6.1333,6.2
1.4453125,2.5868273670557628e-05,2.9276071958495364e-05,4.588232710765231e-05,3.806602785992208e-05,6.1333,6.2
1.44921875,2.7328758651102375e-05,2.635510199740588e-05,4.929012539559005e-05,3.611871455252908e-05,6.1333,6.2
1.453125,2.8789243631647122e-05,2.294730370946813e-05,3.073655693904011e-05,3.611871455252908e-05,6.1333,6.2
1.45703125,2.635510199740588e-05,2.8789243631647122e-05,4.4421842127107564e-05,3.709237120622558e-05,6.1333,6.2
1.4609375,2.635510199740588e-05,4.588232710765231e-05,3.611871455252908e-05,3.611871455252908e-05,6.1333,6.2
1.46484375,2.684193032425412e-05,2.5868273670557628e-05,2.3920960363164625e-05,3.611871455252908e-05,6.1333,6.2
1.46875,2.2460475382619874e-05,1.4644176134889662e-05,4.4908670453955806e-05,3.514505789883259e-05,6.1333,6.2
1.47265625,2.1946601037613403e-05,2.3920960363164625e-05,4.052721551232156e-05,3.31977445914396e-05,6.1333,6.2
1.4765625,2.4894617016861133e-05,3.0249728612191873e-05,1.120933182879368e-05,3.122338526588837e-05,6.1333,6.2
1.48046875,2.7328758651102375e-05,1.610466111543441e-05,1.1696160155641934e-05,3.0249728612191873e-05,6.1333,6.2
1.484375,2.7815586977950614e-05,2.830241530479887e-05,3.173725961089485e-05,3.173725961089485e-05,6.1333,6.2
1.48828125,2.684193032425412e-05,4.831646874189354e-05,3.5631886225680845e-05,2.635510199740588e-05,6.1333,6.2
1.4921875,2.830241530479887e-05,4.636915543450055e-05,2.8789243631647122e-05,2.9276071958495364e-05,6.1333,6.2
1.49609375,3.122338526588837e-05,4.150087216601807e-05,3.173725961089485e-05,3.2710916264591344e-05,6.1333,6.2
1.5,3.31977445914396e-05,2.635510199740588e-05,4.588232710765231e-05,2.8789243631647122e-05,6.1333,6.2
1.50390625,3.122338526588837e-05,2.3920960363164625e-05,4.880329706874181e-05,3.41714012451361e-05,6.1333,6.2
1.5078125,2.684193032425412e-05,4.101404383916983e-05,3.5631886225680845e-05,3.806602785992208e-05,6.1333,6.2
1.51171875,2.5868273670557628e-05,6.248858225680924e-05,2.4894617016861133e-05,3.31977445914396e-05,6.1333,6.2
1.515625,2.7815586977950614e-05,3.806602785992208e-05,2.9762900285343617e-05,3.6605542879377336e-05,6.1333,6.2
1.51953125,2.8789243631647122e-05,3.709237120622558e-05,4.052721551232156e-05,3.8552856186770326e-05,6.1333,6.2
1.5234375,3.173725961089485e-05,5.467228300907902e-05,3.41714012451361e-05,3.514505789883259e-05,6.1333,6.2
1.52734375,3.41714012451361e-05,3.757919953307385e-05,2.3434132036316382e-05,3.514505789883259e-05,6.1333,6.2
1.53125,3.31977445914396e-05,3.757919953307385e-05,1.8051974422827397e-05,3.611871455252908e-05,6.1333,6.2
1.53515625,3.31977445914396e-05,3.757919953307385e-05,3.6605542879377336e-05,3.611871455252908e-05,6.1333,6.2
1.5390625,3.2224087937743094e-05,4.393735252918204e-06,2.3920960363164625e-05,4.001334116731507e-05,6.1333,6.2
1.54296875,3.122338526588837e-05,-1.5160535875486474e-05,1.2669816809338428e-05,3.8552856186770326e-05,6.1333,6.2
1.546875,3.173725961089485e-05,-6.8574083009080056e-06,2.7328758651102375e-05,3.5631886225680845e-05,6.1333,6.2
1.55078125,3.0249728612191873e-05,1.8051974422827397e-05,1.8538802749675653e-05,3.9039684513618595e-05,6.1333,6.2
1.5546875,2.9276071958495364e-05,4.393735252918204e-06,-9.884223605707803e-07,3.757919953307385e-05,6.1333,6.2
1.55859375,3.073655693904011e-05,-9.291549935149248e-06,1.932547600518717e-06,3.952651284046684e-05,6.1333,6.2
1.5625,3.4658229571984347e-05,5.367391906614699e-06,1.6591489442282663e-05,4.3935013800259294e-05,6.1333,6.2
1.56640625,3.611871455252908e-05,-5.8837516472114964e-06,2.1946601037613403e-05,4.101404383916983e-05,6.1333,6.2
1.5703125,3.806602785992208e-05,9.26201852140069e-06,2.294730370946813e-05,4.101404383916983e-05,6.1333,6.2
1.57421875,4.1987700492866305e-05,8.288361867704197e-06,-8.31789328145274e-06,3.9039684513618595e-05,6.1333,6.2
1.578125,4.247452881971455e-05,2.9062042542152114e-06,-8.31789328145274e-06,3.952651284046684e-05,6.1333,6.2
1.58203125,3.611871455252908e-05,1.610466111543441e-05,-9.884223605707803e-07,4.052721551232156e-05,6.1333,6.2
1.5859375,3.31977445914396e-05,-5.015940337225259e-07,-5.396923320363257e-06,4.344818547341106e-05,6.1333,6.2
1.58984375,3.806602785992208e-05,-1.2699348223086986e-05,4.393735252918204e-06,4.980399974059654e-05,6.1333,6.2
1.59375,4.001334116731507e-05,-3.173974500648517e-05,-8.31789328145274e-06,4.588232710765231e-05,6.1333,6.2
1.59765625,4.247452881971455e-05,-2.1489304124513706e-05,-3.7121902619974144e-05,4.880329706874181e-05,6.1333,6.2
1.6015625,4.4908670453955806e-05,-2.2949789105058457e-05,-4.052970090791189e-05,5.8566909623865e-05,6.1333,6.2
1.60546875,4.2961357146562816e-05,-4.834600015564211e-05,-2.8818775045395675e-05,6.3949067237354e-05,6.1333,6.2
1.609375,4.344818547341106e-05,-4.5911858521400856e-05,-3.222657333333342e-05,5.710642464332028e-05,6.1333,6.2
1.61328125,4.6855983761348795e-05,-4.101652923476013e-05,-5.470181442282758e-05,5.710642464332028e-05,6.1333,6.2
1.6171875,4.4908670453955806e-05,-6.105762869001305e-05,-5.567547107652407e-05,6.005444062256799e-05,6.1333,6.2
1.62109375,4.3935013800259294e-05,-7.422903953307401e-05,-6.15444570168613e-05,6.10280972762645e-05,6.1333,6.2
1.625,4.539549878080405e-05,-6.44654269779508e-05,-4.4938201867704365e-05,6.443589556420224e-05,6.1333,6.2
1.62890625,5.0290828067444774e-05,-7.082124124513626e-05,-4.883282848249035e-05,6.443589556420224e-05,6.1333,6.2
1.6328125,4.880329706874181e-05,-8.155851045395598e-05,-6.592591195849554e-05,6.492272389105048e-05,6.1333,6.2
1.63671875,4.636915543450055e-05,-7.130806957198451e-05,-6.543908363164728e-05,6.005444062256799e-05,6.1333,6.2
1.640625,4.6855983761348795e-05,-7.374221120622575e-05,-5.859644103761357e-05,5.9080783968871486e-05,6.1333,6.2
1.64453125,4.539549878080405e-05,-8.350582376134898e-05,-5.4214986095979326e-05,5.956761229571975e-05,6.1333,6.2
1.6484375,5.077765639429302e-05,-6.936075626459152e-05,-6.689956861219204e-05,5.515911133592726e-05,6.1333,6.2
1.65234375,5.418545468223078e-05,-4.004287258106364e-05,-6.887392793774328e-05,5.467228300907902e-05,6.1333,6.2
1.65625,4.880329706874181e-05,-3.6635074293125895e-05,-5.859644103761357e-05,5.272496970168603e-05,6.1333,6.2
1.66015625,4.831646874189354e-05,-5.95971437094683e-05,-6.251811367055779e-05,4.929012539559005e-05,6.1333,6.2
1.6640625,5.1264484721141286e-05,-7.082124124513626e-05,-7.179489789883277e-05,4.880329706874181e-05,6.1333,6.2
1.66796875,5.2238141374837764e-05,-6.887392793774328e-05,-5.470181442282758e-05,4.831646874189354e-05,6.1333,6.2
1.671875,5.2238141374837764e-05,-6.300494199740604e-05,-2.541097675745793e-05,5.077765639429302e-05,6.1333,6.2
1.67578125,5.2238141374837764e-05,-8.791432472114145e-05,-4.004287258106364e-05,4.980399974059654e-05,6.1333,6.2
1.6796875,5.077765639429302e-05,-7.276855455252927e-05,-6.984758459143976e-05,4.636915543450055e-05,6.1333,6.2
1.68359375,4.929012539559005e-05,-4.052970090791189e-05,-5.129401613488983e-05,4.4908670453955806e-05,6.1333,6.2
1.6875,5.1264484721141286e-05,-4.883282848249035e-05,-3.173974500648517e-05,4.247452881971455e-05,6.1333,6.2
1.69140625,5.369862635538251e-05,-3.955604425421538e-05,-5.0293313463035105e-05,4.101404383916983e-05,6.1333,6.2
1.6953125,5.0290828067444774e-05,-6.008397203631655e-05,-5.5188642749675824e-05,3.9039684513618595e-05,6.1333,6.2
1.69921875,4.636915543450055e-05,-6.984758459143976e-05,-3.0279260025940422e-05,3.8552856186770326e-05,6.1333,6.2
1.703125,4.636915543450055e-05,-4.542503019455261e-05,-3.7121902619974144e-05,3.5631886225680845e-05,6.1333,6.2
1.70703125,4.929012539559005e-05,-4.153040357976662e-05,-5.470181442282758e-05,3.31977445914396e-05,6.1333,6.2
1.7109375,5.2238141374837764e-05,-1.662102085603121e-05,-5.324132944228283e-05,3.4658229571984347e-05,6.1333,6.2
1.71484375,5.1264484721141286e-05,-1.2699348223086986e-05,-3.858238760051889e-05,3.122338526588837e-05,6.1333,6.2
1.71875,4.980399974059654e-05,-4.052970090791189e-05,-3.27404476783399e-05,2.7328758651102375e-05,6.1333,6.2
1.72265625,4.6855983761348795e-05,-4.4451373540856116e-05,-4.5911858521400856e-05,2.8789243631647122e-05,6.1333,6.2
1.7265625,4.831646874189354e-05,-2.784511839169918e-05,-4.834600015564211e-05,2.5381445343709372e-05,6.1333,6.2
1.73046875,5.0290828067444774e-05,-2.687146173800268e-05,-2.9792431699092176e-05,2.3920960363164625e-05,6.1333,6.2
1.734375,5.0290828067444774e-05,-4.004287258106364e-05,-1.467370754863822e-05,2.635510199740588e-05,6.1333,6.2
1.73828125,3.9039684513618595e-05,-5.8109612710765325e-05,-2.492414843060969e-05,2.5868273670557628e-05,6.1333,6.2
1.7421875,3.368457291828784e-05,-3.858238760051889e-05,-2.687146173800268e-05,2.5868273670557628e-05,6.1333,6.2
1.74609375,4.052721551232156e-05,1.3156645136186682e-05,-1.710784918287946e-05,1.8051974422827397e-05,6.1333,6.2
1.75,4.247452881971455e-05,1.5617832788586155e-05,-1.318617654993524e-05,1.2669816809338428e-05,6.1333,6.2
1.75390625,3.952651284046684e-05,7.314705214007688e-06,7.314705214007688e-06,1.0722503501945439e-05,6.1333,6.2
1.7578125,3.4658229571984347e-05,3.6605542879377336e-05,3.173725961089485e-05,8.775190194552436e-06,6.1333,6.2
1.76171875,3.2224087937743094e-05,4.831646874189354e-05,2.0972944383916895e-05,1.120933182879368e-05,6.1333,6.2
1.765625,3.0249728612191873e-05,3.8552856186770326e-05,5.367391906614699e-06,1.2669816809338428e-05,6.1333,6.2
1.76953125,2.4894617016861133e-05,2.684193032425412e-05,3.611871455252908e-05,9.74884684824893e-06,6.1333,6.2
1.7734375,2.3434132036316382e-05,1.5617832788586155e-05,4.4908670453955806e-05,6.341048560311193e-06,6.1333,6.2
1.77734375,2.0972944383916895e-05,1.4157347808041408e-05,1.902563107652391e-05,8.288361867704197e-06,6.1333,6.2
1.78125,1.5131004461737916e-05,1.6591489442282663e-05,2.145977271076515e-05,1.0235675175097185e-05,6.1333,6.2
1.78515625,2.1946601037613403e-05,3.611871455252908e-05,3.073655693904011e-05,3.87986090791172e-06,6.1333,6.2
1.7890625,2.0972944383916895e-05,4.101404383916983e-05,3.4658229571984347e-05,5.367391906614699e-06,6.1333,6.2
1.79296875,1.4157347808041408e-05,6.200175392996099e-05,3.9039684513618595e-05,9.26201852140069e-06,6.1333,6.2
1.796875,2.0486116057068656e-05,5.0290828067444774e-05,3.2710916264591344e-05,5.367391906614699e-06,6.1333,6.2
1.80078125,1.8538802749675653e-05,2.5868273670557628e-05,3.709237120622558e-05,5.367391906614699e-06,6.1333,6.2
1.8046875,1.2182988482490188e-05,4.78296404150453e-05,4.247452881971455e-05,5.367391906614699e-06,6.1333,6.2
1.80859375,4.880563579766445e-06,6.787073987029822e-05,5.515911133592726e-05,7.314705214007688e-06,6.1333,6.2
1.8125,1.4157347808041408e-05,7.225219481193247e-05,6.735686552529173e-05,7.314705214007688e-06,6.1333,6.2
1.81640625,1.3670519481193167e-05,8.983210661478588e-05,5.9080783968871486e-05,1.4644176134889662e-05,6.1333,6.2
1.8203125,6.341048560311193e-06,8.837162163424114e-05,6.540955221789875e-05,1.9512459403372147e-05,6.1333,6.2
1.82421875,1.2669816809338428e-05,5.515911133592726e-05,6.638320887159522e-05,1.5131004461737916e-05,6.1333,6.2
1.828125,1.8051974422827397e-05,4.7342812088197065e-05,8.542360565499341e-05,1.3670519481193167e-05,6.1333,6.2
1.83203125,1.4644176134889662e-05,4.980399974059654e-05,8.055532238651094e-05,1.6591489442282663e-05,6.1333,6.2
1.8359375,1.120933182879368e-05,9.74884684824893e-06,5.467228300907902e-05,1.2182988482490188e-05,6.1333,6.2
1.83984375,3.611871455252908e-05,3.3930325810634655e-06,4.588232710765231e-05,5.854220233462939e-06,6.1333,6.2
1.84375,2.9762900285343617e-05,4.636915543450055e-05,3.122338526588837e-05,1.0235675175097185e-05,6.1333,6.2
1.84765625,6.341048560311193e-06,5.418545468223078e-05,5.467228300907902e-05,1.120933182879368e-05,6.1333,6.2
1.8515625,-7.8310649546045e-06,8.691113665369638e-05,8.006849405966267e-05,2.1946601037613403e-05,6.1333,6.2
1.85546875,4.4421842127107564e-05,6.443589556420224e-05,6.005444062256799e-05,8.775190194552436e-06,6.1333,6.2
1.859375,5.3211798028534276e-05,2.2460475382619874e-05,5.808008129701676e-05,2.419375927366971e-06,6.1333,6.2
1.86328125,-1.0265206588845742e-05,6.933122485084297e-05,9.031893494163415e-05,2.294730370946813e-05,6.1333,6.2
1.8671875,2.294730370946813e-05,6.835756819714646e-05,7.079170983138771e-05,3.87986090791172e-06,6.1333,6.2
1.87109375,5.367391906614699e-06,4.7342812088197065e-05,7.517316477302196e-05,7.314705214007688e-06,6.1333,6.2
1.875,-7.8310649546045e-06,8.396312067444867e-05,9.080576326848239e-05,2.4407788690012877e-05,6.1333,6.2
1.87890625,4.880329706874181e-05,8.152897904020741e-05,6.735686552529173e-05,9.588909468222225e-07,6.1333,6.2
1.8828125,6.151492560311275e-05,-7.763683782101175e-05,1.4644176134889662e-05,-1.1725691569390491e-05,6.1333,6.2
1.88671875,4.344818547341106e-05,-0.0002060513320363165,1.932547600518717e-06,1.3156645136186682e-05,6.1333,6.2
1.890625,0.00012204391424124503,-0.00013232388653696507,-1.9620790142672746e-06,-2.687146173800268e-05,6.1333,6.2
1.89453125,0.00010838567507133584,-0.00016745666412451367,-3.46877609857329e-05,-2.24629607782102e-05,6.1333,6.2
1.8984375,3.3930325810634655e-06,-0.00010349283118028541,1.4157347808041408e-05,3.368457291828784e-05,6.1333,6.2
1.90234375,-3.6635074293125895e-05,0.0001503881412710764,0.00010497787678339806,1.3670519481193167e-05,6.1333,6.2
1.90625,-5.396923320363257e-06,0.00011522831766536956,8.298946402075216e-05,1.932547600518717e-06,6.1333,6.2
1.91015625,2.1946601037613403e-05,6.341048560311193e-06,4.636915543450055e-05,7.801533540855943e-06,6.1333,6.2
1.9140625,3.31977445914396e-05,8.347629234760043e-05,6.88443965239947e-05,-5.015940337225259e-07,6.1333,6.2
1.91796875,1.120933182879368e-05,0.00013132069846952,0.00010643836176394282,9.588909468222225e-07,6.1333,6.2
1.921875,-2.9792431699092176e-05,0.00010643836176394282,0.00011620197431906603,1.610466111543441e-05,6.1333,6.2
1.92578125,-1.0265206588845742e-05,9.716157753566786e-05,0.00010397717411154335,1.120933182879368e-05,6.1333,6.2
1.9296875,5.759325297016852e-05,1.1696160155641934e-05,6.443589556420224e-05,-7.8310649546045e-06,6.1333,6.2
1.93359375,0.00015917809717250312,-0.0005112115549156939,-6.203128534370955e-05,-3.6635074293125895e-05,6.1333,6.2
1.9375,7.079170983138771e-05,-0.0005073169283009079,-7.344236627756245e-06,-1.5160535875486474e-05,6.1333,6.2
1.94140625,-4.4938201867704365e-05,3.41714012451361e-05,0.00014257184202334618,2.8789243631647122e-05,6.1333,6.2
1.9453125,-2.2949789105058457e-05,3.173725961089485e-05,0.00012204391424124503,3.368457291828784e-05,6.1333,6.2
1.94921875,9.26201852140069e-06,4.539549878080405e-05,8.78847933073929e-05,1.610466111543441e-05,6.1333,6.2
1.953125,-1.8081505836575956e-05,0.0002724468212191957,0.00010008254749675737,4.588232710765231e-05,6.1333,6.2
1.95703125,-4.052970090791189e-05,0.00030076400223086883,0.00010984616005188058,5.564593966277553e-05,6.1333,6.2
1.9609375,-1.5647364202334714e-05,0.0001787053222827496,0.00011425466101167304,1.6591489442282663e-05,6.1333,6.2
1.96484375,2.2460475382619874e-05,0.00011620197431906603,8.493677732814514e-05,9.588909468222225e-07,6.1333,6.2
1.96875,2.3920960363164625e-05,2.7328758651102375e-05,9.470038988326837e-05,5.854220233462939e-06,6.1333,6.2
1.97265625,3.2224087937743094e-05,8.055532238651094e-05,8.78847933073929e-05,1.932547600518717e-06,6.1333,6.2
1.9765625,2.419375927366971e-06,0.00021043030158236046,9.372673322957188e-05,1.7565146095979158e-05,6.1333,6.2
1.98046875,-3.6635074293125895e-05,0.0001992062040466925,0.00012304461691309976,3.6605542879377336e-05,6.1333,6.2
1.984375,-3.422563994812023e-06,0.00022265510178988312,0.00013718968440985723,2.0486116057068656e-05,6.1333,6.2
1.98828125,1.7565146095979158e-05,0.00025632739439688704,0.00011328100435797653,1.7078317769130906e-05,6.1333,6.2
1.9921875,3.3930325810634655e-06,0.00019382404643320352,8.396312067444867e-05,2.0972944383916895e-05,6.1333,6.2
1.99609375,-1.9055162490272464e-05,0.00016894170972762634,9.813523418936435e-05,2.4894617016861133e-05,6.1333,6.2
2.0,-1.1725691569390491e-05,0.0001933372181063553,0.00011863611595330729,2.7815586977950614e-05,6.1333,6.2
2.00390625,1.3156645136186682e-05,0.000198232547392996,0.00010692519009079109,2.294730370946813e-05,6.1333,6.2
2.0078125,2.3434132036316382e-05,0.00018259994889753556,8.396312067444867e-05,2.0972944383916895e-05,6.1333,6.2
2.01171875,2.9762900285343617e-05,0.00014549281198443568,8.298946402075216e-05,1.7565146095979158e-05,6.1333,6.2
2.015625,1.5617832788586155e-05,0.0001728363363424123,9.813523418936435e-05,2.3920960363164625e-05,6.1333,6.2
2.01953125,-5.396923320363257e-06,0.00019871937571984427,8.934527828793764e-05,3.2224087937743094e-05,6.1333,6.2
2.0234375,8.775190194552436e-06,0.0001918767331258105,7.663364975356669e-05,2.5381445343709372e-05,6.1333,6.2
2.02734375,1.0722503501945439e-05,0.00017186267968871585,8.88584499610894e-05,2.5868273670557628e-05,6.1333,6.2
2.03125,2.294730370946813e-05,0.00013865016939040197,7.812118075226967e-05,1.6591489442282663e-05,6.1333,6.2
2.03515625,2.4894617016861133e-05,0.0001445191553307392,5.613276798962377e-05,1.610466111543441e-05,6.1333,6.2
2.0390625,1.9512459403372147e-05,0.00016453320876783388,6.0541268949416234e-05,2.2460475382619874e-05,6.1333,6.2
2.04296875,2.145977271076515e-05,0.00013767651273670546,5.613276798962377e-05,2.3434132036316382e-05,6.1333,6.2
2.046875,2.1946601037613403e-05,0.00011620197431906603,4.78296404150453e-05,1.99992877302204e-05,6.1333,6.2
2.05078125,2.635510199740588e-05,9.862206251621262e-05,5.515911133592726e-05,1.902563107652391e-05,6.1333,6.2
2.0546875,3.8552856186770326e-05,8.739796498054465e-05,4.001334116731507e-05,2.0972944383916895e-05,6.1333,6.2
2.05859375,2.294730370946813e-05,7.614682142671845e-05,4.150087216601807e-05,1.6591489442282663e-05,6.1333,6.2
2.0625,8.288361867704197e-06,8.006849405966267e-05,6.443589556420224e-05,2.0972944383916895e-05,6.1333,6.2
2.06640625,1.902563107652391e-05,7.17653664850842e-05,4.052721551232156e-05,2.0486116057068656e-05,6.1333,6.2
2.0703125,1.3156645136186682e-05,5.710642464332028e-05,3.757919953307385e-05,2.3434132036316382e-05,6.1333,6.2
2.07421875,2.294730370946813e-05,6.835756819714646e-05,4.588232710765231e-05,2.4407788690012877e-05,6.1333,6.2
2.078125,2.7328758651102375e-05,4.7342812088197065e-05,4.539549878080405e-05,2.0486116057068656e-05,6.1333,6.2
2.08203125,1.610466111543441e-05,4.929012539559005e-05,3.173725961089485e-05,2.7328758651102375e-05,6.1333,6.2
2.0859375,1.6591489442282663e-05,7.273902313878071e-05,3.87986090791172e-06,3.368457291828784e-05,6.1333,6.2
2.08984375,1.8538802749675653e-05,6.540955221789875e-05,-5.015940337225259e-07,2.9276071958495364e-05,6.1333,6.2
2.09375,2.1946601037613403e-05,2.8789243631647122e-05,2.0486116057068656e-05,2.5868273670557628e-05,6.1333,6.2
2.09765625,2.635510199740588e-05,2.145977271076515e-05,3.611871455252908e-05,2.5868273670557628e-05,6.1333,6.2
2.1015625,2.635510199740588e-05,2.145977271076515e-05,1.5131004461737916e-05,2.1946601037613403e-05,6.1333,6.2
2.10546875,2.8789243631647122e-05,3.41714012451361e-05,4.880563579766445e-06,2.1946601037613403e-05,6.1333,6.2
2.109375,3.073655693904011e-05,3.4658229571984347e-05,1.3156645136186682e-05,2.3920960363164625e-05,6.1333,6.2
2.11328125,3.173725961089485e-05,4.1987700492866305e-05,1.4157347808041408e-05,2.5868273670557628e-05,6.1333,6.2
2.1171875,2.7815586977950614e-05,4.78296404150453e-05,4.880563579766445e-06,2.5381445343709372e-05,6.1333,6.2
2.12109375,2.4407788690012877e-05,1.2182988482490188e-05,-5.015940337225259e-07,3.31977445914396e-05,6.1333,6.2
2.125,2.9762900285343617e-05,-7.344236627756245e-06,6.341048560311193e-06,3.8552856186770326e-05,6.1333,6.2
2.12890625,2.2460475382619874e-05,3.122338526588837e-05,1.99992877302204e-05,3.368457291828784e-05,6.1333,6.2
2.1328125,2.7815586977950614e-05,3.806602785992208e-05,1.4457192736704627e-06,3.41714012451361e-05,6.1333,6.2
2.13671875,3.5631886225680845e-05,-5.8837516472114964e-06,-1.1238863242542237e-05,3.709237120622558e-05,6.1333,6.2
2.140625,2.8789243631647122e-05,5.367391906614699e-06,-6.370579974059751e-06,3.073655693904011e-05,6.1333,6.2
2.14453125,2.5868273670557628e-05,3.2710916264591344e-05,-1.7594677509727717e-05,3.368457291828784e-05,6.1333,6.2
2.1484375,2.7815586977950614e-05,8.288361867704197e-06,-2.6384633411154423e-05,3.952651284046684e-05,6.1333,6.2
2.15234375,3.073655693904011e-05,-1.2699348223086986e-05,-2.051564747081721e-05,3.9039684513618595e-05,6.1333,6.2
2.15625,3.31977445914396e-05,-5.8837516472114964e-06,-1.318617654993524e-05,4.4421842127107564e-05,6.1333,6.2
2.16015625,3.368457291828784e-05,-1.1725691569390491e-05,-2.051564747081721e-05,4.831646874189354e-05,6.1333,6.2
2.1640625,3.41714012451361e-05,-1.0265206588845742e-05,-3.27404476783399e-05,4.78296404150453e-05,6.1333,6.2
2.16796875,3.6605542879377336e-05,-9.291549935149248e-06,-3.076608835278867e-05,4.78296404150453e-05,6.1333,6.2
2.171875,4.001334116731507e-05,-9.778378261997488e-06,-2.051564747081721e-05,5.564593966277553e-05,6.1333,6.2
2.17578125,3.6605542879377336e-05,-2.687146173800268e-05,-3.517458931258115e-05,6.200175392996099e-05,6.1333,6.2
2.1796875,3.9039684513618595e-05,-5.372815776913108e-05,-7.082124124513626e-05,6.540955221789875e-05,6.1333,6.2
2.18359375,4.636915543450055e-05,-6.34917703242543e-05,-6.936075626459152e-05,6.981805317769122e-05,6.1333,6.2
2.1875,4.4908670453955806e-05,-5.2754501115434586e-05,-6.397859865110254e-05,7.371267979247721e-05,6.1333,6.2
2.19140625,5.077765639429302e-05,-6.34917703242543e-05,-8.791432472114145e-05,7.909483740596618e-05,6.1333,6.2
2.1953125,5.759325297016852e-05,-5.470181442282758e-05,-9.324239029831394e-05,8.201580736705568e-05,6.1333,6.2
2.19921875,6.151492560311275e-05,-6.495225530479905e-05,-9.47028752788587e-05,8.152897904020741e-05,6.1333,6.2
2.203125,6.0541268949416234e-05,-0.00010154551787289241,-9.813771958495468e-05,8.347629234760043e-05,6.1333,6.2
2.20703125,6.346223891050573e-05,-0.00010105868954604417,-9.862454791180293e-05,8.104215071335918e-05,6.1333,6.2
2.2109375,6.638320887159522e-05,-0.0001049803621789884,-0.00011325644373540863,8.298946402075216e-05,6.1333,6.2
2.21484375,6.248858225680924e-05,-0.00011325644373540863,-0.00012694172892347607,9.129259159533063e-05,6.1333,6.2
2.21875,6.151492560311275e-05,-0.00011523080306095987,-0.0001264549005966278,9.080576326848239e-05,6.1333,6.2
2.22265625,5.956761229571975e-05,-0.00012302005629053186,-0.00010887498879377439,9.76484058625161e-05,6.1333,6.2
2.2265625,5.369862635538251e-05,-0.00011766494469520111,-0.00010741450381322966,0.0001025166891309986,6.1333,6.2
2.23046875,5.272496970168603e-05,-9.324239029831394e-05,-9.518970360570695e-05,0.00010056937582360561,6.1333,6.2
2.234375,5.710642464332028e-05,-9.37292186251622e-05,-9.619040627756168e-05,9.95957191699091e-05,6.1333,6.2
2.23828125,5.515911133592726e-05,-0.00010057186121919592,-0.0001108223021011674,9.372673322957188e-05,6.1333,6.2
2.2421875,5.1264484721141286e-05,-9.178190531776922e-05,-8.694066806744496e-05,9.323990490272361e-05,6.1333,6.2
2.24609375,5.1264484721141286e-05,-8.496630874189372e-05,-7.815071216601823e-05,9.323990490272361e-05,6.1333,6.2
2.25,4.636915543450055e-05,-6.936075626459152e-05,-8.204533878080422e-05,8.934527828793764e-05,6.1333,6.2
2.25390625,4.636915543450055e-05,-7.471586785992225e-05,-7.763683782101175e-05,8.298946402075216e-05,6.1333,6.2
2.2578125,4.4908670453955806e-05,-7.568952451361876e-05,-6.203128534370955e-05,7.860800907911791e-05,6.1333,6.2
2.26171875,3.709237120622558e-05,-6.0570800363164806e-05,-4.785917182879385e-05,7.517316477302196e-05,6.1333,6.2
2.265625,3.9039684513618595e-05,-4.299088856031137e-05,-5.226767278858633e-05,7.079170983138771e-05,6.1333,6.2
2.26953125,3.9039684513618595e-05,-2.395049177691318e-05,-4.101652923476013e-05,6.3949067237354e-05,6.1333,6.2
2.2734375,3.6605542879377336e-05,-1.8568334163424212e-05,-1.8568334163424212e-05,5.369862635538251e-05,6.1333,6.2
2.27734375,3.5631886225680845e-05,-1.710784918287946e-05,-1.7594677509727717e-05,5.661959631647201e-05,6.1333,6.2
2.28125,3.41714012451361e-05,-1.710784918287946e-05,-8.31789328145274e-06,5.3211798028534276e-05,6.1333,6.2
2.28515625,3.2224087937743094e-05,3.3930325810634655e-06,-1.4752506874190202e-06,4.247452881971455e-05,6.1333,6.2
2.2890625,2.7815586977950614e-05,2.1946601037613403e-05,-9.778378261997488e-06,4.247452881971455e-05,6.1333,6.2
2.29296875,2.4407788690012877e-05,5.367391906614699e-06,1.902563107652391e-05,4.2961357146562816e-05,6.1333,6.2
2.296875,2.684193032425412e-05,1.1696160155641934e-05,2.0486116057068656e-05,3.8552856186770326e-05,6.1333,6.2
2.30078125,2.830241530479887e-05,3.806602785992208e-05,1.3156645136186682e-05,3.9039684513618595e-05,6.1333,6.2
2.3046875,2.1946601037613403e-05,5.661959631647201e-05,1.902563107652391e-05,4.1987700492866305e-05,6.1333,6.2
2.30859375,1.902563107652391e-05,3.611871455252908e-05,3.5631886225680845e-05,3.952651284046684e-05,6.1333,6.2
2.3125,2.1946601037613403e-05,1.2182988482490188e-05,5.1264484721141286e-05,4.150087216601807e-05,6.1333,6.2
2.31640625,2.0486116057068656e-05,3.611871455252908e-05,5.661959631647201e-05,4.78296404150453e-05,6.1333,6.2
2.3203125,1.6591489442282663e-05,6.735686552529173e-05,5.9080783968871486e-05,5.956761229571975e-05,6.1333,6.2
2.32421875,1.610466111543441e-05,6.005444062256799e-05,5.2238141374837764e-05,7.517316477302196e-05,6.1333,6.2
2.328125,1.902563107652391e-05,6.3949067237354e-05,4.831646874189354e-05,8.493677732814514e-05,6.1333,6.2
2.33203125,1.99992877302204e-05,7.17653664850842e-05,5.369862635538251e-05,8.642430832684814e-05,6.1333,6.2
2.3359375,1.9512459403372147e-05,7.714752409857317e-05,7.860800907911791e-05,8.88584499610894e-05,6.1333,6.2
2.33984375,1.8051974422827397e-05,5.0290828067444774e-05,8.59374799999999e-05,9.031893494163415e-05,6.1333,6.2
2.34375,1.902563107652391e-05,2.0972944383916895e-05,6.005444062256799e-05,8.542360565499341e-05,6.1333,6.2
2.34765625,1.9512459403372147e-05,3.9039684513618595e-05,6.200175392996099e-05,8.396312067444867e-05,6.1333,6.2
2.3515625,1.99992877302204e-05,5.613276798962377e-05,7.17653664850842e-05,8.642430832684814e-05,6.1333,6.2
2.35546875,2.3920960363164625e-05,9.226624824902714e-05,8.201580736705568e-05,8.542360565499341e-05,6.1333,6.2
2.359375,2.145977271076515e-05,5.077765639429302e-05,8.642430832684814e-05,8.444994900129692e-05,6.1333,6.2
2.36328125,1.902563107652391e-05,5.1264484721141286e-05,6.638320887159522e-05,8.396312067444867e-05,6.1333,6.2
2.3671875,1.9512459403372147e-05,9.129259159533063e-05,6.981805317769122e-05,8.152897904020741e-05,6.1333,6.2
2.37109375,1.7078317769130906e-05,4.831646874189354e-05,7.371267979247721e-05,8.201580736705568e-05,6.1333,6.2
2.375,2.1946601037613403e-05,4.636915543450055e-05,6.835756819714646e-05,8.006849405966267e-05,6.1333,6.2
2.37890625,2.2460475382619874e-05,5.808008129701676e-05,7.763435242542144e-05,7.56599930998702e-05,6.1333,6.2
2.3828125,1.99992877302204e-05,7.812118075226967e-05,5.272496970168603e-05,7.371267979247721e-05,6.1333,6.2
2.38671875,2.2460475382619874e-05,8.347629234760043e-05,4.3935013800259294e-05,7.030488150453944e-05,6.1333,6.2
2.390625,1.99992877302204e-05,4.4908670453955806e-05,7.079170983138771e-05,6.88443965239947e-05,6.1333,6.2
2.39453125,1.8538802749675653e-05,3.9039684513618595e-05,5.077765639429302e-05,6.787073987029822e-05,6.1333,6.2
2.3984375,1.99992877302204e-05,4.052721551232156e-05,6.835756819714646e-05,6.3949067237354e-05,6.1333,6.2
2.40234375,2.0486116057068656e-05,5.710642464332028e-05,8.055532238651094e-05,6.346223891050573e-05,6.1333,6.2
2.40625,2.0972944383916895e-05,6.835756819714646e-05,4.78296404150453e-05,6.248858225680924e-05,6.1333,6.2
2.41015625,1.8538802749675653e-05,5.1264484721141286e-05,6.10280972762645e-05,6.346223891050573e-05,6.1333,6.2
2.4140625,1.9512459403372147e-05,4.344818547341106e-05,7.763435242542144e-05,6.200175392996099e-05,6.1333,6.2
2.41796875,2.4407788690012877e-05,3.709237120622558e-05,7.17653664850842e-05,5.710642464332028e-05,6.1333,6.2
2.421875,2.4894617016861133e-05,8.006849405966267e-05,4.980399974059654e-05,5.515911133592726e-05,6.1333,6.2
2.42578125,2.145977271076515e-05,7.468633644617369e-05,7.127853815823596e-05,5.418545468223078e-05,6.1333,6.2
2.4296875,1.8051974422827397e-05,4.6855983761348795e-05,7.958166573281443e-05,5.759325297016852e-05,6.1333,6.2
2.43359375,2.2460475382619874e-05,5.9080783968871486e-05,6.88443965239947e-05,5.613276798962377e-05,6.1333,6.2
2.4375,2.9276071958495364e-05,6.638320887159522e-05,7.56599930998702e-05,5.613276798962377e-05,6.1333,6.2
2.44140625,2.7328758651102375e-05,6.0541268949416234e-05,6.638320887159522e-05,5.710642464332028e-05,6.1333,6.2
2.4453125,2.5868273670557628e-05,5.613276798962377e-05,5.2238141374837764e-05,5.515911133592726e-05,6.1333,6.2
2.44921875,3.31977445914396e-05,6.638320887159522e-05,4.980399974059654e-05,5.2238141374837764e-05,6.1333,6.2
2.453125,3.122338526588837e-05,5.515911133592726e-05,6.151492560311275e-05,4.929012539559005e-05,6.1333,6.2
2.45703125,2.7815586977950614e-05,4.247452881971455e-05,6.687003719844349e-05,4.980399974059654e-05,6.1333,6.2
2.4609375,3.122338526588837e-05,3.709237120622558e-05,6.248858225680924e-05,4.7342812088197065e-05,6.1333,6.2
2.46484375,3.073655693904011e-05,1.610466111543441e-05,4.052721551232156e-05,4.3935013800259294e-05,6.1333,6.2
2.46875,3.0249728612191873e-05,4.6855983761348795e-05,3.514505789883259e-05,4.78296404150453e-05,6.1333,6.2
2.47265625,2.635510199740588e-05,5.0290828067444774e-05,5.175131304798952e-05,5.2238141374837764e-05,6.1333,6.2
2.4765625,2.635510199740588e-05,3.2710916264591344e-05,5.956761229571975e-05,5.272496970168603e-05,6.1333,6.2
2.48046875,2.684193032425412e-05,4.831646874189354e-05,4.636915543450055e-05,5.369862635538251e-05,6.1333,6.2
2.484375,2.830241530479887e-05,4.880563579766445e-06,5.0290828067444774e-05,5.1264484721141286e-05,6.1333,6.2
2.48828125,2.9762900285343617e-05,1.1696160155641934e-05,5.2238141374837764e-05,4.980399974059654e-05,6.1333,6.2
2.4921875,2.635510199740588e-05,5.759325297016852e-05,3.709237120622558e-05,4.880329706874181e-05,6.1333,6.2
2.49609375,2.635510199740588e-05,7.322585146562895e-05,3.757919953307385e-05,4.3935013800259294e-05,6.1333,6.2
2.5,2.5868273670557628e-05,5.8566909623865e-05,6.151492560311275e-05,4.2961357146562816e-05,6.1333,6.2
2.50390625,2.7328758651102375e-05,2.684193032425412e-05,6.589638054474698e-05,4.344818547341106e-05,6.1333,6.2
2.5078125,2.9762900285343617e-05,2.4894617016861133e-05,3.514505789883259e-05,4.636915543450055e-05,6.1333,6.2
2.51171875,2.9276071958495364e-05,3.6605542879377336e-05,3.41714012451361e-05,4.6855983761348795e-05,6.1333,6.2
2.515625,3.073655693904011e-05,5.0290828067444774e-05,3.514505789883259e-05,4.344818547341106e-05,6.1333,6.2
2.51953125,2.7328758651102375e-05,3.8552856186770326e-05,3.611871455252908e-05,4.636915543450055e-05,6.1333,6.2
2.5234375,2.5381445343709372e-05,4.101404383916983e-05,5.175131304798952e-05,5.077765639429302e-05,6.1333,6.2
2.52734375,2.5381445343709372e-05,3.611871455252908e-05,4.4908670453955806e-05,5.077765639429302e-05,6.1333,6.2
2.53125,2.635510199740588e-05,1.9512459403372147e-05,4.001334116731507e-05,4.929012539559005e-05,6.1333,6.2
2.53515625,2.8789243631647122e-05,4.980399974059654e-05,4.052721551232156e-05,4.588232710765231e-05,6.1333,6.2
2.5390625,3.2224087937743094e-05,3.41714012451361e-05,4.831646874189354e-05,4.4908670453955806e-05,6.1333,6.2
2.54296875,3.2710916264591344e-05,2.4407788690012877e-05,4.052721551232156e-05,4.636915543450055e-05,6.1333,6.2
2.546875,3.2710916264591344e-05,2.9762900285343617e-05,3.757919953307385e-05,4.980399974059654e-05,6.1333,6.2
2.55078125,2.7328758651102375e-05,6.827876887159448e-06,4.4908670453955806e-05,4.980399974059654e-05,6.1333,6.2
2.5546875,2.830241530479887e-05,1.8538802749675653e-05,4.4421842127107564e-05,4.7342812088197065e-05,6.1333,6.2
2.55859375,3.2710916264591344e-05,3.368457291828784e-05,3.8552856186770326e-05,4.2961357146562816e-05,6.1333,6.2
2.5625,3.122338526588837e-05,9.26201852140069e-06,1.8538802749675653e-05,3.757919953307385e-05,6.1333,6.2
2.56640625,3.073655693904011e-05,9.26201852140069e-06,3.2224087937743094e-05,4.2961357146562816e-05,6.1333,6.2
2.5703125,3.173725961089485e-05,2.3920960363164625e-05,5.661959631647201e-05,4.880329706874181e-05,6.1333,6.2
2.57421875,3.122338526588837e-05,2.830241530479887e-05,3.6605542879377336e-05,4.636915543450055e-05,6.1333,6.2
2.578125,2.9762900285343617e-05,2.3434132036316382e-05,3.2224087937743094e-05,4.2961357146562816e-05,6.1333,6.2
2.58203125,2.9276071958495364e-05,2.7328758651102375e-05,3.709237120622558e-05,4.2961357146562816e-05,6.1333,6.2
2.5859375,2.8789243631647122e-05,8.288361867704197e-06,1.5617832788586155e-05,4.4421842127107564e-05,6.1333,6.2
2.58984375,2.9276071958495364e-05,-6.370579974059751e-06,2.3434132036316382e-05,4.78296404150453e-05,6.1333,6.2
2.59375,3.122338526588837e-05,3.5631886225680845e-05,3.173725961089485e-05,4.929012539559005e-05,6.1333,6.2
2.59765625,3.31977445914396e-05,4.6855983761348795e-05,3.173725961089485e-05,4.6855983761348795e-05,6.1333,6.2
2.6015625,3.806602785992208e-05,4.344818547341106e-05,3.9039684513618595e-05,4.101404383916983e-05,6.1333,6.2
2.60546875,3.8552856186770326e-05,6.346223891050573e-05,4.636915543450055e-05,4.4908670453955806e-05,6.1333,6.2
2.609375,3.41714012451361e-05,4.929012539559005e-05,4.980399974059654e-05,5.077765639429302e-05,6.1333,6.2
2.61328125,3.368457291828784e-05,3.4658229571984347e-05,3.514505789883259e-05,5.2238141374837764e-05,6.1333,6.2
2.6171875,3.41714012451361e-05,4.1987700492866305e-05,4.4908670453955806e-05,5.759325297016852e-05,6.1333,6.2
2.62109375,3.6605542879377336e-05,2.8789243631647122e-05,4.6855983761348795e-05,5.613276798962377e-05,6.1333,6.2
2.625,3.8552856186770326e-05,5.0290828067444774e-05,3.073655693904011e-05,5.2238141374837764e-05,6.1333,6.2
2.62890625,3.611871455252908e-05,4.101404383916983e-05,3.4658229571984347e-05,5.1264484721141286e-05,6.1333,6.2
2.6328125,3.514505789883259e-05,1.7565146095979158e-05,5.515911133592726e-05,5.418545468223078e-05,6.1333,6.2
2.63671875,3.41714012451361e-05,5.2238141374837764e-05,5.3211798028534276e-05,5.661959631647201e-05,6.1333,6.2
2.640625,3.41714012451361e-05,6.200175392996099e-05,4.6855983761348795e-05,5.710642464332028e-05,6.1333,6.2
2.64453125,3.6605542879377336e-05,3.122338526588837e-05,7.17653664850842e-05,5.8566909623865e-05,6.1333,6.2
2.6484375,3.9039684513618595e-05,3.173725961089485e-05,5.369862635538251e-05,5.515911133592726e-05,6.1333,6.2
2.65234375,3.757919953307385e-05,4.344818547341106e-05,3.6605542879377336e-05,5.564593966277553e-05,6.1333,6.2
2.65625,3.952651284046684e-05,5.3211798028534276e-05,4.4421842127107564e-05,5.808008129701676e-05,6.1333,6.2
2.66015625,4.052721551232156e-05,5.369862635538251e-05,3.8552856186770326e-05,5.613276798962377e-05,6.1333,6.2
2.6640625,4.101404383916983e-05,9.470038988326837e-05,3.4658229571984347e-05,4.880329706874181e-05,6.1333,6.2
2.66796875,4.150087216601807e-05,8.006849405966267e-05,3.9039684513618595e-05,4.3935013800259294e-05,6.1333,6.2
2.671875,4.150087216601807e-05,4.052721551232156e-05,3.5631886225680845e-05,4.636915543450055e-05,6.1333,6.2
2.67578125,4.344818547341106e-05,6.10280972762645e-05,1.4157347808041408e-05,4.2961357146562816e-05,6.1333,6.2
2.6796875,4.1987700492866305e-05,8.542360565499341e-05,2.4894617016861133e-05,4.588232710765231e-05,6.1333,6.2
2.68359375,4.1987700492866305e-05,6.787073987029822e-05,4.3935013800259294e-05,4.880329706874181e-05,6.1333,6.2
2.6875,3.952651284046684e-05,4.4421842127107564e-05,4.3935013800259294e-05,4.539549878080405e-05,6.1333,6.2
2.69140625,3.952651284046684e-05,3.5631886225680845e-05,5.1264484721141286e-05,4.7342812088197065e-05,6.1333,6.2
2.6953125,3.9039684513618595e-05,4.247452881971455e-05,5.369862635538251e-05,4.831646874189354e-05,6.1333,6.2
2.69921875,4.001334116731507e-05,5.2238141374837764e-05,5.1264484721141286e-05,4.6855983761348795e-05,6.1333,6.2
2.703125,4.1987700492866305e-05,2.3434132036316382e-05,4.344818547341106e-05,4.78296404150453e-05,6.1333,6.2
2.70703125,3.5631886225680845e-05,2.0486116057068656e-05,3.9039684513618595e-05,5.369862635538251e-05,6.1333,6.2
2.7109375,3.514505789883259e-05,4.247452881971455e-05,5.418545468223078e-05,5.808008129701676e-05,6.1333,6.2
2.71484375,4.101404383916983e-05,6.341048560311193e-06,5.808008129701676e-05,5.710642464332028e-05,6.1333,6.2
2.71875,4.2961357146562816e-05,2.9762900285343617e-05,4.2961357146562816e-05,5.613276798962377e-05,6.1333,6.2
2.72265625,4.344818547341106e-05,6.88443965239947e-05,2.9276071958495364e-05,5.808008129701676e-05,6.1333,6.2
2.7265625,4.001334116731507e-05,2.0486116057068656e-05,3.9039684513618595e-05,5.613276798962377e-05,6.1333,6.2
2.73046875,3.4658229571984347e-05,2.3920960363164625e-05,4.539549878080405e-05,5.467228300907902e-05,6.1333,6.2
2.734375,3.611871455252908e-05,5.0290828067444774e-05,3.4658229571984347e-05,5.808008129701676e-05,6.1333,6.2
2.73828125,4.052721551232156e-05,3.368457291828784e-05,3.5631886225680845e-05,5.9080783968871486e-05,6.1333,6.2
2.7421875,3.806602785992208e-05,1.9512459403372147e-05,4.101404383916983e-05,5.8566909623865e-05,6.1333,6.2
2.74609375,3.806602785992208e-05,3.806602785992208e-05,4.101404383916983e-05,5.956761229571975e-05,6.1333,6.2
2.75,3.4658229571984347e-05,2.7328758651102375e-05,5.661959631647201e-05,6.443589556420224e-05,6.1333,6.2
2.75390625,3.2224087937743094e-05,5.8566909623865e-05,4.636915543450055e-05,6.589638054474698e-05,6.1333,6.2
2.7578125,3.5631886225680845e-05,6.248858225680924e-05,3.4658229571984347e-05,6.638320887159522e-05,6.1333,6.2
2.76171875,3.41714012451361e-05,2.5381445343709372e-05,2.830241530479887e-05,6.933122485084297e-05,6.1333,6.2
2.765625,3.514505789883259e-05,2.5868273670557628e-05,2.294730370946813e-05,6.835756819714646e-05,6.1333,6.2
2.76953125,3.611871455252908e-05,2.5381445343709372e-05,2.7815586977950614e-05,7.127853815823596e-05,6.1333,6.2
2.7734375,3.757919953307385e-05,2.9276071958495364e-05,3.0249728612191873e-05,7.371267979247721e-05,6.1333,6.2
2.77734375,3.709237120622558e-05,5.418545468223078e-05,3.9039684513618595e-05,7.225219481193247e-05,6.1333,6.2
2.78125,3.41714012451361e-05,3.173725961089485e-05,4.2961357146562816e-05,7.273902313878071e-05,6.1333,6.2
2.78515625,3.31977445914396e-05,-2.4489073411155287e-06,2.2460475382619874e-05,7.663364975356669e-05,6.1333,6.2
2.7890625,3.2224087937743094e-05,1.2182988482490188e-05,2.294730370946813e-05,7.614682142671845e-05,6.1333,6.2
2.79296875,3.122338526588837e-05,1.2182988482490188e-05,2.9762900285343617e-05,7.079170983138771e-05,6.1333,6.2
2.796875,2.830241530479887e-05,9.26201852140069e-06,2.1946601037613403e-05,6.933122485084297e-05,6.1333,6.2
2.80078125,2.684193032425412e-05,2.3920960363164625e-05,2.9762900285343617e-05,6.981805317769122e-05,6.1333,6.2
2.8046875,2.7815586977950614e-05,-9.884223605707803e-07,4.929012539559005e-05,7.17653664850842e-05,6.1333,6.2
2.80859375,3.0249728612191873e-05,5.367391906614699e-06,2.4894617016861133e-05,7.127853815823596e-05,6.1333,6.2
2.8125,3.073655693904011e-05,3.709237120622558e-05,4.393735252918204e-06,6.981805317769122e-05,6.1333,6.2
2.81640625,2.9762900285343617e-05,2.0486116057068656e-05,3.41714012451361e-05,6.687003719844349e-05,6.1333,6.2
2.8203125,3.806602785992208e-05,2.7328758651102375e-05,2.9762900285343617e-05,6.492272389105048e-05,6.1333,6.2
2.82421875,4.001334116731507e-05,2.7328758651102375e-05,1.0722503501945439e-05,6.0541268949416234e-05,6.1333,6.2
2.828125,3.709237120622558e-05,3.709237120622558e-05,1.6591489442282663e-05,5.613276798962377e-05,6.1333,6.2
2.83203125,3.4658229571984347e-05,2.1946601037613403e-05,1.1696160155641934e-05,6.151492560311275e-05,6.1333,6.2
2.8359375,3.41714012451361e-05,1.7078317769130906e-05,6.341048560311193e-06,6.540955221789875e-05,6.1333,6.2
2.83984375,3.757919953307385e-05,1.2669816809338428e-05,2.4894617016861133e-05,6.88443965239947e-05,6.1333,6.2
2.84375,3.6605542879377336e-05,3.073655693904011e-05,2.0486116057068656e-05,7.763435242542144e-05,6.1333,6.2
2.84765625,3.6605542879377336e-05,3.073655693904011e-05,1.9512459403372147e-05,8.006849405966267e-05,6.1333,6.2
2.8515625,3.514505789883259e-05,2.4894617016861133e-05,2.5868273670557628e-05,8.055532238651094e-05,6.1333,6.2
2.85546875,3.41714012451361e-05,3.757919953307385e-05,2.4894617016861133e-05,8.396312067444867e-05,6.1333,6.2
2.859375,3.5631886225680845e-05,2.4407788690012877e-05,2.684193032425412e-05,8.347629234760043e-05,6.1333,6.2
2.86328125,3.611871455252908e-05,6.735686552529173e-05,2.3434132036316382e-05,8.201580736705568e-05,6.1333,6.2
2.8671875,3.6605542879377336e-05,3.0249728612191873e-05,2.7815586977950614e-05,8.493677732814514e-05,6.1333,6.2
2.87109375,3.5631886225680845e-05,2.419375927366971e-06,3.709237120622558e-05,8.642430832684814e-05,6.1333,6.2
2.875,3.073655693904011e-05,9.26201852140069e-06,2.830241530479887e-05,8.837162163424114e-05,6.1333,6.2
2.87890625,3.2710916264591344e-05,2.5868273670557628e-05,3.952651284046684e-05,8.642430832684814e-05,6.1333,6.2
2.8828125,3.709237120622558e-05,6.540955221789875e-05,4.150087216601807e-05,8.493677732814514e-05,6.1333,6.2
2.88671875,3.2224087937743094e-05,3.122338526588837e-05,2.635510199740588e-05,8.691113665369638e-05,6.1333,6.2
2.890625,3.073655693904011e-05,3.0249728612191873e-05,2.5868273670557628e-05,8.739796498054465e-05,6.1333,6.2
2.89453125,3.173725961089485e-05,4.001334116731507e-05,4.3935013800259294e-05,8.493677732814514e-05,6.1333,6.2
2.8984375,3.073655693904011e-05,3.6605542879377336e-05,6.443589556420224e-05,8.006849405966267e-05,6.1333,6.2
2.90234375,3.173725961089485e-05,2.3920960363164625e-05,4.052721551232156e-05,7.614682142671845e-05,6.1333,6.2
2.90625,3.2710916264591344e-05,1.0235675175097185e-05,1.6591489442282663e-05,7.56599930998702e-05,6.1333,6.2
2.91015625,3.173725961089485e-05,2.684193032425412e-05,1.2669816809338428e-05,7.714752409857317e-05,6.1333,6.2
2.9140625,3.2224087937743094e-05,2.1946601037613403e-05,3.073655693904011e-05,7.763435242542144e-05,6.1333,6.2
2.91796875,2.9276071958495364e-05,1.1696160155641934e-05,3.122338526588837e-05,7.56599930998702e-05,6.1333,6.2
2.921875,3.2224087937743094e-05,3.8552856186770326e-05,2.419375927366971e-06,6.88443965239947e-05,6.1333,6.2
2.92578125,3.31977445914396e-05,5.1264484721141286e-05,2.0972944383916895e-05,6.787073987029822e-05,6.1333,6.2
2.9296875,3.0249728612191873e-05,2.4407788690012877e-05,3.41714012451361e-05,7.225219481193247e-05,6.1333,6.2
2.93359375,2.830241530479887e-05,7.801533540855943e-06,1.932547600518717e-06,7.030488150453944e-05,6.1333,6.2
2.9375,3.173725961089485e-05,1.7565146095979158e-05,1.120933182879368e-05,6.88443965239947e-05,6.1333,6.2
2.94140625,3.514505789883259e-05,2.3434132036316382e-05,3.2710916264591344e-05,6.735686552529173e-05,6.1333,6.2
2.9453125,3.2224087937743094e-05,1.7078317769130906e-05,1.3156645136186682e-05,6.88443965239947e-05,6.1333,6.2
2.94921875,2.8789243631647122e-05,3.87986090791172e-06,1.0235675175097185e-05,7.225219481193247e-05,6.1333,6.2
2.953125,2.9762900285343617e-05,-3.422563994812023e-06,3.5631886225680845e-05,7.273902313878071e-05,6.1333,6.2
2.95703125,3.368457291828784e-05,3.9039684513618595e-05,3.122338526588837e-05,7.371267979247721e-05,6.1333,6.2
2.9609375,3.5631886225680845e-05,3.514505789883259e-05,9.26201852140069e-06,7.079170983138771e-05,6.1333,6.2
2.96484375,3.6605542879377336e-05,2.4894617016861133e-05,1.5131004461737916e-05,7.030488150453944e-05,6.1333,6.2
2.96875,3.41714012451361e-05,2.684193032425412e-05,2.635510199740588e-05,7.127853815823596e-05,6.1333,6.2
2.97265625,3.2224087937743094e-05,8.775190194552436e-06,2.1946601037613403e-05,6.933122485084297e-05,6.1333,6.2
2.9765625,3.611871455252908e-05,1.8538802749675653e-05,3.9039684513618595e-05,6.735686552529173e-05,6.1333,6.2
2.98046875,3.4658229571984347e-05,1.3670519481193167e-05,3.0249728612191873e-05,7.030488150453944e-05,6.1333,6.2
2.984375,3.4658229571984347e-05,2.7815586977950614e-05,1.8051974422827397e-05,7.030488150453944e-05,6.1333,6.2
2.98828125,3.806602785992208e-05,2.7815586977950614e-05,4.150087216601807e-05,7.273902313878071e-05,6.1333,6.2
2.9921875,3.31977445914396e-05,3.514505789883259e-05,1.99992877302204e-05,7.419950811932545e-05,6.1333,6.2
2.99609375,2.5868273670557628e-05,3.757919953307385e-05,2.3920960363164625e-05,7.56599930998702e-05,6.1333,6.2
3.0,2.8789243631647122e-05,5.367391906614699e-06,3.368457291828784e-05,7.663364975356669e-05,6.1333,6.2
3.00390625,3.2224087937743094e-05,1.1696160155641934e-05,1.902563107652391e-05,7.468633644617369e-05,6.1333,6.2
3.0078125,3.41714012451361e-05,2.1946601037613403e-05,2.7815586977950614e-05,7.371267979247721e-05,6.1333,6.2
3.01171875,3.757919953307385e-05,2.4407788690012877e-05,2.9762900285343617e-05,7.322585146562895e-05,6.1333,6.2
3.015625,4.101404383916983e-05,3.073655693904011e-05,3.611871455252908e-05,7.079170983138771e-05,6.1333,6.2
3.01953125,3.611871455252908e-05,3.709237120622558e-05,3.41714012451361e-05,6.981805317769122e-05,6.1333,6.2
3.0234375,3.31977445914396e-05,4.247452881971455e-05,2.5381445343709372e-05,6.787073987029822e-05,6.1333,6.2
3.02734375,3.952651284046684e-05,5.661959631647201e-05,2.8789243631647122e-05,6.443589556420224e-05,6.1333,6.2
3.03125,3.952651284046684e-05,3.4658229571984347e-05,2.294730370946813e-05,6.297541058365749e-05,6.1333,6.2
3.03515625,3.709237120622558e-05,2.419375927366971e-06,1.4157347808041408e-05,6.0541268949416234e-05,6.1333,6.2
3.0390625,3.709237120622558e-05,3.3930325810634655e-06,1.902563107652391e-05,5.956761229571975e-05,6.1333,6.2
3.04296875,3.757919953307385e-05,1.5617832788586155e-05,1.8538802749675653e-05,5.956761229571975e-05,6.1333,6.2
3.046875,3.806602785992208e-05,1.7078317769130906e-05,2.3920960363164625e-05,5.613276798962377e-05,6.1333,6.2
3.05078125,3.31977445914396e-05,3.709237120622558e-05,3.368457291828784e-05,5.956761229571975e-05,6.1333,6.2
3.0546875,3.5631886225680845e-05,3.6605542879377336e-05,1.902563107652391e-05,6.10280972762645e-05,6.1333,6.2
3.05859375,4.001334116731507e-05,2.830241530479887e-05,1.9512459403372147e-05,5.369862635538251e-05,6.1333,6.2
3.0625,3.6605542879377336e-05,2.635510199740588e-05,3.0249728612191873e-05,4.831646874189354e-05,6.1333,6.2
3.06640625,3.806602785992208e-05,5.854220233462939e-06,1.120933182879368e-05,4.78296404150453e-05,6.1333,6.2
3.0703125,4.247452881971455e-05,3.41714012451361e-05,1.2182988482490188e-05,4.929012539559005e-05,6.1333,6.2
3.07421875,3.709237120622558e-05,9.74884684824893e-06,2.0972944383916895e-05,4.880329706874181e-05,6.1333,6.2
3.078125,2.9762900285343617e-05,-7.8310649546045e-06,1.120933182879368e-05,4.3935013800259294e-05,6.1333,6.2
3.08203125,3.073655693904011e-05,1.0722503501945439e-05,1.4644176134889662e-05,4.001334116731507e-05,6.1333,6.2
3.0859375,3.5631886225680845e-05,3.41714012451361e-05,2.294730370946813e-05,3.806602785992208e-05,6.1333,6.2
3.08984375,3.5631886225680845e-05,3.2224087937743094e-05,2.5381445343709372e-05,3.4658229571984347e-05,6.1333,6.2
3.09375,3.2224087937743094e-05,1.5617832788586155e-05,1.5617832788586155e-05,3.2710916264591344e-05,6.1333,6.2
3.09765625,2.9276071958495364e-05,3.952651284046684e-05,2.8789243631647122e-05,3.5631886225680845e-05,6.1333,6.2
3.1015625,2.9762900285343617e-05,2.8789243631647122e-05,3.757919953307385e-05,4.001334116731507e-05,6.1333,6.2
3.10546875,3.073655693904011e-05,1.5131004461737916e-05,1.6591489442282663e-05,3.8552856186770326e-05,6.1333,6.2
3.109375,3.073655693904011e-05,-1.4752506874190202e-06,1.120933182879368e-05,3.757919953307385e-05,6.1333,6.2
3.11328125,3.2224087937743094e-05,-3.909392321660263e-06,2.2460475382619874e-05,3.709237120622558e-05,6.1333,6.2
3.1171875,3.122338526588837e-05,2.0972944383916895e-05,7.801533540855943e-06,3.9039684513618595e-05,6.1333,6.2
3.12109375,2.830241530479887e-05,6.341048560311193e-06,1.4157347808041408e-05,3.709237120622558e-05,6.1333,6.2
3.125,3.173725961089485e-05,1.902563107652391e-05,2.9762900285343617e-05,3.514505789883259e-05,6.1333,6.2
3.12890625,3.41714012451361e-05,3.8552856186770326e-05,1.610466111543441e-05,3.952651284046684e-05,6.1333,6.2
3.1328125,3.31977445914396e-05,2.4407788690012877e-05,2.145977271076515e-05,3.8552856186770326e-05,6.1333,6.2
3.13671875,3.9039684513618595e-05,1.5617832788586155e-05,3.173725961089485e-05,3.2710916264591344e-05,6.1333,6.2
3.140625,4.101404383916983e-05,2.5868273670557628e-05,1.2669816809338428e-05,3.173725961089485e-05,6.1333,6.2
3.14453125,3.6605542879377336e-05,4.052721551232156e-05,1.2669816809338428e-05,3.709237120622558e-05,6.1333,6.2
3.1484375,3.41714012451361e-05,5.2238141374837764e-05,4.2961357146562816e-05,3.6605542879377336e-05,6.1333,6.2
3.15234375,3.41714012451361e-05,4.052721551232156e-05,2.294730370946813e-05,3.2710916264591344e-05,6.1333,6.2
3.15625,3.6605542879377336e-05,1.5131004461737916e-05,7.314705214007688e-06,3.2710916264591344e-05,6.1333,6.2
3.16015625,3.41714012451361e-05,1.1696160155641934e-05,3.2710916264591344e-05,3.6605542879377336e-05,6.1333,6.2
3.1640625,3.2710916264591344e-05,1.932547600518717e-06,7.314705214007688e-06,4.052721551232156e-05,6.1333,6.2
3.16796875,3.611871455252908e-05,1.2182988482490188e-05,1.1696160155641934e-05,3.757919953307385e-05,6.1333,6.2
3.171875,3.4658229571984347e-05,2.830241530479887e-05,3.514505789883259e-05,3.757919953307385e-05,6.1333,6.2
3.17578125,3.31977445914396e-05,3.31977445914396e-05,2.0972944383916895e-05,4.001334116731507e-05,6.1333,6.2
3.1796875,3.4658229571984347e-05,1.8051974422827397e-05,1.8538802749675653e-05,4.247452881971455e-05,6.1333,6.2
3.18359375,3.514505789883259e-05,3.8552856186770326e-05,1.9512459403372147e-05,4.344818547341106e-05,6.1333,6.2
3.1875,3.4658229571984347e-05,5.175131304798952e-05,2.2460475382619874e-05,4.4908670453955806e-05,6.1333,6.2
3.19140625,3.6605542879377336e-05,1.99992877302204e-05,3.2224087937743094e-05,4.636915543450055e-05,6.1333,6.2
3.1953125,3.709237120622558e-05,2.419375927366971e-06,3.952651284046684e-05,4.4908670453955806e-05,6.1333,6.2
3.19921875,3.6605542879377336e-05,2.294730370946813e-05,1.610466111543441e-05,4.1987700492866305e-05,6.1333,6.2
3.203125,3.8552856186770326e-05,3.514505789883259e-05,1.1696160155641934e-05,4.4908670453955806e-05,6.1333,6.2
3.20703125,3.709237120622558e-05,-1.4765706874271699e-08,2.0972944383916895e-05,5.175131304798952e-05,6.1333,6.2
3.2109375,3.2224087937743094e-05,5.367391906614699e-06,2.9276071958495364e-05,5.1264484721141286e-05,6.1333,6.2
3.21484375,3.6605542879377336e-05,2.1946601037613403e-05,3.0249728612191873e-05,5.272496970168603e-05,6.1333,6.2
3.21875,3.709237120622558e-05,3.122338526588837e-05,4.78296404150453e-05,5.956761229571975e-05,6.1333,6.2
3.22265625,3.5631886225680845e-05,3.8552856186770326e-05,3.173725961089485e-05,5.710642464332028e-05,6.1333,6.2
3.2265625,3.6605542879377336e-05,2.9276071958495364e-05,-8.804721608300993e-06,5.2238141374837764e-05,6.1333,6.2
3.23046875,3.8552856186770326e-05,3.0249728612191873e-05,1.7078317769130906e-05,5.564593966277553e-05,6.1333,6.2
3.234375,3.709237120622558e-05,3.611871455252908e-05,2.830241530479887e-05,5.956761229571975e-05,6.1333,6.2
3.23828125,3.41714012451361e-05,2.635510199740588e-05,8.775190194552436e-06,6.151492560311275e-05,6.1333,6.2
3.2421875,3.514505789883259e-05,2.2460475382619874e-05,1.4457192736704627e-06,6.0541268949416234e-05,6.1333,6.2
3.24609375,3.0249728612191873e-05,2.830241530479887e-05,1.902563107652391e-05,6.005444062256799e-05,6.1333,6.2
3.25,2.8789243631647122e-05,2.635510199740588e-05,3.4658229571984347e-05,6.0541268949416234e-05,6.1333,6.2
3.25390625,3.5631886225680845e-05,2.7815586977950614e-05,2.5381445343709372e-05,6.005444062256799e-05,6.1333,6.2
3.2578125,3.806602785992208e-05,3.31977445914396e-05,2.0972944383916895e-05,5.9080783968871486e-05,6.1333,6.2
3.26171875,3.41714012451361e-05,3.122338526588837e-05,2.1946601037613403e-05,6.10280972762645e-05,6.1333,6.2
3.265625,3.4658229571984347e-05,1.7078317769130906e-05,1.99992877302204e-05,6.151492560311275e-05,6.1333,6.2
3.26953125,3.514505789883259e-05,1.2669816809338428e-05,3.0249728612191873e-05,6.200175392996099e-05,6.1333,6.2
3.2734375,3.41714012451361e-05,4.150087216601807e-05,3.368457291828784e-05,6.346223891050573e-05,6.1333,6.2
3.27734375,3.709237120622558e-05,4.344818547341106e-05,2.3920960363164625e-05,6.589638054474698e-05,6.1333,6.2
3.28125,4.052721551232156e-05,1.4644176134889662e-05,2.635510199740588e-05,6.735686552529173e-05,6.1333,6.2
3.28515625,4.247452881971455e-05,2.7328758651102375e-05,2.5868273670557628e-05,6.540955221789875e-05,6.1333,6.2
3.2890625,4.247452881971455e-05,2.7815586977950614e-05,3.122338526588837e-05,6.787073987029822e-05,6.1333,6.2
3.29296875,4.539549878080405e-05,2.7815586977950614e-05,2.8789243631647122e-05,6.933122485084297e-05,6.1333,6.2
3.296875,4.4908670453955806e-05,5.3211798028534276e-05,1.3670519481193167e-05,6.3949067237354e-05,6.1333,6.2
3.30078125,4.588232710765231e-05,4.6855983761348795e-05,1.2182988482490188e-05,5.759325297016852e-05,6.1333,6.2
3.3046875,3.8552856186770326e-05,3.709237120622558e-05,3.368457291828784e-05,6.10280972762645e-05,6.1333,6.2
3.30859375,3.806602785992208e-05,3.709237120622558e-05,2.5868273670557628e-05,8.298946402075216e-05,6.1333,6.2
3.3125,4.588232710765231e-05,4.247452881971455e-05,2.419375927366971e-06,9.716157753566786e-05,6.1333,6.2
3.31640625,4.344818547341106e-05,3.31977445914396e-05,1.9512459403372147e-05,9.813523418936435e-05,6.1333,6.2
3.3203125,4.247452881971455e-05,2.1946601037613403e-05,2.3434132036316382e-05,0.00010008254749675737,6.1333,6.2
3.32421875,4.052721551232156e-05,1.2669816809338428e-05,1.7078317769130906e-05,9.421356155642013e-05,6.1333,6.2
3.328125,4.1987700492866305e-05,2.145977271076515e-05,2.294730370946813e-05,8.642430832684814e-05,6.1333,6.2
3.33203125,4.7342812088197065e-05,2.5381445343709372e-05,2.4407788690012877e-05,8.055532238651094e-05,6.1333,6.2
3.3359375,4.588232710765231e-05,2.830241530479887e-05,2.0972944383916895e-05,7.517316477302196e-05,6.1333,6.2
3.33984375,4.78296404150453e-05,3.952651284046684e-05,3.122338526588837e-05,7.371267979247721e-05,6.1333,6.2
3.34375,4.929012539559005e-05,6.638320887159522e-05,3.514505789883259e-05,6.981805317769122e-05,6.1333,6.2
3.34765625,4.831646874189354e-05,6.200175392996099e-05,3.368457291828784e-05,6.835756819714646e-05,6.1333,6.2
3.3515625,4.2961357146562816e-05,3.709237120622558e-05,2.7815586977950614e-05,7.225219481193247e-05,6.1333,6.2
3.35546875,4.4908670453955806e-05,3.611871455252908e-05,3.8552856186770326e-05,7.273902313878071e-05,6.1333,6.2
3.359375,4.831646874189354e-05,2.1946601037613403e-05,3.2710916264591344e-05,7.079170983138771e-05,6.1333,6.2
3.36328125,4.2961357146562816e-05,3.41714012451361e-05,4.001334116731507e-05,7.614682142671845e-05,6.1333,6.2
3.3671875,4.539549878080405e-05,5.710642464332028e-05,4.150087216601807e-05,7.517316477302196e-05,6.1333,6.2
3.37109375,4.831646874189354e-05,4.588232710765231e-05,1.6591489442282663e-05,7.663364975356669e-05,6.1333,6.2
3.375,4.78296404150453e-05,2.294730370946813e-05,2.7815586977950614e-05,8.152897904020741e-05,6.1333,6.2
3.37890625,4.150087216601807e-05,1.6591489442282663e-05,3.709237120622558e-05,8.104215071335918e-05,6.1333,6.2
3.3828125,3.514505789883259e-05,3.514505789883259e-05,4.052721551232156e-05,7.958166573281443e-05,6.1333,6.2
3.38671875,4.001334116731507e-05,2.8789243631647122e-05,4.150087216601807e-05,7.468633644617369e-05,6.1333,6.2
3.390625,3.806602785992208e-05,-7.344236627756245e-06,2.3920960363164625e-05,7.273902313878071e-05,6.1333,6.2
3.39453125,3.806602785992208e-05,1.9512459403372147e-05,2.7328758651102375e-05,7.225219481193247e-05,6.1333,6.2
3.3984375,4.344818547341106e-05,4.150087216601807e-05,4.4421842127107564e-05,7.273902313878071e-05,6.1333,6.2
3.40234375,4.001334116731507e-05,3.757919953307385e-05,3.122338526588837e-05,7.273902313878071e-05,6.1333,6.2
3.40625,3.9039684513618595e-05,3.122338526588837e-05,1.7565146095979158e-05,7.079170983138771e-05,6.1333,6.2
3.41015625,4.150087216601807e-05,4.1987700492866305e-05,3.31977445914396e-05,7.273902313878071e-05,6.1333,6.2
3.4140625,3.9039684513618595e-05,3.4658229571984347e-05,3.173725961089485e-05,7.079170983138771e-05,6.1333,6.2
3.41796875,3.952651284046684e-05,2.3920960363164625e-05,4.636915543450055e-05,7.419950811932545e-05,6.1333,6.2
3.421875,4.3935013800259294e-05,2.635510199740588e-05,4.2961357146562816e-05,8.59374799999999e-05,6.1333,6.2
3.42578125,3.5631886225680845e-05,1.5131004461737916e-05,1.120933182879368e-05,7.812118075226967e-05,6.1333,6.2
3.4296875,2.9762900285343617e-05,6.827876887159448e-06,-6.8574083009080056e-06,7.371267979247721e-05,6.1333,6.2
3.43359375,2.830241530479887e-05,2.419375927366971e-06,-2.051564747081721e-05,8.396312067444867e-05,6.1333,6.2
3.4375,3.173725961089485e-05,4.880563579766445e-06,-1.2699348223086986e-05,7.763435242542144e-05,6.1333,6.2
3.44140625,3.122338526588837e-05,7.801533540855943e-06,-4.396220648508517e-06,8.201580736705568e-05,6.1333,6.2
3.4453125,2.4894617016861133e-05,-2.395049177691318e-05,-1.3673004876783479e-05,0.00012107025758754852,6.1333,6.2
3.44921875,3.173725961089485e-05,-2.6384633411154423e-05,-3.27404476783399e-05,0.00011960977260700378,6.1333,6.2
3.453125,3.757919953307385e-05,-2.3463663450064942e-05,-3.37141043320364e-05,0.00012986021348897526,6.1333,6.2
3.45703125,4.3935013800259294e-05,-4.347771688715961e-05,-3.6148245966277646e-05,0.00018162629224383907,6.1333,6.2
3.4609375,4.539549878080405e-05,-5.4214986095979326e-05,-5.5188642749675824e-05,0.0002109171299092087,6.1333,6.2
3.46484375,4.539549878080405e-05,-5.859644103761357e-05,-6.689956861219204e-05,0.00022947069836575865,6.1333,6.2
3.46875,4.539549878080405e-05,-7.228172622568101e-05,-8.107168212710772e-05,0.00024218232690012954,6.1333,6.2
3.47265625,4.880329706874181e-05,-8.593996539559022e-05,-8.791432472114145e-05,0.00025097228280155634,6.1333,6.2
3.4765625,5.759325297016852e-05,-7.666318116731526e-05,-8.93748097016862e-05,0.0002519459394552528,6.1333,6.2
3.48046875,6.0541268949416234e-05,-9.765089125810644e-05,-0.00010105868954604417,0.00024948475180285333,6.1333,6.2
3.484375,5.8566909623865e-05,-9.56765319325552e-05,-0.0001049803621789884,0.0002446164685343708,6.1333,6.2
3.48828125,6.005444062256799e-05,-9.178190531776922e-05,-9.56765319325552e-05,0.00023728699761348882,6.1333,6.2
3.4921875,6.005444062256799e-05,-8.545313706874196e-05,-8.593996539559022e-05,0.00023241871434500638,6.1333,6.2
3.49609375,5.369862635538251e-05,-7.374221120622575e-05,-9.034846635538269e-05,0.00022362875844357966,6.1333,6.2
3.5,4.929012539559005e-05,-7.961119714656298e-05,-8.447948041504548e-05,0.00021043030158236046,6.1333,6.2
3.50390625,4.539549878080405e-05,-6.984758459143976e-05,-7.520269618677051e-05,0.00019871937571984427,6.1333,6.2
3.5078125,3.6605542879377336e-05,-3.809555927367064e-05,-5.908326936446182e-05,0.0001860347932036315,6.1333,6.2
3.51171875,3.41714012451361e-05,-3.37141043320364e-05,-4.2017231906614864e-05,0.00017919215060959782,6.1333,6.2
3.515625,3.368457291828784e-05,-4.688551517509736e-05,-2.541097675745793e-05,0.00017186267968871585,6.1333,6.2
3.51953125,2.5868273670557628e-05,-3.760873094682239e-05,-3.6148245966277646e-05,0.00016015175382619963,6.1333,6.2
3.5234375,2.684193032425412e-05,-3.125291667963692e-05,-3.322727600518815e-05,0.0001464664686381322,6.1333,6.2
3.52734375,3.2224087937743094e-05,-3.760873094682239e-05,-1.1238863242542237e-05,0.00013621602775616072,6.1333,6.2
3.53125,2.8789243631647122e-05,-6.370579974059751e-06,-1.4765706874271699e-08,0.00012596558687418924,6.1333,6.2
3.53515625,2.7815586977950614e-05,2.0486116057068656e-05,1.99992877302204e-05,0.00011717563097276254,6.1333,6.2
3.5390625,2.830241530479887e-05,4.880563579766445e-06,1.2669816809338428e-05,0.00011033298837872882,6.1333,6.2
3.54296875,2.830241530479887e-05,1.7565146095979158e-05,1.5131004461737916e-05,0.00010202986080415035,6.1333,6.2
3.546875,2.5381445343709372e-05,3.709237120622558e-05,4.539549878080405e-05,0.00010154303247730211,6.1333,6.2
3.55078125,2.1946601037613403e-05,3.4658229571984347e-05,4.101404383916983e-05,9.667474920881961e-05,6.1333,6.2
3.5546875,2.5381445343709372e-05,4.101404383916983e-05,3.6605542879377336e-05,8.396312067444867e-05,6.1333,6.2
3.55859375,2.5868273670557628e-05,4.980399974059654e-05,5.0290828067444774e-05,7.714752409857317e-05,6.1333,6.2
3.5625,2.145977271076515e-05,4.539549878080405e-05,4.78296404150453e-05,7.614682142671845e-05,6.1333,6.2
3.56640625,2.3434132036316382e-05,5.418545468223078e-05,4.980399974059654e-05,7.419950811932545e-05,6.1333,6.2
3.5703125,2.7328758651102375e-05,7.17653664850842e-05,5.515911133592726e-05,6.835756819714646e-05,6.1333,6.2
3.57421875,3.122338526588837e-05,5.956761229571975e-05,5.759325297016852e-05,6.346223891050573e-05,6.1333,6.2
3.578125,3.611871455252908e-05,5.077765639429302e-05,4.929012539559005e-05,6.151492560311275e-05,6.1333,6.2
3.58203125,3.806602785992208e-05,5.1264484721141286e-05,5.613276798962377e-05,5.759325297016852e-05,6.1333,6.2
3.5859375,3.41714012451361e-05,5.0290828067444774e-05,6.3949067237354e-05,6.005444062256799e-05,6.1333,6.2
3.58984375,3.31977445914396e-05,5.2238141374837764e-05,5.467228300907902e-05,5.9080783968871486e-05,6.1333,6.2
3.59375,3.514505789883259e-05,5.8566909623865e-05,5.418545468223078e-05,5.515911133592726e-05,6.1333,6.2
3.59765625,3.31977445914396e-05,5.759325297016852e-05,5.564593966277553e-05,5.564593966277553e-05,6.1333,6.2
3.6015625,3.31977445914396e-05,6.981805317769122e-05,5.661959631647201e-05,5.515911133592726e-05,6.1333,6.2
3.60546875,3.611871455252908e-05,7.030488150453944e-05,6.933122485084297e-05,5.564593966277553e-05,6.1333,6.2
3.609375,3.8552856186770326e-05,3.9039684513618595e-05,5.0290828067444774e-05,5.515911133592726e-05,6.1333,6.2
3.61328125,3.9039684513618595e-05,4.980399974059654e-05,5.369862635538251e-05,5.369862635538251e-05,6.1333,6.2
3.6171875,3.709237120622558e-05,6.3949067237354e-05,7.030488150453944e-05,5.467228300907902e-05,6.1333,6.2
3.62109375,3.073655693904011e-05,5.613276798962377e-05,6.3949067237354e-05,5.613276798962377e-05,6.1333,6.2
3.625,2.9276071958495364e-05,3.806602785992208e-05,6.10280972762645e-05,5.710642464332028e-05,6.1333,6.2
3.62890625,3.2710916264591344e-05,3.0249728612191873e-05,5.2238141374837764e-05,5.9080783968871486e-05,6.1333,6.2
3.6328125,3.0249728612191873e-05,4.929012539559005e-05,7.812118075226967e-05,5.710642464332028e-05,6.1333,6.2
3.63671875,2.684193032425412e-05,5.8566909623865e-05,9.372673322957188e-05,5.515911133592726e-05,6.1333,6.2
3.640625,2.8789243631647122e-05,4.4908670453955806e-05,8.152897904020741e-05,5.1264484721141286e-05,6.1333,6.2
3.64453125,3.2710916264591344e-05,3.514505789883259e-05,6.346223891050573e-05,5.2238141374837764e-05,6.1333,6.2
3.6484375,3.31977445914396e-05,4.636915543450055e-05,5.661959631647201e-05,5.2238141374837764e-05,6.1333,6.2
3.65234375,3.2224087937743094e-05,7.127853815823596e-05,6.346223891050573e-05,4.7342812088197065e-05,6.1333,6.2
3.65625,3.4658229571984347e-05,5.2238141374837764e-05,6.297541058365749e-05,4.4421842127107564e-05,6.1333,6.2
3.66015625,3.41714012451361e-05,5.661959631647201e-05,5.1264484721141286e-05,4.001334116731507e-05,6.1333,6.2
3.6640625,3.4658229571984347e-05,5.956761229571975e-05,6.346223891050573e-05,3.611871455252908e-05,6.1333,6.2
3.66796875,3.5631886225680845e-05,6.248858225680924e-05,7.030488150453944e-05,3.4658229571984347e-05,6.1333,6.2
3.671875,3.41714012451361e-05,7.663364975356669e-05,5.418545468223078e-05,3.4658229571984347e-05,6.1333,6.2
3.67578125,3.5631886225680845e-05,5.9080783968871486e-05,5.808008129701676e-05,3.41714012451361e-05,6.1333,6.2
3.6796875,3.5631886225680845e-05,5.467228300907902e-05,5.369862635538251e-05,3.757919953307385e-05,6.1333,6.2
3.68359375,3.6605542879377336e-05,5.808008129701676e-05,5.808008129701676e-05,3.709237120622558e-05,6.1333,6.2
3.6875,4.344818547341106e-05,7.079170983138771e-05,5.418545468223078e-05,3.2224087937743094e-05,6.1333,6.2
3.69140625,4.636915543450055e-05,8.298946402075216e-05,5.272496970168603e-05,3.073655693904011e-05,6.1333,6.2
3.6953125,4.052721551232156e-05,0.00010838567507133584,5.613276798962377e-05,3.173725961089485e-05,6.1333,6.2
3.69921875,4.001334116731507e-05,9.716157753566786e-05,3.514505789883259e-05,3.073655693904011e-05,6.1333,6.2
3.703125,4.247452881971455e-05,5.077765639429302e-05,3.5631886225680845e-05,2.9276071958495364e-05,6.1333,6.2
3.70703125,4.052721551232156e-05,4.4908670453955806e-05,3.2224087937743094e-05,3.173725961089485e-05,6.1333,6.2
3.7109375,4.101404383916983e-05,6.297541058365749e-05,3.122338526588837e-05,3.122338526588837e-05,6.1333,6.2
3.71484375,4.052721551232156e-05,7.714752409857317e-05,3.31977445914396e-05,3.0249728612191873e-05,6.1333,6.2
3.71875,3.9039684513618595e-05,6.151492560311275e-05,3.757919953307385e-05,2.9276071958495364e-05,6.1333,6.2
3.72265625,3.6605542879377336e-05,3.709237120622558e-05,5.369862635538251e-05,3.0249728612191873e-05,6.1333,6.2
3.7265625,3.611871455252908e-05,5.956761229571975e-05,4.78296404150453e-05,3.31977445914396e-05,6.1333,6.2
3.73046875,3.4658229571984347e-05,7.517316477302196e-05,2.9762900285343617e-05,3.514505789883259e-05,6.1333,6.2
3.734375,3.611871455252908e-05,4.588232710765231e-05,5.3211798028534276e-05,3.2224087937743094e-05,6.1333,6.2
3.73828125,4.101404383916983e-05,4.929012539559005e-05,5.9080783968871486e-05,2.7328758651102375e-05,6.1333,6.2
3.7421875,3.8552856186770326e-05,5.515911133592726e-05,6.0541268949416234e-05,2.8789243631647122e-05,6.1333,6.2
3.74609375,3.5631886225680845e-05,3.5631886225680845e-05,5.175131304798952e-05,2.8789243631647122e-05,6.1333,6.2
3.75,3.41714012451361e-05,3.122338526588837e-05,3.173725961089485e-05,2.684193032425412e-05,6.1333,6.2
3.75390625,3.173725961089485e-05,3.31977445914396e-05,4.4908670453955806e-05,2.9762900285343617e-05,6.1333,6.2
3.7578125,3.122338526588837e-05,3.2224087937743094e-05,6.835756819714646e-05,3.122338526588837e-05,6.1333,6.2
3.76171875,3.122338526588837e-05,4.980399974059654e-05,5.956761229571975e-05,3.31977445914396e-05,6.1333,6.2
3.765625,2.9762900285343617e-05,5.9080783968871486e-05,5.0290828067444774e-05,3.2710916264591344e-05,6.1333,6.2
3.76953125,3.073655693904011e-05,5.0290828067444774e-05,5.272496970168603e-05,2.7815586977950614e-05,6.1333,6.2
3.7734375,3.0249728612191873e-05,2.9276071958495364e-05,4.3935013800259294e-05,2.9762900285343617e-05,6.1333,6.2
3.77734375,2.9762900285343617e-05,1.3670519481193167e-05,4.1987700492866305e-05,3.4658229571984347e-05,6.1333,6.2
3.78125,3.368457291828784e-05,1.7565146095979158e-05,5.1264484721141286e-05,3.2710916264591344e-05,6.1333,6.2
3.78515625,3.122338526588837e-05,3.31977445914396e-05,4.831646874189354e-05,3.073655693904011e-05,6.1333,6.2
3.7890625,3.4658229571984347e-05,4.001334116731507e-05,4.1987700492866305e-05,3.31977445914396e-05,6.1333,6.2
3.79296875,3.709237120622558e-05,5.077765639429302e-05,3.2224087937743094e-05,3.2710916264591344e-05,6.1333,6.2
3.796875,3.4658229571984347e-05,5.710642464332028e-05,3.073655693904011e-05,3.368457291828784e-05,6.1333,6.2
3.80078125,3.4658229571984347e-05,5.077765639429302e-05,3.952651284046684e-05,3.709237120622558e-05,6.1333,6.2
3.8046875,3.6605542879377336e-05,6.346223891050573e-05,4.052721551232156e-05,3.514505789883259e-05,6.1333,6.2
3.80859375,4.052721551232156e-05,5.3211798028534276e-05,2.5868273670557628e-05,3.368457291828784e-05,6.1333,6.2
3.8125,4.052721551232156e-05,3.611871455252908e-05,2.8789243631647122e-05,3.8552856186770326e-05,6.1333,6.2
3.81640625,4.150087216601807e-05,3.4658229571984347e-05,2.2460475382619874e-05,4.4421842127107564e-05,6.1333,6.2
3.8203125,4.344818547341106e-05,1.3156645136186682e-05,2.9062042542152114e-06,4.7342812088197065e-05,6.1333,6.2
3.82421875,4.880329706874181e-05,-3.422563994812023e-06,-1.467370754863822e-05,4.880329706874181e-05,6.1333,6.2
3.828125,5.1264484721141286e-05,-1.3673004876783479e-05,-1.710784918287946e-05,5.2238141374837764e-05,6.1333,6.2
3.83203125,5.369862635538251e-05,-2.4437320103761436e-05,-1.5160535875486474e-05,5.515911133592726e-05,6.1333,6.2
3.8359375,6.297541058365749e-05,-3.858238760051889e-05,-4.396454521400786e-05,5.369862635538251e-05,6.1333,6.2
3.83984375,6.589638054474698e-05,-4.883282848249035e-05,-4.688551517509736e-05,5.175131304798952e-05,6.1333,6.2
3.84375,6.638320887159522e-05,-6.008397203631655e-05,-6.44654269779508e-05,4.78296404150453e-05,6.1333,6.2
3.84765625,6.787073987029822e-05,-6.592591195849554e-05,-7.130806957198451e-05,4.4421842127107564e-05,6.1333,6.2
3.8515625,6.787073987029822e-05,-6.495225530479905e-05,-5.908326936446182e-05,4.831646874189354e-05,6.1333,6.2
3.85546875,7.273902313878071e-05,-6.887392793774328e-05,-0.00010741450381322966,4.7342812088197065e-05,6.1333,6.2
3.859375,7.663364975356669e-05,-0.00010154551787289241,-0.00011863860134889761,4.588232710765231e-05,6.1333,6.2
3.86328125,7.273902313878071e-05,-0.00011912542967574585,-0.00010057186121919592,5.077765639429302e-05,6.1333,6.2
3.8671875,7.17653664850842e-05,-0.00011179595875486388,-0.00010446648783398191,5.3211798028534276e-05,6.1333,6.2
3.87109375,7.56599930998702e-05,-0.00010251917452658893,-0.00011815177302204935,5.1264484721141286e-05,6.1333,6.2
3.875,8.055532238651094e-05,-0.00013719216980544755,-0.00012450758728923484,5.2238141374837764e-05,6.1333,6.2
3.87890625,8.642430832684814e-05,-0.00010936181712062264,-0.00012548124394293133,4.980399974059654e-05,6.1333,6.2
3.8828125,8.104215071335918e-05,-0.00010838816046692614,-0.00012694172892347607,4.980399974059654e-05,6.1333,6.2
3.88671875,7.127853815823596e-05,-0.00014306115574578475,-0.0001284022139040208,5.272496970168603e-05,6.1333,6.2
3.890625,7.17653664850842e-05,-0.00011276961540856038,-0.0001196122580025941,5.3211798028534276e-05,6.1333,6.2
3.89453125,7.663364975356669e-05,-8.253216710765248e-05,-0.00011912542967574585,4.980399974059654e-05,6.1333,6.2
3.8984375,7.663364975356669e-05,-6.495225530479905e-05,-0.00012499441561608307,4.636915543450055e-05,6.1333,6.2
3.90234375,6.981805317769122e-05,-6.836005359273679e-05,-9.911137623865118e-05,4.831646874189354e-05,6.1333,6.2
3.90625,6.589638054474698e-05,-4.4938201867704365e-05,-9.226873364461745e-05,4.880329706874181e-05,6.1333,6.2
3.91015625,6.687003719844349e-05,-5.664912773022057e-05,-0.00010790133214007789,4.636915543450055e-05,6.1333,6.2
3.9140625,6.297541058365749e-05,-6.203128534370955e-05,-8.74274963942932e-05,4.4421842127107564e-05,6.1333,6.2
3.91796875,5.613276798962377e-05,-1.662102085603121e-05,-5.0293313463035105e-05,4.7342812088197065e-05,6.1333,6.2
3.921875,5.2238141374837764e-05,-2.4437320103761436e-05,-2.687146173800268e-05,4.7342812088197065e-05,6.1333,6.2
3.92578125,4.880329706874181e-05,-5.616229940337233e-05,-4.101652923476013e-05,4.539549878080405e-05,6.1333,6.2
3.9296875,4.4421842127107564e-05,-4.4451373540856116e-05,-4.052970090791189e-05,4.4908670453955806e-05,6.1333,6.2
3.93359375,3.709237120622558e-05,-1.467370754863822e-05,-8.804721608300993e-06,4.3935013800259294e-05,6.1333,6.2
3.9375,3.514505789883259e-05,-8.31789328145274e-06,-1.1725691569390491e-05,3.952651284046684e-05,6.1333,6.2
3.94140625,3.4658229571984347e-05,4.7206261997396833e-07,-2.197613245136195e-05,3.806602785992208e-05,6.1333,6.2
3.9453125,3.4658229571984347e-05,3.87986090791172e-06,-2.1002475797665454e-05,3.709237120622558e-05,6.1333,6.2
3.94921875,3.0249728612191873e-05,5.367391906614699e-06,-3.422563994812023e-06,3.709237120622558e-05,6.1333,6.2
3.953125,2.4407788690012877e-05,1.3156645136186682e-05,2.830241530479887e-05,3.514505789883259e-05,6.1333,6.2
3.95703125,2.1946601037613403e-05,2.9276071958495364e-05,2.4894617016861133e-05,3.2224087937743094e-05,6.1333,6.2
3.9609375,2.294730370946813e-05,3.41714012451361e-05,4.7342812088197065e-05,3.073655693904011e-05,6.1333,6.2
3.96484375,2.294730370946813e-05,4.344818547341106e-05,6.589638054474698e-05,3.173725961089485e-05,6.1333,6.2
3.96875,1.902563107652391e-05,7.419950811932545e-05,5.175131304798952e-05,3.41714012451361e-05,6.1333,6.2
3.97265625,1.8051974422827397e-05,6.589638054474698e-05,2.294730370946813e-05,2.9762900285343617e-05,6.1333,6.2
3.9765625,1.8051974422827397e-05,4.78296404150453e-05,4.636915543450055e-05,2.5868273670557628e-05,6.1333,6.2
3.98046875,1.6591489442282663e-05,5.661959631647201e-05,6.981805317769122e-05,2.684193032425412e-05,6.1333,6.2
3.984375,1.9512459403372147e-05,6.443589556420224e-05,5.418545468223078e-05,2.635510199740588e-05,6.1333,6.2
3.98828125,2.0486116057068656e-05,7.079170983138771e-05,7.812118075226967e-05,2.7328758651102375e-05,6.1333,6.2
3.9921875,1.8051974422827397e-05,7.812118075226967e-05,7.812118075226967e-05,2.7328758651102375e-05,6.1333,6.2
3.99609375,1.8538802749675653e-05,9.716157753566786e-05,7.079170983138771e-05,2.4894617016861133e-05,6.1333,6.2
4.0,1.99992877302204e-05,7.371267979247721e-05,7.030488150453944e-05,2.5381445343709372e-05,6.1333,6.2
4.00390625,2.0972944383916895e-05,6.88443965239947e-05,7.56599930998702e-05,2.9276071958495364e-05,6.1333,6.2
4.0078125,2.0972944383916895e-05,8.739796498054465e-05,8.837162163424114e-05,3.368457291828784e-05,6.1333,6.2
4.01171875,2.145977271076515e-05,8.201580736705568e-05,9.570109255512312e-05,3.41714012451361e-05,6.1333,6.2
4.015625,2.0972944383916895e-05,9.031893494163415e-05,7.273902313878071e-05,3.2710916264591344e-05,6.1333,6.2
4.01953125,2.145977271076515e-05,9.910889084306086e-05,7.419950811932545e-05,3.2710916264591344e-05,6.1333,6.2
4.0234375,2.3434132036316382e-05,0.00011179347335927358,9.129259159533063e-05,3.368457291828784e-05,6.1333,6.2
4.02734375,1.99992877302204e-05,0.00012009660093385203,9.129259159533063e-05,3.368457291828784e-05,6.1333,6.2
4.03125,1.99992877302204e-05,0.00011863611595330729,8.78847933073929e-05,3.2224087937743094e-05,6.1333,6.2
4.03515625,1.8538802749675653e-05,0.00010741201841763933,9.76484058625161e-05,3.2224087937743094e-05,6.1333,6.2
4.0390625,1.3156645136186682e-05,8.837162163424114e-05,0.00010349034578469511,3.2224087937743094e-05,6.1333,6.2
4.04296875,1.3670519481193167e-05,7.763435242542144e-05,9.521426422827485e-05,3.2710916264591344e-05,6.1333,6.2
4.046875,1.3670519481193167e-05,7.614682142671845e-05,9.76484058625161e-05,3.41714012451361e-05,6.1333,6.2
4.05078125,1.4157347808041408e-05,7.468633644617369e-05,8.59374799999999e-05,3.4658229571984347e-05,6.1333,6.2
4.0546875,1.7565146095979158e-05,8.444994900129692e-05,8.934527828793764e-05,3.514505789883259e-05,6.1333,6.2
4.05859375,2.145977271076515e-05,8.104215071335918e-05,0.00010546470511024633,3.31977445914396e-05,6.1333,6.2
4.0625,2.294730370946813e-05,7.225219481193247e-05,7.56599930998702e-05,3.173725961089485e-05,6.1333,6.2
4.06640625,2.0486116057068656e-05,6.10280972762645e-05,6.589638054474698e-05,3.368457291828784e-05,6.1333,6.2
4.0703125,2.0972944383916895e-05,6.735686552529173e-05,7.17653664850842e-05,3.073655693904011e-05,6.1333,6.2
4.07421875,2.1946601037613403e-05,9.226624824902714e-05,7.714752409857317e-05,2.684193032425412e-05,6.1333,6.2
4.078125,2.684193032425412e-05,9.862206251621262e-05,9.323990490272361e-05,2.830241530479887e-05,6.1333,6.2
4.08203125,3.0249728612191873e-05,7.663364975356669e-05,8.055532238651094e-05,3.2224087937743094e-05,6.1333,6.2
4.0859375,2.9276071958495364e-05,6.933122485084297e-05,6.346223891050573e-05,2.9276071958495364e-05,6.1333,6.2
4.08984375,3.0249728612191873e-05,8.104215071335918e-05,7.322585146562895e-05,2.684193032425412e-05,6.1333,6.2
4.09375,2.9762900285343617e-05,8.983210661478588e-05,7.517316477302196e-05,2.684193032425412e-05,6.1333,6.2
4.09765625,3.4658229571984347e-05,8.88584499610894e-05,6.933122485084297e-05,2.635510199740588e-05,6.1333,6.2
4.1015625,3.368457291828784e-05,7.714752409857317e-05,8.347629234760043e-05,2.7328758651102375e-05,6.1333,6.2
4.10546875,2.9762900285343617e-05,7.419950811932545e-05,6.933122485084297e-05,2.2460475382619874e-05,6.1333,6.2
4.109375,3.122338526588837e-05,8.739796498054465e-05,5.759325297016852e-05,1.610466111543441e-05,6.1333,6.2
4.11328125,2.7328758651102375e-05,8.493677732814514e-05,6.835756819714646e-05,1.4157347808041408e-05,6.1333,6.2
4.1171875,2.1946601037613403e-05,7.56599930998702e-05,5.808008129701676e-05,1.5131004461737916e-05,6.1333,6.2
4.12109375,2.0972944383916895e-05,8.837162163424114e-05,4.880329706874181e-05,1.3156645136186682e-05,6.1333,6.2
4.125,2.4894617016861133e-05,9.95957191699091e-05,5.759325297016852e-05,1.3670519481193167e-05,6.1333,6.2
4.12890625,2.3434132036316382e-05,9.275307657587537e-05,6.3949067237354e-05,1.4644176134889662e-05,6.1333,6.2
4.1328125,2.3434132036316382e-05,5.467228300907902e-05,4.980399974059654e-05,1.0722503501945439e-05,6.1333,6.2
4.13671875,2.8789243631647122e-05,4.4421842127107564e-05,6.443589556420224e-05,1.1696160155641934e-05,6.1333,6.2
4.140625,2.830241530479887e-05,5.418545468223078e-05,8.201580736705568e-05,1.2182988482490188e-05,6.1333,6.2
4.14453125,2.7815586977950614e-05,6.005444062256799e-05,5.1264484721141286e-05,1.1696160155641934e-05,6.1333,6.2
4.1484375,2.7328758651102375e-05,5.418545468223078e-05,4.7342812088197065e-05,1.5131004461737916e-05,6.1333,6.2
4.15234375,2.3920960363164625e-05,5.467228300907902e-05,6.248858225680924e-05,1.8051974422827397e-05,6.1333,6.2
4.15625,2.3434132036316382e-05,5.3211798028534276e-05,4.78296404150453e-05,1.5617832788586155e-05,6.1333,6.2
4.16015625,2.684193032425412e-05,5.564593966277553e-05,5.0290828067444774e-05,1.0722503501945439e-05,6.1333,6.2
4.1640625,2.830241530479887e-05,6.200175392996099e-05,5.2238141374837764e-05,8.288361867704197e-06,6.1333,6.2
4.16796875,2.635510199740588e-05,5.515911133592726e-05,5.759325297016852e-05,1.3156645136186682e-05,6.1333,6.2
4.171875,2.3434132036316382e-05,6.200175392996099e-05,6.3949067237354e-05,1.5617832788586155e-05,6.1333,6.2
4.17578125,2.5868273670557628e-05,5.759325297016852e-05,6.346223891050573e-05,1.120933182879368e-05,6.1333,6.2
4.1796875,2.9762900285343617e-05,4.980399974059654e-05,5.3211798028534276e-05,1.3156645136186682e-05,6.1333,6.2
4.18359375,3.2224087937743094e-05,5.710642464332028e-05,4.831646874189354e-05,1.902563107652391e-05,6.1333,6.2
4.1875,3.0249728612191873e-05,5.3211798028534276e-05,5.710642464332028e-05,1.5131004461737916e-05,6.1333,6.2
4.19140625,2.7328758651102375e-05,4.880329706874181e-05,4.150087216601807e-05,7.801533540855943e-06,6.1333,6.2
4.1953125,2.5868273670557628e-05,3.9039684513618595e-05,4.247452881971455e-05,4.393735252918204e-06,6.1333,6.2
4.19921875,3.122338526588837e-05,4.247452881971455e-05,5.175131304798952e-05,3.3930325810634655e-06,6.1333,6.2
4.203125,3.4658229571984347e-05,3.514505789883259e-05,5.077765639429302e-05,4.393735252918204e-06,6.1333,6.2
4.20703125,3.368457291828784e-05,4.539549878080405e-05,3.757919953307385e-05,4.7206261997396833e-07,6.1333,6.2
4.2109375,3.2710916264591344e-05,4.880329706874181e-05,4.4421842127107564e-05,-9.884223605707803e-07,6.1333,6.2
4.21484375,2.9276071958495364e-05,4.150087216601807e-05,4.588232710765231e-05,-9.884223605707803e-07,6.1333,6.2
4.21875,3.122338526588837e-05,5.2238141374837764e-05,4.6855983761348795e-05,-6.8574083009080056e-06,6.1333,6.2
