timestamp,TP9,AF7,AF8,TP10,Valence,Arousal
0.0,-0.00014695433554131379,8.77173017624172e-06,3.220386545662624e-05,7.714596867017625e-05,7.0667,6.4
0.00390625,-0.00014939518296635385,4.684895000686658e-05,7.51932907301442e-05,7.177610433508813e-05,7.0667,6.4
0.0078125,-0.00017819718258182648,5.905318713206685e-05,7.177610433508813e-05,7.177610433508813e-05,7.0667,6.4
0.01171875,-0.00019577128404211488,7.372878227512018e-05,6.933525691004809e-05,6.539939043717099e-05,7.0667,6.4
0.015625,-0.0002558466412909132,6.640624000000002e-05,4.538444155184254e-05,7.128793485008013e-05,7.0667,6.4
0.01953125,-0.0003432594897001602,4.880162794689862e-05,2.6345831636530114e-05,6.787074845502406e-05,7.0667,6.4
0.0234375,-0.0004013516584161135,6.0029526102082876e-05,6.0029526102082876e-05,5.954135661707486e-05,7.0667,6.4
0.02734375,-0.0004550503017669947,7.372878227512018e-05,6.738257897001604e-05,6.0029526102082876e-05,7.0667,6.4
0.03125,-0.00046090833558709083,6.884708742504007e-05,3.3668373911650276e-05,5.368332279697873e-05,7.0667,6.4
0.03515625,-0.00042429562421149,4.9289797431906635e-05,7.763413815518427e-05,6.835891794003205e-05,7.0667,6.4
0.0390625,-0.0004404052172167544,4.831345846189061e-05,9.276739219043261e-05,7.90986466102083e-05,7.0667,6.4
0.04296875,-0.00047070223588006405,8.78856973403525e-05,8.83738668253605e-05,5.270698382696271e-05,7.0667,6.4
0.046875,-0.0005273298961409933,9.472007013046466e-05,0.00010594796828564891,4.0990916186770444e-05,7.0667,6.4
0.05078125,-0.0005449039976012818,8.886203631036852e-05,7.90986466102083e-05,5.319515331197072e-05,7.0667,6.4
0.0546875,-0.0005336760994460975,7.079976536507211e-05,6.295854301213094e-05,5.075430588693066e-05,7.0667,6.4
0.05859375,-0.0005380696248111696,3.890035326161609e-06,7.665779918516825e-05,4.34317636118105e-05,7.0667,6.4
0.0625,-0.0004892526763103684,3.46447128816663e-05,9.179105322041659e-05,6.198220404211491e-05,7.0667,6.4
0.06640625,-0.0004482159289768826,0.00011961671386587322,0.00010887698519569697,6.344671249713895e-05,7.0667,6.4
0.0703125,-0.0004413815561867704,8.251583300526438e-05,5.075430588693066e-05,4.196725515678646e-05,7.0667,6.4
0.07421875,-0.0004882763373403525,4.4896272066834534e-05,6.393488198214696e-05,4.9289797431906635e-05,7.0667,6.4
0.078125,-0.0005043859303456168,5.856501764705884e-05,8.83738668253605e-05,4.880162794689862e-05,7.0667,6.4
0.08203125,-0.0004589556576470588,8.642118888532846e-05,7.42169517601282e-05,3.8550068761730395e-05,7.0667,6.4
0.0859375,-0.00044577508155184246,8.398034146028841e-05,8.202766352025636e-05,4.880162794689862e-05,7.0667,6.4
0.08984375,-0.00037450233674067286,7.568146021515222e-05,5.1730644856946685e-05,3.952640773174641e-05,7.0667,6.4
0.09375,-0.0003256548776470588,0.00011082966313572902,8.73975278553445e-05,2.9274848546578178e-05,7.0667,6.4
0.09765625,-0.00031052162361181043,0.00010350712086060884,0.00012596291717097735,4.34317636118105e-05,7.0667,6.4
0.1015625,-0.0003119861320668345,8.30040024902724e-05,9.520823961547266e-05,5.026613640192266e-05,7.0667,6.4
0.10546875,-0.000291971183181506,7.128793485008013e-05,7.42169517601282e-05,4.831345846189061e-05,7.0667,6.4
0.109375,-0.0002270446416754406,1.902328936140995e-05,8.593301940032045e-05,3.1227526486610226e-05,7.0667,6.4
0.11328125,-0.00021630491300526434,6.738257897001604e-05,7.568146021515222e-05,3.90382382467384e-05,7.0667,6.4
0.1171875,-0.00018551972485694664,8.642118888532846e-05,6.689440948500802e-05,5.758867867704282e-05,7.0667,6.4
0.12109375,-0.00016941013185168226,7.714596867017625e-05,8.690935837033648e-05,3.952640773174641e-05,7.0667,6.4
0.125,-0.00012449853923094528,0.00014011983223620968,0.00010399529034561686,2.7322170606546137e-05,7.0667,6.4
0.12890625,-2.5857792666514058e-05,0.0001274274256260014,0.00012156939180590525,3.7573729791714366e-05,7.0667,6.4
0.1328125,2.913696356145588e-06,7.42169517601282e-05,7.51932907301442e-05,3.7085560306706354e-05,7.0667,6.4
0.13671875,-6.819182751201631e-06,7.958681609521631e-05,1.4141594511329842e-05,3.0739357001602215e-05,7.0667,6.4
0.140625,-3.9038368761730354e-05,6.393488198214696e-05,5.026613640192266e-05,3.7573729791714366e-05,7.0667,6.4
0.14453125,-4.2943724641794444e-05,4.1479085671778456e-05,0.0001010662734355688,5.270698382696271e-05,7.0667,6.4
0.1484375,-4.97780974319066e-05,6.884708742504007e-05,9.325556167544062e-05,5.417149228198674e-05,7.0667,6.4
0.15234375,-5.6612470222018745e-05,0.00013474996790112154,4.880162794689862e-05,3.7573729791714366e-05,7.0667,6.4
0.15625,-1.804708090638588e-05,0.00012010488335088121,5.8076848162050824e-05,2.6345831636530114e-05,7.0667,6.4
0.16015625,9.748069146257742e-06,4.050274670176243e-05,8.690935837033648e-05,1.951145884641796e-05,7.0667,6.4
0.1640625,2.5857662151522106e-05,3.171569597161824e-05,4.831345846189061e-05,3.318020442664227e-05,7.0667,6.4
0.16796875,1.9999628331425975e-05,6.10058650720989e-05,6.835891794003205e-05,4.880162794689862e-05,7.0667,6.4
0.171875,1.755878090638592e-05,9.862542601052873e-05,0.00010448345983062488,4.538444155184254e-05,7.0667,6.4
0.17578125,1.5117933481345863e-05,8.446851094529643e-05,9.472007013046466e-05,5.124247537193867e-05,7.0667,6.4
0.1796875,2.3904984211490058e-05,4.0990916186770444e-05,4.391993309681851e-05,5.124247537193867e-05,7.0667,6.4
0.18359375,6.10058650720989e-05,6.149403455710691e-05,2.878667906157017e-05,4.1479085671778456e-05,7.0667,6.4
0.1875,6.149403455710691e-05,7.47051212451362e-05,4.294359412680248e-05,2.488132318150608e-05,7.0667,6.4
0.19140625,4.391993309681851e-05,4.050274670176243e-05,7.372878227512018e-05,3.806189927672238e-05,7.0667,6.4
0.1953125,7.226427382009615e-05,6.149403455710691e-05,0.00010741247674067293,4.0990916186770444e-05,7.0667,6.4
0.19921875,0.00015232406936140994,0.00011522318850080111,4.684895000686658e-05,1.4629763996337851e-05,7.0667,6.4
0.203125,0.00015281223884641796,9.032654476539255e-05,5.514783125200276e-05,3.1227526486610226e-05,7.0667,6.4
0.20703125,0.00010838881571068896,4.440810258182652e-05,6.295854301213094e-05,4.0990916186770444e-05,7.0667,6.4
0.2109375,8.73975278553445e-05,4.977796691691464e-05,6.051769558709088e-05,3.806189927672238e-05,7.0667,6.4
0.21484375,2.1464136786450005e-05,3.952640773174641e-05,8.202766352025636e-05,4.391993309681851e-05,7.0667,6.4
0.21875,-1.121270811627373e-05,4.001457721675442e-05,4.9289797431906635e-05,3.806189927672238e-05,7.0667,6.4
0.22265625,5.842713266193654e-06,6.0029526102082876e-05,4.391993309681851e-05,3.610922133669034e-05,7.0667,6.4
0.2265625,-3.9038368761730354e-05,5.5636000737010774e-05,5.758867867704282e-05,4.4896272066834534e-05,7.0667,6.4
0.23046875,-5.758880919203477e-05,8.690935837033648e-05,7.324061279011216e-05,4.391993309681851e-05,7.0667,6.4
0.234375,-4.7825419491874556e-05,5.8076848162050824e-05,2.829850957656216e-05,3.0251187516594204e-05,7.0667,6.4
0.23828125,-2.3905114726482013e-05,4.196725515678646e-05,4.378204811169621e-06,2.3904984211490058e-05,7.0667,6.4
0.2421875,1.7070611421377907e-05,7.90986466102083e-05,6.738257897001604e-05,3.952640773174641e-05,7.0667,6.4
0.24609375,1.7070611421377907e-05,5.612417022201878e-05,7.568146021515222e-05,3.806189927672238e-05,7.0667,6.4
0.25,1.365342502632183e-05,4.977796691691464e-05,6.539939043717099e-05,2.488132318150608e-05,7.0667,6.4
0.25390625,9.748069146257742e-06,7.42169517601282e-05,6.491122095216298e-05,4.391993309681851e-05,7.0667,6.4
0.2578125,6.149403455710691e-05,2.0487797816433986e-05,2.0975967301441994e-05,5.1730644856946685e-05,7.0667,6.4
0.26171875,0.00013523813738612958,-1.5320553902477717e-08,-2.536962318150605e-05,3.318020442664227e-05,7.0667,6.4
0.265625,0.0001332854594460975,9.374373116044863e-05,3.8550068761730395e-05,3.7573729791714366e-05,7.0667,6.4
0.26953125,4.245542464179448e-05,8.398034146028841e-05,0.00010399529034561686,4.7337119491874584e-05,7.0667,6.4
0.2734375,-5.8076978677042786e-05,3.90382382467384e-05,0.00012108122232089725,4.1479085671778456e-05,7.0667,6.4
0.27734375,-8.300413300526435e-05,1.755878090638592e-05,6.491122095216298e-05,4.7825288976882595e-05,7.0667,6.4
0.28125,-7.665792970016021e-05,3.7085560306706354e-05,-7.795521721217652e-06,4.001457721675442e-05,7.0667,6.4
0.28515625,-4.733725000686654e-05,5.026613640192266e-05,4.245542464179448e-05,2.7810340091554148e-05,7.0667,6.4
0.2890625,-8.283691206225664e-06,1.2188916571297797e-05,8.30040024902724e-05,4.050274670176243e-05,7.0667,6.4
0.29296875,1.951145884641796e-05,7.03115958800641e-05,6.689440948500802e-05,4.977796691691464e-05,7.0667,6.4
0.296875,5.026613640192266e-05,5.270698382696271e-05,2.5857662151522106e-05,3.5132882366674316e-05,7.0667,6.4
0.30078125,4.245542464179448e-05,1.4491879011215552e-06,-1.5320553902477717e-08,3.562105185168232e-05,7.0667,6.4
0.3046875,4.050274670176243e-05,3.659739082169834e-05,1.2677086056305808e-05,2.7322170606546137e-05,7.0667,6.4
0.30859375,3.5132882366674316e-05,6.0029526102082876e-05,4.001457721675442e-05,1.902328936140995e-05,7.0667,6.4
0.3125,6.5887559922179e-05,7.275244330510416e-05,5.612417022201878e-05,3.952640773174641e-05,7.0667,6.4
0.31640625,0.0001332854594460975,4.5872611036850557e-05,2.1952306271458016e-05,4.391993309681851e-05,7.0667,6.4
0.3203125,0.00016159928957656217,1.8046950391393927e-05,-5.842843781185608e-06,2.7322170606546137e-05,7.0667,6.4
0.32421875,0.00017526803515678646,2.2440475756466028e-05,1.1212577601281776e-05,3.0739357001602215e-05,7.0667,6.4
0.328125,0.00014988322193636988,-6.3310132661936195e-06,4.5872611036850557e-05,4.831345846189061e-05,7.0667,6.4
0.33203125,0.0001508595609063859,3.3668373911650276e-05,4.245542464179448e-05,3.7085560306706354e-05,7.0667,6.4
0.3359375,0.00013963166275120166,2.1464136786450005e-05,-1.937487901121521e-06,2.7810340091554148e-05,7.0667,6.4
0.33984375,0.00011522318850080111,-2.536962318150605e-05,3.7573729791714366e-05,4.294359412680248e-05,7.0667,6.4
0.34375,0.00010204261240558482,4.001457721675442e-05,7.714596867017625e-05,4.7825288976882595e-05,7.0667,6.4
0.34765625,6.982342639505609e-05,4.34317636118105e-05,5.124247537193867e-05,2.976301803158619e-05,7.0667,6.4
0.3515625,2.0487797816433986e-05,2.2440475756466028e-05,2.913696356145588e-06,2.5857662151522106e-05,7.0667,6.4
0.35546875,-7.307352236209642e-06,5.66123397070268e-05,3.318020442664227e-05,3.952640773174641e-05,7.0667,6.4
0.359375,1.5117933481345863e-05,2.0487797816433986e-05,4.378204811169621e-06,2.6345831636530114e-05,7.0667,6.4
0.36328125,2.7322170606546137e-05,-2.3416945241474e-05,-5.319528382696267e-05,1.9999628331425975e-05,7.0667,6.4
0.3671875,3.46447128816663e-05,4.636078052185856e-05,1.4141594511329842e-05,3.90382382467384e-05,7.0667,6.4
0.37109375,7.861047712520029e-05,1.5606102966353874e-05,4.4896272066834534e-05,4.5872611036850557e-05,7.0667,6.4
0.375,0.0001274274256260014,-5.0266266916914606e-05,1.4141594511329842e-05,3.562105185168232e-05,7.0667,6.4
0.37890625,0.00015232406936140994,1.937357386129566e-06,1.0724408116273763e-05,2.6345831636530114e-05,7.0667,6.4
0.3828125,0.0001508595609063859,7.665779918516825e-05,3.46447128816663e-05,2.9274848546578178e-05,7.0667,6.4
0.38671875,0.00014256067966124974,8.251583300526438e-05,7.958681609521631e-05,3.220386545662624e-05,7.0667,6.4
0.390625,0.00017624437412680247,1.4491879011215552e-06,3.318020442664227e-05,4.1479085671778456e-05,7.0667,6.4
0.39453125,0.00018796044176699477,2.488132318150608e-05,-4.9289927946898583e-05,2.976301803158619e-05,7.0667,6.4
0.3984375,0.00021728112146028838,2.6345831636530114e-05,9.748069146257742e-06,1.951145884641796e-05,7.0667,6.4
0.40234375,0.0002709797648111696,-1.804708090638588e-05,4.4896272066834534e-05,3.610922133669034e-05,7.0667,6.4
0.40625,0.00024022508725566493,1.5606102966353874e-05,3.0739357001602215e-05,4.4896272066834534e-05,7.0667,6.4
0.41015625,0.0002202101383703365,5.856501764705884e-05,8.056315506523234e-05,5.270698382696271e-05,7.0667,6.4
0.4140625,0.00031735586588693064,5.758867867704282e-05,5.368332279697873e-05,4.7337119491874584e-05,7.0667,6.4
0.41796875,0.0004086740701762417,8.251583300526438e-05,4.7284893110553325e-07,2.488132318150608e-05,7.0667,6.4
0.421875,0.0003818247485008011,2.2440475756466028e-05,-3.562118236667428e-05,2.9274848546578178e-05,7.0667,6.4
0.42578125,0.0003823129179858091,-7.128806536507208e-05,3.890035326161609e-06,5.124247537193867e-05,7.0667,6.4
0.4296875,0.00039109996871595327,-2.8298640091554114e-05,4.880162794689862e-05,3.7085560306706354e-05,7.0667,6.4
0.43359375,0.0003735258672556649,5.368332279697873e-05,5.856501764705884e-05,2.292864524147404e-05,7.0667,6.4
0.4375,0.00035253457940032047,6.933525691004809e-05,3.659739082169834e-05,3.7085560306706354e-05,7.0667,6.4
0.44140625,0.0002953882390615702,3.952640773174641e-05,-1.5118063996337817e-05,4.0990916186770444e-05,7.0667,6.4
0.4453125,0.0002919710526665141,-3.073948751659417e-05,2.976301803158619e-05,3.8550068761730395e-05,7.0667,6.4
0.44921875,0.00033151278095216297,-6.0029656617074824e-05,4.977796691691464e-05,4.7825288976882595e-05,7.0667,6.4
0.453125,0.0003432593591851682,1.365342502632183e-05,3.890035326161609e-06,4.050274670176243e-05,7.0667,6.4
0.45703125,0.0004140439345113298,5.1730644856946685e-05,5.842713266193654e-06,2.829850957656216e-05,7.0667,6.4
0.4609375,0.00045505017125200273,6.884708742504007e-05,8.886203631036852e-05,5.8076848162050824e-05,7.0667,6.4
0.46484375,0.00045505017125200273,5.612417022201878e-05,8.446851094529643e-05,5.465966176699475e-05,7.0667,6.4
0.46875,0.00043210620545662624,-1.937487901121521e-06,9.748069146257742e-06,2.5857662151522106e-05,7.0667,6.4
0.47265625,0.0004267363411215381,-1.609440296635384e-05,-2.683413163653008e-05,2.976301803158619e-05,7.0667,6.4
0.4765625,0.00044138142567177845,-2.732230112153809e-05,-7.616976021515219e-05,1.8535119876401938e-05,7.0667,6.4
0.48046875,0.0004199019683314259,-1.9023419876401904e-05,-3.855019927672234e-05,2.3416814726482047e-05,7.0667,6.4
0.484375,0.0003427711897001602,-2.146426730144196e-05,7.177610433508813e-05,6.295854301213094e-05,7.0667,6.4
0.48828125,0.0003144268489768826,1.6094272451361885e-05,9.764908704051272e-05,6.051769558709088e-05,7.0667,6.4
0.4921875,0.0003564399352803845,7.568146021515222e-05,3.3668373911650276e-05,2.7322170606546137e-05,7.0667,6.4
0.49609375,0.00031882037434195466,6.393488198214696e-05,-8.283691206225664e-06,1.2188916571297797e-05,7.0667,6.4
0.5,0.0002670744089311055,-1.937487901121521e-06,-5.710063970702676e-05,2.5369492666514095e-05,7.0667,6.4
0.50390625,0.0003012462728816663,-4.1479216186770404e-05,1.4141594511329842e-05,3.7573729791714366e-05,7.0667,6.4
0.5078125,0.00030515162876173043,-3.890165841153565e-06,8.446851094529643e-05,3.7573729791714366e-05,7.0667,6.4
0.51171875,0.00027342061223620967,3.220386545662624e-05,2.5857662151522106e-05,3.8550068761730395e-05,7.0667,6.4
0.515625,0.00026463356150606545,4.34317636118105e-05,-1.3165386056305774e-05,3.46447128816663e-05,7.0667,6.4
0.51953125,0.00024510678210574506,3.269203494163426e-05,9.610184161135442e-07,3.1227526486610226e-05,7.0667,6.4
0.5234375,0.000199188339922179,-2.195243678644997e-05,-1.072453863126572e-05,3.90382382467384e-05,7.0667,6.4
0.52734375,0.00016648098442664225,-9.748199661249696e-06,2.829850957656216e-05,3.806189927672238e-05,7.0667,6.4
0.53125,0.00012059305283588923,-7.307352236209642e-06,3.562105185168232e-05,2.2440475756466028e-05,7.0667,6.4
0.53515625,7.03115958800641e-05,-4.3783353261615755e-06,-4.733725000686654e-05,1.0236238631265752e-05,7.0667,6.4
0.5390625,4.7825288976882595e-05,4.866374296177632e-06,-2.3416945241474e-05,2.6834001121538125e-05,7.0667,6.4
0.54296875,3.318020442664227e-05,-1.44931841611351e-06,3.0251187516594204e-05,3.7573729791714366e-05,7.0667,6.4
0.546875,4.1479085671778456e-05,4.684895000686658e-05,2.0487797816433986e-05,3.5132882366674316e-05,7.0667,6.4
0.55078125,2.6834001121538125e-05,2.878667906157017e-05,2.1952306271458016e-05,3.562105185168232e-05,7.0667,6.4
0.5546875,6.330882751201665e-06,-4.866504811169587e-06,-4.72979446097488e-07,1.1700747086289786e-05,7.0667,6.4
0.55859375,4.440810258182652e-05,2.0975967301441994e-05,8.283560691233709e-06,2.829850957656216e-05,7.0667,6.4
0.5625,4.001457721675442e-05,3.952640773174641e-05,5.1730644856946685e-05,5.319515331197072e-05,7.0667,6.4
0.56640625,4.7284893110553325e-07,1.4629763996337851e-05,5.075430588693066e-05,5.417149228198674e-05,7.0667,6.4
0.5703125,-8.283691206225664e-06,-2.4393284211490024e-05,4.7284893110553325e-07,4.391993309681851e-05,7.0667,6.4
0.57421875,-2.3905114726482013e-05,-3.073948751659417e-05,6.819052236209676e-06,5.075430588693066e-05,7.0667,6.4
0.578125,-3.1715826486610186e-05,-1.951158936140992e-05,1.1700747086289786e-05,5.8076848162050824e-05,7.0667,6.4
0.58203125,-6.34468430121309e-05,-5.0266266916914606e-05,-4.09910467017624e-05,4.4896272066834534e-05,7.0667,6.4
0.5859375,-5.6612470222018745e-05,-4.392006361181047e-05,-4.880175846189058e-05,2.3416814726482047e-05,7.0667,6.4
0.58984375,-7.519342124513615e-05,-2.536962318150605e-05,-4.2455555156786426e-05,2.829850957656216e-05,7.0667,6.4
0.59375,-0.0001479306745113298,-5.954148713206682e-05,-5.842843781185608e-06,6.344671249713895e-05,7.0667,6.4
0.59765625,-0.0001645284370016022,-8.771860691233675e-06,2.0975967301441994e-05,5.8076848162050824e-05,7.0667,6.4
0.6015625,-0.00018307887743190658,4.378204811169621e-06,-2.146426730144196e-05,4.977796691691464e-05,7.0667,6.4
0.60546875,-0.00020800603176012816,-4.684908052185853e-05,-4.392006361181047e-05,5.612417022201878e-05,7.0667,6.4
0.609375,-0.00020751786227512012,-5.90533176470588e-05,-5.6612470222018745e-05,3.90382382467384e-05,7.0667,6.4
0.61328125,-0.00020410067588006408,-4.9289927946898583e-05,-1.609440296635384e-05,2.5857662151522106e-05,7.0667,6.4
0.6171875,-0.0002372962008606088,-8.446864146028837e-05,-4.09910467017624e-05,3.0739357001602215e-05,7.0667,6.4
0.62109375,-0.00024022521777065687,-8.300413300526435e-05,-7.324074330510412e-05,2.1464136786450005e-05,7.0667,6.4
0.625,-0.00021532857403524833,-3.757386030670632e-05,-4.489640258182648e-05,1.9999628331425975e-05,7.0667,6.4
0.62890625,-0.00021825759094529638,-4.53845720668345e-05,-3.890165841153565e-06,2.292864524147404e-05,7.0667,6.4
0.6328125,-0.00021044687918516823,-4.3431894126802455e-05,-5.514796176699472e-05,-5.842843781185608e-06,7.0667,6.4
0.63671875,-0.00018698423331197067,-1.999975884641793e-05,-0.0001161996579858091,-1.609440296635384e-05,7.0667,6.4
0.640625,-0.00018893691125200274,-4.1479216186770404e-05,-5.465979228198671e-05,-8.283691206225664e-06,7.0667,6.4
0.64453125,-0.00018600789434195466,-6.7870878970016e-05,-2.683413163653008e-05,-1.5118063996337817e-05,7.0667,6.4
0.6484375,-0.00017624450464179443,-4.5872741551842505e-05,-4.3431894126802455e-05,-2.097609781643395e-05,7.0667,6.4
0.65234375,-0.00014939518296635385,-7.307352236209642e-06,-2.8786809576562122e-05,-2.2928775756465994e-05,7.0667,6.4
0.65625,-0.00012938023408102538,-1.121270811627373e-05,-2.097609781643395e-05,-2.2928775756465994e-05,7.0667,6.4
0.66015625,-0.00011766416644083312,-3.65975213366903e-05,-4.9289927946898583e-05,-2.3416945241474e-05,7.0667,6.4
0.6640625,-0.0001030190818905928,-1.5118063996337817e-05,-6.1005995587090846e-05,-3.9526538246738366e-05,7.0667,6.4
0.66796875,-9.667287858548866e-05,-1.9023419876401904e-05,-7.616976021515219e-05,-4.733725000686654e-05,7.0667,6.4
0.671875,-9.960189549553672e-05,-2.5857792666514058e-05,-4.684908052185853e-05,-3.562118236667428e-05,7.0667,6.4
0.67578125,-9.764921755550467e-05,1.3165255541313818e-05,-9.61148931105499e-07,-4.09910467017624e-05,7.0667,6.4
0.6796875,-8.54449804303044e-05,3.46447128816663e-05,4.866374296177632e-06,-3.855019927672234e-05,7.0667,6.4
0.68359375,-0.00011278247159075301,-1.170087760128174e-05,4.866374296177632e-06,-1.2189047086289752e-05,7.0667,6.4
0.6875,-0.00011912867489585715,-1.5118063996337817e-05,1.7070611421377907e-05,-2.8786809576562122e-05,7.0667,6.4
0.69140625,-5.563613125200272e-05,7.03115958800641e-05,5.354543781185643e-06,-6.0029656617074824e-05,7.0667,6.4
0.6953125,-2.3416945241474e-05,7.372878227512018e-05,-1.560623348134583e-05,-5.221894485694665e-05,7.0667,6.4
0.69921875,-4.831358897688256e-05,4.294359412680248e-05,-4.866504811169587e-06,-3.464484339665826e-05,7.0667,6.4
0.703125,-5.270711434195466e-05,-1.7070741936369862e-05,-3.318033494163422e-05,-3.22039959716182e-05,7.0667,6.4
0.70703125,-2.7810470606546103e-05,-1.8535250391393893e-05,-4.3431894126802455e-05,-4.3431894126802455e-05,7.0667,6.4
0.7109375,-1.121270811627373e-05,7.177610433508813e-05,1.0724408116273763e-05,-5.0266266916914606e-05,7.0667,6.4
0.71484375,-1.999975884641793e-05,8.007498558022432e-05,1.365342502632183e-05,-4.489640258182648e-05,7.0667,6.4
0.71875,-5.4171622796978696e-05,3.562105185168232e-05,1.8046950391393927e-05,-2.2440606271457983e-05,7.0667,6.4
0.72265625,-6.247050404211488e-05,-2.097609781643395e-05,1.365342502632183e-05,-2.0487928331425938e-05,7.0667,6.4
0.7265625,-2.9274979061570133e-05,2.3416814726482047e-05,4.538444155184254e-05,-3.1715826486610186e-05,7.0667,6.4
0.73046875,-2.488145369649804e-05,7.763413815518427e-05,6.539939043717099e-05,-3.562118236667428e-05,7.0667,6.4
0.734375,-2.0487928331425938e-05,7.714596867017625e-05,-1.3653555541313785e-05,-3.757386030670632e-05,7.0667,6.4
0.73828125,-8.771860691233675e-06,3.90382382467384e-05,-7.795521721217652e-06,-2.634596215152207e-05,7.0667,6.4
0.7421875,-4.866504811169587e-06,2.878667906157017e-05,1.6094272451361885e-05,-2.634596215152207e-05,7.0667,6.4
0.74609375,1.2677086056305808e-05,1.902328936140995e-05,-5.563613125200272e-05,-3.366850442664224e-05,7.0667,6.4
0.75,-1.5118063996337817e-05,3.0251187516594204e-05,-9.748199661249696e-06,-3.122765700160218e-05,7.0667,6.4
0.75390625,-5.842843781185608e-06,5.1730644856946685e-05,3.8550068761730395e-05,-2.634596215152207e-05,7.0667,6.4
0.7578125,1.4491879011215552e-06,-5.842843781185608e-06,2.3904984211490058e-05,-1.999975884641793e-05,7.0667,6.4
0.76171875,-6.3310132661936195e-06,4.391993309681851e-05,3.0251187516594204e-05,-2.5857792666514058e-05,7.0667,6.4
0.765625,1.365342502632183e-05,3.806189927672238e-05,2.1464136786450005e-05,-3.65975213366903e-05,7.0667,6.4
0.76953125,9.748069146257742e-06,4.196725515678646e-05,4.977796691691464e-05,-1.658257245136185e-05,7.0667,6.4
0.7734375,3.806189927672238e-05,3.90382382467384e-05,3.220386545662624e-05,-1.5118063996337817e-05,7.0667,6.4
0.77734375,4.440810258182652e-05,-3.708569082169831e-05,-1.999975884641793e-05,-2.3905114726482013e-05,7.0667,6.4
0.78125,5.368332279697873e-05,1.0724408116273763e-05,1.8535119876401938e-05,-1.609440296635384e-05,7.0667,6.4
0.78515625,0.00011473501901579311,3.318020442664227e-05,2.976301803158619e-05,-1.7070741936369862e-05,7.0667,6.4
0.7890625,0.00012449840871595332,-2.2928775756465994e-05,-1.5118063996337817e-05,-9.260030176241686e-06,7.0667,6.4
0.79296875,0.00010838881571068896,-3.9526538246738366e-05,-9.748199661249696e-06,-8.283691206225664e-06,7.0667,6.4
0.796875,0.00012693925614099338,2.488132318150608e-05,1.951145884641796e-05,-1.609440296635384e-05,7.0667,6.4
0.80078125,0.0001459778660563058,5.66123397070268e-05,3.610922133669034e-05,4.7284893110553325e-07,7.0667,6.4
0.8046875,0.0001240102392309453,1.902328936140995e-05,5.514783125200276e-05,5.842713266193654e-06,7.0667,6.4
0.80859375,0.00013865532378118563,8.283560691233709e-06,5.2218814341954696e-05,-1.5320553902477717e-08,7.0667,6.4
0.8125,0.0001415843406912337,3.7085560306706354e-05,7.47051212451362e-05,7.795391206225697e-06,7.0667,6.4
0.81640625,0.0001274274256260014,2.878667906157017e-05,2.488132318150608e-05,-1.3653555541313785e-05,7.0667,6.4
0.8203125,0.0001313327815060655,6.884708742504007e-05,4.866374296177632e-06,-1.4629894511329806e-05,7.0667,6.4
0.82421875,0.00011180600210574503,0.00010545979880064089,7.90986466102083e-05,1.2677086056305808e-05,7.0667,6.4
0.828125,9.130288373540858e-05,0.0001015544429205768,0.00011571135798580912,1.7070611421377907e-05,7.0667,6.4
0.83203125,6.344671249713895e-05,0.0001010662734355688,0.00011668769695582514,1.6582441936369896e-05,7.0667,6.4
0.8359375,5.354543781185643e-06,7.03115958800641e-05,0.00011961671386587322,1.365342502632183e-05,7.0667,6.4
0.83984375,-1.9023419876401904e-05,9.179105322041659e-05,0.00011131783262073704,1.1212577601281776e-05,7.0667,6.4
0.84375,-3.122765700160218e-05,0.00010448345983062488,6.539939043717099e-05,6.330882751201665e-06,7.0667,6.4
0.84765625,-4.636091103685052e-05,8.056315506523234e-05,5.8076848162050824e-05,-2.425657386129532e-06,7.0667,6.4
0.8515625,-7.031172639505606e-05,0.00010448345983062488,0.00011424684953078509,3.401865841153599e-06,7.0667,6.4
0.85546875,-0.0001079007767406729,0.00010301895137560084,0.00013621447635614556,2.1464136786450005e-05,7.0667,6.4
0.859375,-0.0001166878274708171,0.00013230912047608147,0.00012889193408102543,2.6345831636530114e-05,7.0667,6.4
0.86328125,-0.00013523826790112152,0.00012205756129091327,0.00010399529034561686,1.9999628331425975e-05,7.0667,6.4
0.8671875,-0.0001347500984161135,8.83738668253605e-05,7.763413815518427e-05,-7.795521721217652e-06,7.0667,6.4
0.87109375,-0.0001664811149416342,7.763413815518427e-05,8.642118888532846e-05,-9.260030176241686e-06,7.0667,6.4
0.875,-0.00019381860610208284,0.00010008993446555277,0.00011864037489585719,1.4629763996337851e-05,7.0667,6.4
0.87890625,-0.00016306392854657814,0.0001332854594460975,0.00015769393369649808,3.806189927672238e-05,7.0667,6.4
0.8828125,-0.0001786853520668345,0.00017233901824673838,0.00017966156052185857,3.659739082169834e-05,7.0667,6.4
0.88671875,-0.00019772396198214693,0.00017087450979171435,0.00016111112009155413,2.0487797816433986e-05,7.0667,6.4
0.890625,-0.00020410067588006408,0.00012596291717097735,9.71609175555047e-05,9.259899661249731e-06,7.0667,6.4
0.89453125,-0.0002060533538200961,6.247037352712293e-05,7.90986466102083e-05,3.890035326161609e-06,7.0667,6.4
0.8984375,-0.0002329026754955367,6.149403455710691e-05,8.056315506523234e-05,1.5117933481345863e-05,7.0667,6.4
0.90234375,-0.0002275328111604486,0.00014207251017624172,9.862542601052873e-05,2.439315369649807e-05,7.0667,6.4
0.90625,-0.00021825759094529638,0.00012254573077592128,0.00011668769695582514,2.0975967301441994e-05,7.0667,6.4
0.91015625,-0.0002509649464408331,0.00011131783262073704,0.00012645108665598537,2.488132318150608e-05,7.0667,6.4
0.9140625,-0.000247059590560769,0.0001274274256260014,0.00011180600210574503,1.4629763996337851e-05,7.0667,6.4
0.91796875,-0.00023876070931563284,0.00011815220541084917,9.179105322041659e-05,1.1700747086289786e-05,7.0667,6.4
0.921875,-0.0002280209806454566,0.00013182095099107348,0.00011668769695582514,1.902328936140995e-05,7.0667,6.4
0.92578125,-0.0002319263365255207,9.130288373540858e-05,0.0001240102392309453,2.6345831636530114e-05,7.0667,6.4
0.9296875,-0.00023827253983062485,9.61845785854887e-05,0.00012938010356603342,3.7085560306706354e-05,7.0667,6.4
0.93359375,-0.00021044687918516823,0.00011278234107576106,0.00012352206974593728,3.1227526486610226e-05,7.0667,6.4
0.9375,-0.00021386406558022427,0.00010692430725566493,0.00010350712086060884,1.4141594511329842e-05,7.0667,6.4
0.94140625,-0.00020995870970016018,0.00013230912047608147,0.00010838881571068896,1.755878090638592e-05,7.0667,6.4
0.9453125,-0.00022265111631036846,0.00011424684953078509,0.00014744237451132981,2.878667906157017e-05,7.0667,6.4
0.94921875,-0.00023339084498054472,3.5132882366674316e-05,0.00013621447635614556,3.0251187516594204e-05,7.0667,6.4
0.953125,-0.00021776942146028836,9.960176498054477e-05,0.00010253078189059284,2.5857662151522106e-05,7.0667,6.4
0.95703125,-0.00023876070931563284,0.00013767898481116962,0.00010692430725566493,1.7070611421377907e-05,7.0667,6.4
0.9609375,-0.00023680803137560082,0.00010741247674067293,9.813725652552073e-05,2.488132318150608e-05,7.0667,6.4
0.96484375,-0.00023436718395056076,9.764908704051272e-05,7.128793485008013e-05,2.3904984211490058e-05,7.0667,6.4
0.96875,-0.00024022521777065687,9.081471425040057e-05,9.130288373540858e-05,2.2440475756466028e-05,7.0667,6.4
0.97265625,-0.00021191138764019225,0.00014207251017624172,0.0001371908153261616,3.562105185168232e-05,7.0667,6.4
0.9765625,-0.00024413057365072096,0.00011864037489585719,0.00012938010356603342,2.829850957656216e-05,7.0667,6.4
0.98046875,-0.00026072833614099335,3.269203494163426e-05,0.00011473501901579311,2.7810340091554148e-05,7.0667,6.4
0.984375,-0.0002324145060105287,8.202766352025636e-05,0.00013767898481116962,4.294359412680248e-05,7.0667,6.4
0.98828125,-0.00023827253983062485,0.00011571135798580912,0.00014060800172121767,3.318020442664227e-05,7.0667,6.4
0.9921875,-0.0002548703023208972,9.813725652552073e-05,0.00010350712086060884,2.292864524147404e-05,7.0667,6.4
0.99609375,-0.0002621928445960174,5.758867867704282e-05,6.10058650720989e-05,2.488132318150608e-05,7.0667,6.4
1.0,-0.0002787906070862897,-3.890165841153565e-06,5.368332279697873e-05,2.5857662151522106e-05,7.0667,6.4
1.00390625,-0.00026756270893110544,4.4896272066834534e-05,8.398034146028841e-05,3.46447128816663e-05,7.0667,6.4
1.0078125,-0.0002524294548958571,7.275244330510416e-05,6.539939043717099e-05,3.952640773174641e-05,7.0667,6.4
1.01171875,-0.00027781426811627374,4.7825288976882595e-05,8.77173017624172e-06,2.6345831636530114e-05,7.0667,6.4
1.015625,-0.00027976694605630576,5.514783125200276e-05,-7.795521721217652e-06,2.3904984211490058e-05,7.0667,6.4
1.01953125,-0.0002992937254566262,3.562105185168232e-05,-3.318033494163422e-05,3.659739082169834e-05,7.0667,6.4
1.0234375,-0.0003295602335271229,3.401865841153599e-06,-2.5857792666514058e-05,3.5132882366674316e-05,7.0667,6.4
1.02734375,-0.00029441203060654613,-1.3653555541313785e-05,-4.866504811169587e-06,3.0739357001602215e-05,7.0667,6.4
1.03125,-0.000289530335756466,-1.4141725026321795e-05,-4.196738567177842e-05,1.5606102966353874e-05,7.0667,6.4
1.03515625,-0.00031052162361181043,4.196725515678646e-05,-4.684908052185853e-05,8.77173017624172e-06,7.0667,6.4
1.0390625,-0.00031589148794689855,6.933525691004809e-05,-1.5320553902477717e-08,2.488132318150608e-05,7.0667,6.4
1.04296875,-0.0002963647085465781,6.640624000000002e-05,1.0724408116273763e-05,2.5369492666514095e-05,7.0667,6.4
1.046875,-0.0002812314545113298,6.835891794003205e-05,3.952640773174641e-05,4.245542464179448e-05,7.0667,6.4
1.05078125,-0.00028904216627145796,8.283560691233709e-06,-1.3165386056305774e-05,4.4896272066834534e-05,7.0667,6.4
1.0546875,-0.0002504767769558251,2.3904984211490058e-05,-1.8535250391393893e-05,1.6582441936369896e-05,7.0667,6.4
1.05859375,-0.0002509649464408331,8.78856973403525e-05,2.9274848546578178e-05,1.7070611421377907e-05,7.0667,6.4
1.0625,-0.0002582874887159533,4.880162794689862e-05,7.795391206225697e-06,1.902328936140995e-05,7.0667,6.4
1.06640625,-0.00021776942146028836,-1.4141725026321795e-05,9.259899661249731e-06,2.1464136786450005e-05,7.0667,6.4
1.0703125,-0.00020507701485008008,-6.3310132661936195e-06,1.9999628331425975e-05,1.9999628331425975e-05,7.0667,6.4
1.07421875,-0.0001923540976470588,4.7825288976882595e-05,7.795391206225697e-06,2.4255268711375773e-06,7.0667,6.4
1.078125,-0.00020214799794003203,5.954135661707486e-05,3.659739082169834e-05,9.748069146257742e-06,7.0667,6.4
1.08203125,-0.00021239955712520025,4.1479085671778456e-05,6.640624000000002e-05,2.7810340091554148e-05,7.0667,6.4
1.0859375,-0.00021044687918516823,1.951145884641796e-05,5.514783125200276e-05,2.0487797816433986e-05,7.0667,6.4
1.08984375,-0.00019333043661707482,4.636078052185856e-05,8.983837528038453e-05,9.748069146257742e-06,7.0667,6.4
1.09375,-0.0001879605722819867,7.372878227512018e-05,0.00013377362893110555,1.5606102966353874e-05,7.0667,6.4
1.09765625,-0.00018698423331197067,9.520823961547266e-05,7.324061279011216e-05,1.4629763996337851e-05,7.0667,6.4
1.1015625,-0.0001791735215518425,8.153949403524835e-05,4.7825288976882595e-05,1.1700747086289786e-05,7.0667,6.4
1.10546875,-0.0001874724027969787,4.5872611036850557e-05,9.179105322041659e-05,2.3416814726482047e-05,7.0667,6.4
1.109375,-0.00019918847043717095,2.7322170606546137e-05,6.787074845502406e-05,2.292864524147404e-05,7.0667,6.4
1.11328125,-0.00020263616742504002,1.902328936140995e-05,4.977796691691464e-05,1.937357386129566e-06,7.0667,6.4
1.1171875,-0.00020019531999999999,-2.425657386129532e-06,3.269203494163426e-05,-3.890165841153565e-06,7.0667,6.4
1.12109375,-0.00017136280979171433,1.9999628331425975e-05,1.3165255541313818e-05,1.2188916571297797e-05,7.0667,6.4
1.125,-0.00016599294545662622,7.03115958800641e-05,3.8550068761730395e-05,1.1212577601281776e-05,7.0667,6.4
1.12890625,-0.0001738036572167544,8.446851094529643e-05,0.00010057810395056078,1.5606102966353874e-05,7.0667,6.4
1.1328125,-0.00018307887743190658,7.568146021515222e-05,0.00013035644253604946,2.5857662151522106e-05,7.0667,6.4
1.13671875,-0.00020214799794003203,-1.44931841611351e-06,6.295854301213094e-05,1.9999628331425975e-05,7.0667,6.4
1.140625,-0.00017722084361181047,-2.7810470606546103e-05,4.196725515678646e-05,1.2677086056305808e-05,7.0667,6.4
1.14453125,-0.00016062308112153807,2.0975967301441994e-05,0.0001015544429205768,1.755878090638592e-05,7.0667,6.4
1.1484375,-0.00015769406421149002,2.488132318150608e-05,5.2218814341954696e-05,1.8046950391393927e-05,7.0667,6.4
1.15234375,-0.00017673267412680245,1.951145884641796e-05,-4.72979446097488e-07,1.7070611421377907e-05,7.0667,6.4
1.15625,-0.00017087464030670634,2.2440475756466028e-05,4.440810258182652e-05,1.7070611421377907e-05,7.0667,6.4
1.16015625,-0.00011864050541084913,4.9289797431906635e-05,3.659739082169834e-05,1.0236238631265752e-05,7.0667,6.4
1.1640625,-0.00010399542086060881,-2.425657386129532e-06,3.318020442664227e-05,1.3165255541313818e-05,7.0667,6.4
1.16796875,-0.00011327064107576103,-4.001470773174638e-05,5.758867867704282e-05,2.1464136786450005e-05,7.0667,6.4
1.171875,-0.00012156952232089721,4.050274670176243e-05,8.105132455024035e-05,2.1464136786450005e-05,7.0667,6.4
1.17578125,-0.00011424698004577704,5.8076848162050824e-05,8.642118888532846e-05,2.0487797816433986e-05,7.0667,6.4
1.1796875,-9.47202006454566e-05,1.8535119876401938e-05,5.2218814341954696e-05,1.1700747086289786e-05,7.0667,6.4
1.18359375,-7.958694661020826e-05,6.819052236209676e-06,5.612417022201878e-05,1.1700747086289786e-05,7.0667,6.4
1.1875,-7.22644043350881e-05,4.245542464179448e-05,9.667274807049669e-05,2.3416814726482047e-05,7.0667,6.4
1.19140625,-8.98385057953765e-05,6.884708742504007e-05,6.539939043717099e-05,1.6094272451361885e-05,7.0667,6.4
1.1953125,-8.690948888532842e-05,4.196725515678646e-05,8.77173017624172e-06,1.2188916571297797e-05,7.0667,6.4
1.19921875,-7.275257382009612e-05,7.307221721217687e-06,-2.425657386129532e-06,2.1464136786450005e-05,7.0667,6.4
1.203125,-4.440823309681848e-05,6.819052236209676e-06,2.2440475756466028e-05,1.365342502632183e-05,7.0667,6.4
1.20703125,-3.562118236667428e-05,-3.122765700160218e-05,4.0990916186770444e-05,1.1212577601281776e-05,7.0667,6.4
1.2109375,-5.85651481620508e-05,-2.425657386129532e-06,7.42169517601282e-05,2.3904984211490058e-05,7.0667,6.4
1.21484375,-2.3905114726482013e-05,8.056315506523234e-05,9.423190064545664e-05,2.5369492666514095e-05,7.0667,6.4
1.21875,-5.842843781185608e-06,6.884708742504007e-05,6.689440948500802e-05,2.3904984211490058e-05,7.0667,6.4
1.22265625,-7.795521721217652e-06,6.982342639505609e-05,6.10058650720989e-05,2.2440475756466028e-05,7.0667,6.4
1.2265625,-9.260030176241686e-06,5.71005091920348e-05,6.539939043717099e-05,2.1464136786450005e-05,7.0667,6.4
1.23046875,-1.072453863126572e-05,1.5606102966353874e-05,6.051769558709088e-05,2.488132318150608e-05,7.0667,6.4
1.234375,5.842713266193654e-06,-2.425657386129532e-06,6.198220404211491e-05,2.1952306271458016e-05,7.0667,6.4
1.23828125,1.1212577601281776e-05,-3.22039959716182e-05,4.0990916186770444e-05,1.7070611421377907e-05,7.0667,6.4
1.2421875,2.5369492666514095e-05,3.7573729791714366e-05,4.831345846189061e-05,1.1700747086289786e-05,7.0667,6.4
1.24609375,1.4141594511329842e-05,8.690935837033648e-05,5.612417022201878e-05,1.3165255541313818e-05,7.0667,6.4
1.25,-4.72979446097488e-07,3.318020442664227e-05,3.220386545662624e-05,1.5606102966353874e-05,7.0667,6.4
1.25390625,1.8535119876401938e-05,3.90382382467384e-05,4.001457721675442e-05,1.9999628331425975e-05,7.0667,6.4
1.2578125,7.307221721217687e-06,3.610922133669034e-05,3.8550068761730395e-05,2.7810340091554148e-05,7.0667,6.4
1.26171875,1.0724408116273763e-05,3.171569597161824e-05,2.976301803158619e-05,2.9274848546578178e-05,7.0667,6.4
1.265625,2.2440475756466028e-05,4.7284893110553325e-07,3.90382382467384e-05,2.3416814726482047e-05,7.0667,6.4
1.26953125,2.5857662151522106e-05,5.354543781185643e-06,5.124247537193867e-05,1.6582441936369896e-05,7.0667,6.4
1.2734375,3.5132882366674316e-05,7.958681609521631e-05,5.612417022201878e-05,2.1952306271458016e-05,7.0667,6.4
1.27734375,1.9999628331425975e-05,4.684895000686658e-05,4.5872611036850557e-05,2.292864524147404e-05,7.0667,6.4
1.28125,3.890035326161609e-06,1.6582441936369896e-05,1.4141594511329842e-05,2.1464136786450005e-05,7.0667,6.4
1.28515625,1.0236238631265752e-05,2.3416814726482047e-05,4.378204811169621e-06,2.0975967301441994e-05,7.0667,6.4
1.2890625,1.1212577601281776e-05,1.4141594511329842e-05,5.66123397070268e-05,2.7322170606546137e-05,7.0667,6.4
1.29296875,1.2677086056305808e-05,4.7337119491874584e-05,7.079976536507211e-05,3.610922133669034e-05,7.0667,6.4
1.296875,-1.937487901121521e-06,4.440810258182652e-05,3.659739082169834e-05,2.2440475756466028e-05,7.0667,6.4
1.30078125,-1.7070741936369862e-05,5.417149228198674e-05,1.5117933481345863e-05,1.4629763996337851e-05,7.0667,6.4
1.3046875,-1.121270811627373e-05,6.835891794003205e-05,4.245542464179448e-05,1.9999628331425975e-05,7.0667,6.4
1.30859375,1.4141594511329842e-05,5.66123397070268e-05,1.9999628331425975e-05,2.1952306271458016e-05,7.0667,6.4
1.3125,-5.842843781185608e-06,2.1464136786450005e-05,-1.609440296635384e-05,1.6582441936369896e-05,7.0667,6.4
1.31640625,-3.22039959716182e-05,1.1700747086289786e-05,4.866374296177632e-06,1.5606102966353874e-05,7.0667,6.4
1.3203125,-1.951158936140992e-05,1.6582441936369896e-05,2.829850957656216e-05,2.0975967301441994e-05,7.0667,6.4
1.32421875,-1.609440296635384e-05,3.171569597161824e-05,1.8535119876401938e-05,3.1227526486610226e-05,7.0667,6.4
1.328125,4.866374296177632e-06,7.861047712520029e-05,4.34317636118105e-05,3.171569597161824e-05,7.0667,6.4
1.33203125,-1.2677216571297761e-05,1.6582441936369896e-05,2.488132318150608e-05,2.0487797816433986e-05,7.0667,6.4
1.3359375,-2.683413163653008e-05,-1.5320553902477717e-08,-2.8298640091554114e-05,1.902328936140995e-05,7.0667,6.4
1.33984375,-2.2440606271457983e-05,7.372878227512018e-05,-2.3416945241474e-05,1.951145884641796e-05,7.0667,6.4
1.34375,2.4255268711375773e-06,5.66123397070268e-05,2.0975967301441994e-05,2.0487797816433986e-05,7.0667,6.4
1.34765625,4.196725515678646e-05,7.714596867017625e-05,9.911359549553675e-05,1.902328936140995e-05,7.0667,6.4
1.3515625,1.4141594511329842e-05,4.5872611036850557e-05,0.00010301895137560084,3.46447128816663e-05,7.0667,6.4
1.35546875,-8.771860691233675e-06,-3.401996356145554e-06,1.4629763996337851e-05,2.6834001121538125e-05,7.0667,6.4
1.359375,9.748069146257742e-06,3.4156543396658294e-05,-2.146426730144196e-05,5.842713266193654e-06,7.0667,6.4
1.36328125,2.7322170606546137e-05,6.051769558709088e-05,1.937357386129566e-06,1.0724408116273763e-05,7.0667,6.4
1.3671875,4.050274670176243e-05,7.275244330510416e-05,2.913696356145588e-06,1.4629763996337851e-05,7.0667,6.4
1.37109375,5.5636000737010774e-05,8.30040024902724e-05,-1.0236369146257707e-05,2.439315369649807e-05,7.0667,6.4
1.375,8.77173017624172e-06,3.269203494163426e-05,-1.755891142137787e-05,3.7573729791714366e-05,7.0667,6.4
1.37890625,-1.755891142137787e-05,-1.4629894511329806e-05,-1.609440296635384e-05,3.0739357001602215e-05,7.0667,6.4
1.3828125,2.913696356145588e-06,1.9999628331425975e-05,-2.488145369649804e-05,1.9999628331425975e-05,7.0667,6.4
1.38671875,1.1212577601281776e-05,5.368332279697873e-05,-1.4629894511329806e-05,1.5606102966353874e-05,7.0667,6.4
1.390625,2.878667906157017e-05,6.247037352712293e-05,3.4156543396658294e-05,2.5369492666514095e-05,7.0667,6.4
1.39453125,8.283560691233709e-06,5.075430588693066e-05,4.245542464179448e-05,3.5132882366674316e-05,7.0667,6.4
1.3984375,-2.2440606271457983e-05,2.976301803158619e-05,1.7070611421377907e-05,3.0251187516594204e-05,7.0667,6.4
1.40234375,5.354543781185643e-06,6.933525691004809e-05,-1.658257245136185e-05,2.976301803158619e-05,7.0667,6.4
1.40625,2.2440475756466028e-05,3.952640773174641e-05,-1.3165386056305774e-05,4.001457721675442e-05,7.0667,6.4
1.41015625,1.4141594511329842e-05,4.378204811169621e-06,1.4629763996337851e-05,4.0990916186770444e-05,7.0667,6.4
1.4140625,-1.2677216571297761e-05,2.878667906157017e-05,2.1952306271458016e-05,2.7322170606546137e-05,7.0667,6.4
1.41796875,-2.4393284211490024e-05,1.902328936140995e-05,5.354543781185643e-06,2.2440475756466028e-05,7.0667,6.4
1.421875,-5.842843781185608e-06,4.245542464179448e-05,3.90382382467384e-05,2.829850957656216e-05,7.0667,6.4
1.42578125,-6.3310132661936195e-06,8.202766352025636e-05,7.324061279011216e-05,3.0739357001602215e-05,7.0667,6.4
1.4296875,-4.866504811169587e-06,6.198220404211491e-05,4.391993309681851e-05,2.976301803158619e-05,7.0667,6.4
1.43359375,-2.146426730144196e-05,2.292864524147404e-05,1.937357386129566e-06,2.878667906157017e-05,7.0667,6.4
1.4375,-3.562118236667428e-05,-1.658257245136185e-05,-4.5872741551842505e-05,2.5857662151522106e-05,7.0667,6.4
1.44140625,-2.146426730144196e-05,1.5117933481345863e-05,-5.514796176699472e-05,3.220386545662624e-05,7.0667,6.4
1.4453125,-2.488145369649804e-05,3.952640773174641e-05,-2.7810470606546103e-05,3.610922133669034e-05,7.0667,6.4
1.44921875,-5.221894485694665e-05,1.9999628331425975e-05,-6.819182751201631e-06,2.5369492666514095e-05,7.0667,6.4
1.453125,-7.470525176012816e-05,6.149403455710691e-05,-1.5320553902477717e-08,1.6094272451361885e-05,7.0667,6.4
1.45703125,-8.446864146028837e-05,4.5872611036850557e-05,1.0236238631265752e-05,1.3165255541313818e-05,7.0667,6.4
1.4609375,-8.593314991531242e-05,2.3904984211490058e-05,-1.121270811627373e-05,1.9999628331425975e-05,7.0667,6.4
1.46484375,-8.837399734035246e-05,2.7810340091554148e-05,-2.0487928331425938e-05,3.220386545662624e-05,7.0667,6.4
1.46875,-9.081484476539251e-05,-8.771860691233675e-06,1.0724408116273763e-05,3.4156543396658294e-05,7.0667,6.4
1.47265625,-0.0001074126072556649,-7.795521721217652e-06,1.951145884641796e-05,3.562105185168232e-05,7.0667,6.4
1.4765625,-9.91137260105287e-05,2.6834001121538125e-05,-7.307352236209642e-06,2.9274848546578178e-05,7.0667,6.4
1.48046875,-8.398047197528036e-05,3.952640773174641e-05,9.748069146257742e-06,2.1952306271458016e-05,7.0667,6.4
1.484375,-9.960189549553672e-05,3.659739082169834e-05,2.3416814726482047e-05,2.976301803158619e-05,7.0667,6.4
1.48828125,-9.374386167544058e-05,5.71005091920348e-05,-1.44931841611351e-06,3.3668373911650276e-05,7.0667,6.4
1.4921875,-0.00010399542086060881,5.465966176699475e-05,-2.732230112153809e-05,3.4156543396658294e-05,7.0667,6.4
1.49609375,-9.42320311604486e-05,1.365342502632183e-05,-5.612430073701074e-05,3.5132882366674316e-05,7.0667,6.4
1.5,-7.861060764019224e-05,1.8535119876401938e-05,-2.488145369649804e-05,3.220386545662624e-05,7.0667,6.4
1.50390625,-8.056328558022428e-05,6.0029526102082876e-05,-1.5320553902477717e-08,3.171569597161824e-05,7.0667,6.4
1.5078125,-0.00011034162416571295,5.124247537193867e-05,2.0975967301441994e-05,3.7085560306706354e-05,7.0667,6.4
1.51171875,-0.00012303403077592126,3.46447128816663e-05,1.2188916571297797e-05,3.0739357001602215e-05,7.0667,6.4
1.515625,-0.0001254748782009613,3.7573729791714366e-05,-1.5118063996337817e-05,3.0739357001602215e-05,7.0667,6.4
1.51953125,-0.0001474425050263218,1.951145884641796e-05,-3.464484339665826e-05,3.610922133669034e-05,7.0667,6.4
1.5234375,-0.00012693938665598532,2.976301803158619e-05,-2.536962318150605e-05,3.1227526486610226e-05,7.0667,6.4
1.52734375,-0.00014060813223620966,1.5117933481345863e-05,1.937357386129566e-06,3.659739082169834e-05,7.0667,6.4
1.53125,-0.00018649606382696267,-1.072453863126572e-05,-1.951158936140992e-05,3.90382382467384e-05,7.0667,6.4
1.53515625,-0.0002231392857953765,2.1952306271458016e-05,-6.884721794003202e-05,4.245542464179448e-05,7.0667,6.4
1.5390625,-0.000245106912620737,1.6094272451361885e-05,-0.00010204274292057677,4.196725515678646e-05,7.0667,6.4
1.54296875,-0.00023924887880064083,2.4255268711375773e-06,-9.130301425040053e-05,3.610922133669034e-05,7.0667,6.4
1.546875,-0.000246083251590753,1.8046950391393927e-05,-9.764921755550467e-05,3.562105185168232e-05,7.0667,6.4
1.55078125,-0.00023339084498054472,3.0739357001602215e-05,-0.00012254586129091324,3.659739082169834e-05,7.0667,6.4
1.5546875,-0.0002319263365255207,2.9274848546578178e-05,-0.00010936528519569694,3.220386545662624e-05,7.0667,6.4
1.55859375,-0.00023534352292057677,2.6834001121538125e-05,-9.960189549553672e-05,3.220386545662624e-05,7.0667,6.4
1.5625,-0.00021581674352025632,2.3904984211490058e-05,-9.276752270542456e-05,3.806189927672238e-05,7.0667,6.4
1.56640625,-0.0002270446416754406,7.307221721217687e-06,-4.392006361181047e-05,3.5132882366674316e-05,7.0667,6.4
1.5703125,-0.00023534352292057677,-4.72979446097488e-07,-4.196738567177842e-05,3.318020442664227e-05,7.0667,6.4
1.57421875,-0.00021191138764019225,1.7070611421377907e-05,-8.642131940032042e-05,3.7085560306706354e-05,7.0667,6.4
1.578125,-0.0001923540976470588,2.878667906157017e-05,-0.00010253091240558478,3.220386545662624e-05,7.0667,6.4
1.58203125,-0.00018600789434195466,2.439315369649807e-05,-0.00010497175983062485,2.3904984211490058e-05,7.0667,6.4
1.5859375,-0.00022021026888532843,3.7085560306706354e-05,-7.177623485008008e-05,2.5857662151522106e-05,7.0667,6.4
1.58984375,-0.00023973704828564887,1.3165255541313818e-05,-8.202779403524831e-05,2.3416814726482047e-05,7.0667,6.4
1.59375,-0.00024754776004577705,-2.8786809576562122e-05,-7.763426867017622e-05,2.976301803158619e-05,7.0667,6.4
1.59765625,-0.00026853904790112153,2.1952306271458016e-05,-6.1005995587090846e-05,3.7085560306706354e-05,7.0667,6.4
1.6015625,-0.00030563992876173036,4.050274670176243e-05,-5.465979228198671e-05,3.171569597161824e-05,7.0667,6.4
1.60546875,-0.00031882050485694665,1.4491879011215552e-06,-5.4171622796978696e-05,2.6834001121538125e-05,7.0667,6.4
1.609375,-0.0003432594897001602,1.755878090638592e-05,-7.324074330510412e-05,3.46447128816663e-05,7.0667,6.4
1.61328125,-0.0004189257598764019,3.610922133669034e-05,-5.4171622796978696e-05,3.7085560306706354e-05,7.0667,6.4
1.6171875,-0.00045309762382696265,1.1212577601281776e-05,-7.421708227512015e-05,2.6834001121538125e-05,7.0667,6.4
1.62109375,-0.0004516331153719386,-5.354674296177598e-06,-4.880175846189058e-05,3.220386545662624e-05,7.0667,6.4
1.625,-0.0003954936245960174,3.806189927672238e-05,-1.3165386056305774e-05,3.610922133669034e-05,7.0667,6.4
1.62890625,-0.0003080807761867704,6.149403455710691e-05,-2.683413163653008e-05,3.4156543396658294e-05,7.0667,6.4
1.6328125,-0.00022606830270542456,3.269203494163426e-05,1.0236238631265752e-05,4.294359412680248e-05,7.0667,6.4
1.63671875,-0.00011717599695582511,1.755878090638592e-05,3.90382382467384e-05,3.90382382467384e-05,7.0667,6.4
1.640625,-3.708569082169831e-05,3.5132882366674316e-05,3.0251187516594204e-05,4.001457721675442e-05,7.0667,6.4
1.64453125,3.7085560306706354e-05,5.2218814341954696e-05,2.5857662151522106e-05,4.4896272066834534e-05,7.0667,6.4
1.6484375,8.153949403524835e-05,6.247037352712293e-05,-1.5320553902477717e-08,3.220386545662624e-05,7.0667,6.4
1.65234375,0.00010887698519569697,4.196725515678646e-05,-2.8298640091554114e-05,2.829850957656216e-05,7.0667,6.4
1.65625,0.00014500152708628978,3.610922133669034e-05,-3.073948751659417e-05,3.1227526486610226e-05,7.0667,6.4
1.66015625,0.00016941000133669033,1.1212577601281776e-05,-1.2677216571297761e-05,2.9274848546578178e-05,7.0667,6.4
1.6640625,0.0002119112571252003,-1.8535250391393893e-05,-6.3310132661936195e-06,3.659739082169834e-05,7.0667,6.4
1.66796875,0.0002470594600457771,1.8046950391393927e-05,-3.562118236667428e-05,4.196725515678646e-05,7.0667,6.4
1.671875,0.0002612163751110094,3.7573729791714366e-05,-4.866504811169587e-06,3.8550068761730395e-05,7.0667,6.4
1.67578125,0.00027927864605630583,3.0251187516594204e-05,3.4156543396658294e-05,2.3904984211490058e-05,7.0667,6.4
1.6796875,0.00028123132399633785,1.5117933481345863e-05,2.1464136786450005e-05,2.1952306271458016e-05,7.0667,6.4
1.68359375,0.00032663108610208284,1.755878090638592e-05,2.3416814726482047e-05,3.610922133669034e-05,7.0667,6.4
1.6875,0.0003408185117601282,2.292864524147404e-05,2.6345831636530114e-05,3.0739357001602215e-05,7.0667,6.4
1.69140625,0.000333984138970016,2.0975967301441994e-05,-1.44931841611351e-06,2.6834001121538125e-05,7.0667,6.4
1.6953125,0.0003432593591851682,3.4156543396658294e-05,1.3165255541313818e-05,3.269203494163426e-05,7.0667,6.4
1.69921875,0.00034814105403524833,1.4491879011215552e-06,2.1952306271458016e-05,2.9274848546578178e-05,7.0667,6.4
1.703125,0.00039061179923094533,1.4141594511329842e-05,3.318020442664227e-05,2.829850957656216e-05,7.0667,6.4
1.70703125,0.00039305264665598534,4.831345846189061e-05,2.7810340091554148e-05,3.610922133669034e-05,7.0667,6.4
1.7109375,0.00037401403674067294,1.4491879011215552e-06,2.6345831636530114e-05,3.0739357001602215e-05,7.0667,6.4
1.71484375,0.00035936895219043256,-6.819182751201631e-06,4.977796691691464e-05,2.2440475756466028e-05,7.0667,6.4
1.71875,0.0003549754268253605,4.636078052185856e-05,4.831345846189061e-05,2.1464136786450005e-05,7.0667,6.4
1.72265625,0.0003915881382009613,5.954135661707486e-05,4.391993309681851e-05,1.755878090638592e-05,7.0667,6.4
1.7265625,0.0003735258672556649,1.5117933481345863e-05,2.0487797816433986e-05,1.5606102966353874e-05,7.0667,6.4
1.73046875,0.00033886583382009613,-9.61148931105499e-07,-9.748199661249696e-06,2.0487797816433986e-05,7.0667,6.4
1.734375,0.0003486292235202564,3.401865841153599e-06,1.4629763996337851e-05,2.5369492666514095e-05,7.0667,6.4
1.73828125,0.0003554635963103685,2.3416814726482047e-05,5.8076848162050824e-05,3.318020442664227e-05,7.0667,6.4
1.7421875,0.0003417948507301442,2.0975967301441994e-05,3.4156543396658294e-05,2.5857662151522106e-05,7.0667,6.4
1.74609375,0.000332000950437171,3.401865841153599e-06,2.9274848546578178e-05,1.6582441936369896e-05,7.0667,6.4
1.75,0.0003144268489768826,3.1227526486610226e-05,8.642118888532846e-05,2.5369492666514095e-05,7.0667,6.4
1.75390625,0.00028171949348134584,1.4629763996337851e-05,9.374373116044863e-05,2.5369492666514095e-05,7.0667,6.4
1.7578125,0.0002822076629663539,7.307221721217687e-06,6.689440948500802e-05,2.0487797816433986e-05,7.0667,6.4
1.76171875,0.00029636457803158616,2.3416814726482047e-05,4.0990916186770444e-05,1.8046950391393927e-05,7.0667,6.4
1.765625,0.0002973409170016022,2.488132318150608e-05,2.5369492666514095e-05,1.3165255541313818e-05,7.0667,6.4
1.76953125,0.0002934355611215381,3.4156543396658294e-05,3.5132882366674316e-05,1.7070611421377907e-05,7.0667,6.4
1.7734375,0.0002675625784161135,1.5117933481345863e-05,6.295854301213094e-05,2.6834001121538125e-05,7.0667,6.4
1.77734375,0.0002743969512062257,-4.72979446097488e-07,4.684895000686658e-05,2.5857662151522106e-05,7.0667,6.4
1.78125,0.0002846485103913939,3.1227526486610226e-05,2.3904984211490058e-05,2.1952306271458016e-05,7.0667,6.4
1.78515625,0.00028123132399633785,3.562105185168232e-05,4.34317636118105e-05,2.0975967301441994e-05,7.0667,6.4
1.7890625,0.00027976681554131377,1.2677086056305808e-05,8.642118888532846e-05,2.0975967301441994e-05,7.0667,6.4
1.79296875,0.0002753732901762417,-2.9138268711375426e-06,9.960176498054477e-05,2.5369492666514095e-05,7.0667,6.4
1.796875,0.0002695152563561456,-8.283691206225664e-06,8.056315506523234e-05,2.1952306271458016e-05,7.0667,6.4
1.80078125,0.0002670744089311055,3.806189927672238e-05,6.738257897001604e-05,1.902328936140995e-05,7.0667,6.4
1.8046875,0.00027244427326619363,7.226427382009615e-05,9.081471425040057e-05,2.488132318150608e-05,7.0667,6.4
1.80859375,0.00023192620601052873,4.538444155184254e-05,0.00012449840871595332,2.3416814726482047e-05,7.0667,6.4
1.8125,0.00021728112146028838,1.1212577601281776e-05,0.00014060800172121767,2.3904984211490058e-05,7.0667,6.4
1.81640625,0.000243642273650721,2.976301803158619e-05,0.0001191285443808652,2.488132318150608e-05,7.0667,6.4
1.8203125,0.00022655634167544062,2.6834001121538125e-05,0.00011131783262073704,2.1952306271458016e-05,7.0667,6.4
1.82421875,0.00022362732476539254,1.4491879011215552e-06,9.032654476539255e-05,2.1952306271458016e-05,7.0667,6.4
1.828125,0.00021386393506523234,4.34317636118105e-05,0.00011961671386587322,2.7810340091554148e-05,7.0667,6.4
1.83203125,0.00017233901824673838,3.3668373911650276e-05,0.00013767898481116962,3.1227526486610226e-05,7.0667,6.4
1.8359375,0.00015622942524147403,2.5857662151522106e-05,9.960176498054477e-05,2.3416814726482047e-05,7.0667,6.4
1.83984375,0.00016257562854657816,7.958681609521631e-05,9.71609175555047e-05,2.5857662151522106e-05,7.0667,6.4
1.84375,0.00016013478112153812,8.056315506523234e-05,0.00011082966313572902,2.878667906157017e-05,7.0667,6.4
1.84765625,0.00014890688296635387,4.831345846189061e-05,0.00011375868004577707,2.6834001121538125e-05,7.0667,6.4
1.8515625,0.00014890688296635387,2.6345831636530114e-05,0.00010301895137560084,2.878667906157017e-05,7.0667,6.4
1.85546875,0.00013230912047608147,2.1952306271458016e-05,8.398034146028841e-05,2.488132318150608e-05,7.0667,6.4
1.859375,0.00011229417159075305,-2.425657386129532e-06,9.227922270542459e-05,2.3904984211490058e-05,7.0667,6.4
1.86328125,0.00011424684953078509,4.7284893110553325e-07,8.446851094529643e-05,2.976301803158619e-05,7.0667,6.4
1.8671875,9.374373116044863e-05,4.7284893110553325e-07,7.665779918516825e-05,3.4156543396658294e-05,7.0667,6.4
1.87109375,0.0001015544429205768,-2.9138268711375426e-06,9.764908704051272e-05,3.4156543396658294e-05,7.0667,6.4
1.875,0.00012693925614099338,6.442305146715498e-05,0.00012205756129091327,3.7573729791714366e-05,7.0667,6.4
1.87890625,0.00011522318850080111,9.764908704051272e-05,0.00012498657820096134,4.245542464179448e-05,7.0667,6.4
1.8828125,9.423190064545664e-05,5.758867867704282e-05,0.00011571135798580912,4.196725515678646e-05,7.0667,6.4
1.88671875,9.911359549553675e-05,2.1952306271458016e-05,0.00011082966313572902,3.90382382467384e-05,7.0667,6.4
1.890625,9.227922270542459e-05,2.292864524147404e-05,0.00010301895137560084,3.562105185168232e-05,7.0667,6.4
1.89453125,6.738257897001604e-05,2.5857662151522106e-05,8.983837528038453e-05,3.7573729791714366e-05,7.0667,6.4
1.8984375,6.539939043717099e-05,1.937357386129566e-06,8.056315506523234e-05,3.220386545662624e-05,7.0667,6.4
1.90234375,4.636078052185856e-05,1.5606102966353874e-05,6.198220404211491e-05,2.1952306271458016e-05,7.0667,6.4
1.90625,5.075430588693066e-05,5.270698382696271e-05,6.198220404211491e-05,2.6345831636530114e-05,7.0667,6.4
1.91015625,8.886203631036852e-05,5.417149228198674e-05,9.61845785854887e-05,3.220386545662624e-05,7.0667,6.4
1.9140625,7.568146021515222e-05,4.9289797431906635e-05,8.056315506523234e-05,3.0739357001602215e-05,7.0667,6.4
1.91796875,5.465966176699475e-05,3.220386545662624e-05,5.026613640192266e-05,3.1227526486610226e-05,7.0667,6.4
1.921875,6.247037352712293e-05,3.0251187516594204e-05,6.198220404211491e-05,2.976301803158619e-05,7.0667,6.4
1.92578125,6.198220404211491e-05,2.6345831636530114e-05,5.2218814341954696e-05,1.951145884641796e-05,7.0667,6.4
1.9296875,6.0029526102082876e-05,3.401865841153599e-06,3.0251187516594204e-05,1.9999628331425975e-05,7.0667,6.4
1.93359375,5.71005091920348e-05,9.748069146257742e-06,3.46447128816663e-05,2.878667906157017e-05,7.0667,6.4
1.9375,3.7573729791714366e-05,4.684895000686658e-05,4.245542464179448e-05,2.5857662151522106e-05,7.0667,6.4
1.94140625,3.1227526486610226e-05,4.001457721675442e-05,4.001457721675442e-05,2.1464136786450005e-05,7.0667,6.4
1.9453125,4.0990916186770444e-05,2.5369492666514095e-05,7.47051212451362e-05,1.9999628331425975e-05,7.0667,6.4
1.94921875,3.7085560306706354e-05,4.245542464179448e-05,0.00011424684953078509,1.9999628331425975e-05,7.0667,6.4
1.953125,3.562105185168232e-05,6.149403455710691e-05,9.960176498054477e-05,2.0975967301441994e-05,7.0667,6.4
1.95703125,2.2440475756466028e-05,6.247037352712293e-05,4.684895000686658e-05,2.6345831636530114e-05,7.0667,6.4
1.9609375,1.5606102966353874e-05,3.4156543396658294e-05,5.270698382696271e-05,2.5369492666514095e-05,7.0667,6.4
1.96484375,4.636078052185856e-05,2.6345831636530114e-05,5.8076848162050824e-05,2.1952306271458016e-05,7.0667,6.4
1.96875,4.684895000686658e-05,2.7322170606546137e-05,3.610922133669034e-05,2.5369492666514095e-05,7.0667,6.4
1.97265625,4.001457721675442e-05,7.307221721217687e-06,3.8550068761730395e-05,2.7322170606546137e-05,7.0667,6.4
1.9765625,1.902328936140995e-05,-3.1715826486610186e-05,1.365342502632183e-05,1.6094272451361885e-05,7.0667,6.4
1.98046875,1.1700747086289786e-05,-4.866504811169587e-06,-6.819182751201631e-06,1.5606102966353874e-05,7.0667,6.4
1.984375,2.9274848546578178e-05,3.46447128816663e-05,4.538444155184254e-05,2.7322170606546137e-05,7.0667,6.4
1.98828125,1.951145884641796e-05,3.4156543396658294e-05,9.227922270542459e-05,2.3904984211490058e-05,7.0667,6.4
1.9921875,1.6582441936369896e-05,6.198220404211491e-05,4.5872611036850557e-05,1.365342502632183e-05,7.0667,6.4
1.99609375,-1.609440296635384e-05,3.952640773174641e-05,-4.3783353261615755e-06,1.0724408116273763e-05,7.0667,6.4
2.0,-1.3165386056305774e-05,-5.842843781185608e-06,-4.3783353261615755e-06,2.1464136786450005e-05,7.0667,6.4
2.00390625,1.1700747086289786e-05,2.488132318150608e-05,3.401865841153599e-06,2.6345831636530114e-05,7.0667,6.4
2.0078125,5.842713266193654e-06,1.1212577601281776e-05,3.7573729791714366e-05,1.902328936140995e-05,7.0667,6.4
2.01171875,-1.5320553902477717e-08,-1.4141725026321795e-05,3.8550068761730395e-05,1.2188916571297797e-05,7.0667,6.4
2.015625,-9.748199661249696e-06,3.5132882366674316e-05,3.659739082169834e-05,1.951145884641796e-05,7.0667,6.4
2.01953125,-5.354674296177598e-06,3.7573729791714366e-05,3.90382382467384e-05,3.1227526486610226e-05,7.0667,6.4
2.0234375,-4.866504811169587e-06,1.0724408116273763e-05,1.7070611421377907e-05,2.829850957656216e-05,7.0667,6.4
2.02734375,-2.9138268711375426e-06,2.1464136786450005e-05,1.4141594511329842e-05,2.1952306271458016e-05,7.0667,6.4
2.03125,-4.72979446097488e-07,8.283560691233709e-06,2.3904984211490058e-05,1.7070611421377907e-05,7.0667,6.4
2.03515625,-7.307352236209642e-06,-1.609440296635384e-05,4.001457721675442e-05,2.3416814726482047e-05,7.0667,6.4
2.0390625,4.7284893110553325e-07,3.0251187516594204e-05,1.3165255541313818e-05,2.3416814726482047e-05,7.0667,6.4
2.04296875,7.795391206225697e-06,7.226427382009615e-05,4.378204811169621e-06,1.0236238631265752e-05,7.0667,6.4
2.046875,8.283560691233709e-06,5.5636000737010774e-05,2.2440475756466028e-05,1.2677086056305808e-05,7.0667,6.4
2.05078125,1.0236238631265752e-05,4.050274670176243e-05,4.538444155184254e-05,2.0975967301441994e-05,7.0667,6.4
2.0546875,-3.401996356145554e-06,2.5369492666514095e-05,5.71005091920348e-05,2.1464136786450005e-05,7.0667,6.4
2.05859375,2.1952306271458016e-05,3.610922133669034e-05,4.378204811169621e-06,1.755878090638592e-05,7.0667,6.4
2.0625,2.7322170606546137e-05,-1.999975884641793e-05,-2.7810470606546103e-05,1.7070611421377907e-05,7.0667,6.4
2.06640625,9.259899661249731e-06,-3.65975213366903e-05,2.7810340091554148e-05,2.1464136786450005e-05,7.0667,6.4
2.0703125,5.842713266193654e-06,4.684895000686658e-05,6.247037352712293e-05,1.8535119876401938e-05,7.0667,6.4
2.07421875,4.7284893110553325e-07,3.659739082169834e-05,2.292864524147404e-05,1.951145884641796e-05,7.0667,6.4
2.078125,-1.5320553902477717e-08,1.5117933481345863e-05,-1.937487901121521e-06,1.7070611421377907e-05,7.0667,6.4
2.08203125,-9.260030176241686e-06,3.7573729791714366e-05,1.3165255541313818e-05,1.951145884641796e-05,7.0667,6.4
2.0859375,4.866374296177632e-06,2.1464136786450005e-05,9.748069146257742e-06,1.902328936140995e-05,7.0667,6.4
2.08984375,-7.795521721217652e-06,-6.819182751201631e-06,1.9999628331425975e-05,1.4629763996337851e-05,7.0667,6.4
2.09375,-2.195243678644997e-05,1.6582441936369896e-05,1.6094272451361885e-05,1.755878090638592e-05,7.0667,6.4
2.09765625,3.890035326161609e-06,2.1952306271458016e-05,2.7322170606546137e-05,2.0975967301441994e-05,7.0667,6.4
2.1015625,1.4491879011215552e-06,2.3904984211490058e-05,2.2440475756466028e-05,2.829850957656216e-05,7.0667,6.4
2.10546875,-4.3783353261615755e-06,4.636078052185856e-05,-1.0236369146257707e-05,2.292864524147404e-05,7.0667,6.4
2.109375,-2.9763148546578148e-05,8.77173017624172e-06,-1.609440296635384e-05,1.5117933481345863e-05,7.0667,6.4
2.11328125,-4.1479216186770404e-05,-2.195243678644997e-05,1.0236238631265752e-05,2.488132318150608e-05,7.0667,6.4
2.1171875,-3.2692165456626215e-05,2.1464136786450005e-05,1.1212577601281776e-05,2.0487797816433986e-05,7.0667,6.4
2.12109375,-3.855019927672234e-05,3.4156543396658294e-05,-1.5118063996337817e-05,1.4141594511329842e-05,7.0667,6.4
2.125,-4.489640258182648e-05,2.292864524147404e-05,5.842713266193654e-06,2.439315369649807e-05,7.0667,6.4
2.12890625,-5.6612470222018745e-05,3.952640773174641e-05,3.90382382467384e-05,2.3416814726482047e-05,7.0667,6.4
2.1328125,-6.933538742504003e-05,1.365342502632183e-05,3.0251187516594204e-05,2.292864524147404e-05,7.0667,6.4
2.13671875,-6.491135146715494e-05,-1.4629894511329806e-05,9.610184161135442e-07,2.439315369649807e-05,7.0667,6.4
2.140625,-3.757386030670632e-05,-1.3653555541313785e-05,1.365342502632183e-05,2.5857662151522106e-05,7.0667,6.4
2.14453125,-3.415667391165024e-05,3.401865841153599e-06,6.330882751201665e-06,2.976301803158619e-05,7.0667,6.4
2.1484375,-4.001470773174638e-05,3.4156543396658294e-05,4.7284893110553325e-07,2.6834001121538125e-05,7.0667,6.4
2.15234375,-2.2928775756465994e-05,3.610922133669034e-05,4.391993309681851e-05,3.562105185168232e-05,7.0667,6.4
2.15625,-2.634596215152207e-05,3.90382382467384e-05,3.0251187516594204e-05,3.90382382467384e-05,7.0667,6.4
2.16015625,-4.196738567177842e-05,5.026613640192266e-05,-1.44931841611351e-06,2.7322170606546137e-05,7.0667,6.4
2.1640625,-4.636091103685052e-05,2.829850957656216e-05,-1.44931841611351e-06,1.902328936140995e-05,7.0667,6.4
2.16796875,-3.806202979171434e-05,2.829850957656216e-05,2.2440475756466028e-05,2.292864524147404e-05,7.0667,6.4
2.171875,-3.025131803158616e-05,2.6834001121538125e-05,2.1952306271458016e-05,3.0251187516594204e-05,7.0667,6.4
2.17578125,-4.1479216186770404e-05,4.1479085671778456e-05,8.77173017624172e-06,1.902328936140995e-05,7.0667,6.4
2.1796875,-2.9274979061570133e-05,4.684895000686658e-05,2.913696356145588e-06,1.951145884641796e-05,7.0667,6.4
2.18359375,-3.318033494163422e-05,9.748069146257742e-06,4.378204811169621e-06,2.878667906157017e-05,7.0667,6.4
2.1875,-4.1479216186770404e-05,2.2440475756466028e-05,1.4491879011215552e-06,2.7810340091554148e-05,7.0667,6.4
2.19140625,-1.7070741936369862e-05,1.951145884641796e-05,1.5117933481345863e-05,2.976301803158619e-05,7.0667,6.4
2.1953125,-5.354674296177598e-06,-1.121270811627373e-05,-5.842843781185608e-06,2.6834001121538125e-05,7.0667,6.4
2.19921875,-1.072453863126572e-05,1.1212577601281776e-05,-1.2189047086289752e-05,2.488132318150608e-05,7.0667,6.4
2.203125,-1.9023419876401904e-05,3.7573729791714366e-05,3.1227526486610226e-05,2.829850957656216e-05,7.0667,6.4
2.20703125,2.4255268711375773e-06,5.1730644856946685e-05,4.1479085671778456e-05,3.1227526486610226e-05,7.0667,6.4
2.2109375,2.0487797816433986e-05,3.610922133669034e-05,2.9274848546578178e-05,2.6834001121538125e-05,7.0667,6.4
2.21484375,1.6094272451361885e-05,2.5369492666514095e-05,1.0236238631265752e-05,2.3416814726482047e-05,7.0667,6.4
2.21875,5.354543781185643e-06,1.5117933481345863e-05,-1.44931841611351e-06,3.0739357001602215e-05,7.0667,6.4
2.22265625,-1.121270811627373e-05,1.2188916571297797e-05,9.259899661249731e-06,3.269203494163426e-05,7.0667,6.4
2.2265625,1.4491879011215552e-06,2.976301803158619e-05,3.952640773174641e-05,2.9274848546578178e-05,7.0667,6.4
2.23046875,-1.8535250391393893e-05,3.46447128816663e-05,5.71005091920348e-05,3.0739357001602215e-05,7.0667,6.4
2.234375,-2.3905114726482013e-05,5.368332279697873e-05,3.562105185168232e-05,2.0975967301441994e-05,7.0667,6.4
2.23828125,-1.999975884641793e-05,4.880162794689862e-05,3.610922133669034e-05,2.292864524147404e-05,7.0667,6.4
2.2421875,-5.514796176699472e-05,3.4156543396658294e-05,3.46447128816663e-05,2.2440475756466028e-05,7.0667,6.4
2.24609375,-3.1715826486610186e-05,6.198220404211491e-05,4.7284893110553325e-07,1.951145884641796e-05,7.0667,6.4
2.25,-1.44931841611351e-06,5.612417022201878e-05,1.1212577601281776e-05,2.7322170606546137e-05,7.0667,6.4
2.25390625,7.307221721217687e-06,2.292864524147404e-05,6.819052236209676e-06,2.6834001121538125e-05,7.0667,6.4
2.2578125,9.610184161135442e-07,-9.748199661249696e-06,-2.7810470606546103e-05,2.3904984211490058e-05,7.0667,6.4
2.26171875,-3.890165841153565e-06,-1.121270811627373e-05,-1.4141725026321795e-05,2.3904984211490058e-05,7.0667,6.4
2.265625,-9.61148931105499e-07,1.951145884641796e-05,2.0975967301441994e-05,2.1464136786450005e-05,7.0667,6.4
2.26953125,-1.170087760128174e-05,5.66123397070268e-05,5.2218814341954696e-05,2.0487797816433986e-05,7.0667,6.4
2.2734375,-1.0236369146257707e-05,7.763413815518427e-05,1.951145884641796e-05,2.3904984211490058e-05,7.0667,6.4
2.27734375,-2.634596215152207e-05,5.71005091920348e-05,1.0724408116273763e-05,2.878667906157017e-05,7.0667,6.4
2.28125,-3.318033494163422e-05,2.488132318150608e-05,8.77173017624172e-06,2.9274848546578178e-05,7.0667,6.4
2.28515625,-1.999975884641793e-05,-1.4141725026321795e-05,-1.5320553902477717e-08,2.7810340091554148e-05,7.0667,6.4
2.2890625,-4.3431894126802455e-05,1.5606102966353874e-05,2.6834001121538125e-05,2.7810340091554148e-05,7.0667,6.4
2.29296875,-5.6612470222018745e-05,5.026613640192266e-05,4.0990916186770444e-05,2.3904984211490058e-05,7.0667,6.4
2.296875,-5.319528382696267e-05,5.2218814341954696e-05,1.0724408116273763e-05,1.9999628331425975e-05,7.0667,6.4
2.30078125,-5.0266266916914606e-05,5.66123397070268e-05,-1.5320553902477717e-08,1.8046950391393927e-05,7.0667,6.4
2.3046875,-4.5872741551842505e-05,3.4156543396658294e-05,3.318020442664227e-05,2.7810340091554148e-05,7.0667,6.4
2.30859375,-4.2455555156786426e-05,3.806189927672238e-05,5.417149228198674e-05,3.806189927672238e-05,7.0667,6.4
2.3125,-7.031172639505606e-05,4.7825288976882595e-05,5.856501764705884e-05,3.269203494163426e-05,7.0667,6.4
2.31640625,-9.42320311604486e-05,2.7810340091554148e-05,3.659739082169834e-05,2.7322170606546137e-05,7.0667,6.4
2.3203125,-7.275257382009612e-05,3.3668373911650276e-05,3.890035326161609e-06,2.1952306271458016e-05,7.0667,6.4
2.32421875,-6.34468430121309e-05,3.952640773174641e-05,-4.72979446097488e-07,1.8535119876401938e-05,7.0667,6.4
2.328125,-7.519342124513615e-05,3.0251187516594204e-05,2.1952306271458016e-05,2.1952306271458016e-05,7.0667,6.4
2.33203125,-8.739765837033644e-05,1.8046950391393927e-05,4.001457721675442e-05,2.878667906157017e-05,7.0667,6.4
2.3359375,-0.00011375881056076903,-5.354674296177598e-06,4.34317636118105e-05,3.318020442664227e-05,7.0667,6.4
2.33984375,-9.325569219043258e-05,-7.307352236209642e-06,1.3165255541313818e-05,3.171569597161824e-05,7.0667,6.4
2.34375,-7.958694661020826e-05,3.806189927672238e-05,2.292864524147404e-05,2.6345831636530114e-05,7.0667,6.4
2.34765625,-7.812243815518424e-05,7.177610433508813e-05,4.440810258182652e-05,1.951145884641796e-05,7.0667,6.4
2.3515625,-7.372891279011213e-05,5.612417022201878e-05,4.050274670176243e-05,2.0975967301441994e-05,7.0667,6.4
2.35546875,-6.247050404211488e-05,6.933525691004809e-05,2.1952306271458016e-05,2.3904984211490058e-05,7.0667,6.4
2.359375,-3.708569082169831e-05,6.689440948500802e-05,5.354543781185643e-06,2.1952306271458016e-05,7.0667,6.4
2.36328125,-2.488145369649804e-05,4.7337119491874584e-05,1.2188916571297797e-05,1.951145884641796e-05,7.0667,6.4
2.3671875,1.2677086056305808e-05,4.050274670176243e-05,2.7322170606546137e-05,2.439315369649807e-05,7.0667,6.4
2.37109375,1.755878090638592e-05,2.1952306271458016e-05,4.831345846189061e-05,3.90382382467384e-05,7.0667,6.4
2.375,2.1464136786450005e-05,1.8046950391393927e-05,3.952640773174641e-05,3.90382382467384e-05,7.0667,6.4
2.37890625,4.977796691691464e-05,3.0251187516594204e-05,-1.5118063996337817e-05,3.171569597161824e-05,7.0667,6.4
2.3828125,4.4896272066834534e-05,3.7573729791714366e-05,1.4629763996337851e-05,2.9274848546578178e-05,7.0667,6.4
2.38671875,4.880162794689862e-05,5.66123397070268e-05,8.83738668253605e-05,3.0739357001602215e-05,7.0667,6.4
2.390625,3.90382382467384e-05,4.538444155184254e-05,5.124247537193867e-05,2.976301803158619e-05,7.0667,6.4
2.39453125,1.5117933481345863e-05,2.488132318150608e-05,2.4255268711375773e-06,2.488132318150608e-05,7.0667,6.4
2.3984375,6.819052236209676e-06,3.8550068761730395e-05,2.4255268711375773e-06,2.5369492666514095e-05,7.0667,6.4
2.40234375,1.365342502632183e-05,2.829850957656216e-05,-1.4629894511329806e-05,2.0487797816433986e-05,7.0667,6.4
2.40625,9.610184161135442e-07,2.0975967301441994e-05,2.3904984211490058e-05,2.2440475756466028e-05,7.0667,6.4
2.41015625,-3.318033494163422e-05,2.488132318150608e-05,4.538444155184254e-05,3.7085560306706354e-05,7.0667,6.4
2.4140625,-5.124260588693063e-05,1.937357386129566e-06,2.0975967301441994e-05,3.8550068761730395e-05,7.0667,6.4
2.41796875,-7.128806536507208e-05,1.7070611421377907e-05,1.1212577601281776e-05,2.7810340091554148e-05,7.0667,6.4
2.421875,-9.618470910048064e-05,3.3668373911650276e-05,-6.3310132661936195e-06,2.0975967301441994e-05,7.0667,6.4
2.42578125,-0.00010936528519569694,5.1730644856946685e-05,3.659739082169834e-05,1.755878090638592e-05,7.0667,6.4
2.4296875,-0.0001391436237811856,4.880162794689862e-05,5.075430588693066e-05,1.755878090638592e-05,7.0667,6.4
2.43359375,-0.00013279742047608145,4.440810258182652e-05,1.3165255541313818e-05,2.3904984211490058e-05,7.0667,6.4
2.4375,-0.00012693938665598532,2.3416814726482047e-05,7.795391206225697e-06,2.7322170606546137e-05,7.0667,6.4
2.44140625,-0.00013084474253604943,2.829850957656216e-05,1.6094272451361885e-05,3.1227526486610226e-05,7.0667,6.4
2.4453125,-0.00015769406421149002,5.075430588693066e-05,1.6582441936369896e-05,2.488132318150608e-05,7.0667,6.4
2.44921875,-0.00017966169103685053,1.1700747086289786e-05,1.3165255541313818e-05,2.0975967301441994e-05,7.0667,6.4
2.453125,-0.0001821025384618906,3.171569597161824e-05,7.307221721217687e-06,2.5369492666514095e-05,7.0667,6.4
2.45703125,-0.00020800603176012816,4.294359412680248e-05,2.7322170606546137e-05,2.6834001121538125e-05,7.0667,6.4
2.4609375,-0.0002143522350652323,2.439315369649807e-05,3.0739357001602215e-05,3.220386545662624e-05,7.0667,6.4
2.46484375,-0.00023339084498054472,4.538444155184254e-05,5.842713266193654e-06,3.318020442664227e-05,7.0667,6.4
2.46875,-0.000245106912620737,6.933525691004809e-05,2.1464136786450005e-05,3.0739357001602215e-05,7.0667,6.4
2.47265625,-0.00022606830270542456,4.5872611036850557e-05,1.8046950391393927e-05,2.829850957656216e-05,7.0667,6.4
2.4765625,-0.000247059590560769,2.7810340091554148e-05,3.90382382467384e-05,2.9274848546578178e-05,7.0667,6.4
2.48046875,-0.00025682298026092926,4.245542464179448e-05,5.514783125200276e-05,2.976301803158619e-05,7.0667,6.4
2.484375,-0.00025194128541084914,5.5636000737010774e-05,4.5872611036850557e-05,3.1227526486610226e-05,7.0667,6.4
2.48828125,-0.00025194128541084914,4.684895000686658e-05,4.294359412680248e-05,2.976301803158619e-05,7.0667,6.4
2.4921875,-0.0002548703023208972,1.755878090638592e-05,3.1227526486610226e-05,2.3904984211490058e-05,7.0667,6.4
2.49609375,-0.0002704917258411536,2.0975967301441994e-05,3.269203494163426e-05,2.6834001121538125e-05,7.0667,6.4
2.5,-0.00028757765781643393,1.951145884641796e-05,5.465966176699475e-05,3.5132882366674316e-05,7.0667,6.4
2.50390625,-0.0003197968438269627,2.976301803158619e-05,7.42169517601282e-05,3.0251187516594204e-05,7.0667,6.4
2.5078125,-0.0003476530150652323,7.763413815518427e-05,6.491122095216298e-05,2.878667906157017e-05,7.0667,6.4
2.51171875,-0.0003735259977706569,7.079976536507211e-05,5.124247537193867e-05,2.3416814726482047e-05,7.0667,6.4
2.515625,-0.0003803603705607691,3.90382382467384e-05,6.640624000000002e-05,3.0739357001602215e-05,7.0667,6.4
2.51953125,-0.0003920764382009613,2.6345831636530114e-05,6.640624000000002e-05,3.46447128816663e-05,7.0667,6.4
2.5234375,-0.00041648491245136187,2.4255268711375773e-06,5.514783125200276e-05,2.3416814726482047e-05,7.0667,6.4
2.52734375,-0.00040574518378118564,8.77173017624172e-06,6.933525691004809e-05,2.829850957656216e-05,7.0667,6.4
2.53125,-0.00040379250584115356,6.149403455710691e-05,7.51932907301442e-05,3.46447128816663e-05,7.0667,6.4
2.53515625,-0.0004169730819363698,6.787074845502406e-05,8.30040024902724e-05,2.7810340091554148e-05,7.0667,6.4
2.5390625,-0.00042478379369649804,4.636078052185856e-05,8.495668043030443e-05,1.9999628331425975e-05,7.0667,6.4
2.54296875,-0.0004145322345113298,6.442305146715498e-05,7.03115958800641e-05,1.9999628331425975e-05,7.0667,6.4
2.546875,-0.00040476884481116955,5.5636000737010774e-05,4.880162794689862e-05,2.0975967301441994e-05,7.0667,6.4
2.55078125,-0.00041306772605630577,2.6834001121538125e-05,6.738257897001604e-05,2.7322170606546137e-05,7.0667,6.4
2.5546875,-0.0003876829128358892,4.245542464179448e-05,8.690935837033648e-05,3.7085560306706354e-05,7.0667,6.4
2.55859375,-0.0003901237602609292,4.001457721675442e-05,7.568146021515222e-05,3.46447128816663e-05,7.0667,6.4
2.5625,-0.00039305277717097733,5.075430588693066e-05,9.520823961547266e-05,3.1227526486610226e-05,7.0667,6.4
2.56640625,-0.0003579045742504005,6.149403455710691e-05,7.665779918516825e-05,3.46447128816663e-05,7.0667,6.4
2.5703125,-0.00035936908270542455,-1.937487901121521e-06,4.538444155184254e-05,3.0739357001602215e-05,7.0667,6.4
2.57421875,-0.00034374765918516824,-5.354674296177598e-06,5.1730644856946685e-05,3.220386545662624e-05,7.0667,6.4
2.578125,-0.00031882050485694665,5.417149228198674e-05,7.324061279011216e-05,3.4156543396658294e-05,7.0667,6.4
2.58203125,-0.0003124743015518425,5.612417022201878e-05,0.00010448345983062488,3.4156543396658294e-05,7.0667,6.4
2.5859375,-0.0002988055559716182,5.368332279697873e-05,8.935020579537654e-05,3.5132882366674316e-05,7.0667,6.4
2.58984375,-0.0002817196239963378,5.270698382696271e-05,5.71005091920348e-05,2.488132318150608e-05,7.0667,6.4
2.59375,-0.00028367230193636984,3.806189927672238e-05,5.319515331197072e-05,2.7322170606546137e-05,7.0667,6.4
2.59765625,-0.000291971183181506,4.684895000686658e-05,5.319515331197072e-05,3.4156543396658294e-05,7.0667,6.4
2.6015625,-0.0002558466412909132,4.0990916186770444e-05,3.8550068761730395e-05,3.46447128816663e-05,7.0667,6.4
2.60546875,-0.00023583169240558478,1.1700747086289786e-05,2.878667906157017e-05,3.4156543396658294e-05,7.0667,6.4
2.609375,-0.0002597519971709773,4.001457721675442e-05,4.1479085671778456e-05,3.0739357001602215e-05,7.0667,6.4
2.61328125,-0.0002695153868711375,4.5872611036850557e-05,7.03115958800641e-05,3.562105185168232e-05,7.0667,6.4
2.6171875,-0.0002548703023208972,4.196725515678646e-05,7.079976536507211e-05,3.5132882366674316e-05,7.0667,6.4
2.62109375,-0.00023924887880064083,5.612417022201878e-05,3.610922133669034e-05,3.220386545662624e-05,7.0667,6.4
2.625,-0.00024217789571068894,6.0029526102082876e-05,3.952640773174641e-05,3.3668373911650276e-05,7.0667,6.4
2.62890625,-0.00024217789571068894,6.393488198214696e-05,4.391993309681851e-05,3.610922133669034e-05,7.0667,6.4
2.6328125,-0.0002538939633508812,3.1227526486610226e-05,1.6582441936369896e-05,3.659739082169834e-05,7.0667,6.4
2.63671875,-0.0002416897262256809,2.3416814726482047e-05,1.8535119876401938e-05,2.7322170606546137e-05,7.0667,6.4
2.640625,-0.00022948548910048063,1.1700747086289786e-05,2.829850957656216e-05,2.3416814726482047e-05,7.0667,6.4
2.64453125,-0.0002236274552803845,2.829850957656216e-05,2.7810340091554148e-05,3.171569597161824e-05,7.0667,6.4
2.6484375,-0.00020507701485008008,4.7825288976882595e-05,1.7070611421377907e-05,3.7085560306706354e-05,7.0667,6.4
2.65234375,-0.00022069843837033644,9.259899661249731e-06,2.7810340091554148e-05,3.952640773174641e-05,7.0667,6.4
2.65625,-0.00020654152330510414,3.659739082169834e-05,5.1730644856946685e-05,3.610922133669034e-05,7.0667,6.4
2.66015625,-0.00017331548773174638,5.758867867704282e-05,4.636078052185856e-05,2.976301803158619e-05,7.0667,6.4
2.6640625,-0.0001698983013366903,3.318020442664227e-05,2.439315369649807e-05,3.0739357001602215e-05,7.0667,6.4
2.66796875,-0.0001747799961867704,3.610922133669034e-05,4.9289797431906635e-05,3.7573729791714366e-05,7.0667,6.4
2.671875,-0.00017331548773174638,3.220386545662624e-05,6.198220404211491e-05,3.46447128816663e-05,7.0667,6.4
2.67578125,-0.00015769406421149002,4.636078052185856e-05,1.5117933481345863e-05,2.9274848546578178e-05,7.0667,6.4
2.6796875,-0.00015525321678644996,7.568146021515222e-05,1.8046950391393927e-05,2.9274848546578178e-05,7.0667,6.4
2.68359375,-0.00016501660648661018,3.171569597161824e-05,1.755878090638592e-05,2.9274848546578178e-05,7.0667,6.4
2.6875,-0.00016257575906157014,1.6094272451361885e-05,2.878667906157017e-05,3.3668373911650276e-05,7.0667,6.4
2.69140625,-0.00015720589472648203,3.171569597161824e-05,3.952640773174641e-05,3.562105185168232e-05,7.0667,6.4
2.6953125,-0.00015867040318150605,2.3904984211490058e-05,1.951145884641796e-05,3.171569597161824e-05,7.0667,6.4
2.69921875,-0.000156229555756466,4.9289797431906635e-05,2.292864524147404e-05,2.6834001121538125e-05,7.0667,6.4
2.703125,-0.0001523241998764019,6.051769558709088e-05,4.538444155184254e-05,3.5132882366674316e-05,7.0667,6.4
2.70703125,-0.00014939518296635385,5.417149228198674e-05,5.319515331197072e-05,4.294359412680248e-05,7.0667,6.4
2.7109375,-0.00014158447120622564,7.51932907301442e-05,4.196725515678646e-05,3.8550068761730395e-05,7.0667,6.4
2.71484375,-0.00011571148850080108,7.763413815518427e-05,5.66123397070268e-05,3.562105185168232e-05,7.0667,6.4
2.71875,-0.00011034162416571295,3.90382382467384e-05,4.1479085671778456e-05,2.5857662151522106e-05,7.0667,6.4
2.72265625,-0.00010057823446555274,1.7070611421377907e-05,1.9999628331425975e-05,1.902328936140995e-05,7.0667,6.4
2.7265625,-0.00011131796313572899,2.976301803158619e-05,2.1464136786450005e-05,2.878667906157017e-05,7.0667,6.4
2.73046875,-0.0001391436237811856,3.0739357001602215e-05,2.7810340091554148e-05,3.90382382467384e-05,7.0667,6.4
2.734375,-0.00013523826790112152,4.294359412680248e-05,5.612417022201878e-05,4.001457721675442e-05,7.0667,6.4
2.73828125,-0.00014256081017624168,5.5636000737010774e-05,4.4896272066834534e-05,3.7573729791714366e-05,7.0667,6.4
2.7421875,-0.00010350725137560079,7.079976536507211e-05,3.5132882366674316e-05,3.952640773174641e-05,7.0667,6.4
2.74609375,-9.276752270542456e-05,6.539939043717099e-05,4.245542464179448e-05,3.46447128816663e-05,7.0667,6.4
2.75,-0.00012254586129091324,6.787074845502406e-05,2.439315369649807e-05,2.7322170606546137e-05,7.0667,6.4
2.75390625,-0.00011375881056076903,4.0990916186770444e-05,4.866374296177632e-06,3.220386545662624e-05,7.0667,6.4
2.7578125,-0.00011278247159075301,1.6582441936369896e-05,1.4629763996337851e-05,3.4156543396658294e-05,7.0667,6.4
2.76171875,-0.0001161996579858091,5.8076848162050824e-05,1.6094272451361885e-05,2.5857662151522106e-05,7.0667,6.4
2.765625,-0.00012693938665598532,6.442305146715498e-05,3.220386545662624e-05,2.9274848546578178e-05,7.0667,6.4
2.76953125,-0.00011375881056076903,6.5887559922179e-05,6.982342639505609e-05,4.196725515678646e-05,7.0667,6.4
2.7734375,-7.812243815518424e-05,5.368332279697873e-05,5.758867867704282e-05,4.1479085671778456e-05,7.0667,6.4
2.77734375,-8.642131940032042e-05,2.5857662151522106e-05,2.5857662151522106e-05,3.4156543396658294e-05,7.0667,6.4
2.78125,-0.00010253091240558478,1.5117933481345863e-05,1.7070611421377907e-05,3.1227526486610226e-05,7.0667,6.4
2.78515625,-9.91137260105287e-05,4.684895000686658e-05,5.758867867704282e-05,3.90382382467384e-05,7.0667,6.4
2.7890625,-7.763426867017622e-05,5.66123397070268e-05,6.295854301213094e-05,3.7085560306706354e-05,7.0667,6.4
2.79296875,-6.738270948500799e-05,4.7337119491874584e-05,5.856501764705884e-05,3.46447128816663e-05,7.0667,6.4
2.796875,-6.933538742504003e-05,6.344671249713895e-05,5.612417022201878e-05,3.1227526486610226e-05,7.0667,6.4
2.80078125,-7.372891279011213e-05,3.562105185168232e-05,1.755878090638592e-05,2.976301803158619e-05,7.0667,6.4
2.8046875,-6.1005995587090846e-05,1.1212577601281776e-05,1.4141594511329842e-05,3.7085560306706354e-05,7.0667,6.4
2.80859375,-5.563613125200272e-05,6.051769558709088e-05,5.612417022201878e-05,3.7573729791714366e-05,7.0667,6.4
2.8125,-7.861060764019224e-05,8.886203631036852e-05,7.42169517601282e-05,2.7810340091554148e-05,7.0667,6.4
2.81640625,-8.690948888532842e-05,8.446851094529643e-05,6.982342639505609e-05,3.220386545662624e-05,7.0667,6.4
2.8203125,-8.935033631036849e-05,6.247037352712293e-05,3.3668373911650276e-05,4.294359412680248e-05,7.0667,6.4
2.82421875,-9.130301425040053e-05,2.439315369649807e-05,6.819052236209676e-06,3.90382382467384e-05,7.0667,6.4
2.828125,-8.690948888532842e-05,3.90382382467384e-05,5.026613640192266e-05,3.7573729791714366e-05,7.0667,6.4
2.83203125,-0.000112294302105745,7.812230764019227e-05,5.954135661707486e-05,4.0990916186770444e-05,7.0667,6.4
2.8359375,-0.00013963179326619362,9.032654476539255e-05,3.562105185168232e-05,3.7085560306706354e-05,7.0667,6.4
2.83984375,-0.0001645284370016022,7.568146021515222e-05,4.050274670176243e-05,3.220386545662624e-05,7.0667,6.4
2.84375,-0.00018259070794689858,4.391993309681851e-05,4.0990916186770444e-05,3.1227526486610226e-05,7.0667,6.4
2.84765625,-0.00018063803000686654,3.7573729791714366e-05,4.538444155184254e-05,3.171569597161824e-05,7.0667,6.4
2.8515625,-0.0001923540976470588,4.391993309681851e-05,6.247037352712293e-05,3.1227526486610226e-05,7.0667,6.4
2.85546875,-0.00020019531999999999,6.330882751201665e-06,5.758867867704282e-05,2.7810340091554148e-05,7.0667,6.4
2.859375,-0.00020410067588006408,3.610922133669034e-05,-5.842843781185608e-06,2.878667906157017e-05,7.0667,6.4
2.86328125,-0.00021728125197528037,5.5636000737010774e-05,-7.795521721217652e-06,2.7810340091554148e-05,7.0667,6.4
2.8671875,-0.00021239955712520025,4.7825288976882595e-05,5.026613640192266e-05,3.171569597161824e-05,7.0667,6.4
2.87109375,-0.00020995870970016018,7.616962970016024e-05,4.977796691691464e-05,2.829850957656216e-05,7.0667,6.4
2.875,-0.00021337589609521628,6.689440948500802e-05,6.491122095216298e-05,2.5857662151522106e-05,7.0667,6.4
2.87890625,-0.00022021026888532843,6.442305146715498e-05,5.270698382696271e-05,2.488132318150608e-05,7.0667,6.4
2.8828125,-0.00020751786227512012,5.66123397070268e-05,2.3416814726482047e-05,2.0487797816433986e-05,7.0667,6.4
2.88671875,-0.00019577128404211488,3.610922133669034e-05,3.4156543396658294e-05,3.171569597161824e-05,7.0667,6.4
2.890625,-0.0001928422671320668,3.7573729791714366e-05,4.7825288976882595e-05,2.976301803158619e-05,7.0667,6.4
2.89453125,-0.00018698423331197067,3.8550068761730395e-05,3.0739357001602215e-05,2.6345831636530114e-05,7.0667,6.4
2.8984375,-0.00017966169103685053,4.636078052185856e-05,3.3668373911650276e-05,3.269203494163426e-05,7.0667,6.4
2.90234375,-0.0001518360303913939,8.83738668253605e-05,6.884708742504007e-05,3.318020442664227e-05,7.0667,6.4
2.90625,-0.00015378870833142593,7.372878227512018e-05,5.71005091920348e-05,3.269203494163426e-05,7.0667,6.4
2.91015625,-0.00015378870833142593,6.835891794003205e-05,4.245542464179448e-05,3.220386545662624e-05,7.0667,6.4
2.9140625,-0.00015134786090638587,6.0029526102082876e-05,4.636078052185856e-05,2.5369492666514095e-05,7.0667,6.4
2.91796875,-0.00014939518296635385,2.2440475756466028e-05,9.259899661249731e-06,2.2440475756466028e-05,7.0667,6.4
2.921875,-0.00013523826790112152,4.196725515678646e-05,2.439315369649807e-05,2.976301803158619e-05,7.0667,6.4
2.92578125,-0.00012742755614099334,7.079976536507211e-05,7.90986466102083e-05,3.5132882366674316e-05,7.0667,6.4
2.9296875,-0.0001166878274708171,6.247037352712293e-05,7.177610433508813e-05,3.610922133669034e-05,7.0667,6.4
2.93359375,-0.00011180613262073699,4.001457721675442e-05,4.050274670176243e-05,3.8550068761730395e-05,7.0667,6.4
2.9375,-0.00010545992931563284,4.831345846189061e-05,3.562105185168232e-05,3.0739357001602215e-05,7.0667,6.4
2.94140625,-9.325569219043258e-05,5.270698382696271e-05,2.0975967301441994e-05,2.6345831636530114e-05,7.0667,6.4
2.9453125,-9.325569219043258e-05,3.806189927672238e-05,4.7825288976882595e-05,3.5132882366674316e-05,7.0667,6.4
2.94921875,-9.91137260105287e-05,4.001457721675442e-05,3.90382382467384e-05,4.440810258182652e-05,7.0667,6.4
2.953125,-0.00010350725137560079,3.806189927672238e-05,1.1700747086289786e-05,4.196725515678646e-05,7.0667,6.4
2.95703125,-9.179118373540854e-05,-7.795521721217652e-06,9.748069146257742e-06,3.806189927672238e-05,7.0667,6.4
2.9609375,-7.665792970016021e-05,-1.560623348134583e-05,4.7284893110553325e-07,3.8550068761730395e-05,7.0667,6.4
2.96484375,-7.958694661020826e-05,3.562105185168232e-05,1.0236238631265752e-05,3.562105185168232e-05,7.0667,6.4
2.96875,-8.007511609521628e-05,5.758867867704282e-05,3.171569597161824e-05,3.659739082169834e-05,7.0667,6.4
2.97265625,-9.325569219043258e-05,3.90382382467384e-05,3.4156543396658294e-05,3.952640773174641e-05,7.0667,6.4
2.9765625,-9.47202006454566e-05,1.937357386129566e-06,2.0975967301441994e-05,4.050274670176243e-05,7.0667,6.4
2.98046875,-6.738270948500799e-05,2.3416814726482047e-05,3.171569597161824e-05,3.5132882366674316e-05,7.0667,6.4
2.984375,-5.465979228198671e-05,9.748069146257742e-06,4.245542464179448e-05,3.562105185168232e-05,7.0667,6.4
2.98828125,-6.198233455710688e-05,2.0975967301441994e-05,5.66123397070268e-05,3.90382382467384e-05,7.0667,6.4
2.9921875,-8.007511609521628e-05,6.198220404211491e-05,4.294359412680248e-05,3.562105185168232e-05,7.0667,6.4
2.99609375,-5.6612470222018745e-05,5.954135661707486e-05,1.365342502632183e-05,3.1227526486610226e-05,7.0667,6.4
3.0,-1.951158936140992e-05,6.0029526102082876e-05,3.0251187516594204e-05,2.878667906157017e-05,7.0667,6.4
3.00390625,-1.2677216571297761e-05,4.294359412680248e-05,4.440810258182652e-05,2.878667906157017e-05,7.0667,6.4
3.0078125,-4.3431894126802455e-05,3.3668373911650276e-05,3.806189927672238e-05,3.610922133669034e-05,7.0667,6.4
3.01171875,-4.392006361181047e-05,2.6345831636530114e-05,3.659739082169834e-05,3.806189927672238e-05,7.0667,6.4
3.015625,-2.732230112153809e-05,5.2218814341954696e-05,3.562105185168232e-05,2.9274848546578178e-05,7.0667,6.4
3.01953125,-3.708569082169831e-05,4.001457721675442e-05,3.659739082169834e-05,2.3904984211490058e-05,7.0667,6.4
3.0234375,-5.842843781185608e-06,2.6834001121538125e-05,4.294359412680248e-05,2.439315369649807e-05,7.0667,6.4
3.02734375,-3.401996356145554e-06,4.636078052185856e-05,5.71005091920348e-05,2.7322170606546137e-05,7.0667,6.4
3.03125,-1.4141725026321795e-05,3.318020442664227e-05,4.7337119491874584e-05,2.6345831636530114e-05,7.0667,6.4
3.03515625,1.5117933481345863e-05,2.9274848546578178e-05,3.318020442664227e-05,2.439315369649807e-05,7.0667,6.4
3.0390625,1.365342502632183e-05,4.391993309681851e-05,4.7825288976882595e-05,2.6834001121538125e-05,7.0667,6.4
3.04296875,-4.3783353261615755e-06,5.319515331197072e-05,2.439315369649807e-05,2.878667906157017e-05,7.0667,6.4
3.046875,-3.401996356145554e-06,3.5132882366674316e-05,-3.401996356145554e-06,2.6345831636530114e-05,7.0667,6.4
3.05078125,-8.771860691233675e-06,4.4896272066834534e-05,6.330882751201665e-06,2.5369492666514095e-05,7.0667,6.4
3.0546875,-3.122765700160218e-05,1.755878090638592e-05,1.5606102966353874e-05,3.171569597161824e-05,7.0667,6.4
3.05859375,-1.5118063996337817e-05,-8.283691206225664e-06,1.3165255541313818e-05,3.0739357001602215e-05,7.0667,6.4
3.0625,4.866374296177632e-06,8.283560691233709e-06,-4.72979446097488e-07,3.1227526486610226e-05,7.0667,6.4
3.06640625,-4.3783353261615755e-06,7.795391206225697e-06,-2.536962318150605e-05,3.3668373911650276e-05,7.0667,6.4
3.0703125,-8.771860691233675e-06,1.9999628331425975e-05,7.307221721217687e-06,2.5369492666514095e-05,7.0667,6.4
3.07421875,1.4491879011215552e-06,3.3668373911650276e-05,2.829850957656216e-05,2.976301803158619e-05,7.0667,6.4
3.078125,9.748069146257742e-06,6.393488198214696e-05,9.748069146257742e-06,2.3904984211490058e-05,7.0667,6.4
3.08203125,1.9999628331425975e-05,5.026613640192266e-05,1.0724408116273763e-05,1.5606102966353874e-05,7.0667,6.4
3.0859375,-1.937487901121521e-06,-2.425657386129532e-06,2.3416814726482047e-05,2.3416814726482047e-05,7.0667,6.4
3.08984375,2.913696356145588e-06,1.4491879011215552e-06,6.819052236209676e-06,2.2440475756466028e-05,7.0667,6.4
3.09375,2.829850957656216e-05,3.4156543396658294e-05,-2.2440606271457983e-05,2.1952306271458016e-05,7.0667,6.4
3.09765625,3.171569597161824e-05,1.6582441936369896e-05,-3.2692165456626215e-05,2.829850957656216e-05,7.0667,6.4
3.1015625,1.7070611421377907e-05,2.1464136786450005e-05,-1.609440296635384e-05,2.6834001121538125e-05,7.0667,6.4
3.10546875,2.5857662151522106e-05,3.90382382467384e-05,-2.425657386129532e-06,2.0975967301441994e-05,7.0667,6.4
3.109375,3.0251187516594204e-05,4.4896272066834534e-05,3.1227526486610226e-05,2.488132318150608e-05,7.0667,6.4
3.11328125,6.330882751201665e-06,8.105132455024035e-05,6.539939043717099e-05,3.0739357001602215e-05,7.0667,6.4
3.1171875,5.354543781185643e-06,4.7284893110553325e-07,-4.866504811169587e-06,2.3416814726482047e-05,7.0667,6.4
3.12109375,-9.748199661249696e-06,-6.982355691004805e-05,-3.757386030670632e-05,2.488132318150608e-05,7.0667,6.4
3.125,1.4491879011215552e-06,1.0236238631265752e-05,-1.3165386056305774e-05,2.976301803158619e-05,7.0667,6.4
3.12890625,2.3904984211490058e-05,7.795391206225697e-06,-1.0236369146257707e-05,2.976301803158619e-05,7.0667,6.4
3.1328125,9.748069146257742e-06,-2.146426730144196e-05,9.610184161135442e-07,2.976301803158619e-05,7.0667,6.4
3.13671875,2.1464136786450005e-05,3.890035326161609e-06,3.0739357001602215e-05,2.2440475756466028e-05,7.0667,6.4
3.140625,3.0739357001602215e-05,3.610922133669034e-05,4.1479085671778456e-05,1.8046950391393927e-05,7.0667,6.4
3.14453125,2.7810340091554148e-05,2.7322170606546137e-05,3.890035326161609e-06,2.3416814726482047e-05,7.0667,6.4
3.1484375,2.878667906157017e-05,8.283560691233709e-06,-9.748199661249696e-06,2.5857662151522106e-05,7.0667,6.4
3.15234375,1.8046950391393927e-05,2.488132318150608e-05,-1.3653555541313785e-05,1.5117933481345863e-05,7.0667,6.4
3.15625,1.365342502632183e-05,3.401865841153599e-06,-2.683413163653008e-05,1.0724408116273763e-05,7.0667,6.4
3.16015625,1.3165255541313818e-05,-2.634596215152207e-05,-8.771860691233675e-06,2.0975967301441994e-05,7.0667,6.4
3.1640625,2.0975967301441994e-05,3.401865841153599e-06,6.819052236209676e-06,2.3416814726482047e-05,7.0667,6.4
3.16796875,2.976301803158619e-05,3.90382382467384e-05,4.378204811169621e-06,2.292864524147404e-05,7.0667,6.4
3.171875,3.318020442664227e-05,6.10058650720989e-05,2.878667906157017e-05,2.6345831636530114e-05,7.0667,6.4
3.17578125,3.7573729791714366e-05,7.226427382009615e-05,2.7322170606546137e-05,2.3904984211490058e-05,7.0667,6.4
3.1796875,1.902328936140995e-05,5.270698382696271e-05,9.610184161135442e-07,1.4629763996337851e-05,7.0667,6.4
3.18359375,4.196725515678646e-05,4.050274670176243e-05,-1.755891142137787e-05,1.4141594511329842e-05,7.0667,6.4
3.1875,7.128793485008013e-05,3.0251187516594204e-05,1.8535119876401938e-05,1.9999628331425975e-05,7.0667,6.4
3.19140625,6.787074845502406e-05,2.1952306271458016e-05,4.5872611036850557e-05,1.7070611421377907e-05,7.0667,6.4
3.1953125,5.514783125200276e-05,4.636078052185856e-05,1.5117933481345863e-05,2.3416814726482047e-05,7.0667,6.4
3.19921875,5.856501764705884e-05,3.7085560306706354e-05,1.2677086056305808e-05,2.292864524147404e-05,7.0667,6.4
3.203125,8.690935837033648e-05,5.354543781185643e-06,2.3416814726482047e-05,2.0975967301441994e-05,7.0667,6.4
3.20703125,8.105132455024035e-05,5.075430588693066e-05,1.2677086056305808e-05,2.6345831636530114e-05,7.0667,6.4
3.2109375,7.079976536507211e-05,5.8076848162050824e-05,9.748069146257742e-06,2.439315369649807e-05,7.0667,6.4
3.21484375,7.177610433508813e-05,4.977796691691464e-05,4.0990916186770444e-05,2.2440475756466028e-05,7.0667,6.4
3.21875,8.593301940032045e-05,4.440810258182652e-05,4.378204811169621e-06,1.951145884641796e-05,7.0667,6.4
3.22265625,0.00010692430725566493,2.5857662151522106e-05,-3.65975213366903e-05,2.3416814726482047e-05,7.0667,6.4
3.2265625,0.00010399529034561686,5.417149228198674e-05,1.755878090638592e-05,2.6345831636530114e-05,7.0667,6.4
3.23046875,9.71609175555047e-05,2.292864524147404e-05,3.610922133669034e-05,2.488132318150608e-05,7.0667,6.4
3.234375,0.00010057810395056078,2.439315369649807e-05,2.292864524147404e-05,2.3416814726482047e-05,7.0667,6.4
3.23828125,0.00010643613777065691,4.977796691691464e-05,3.4156543396658294e-05,2.878667906157017e-05,7.0667,6.4
3.2421875,9.374373116044863e-05,3.3668373911650276e-05,2.6834001121538125e-05,2.829850957656216e-05,7.0667,6.4
3.24609375,8.202766352025636e-05,4.538444155184254e-05,3.562105185168232e-05,2.292864524147404e-05,7.0667,6.4
3.25,8.153949403524835e-05,7.324061279011216e-05,3.90382382467384e-05,2.7810340091554148e-05,7.0667,6.4
3.25390625,8.349217197528039e-05,6.393488198214696e-05,1.755878090638592e-05,1.4629763996337851e-05,7.0667,6.4
3.2578125,8.983837528038453e-05,2.976301803158619e-05,1.6582441936369896e-05,1.2188916571297797e-05,7.0667,6.4
3.26171875,9.569640910048068e-05,4.9289797431906635e-05,3.0739357001602215e-05,2.292864524147404e-05,7.0667,6.4
3.265625,9.276739219043261e-05,6.884708742504007e-05,4.7825288976882595e-05,2.3416814726482047e-05,7.0667,6.4
3.26953125,7.665779918516825e-05,6.442305146715498e-05,4.880162794689862e-05,2.1952306271458016e-05,7.0667,6.4
3.2734375,5.026613640192266e-05,5.319515331197072e-05,5.368332279697873e-05,2.3416814726482047e-05,7.0667,6.4
3.27734375,5.612417022201878e-05,3.220386545662624e-05,3.659739082169834e-05,2.439315369649807e-05,7.0667,6.4
3.28125,6.0029526102082876e-05,2.3904984211490058e-05,4.378204811169621e-06,1.6582441936369896e-05,7.0667,6.4
3.28515625,6.10058650720989e-05,4.7337119491874584e-05,9.259899661249731e-06,1.3165255541313818e-05,7.0667,6.4
3.2890625,6.393488198214696e-05,4.636078052185856e-05,1.4141594511329842e-05,1.9999628331425975e-05,7.0667,6.4
3.29296875,6.198220404211491e-05,5.612417022201878e-05,3.806189927672238e-05,2.3904984211490058e-05,7.0667,6.4
3.296875,7.079976536507211e-05,7.51932907301442e-05,4.245542464179448e-05,1.755878090638592e-05,7.0667,6.4
3.30078125,5.270698382696271e-05,5.758867867704282e-05,1.7070611421377907e-05,1.6094272451361885e-05,7.0667,6.4
3.3046875,5.368332279697873e-05,2.3416814726482047e-05,1.8535119876401938e-05,2.0487797816433986e-05,7.0667,6.4
3.30859375,5.5636000737010774e-05,2.2440475756466028e-05,5.758867867704282e-05,2.3904984211490058e-05,7.0667,6.4
3.3125,5.465966176699475e-05,5.5636000737010774e-05,7.568146021515222e-05,2.6345831636530114e-05,7.0667,6.4
3.31640625,7.372878227512018e-05,7.03115958800641e-05,6.149403455710691e-05,1.8046950391393927e-05,7.0667,6.4
3.3203125,9.081471425040057e-05,5.66123397070268e-05,4.684895000686658e-05,9.748069146257742e-06,7.0667,6.4
3.32421875,8.642118888532846e-05,4.050274670176243e-05,4.977796691691464e-05,1.3165255541313818e-05,7.0667,6.4
3.328125,5.270698382696271e-05,3.952640773174641e-05,3.3668373911650276e-05,2.1952306271458016e-05,7.0667,6.4
3.33203125,5.758867867704282e-05,5.026613640192266e-05,2.0487797816433986e-05,1.6582441936369896e-05,7.0667,6.4
3.3359375,5.417149228198674e-05,5.319515331197072e-05,4.196725515678646e-05,1.4629763996337851e-05,7.0667,6.4
3.33984375,4.636078052185856e-05,3.1227526486610226e-05,3.562105185168232e-05,2.5369492666514095e-05,7.0667,6.4
3.34375,5.8076848162050824e-05,3.659739082169834e-05,1.4629763996337851e-05,2.488132318150608e-05,7.0667,6.4
3.34765625,4.636078052185856e-05,3.610922133669034e-05,3.5132882366674316e-05,2.878667906157017e-05,7.0667,6.4
3.3515625,4.7825288976882595e-05,3.952640773174641e-05,3.269203494163426e-05,3.0739357001602215e-05,7.0667,6.4
3.35546875,7.128793485008013e-05,4.7337119491874584e-05,8.283560691233709e-06,1.951145884641796e-05,7.0667,6.4
3.359375,6.738257897001604e-05,1.1700747086289786e-05,9.610184161135442e-07,1.9999628331425975e-05,7.0667,6.4
3.36328125,5.612417022201878e-05,2.6834001121538125e-05,2.2440475756466028e-05,2.0487797816433986e-05,7.0667,6.4
3.3671875,5.2218814341954696e-05,5.856501764705884e-05,4.7825288976882595e-05,2.439315369649807e-05,7.0667,6.4
3.37109375,5.417149228198674e-05,5.612417022201878e-05,5.905318713206685e-05,2.439315369649807e-05,7.0667,6.4
3.375,3.8550068761730395e-05,7.616962970016024e-05,3.806189927672238e-05,1.7070611421377907e-05,7.0667,6.4
3.37890625,3.4156543396658294e-05,6.738257897001604e-05,2.292864524147404e-05,2.6834001121538125e-05,7.0667,6.4
3.3828125,2.439315369649807e-05,4.050274670176243e-05,3.269203494163426e-05,3.1227526486610226e-05,7.0667,6.4
3.38671875,2.1952306271458016e-05,4.245542464179448e-05,5.124247537193867e-05,2.488132318150608e-05,7.0667,6.4
3.390625,3.46447128816663e-05,4.831345846189061e-05,5.124247537193867e-05,3.0251187516594204e-05,7.0667,6.4
3.39453125,2.9274848546578178e-05,3.318020442664227e-05,3.806189927672238e-05,3.220386545662624e-05,7.0667,6.4
3.3984375,4.34317636118105e-05,4.440810258182652e-05,4.636078052185856e-05,4.001457721675442e-05,7.0667,6.4
3.40234375,5.368332279697873e-05,4.050274670176243e-05,2.1464136786450005e-05,4.050274670176243e-05,7.0667,6.4
3.40625,5.8076848162050824e-05,5.368332279697873e-05,2.0487797816433986e-05,2.6345831636530114e-05,7.0667,6.4
3.41015625,6.442305146715498e-05,7.128793485008013e-05,2.6345831636530114e-05,2.7810340091554148e-05,7.0667,6.4
3.4140625,6.10058650720989e-05,5.124247537193867e-05,4.001457721675442e-05,3.0739357001602215e-05,7.0667,6.4
3.41796875,6.738257897001604e-05,5.66123397070268e-05,4.9289797431906635e-05,2.976301803158619e-05,7.0667,6.4
3.421875,6.933525691004809e-05,6.738257897001604e-05,3.318020442664227e-05,3.0251187516594204e-05,7.0667,6.4
3.42578125,6.835891794003205e-05,5.758867867704282e-05,2.829850957656216e-05,2.7322170606546137e-05,7.0667,6.4
3.4296875,5.71005091920348e-05,5.465966176699475e-05,3.5132882366674316e-05,2.5857662151522106e-05,7.0667,6.4
3.43359375,4.245542464179448e-05,3.3668373911650276e-05,2.488132318150608e-05,2.488132318150608e-05,7.0667,6.4
3.4375,4.4896272066834534e-05,2.1952306271458016e-05,1.6582441936369896e-05,2.3904984211490058e-05,7.0667,6.4
3.44140625,4.4896272066834534e-05,5.71005091920348e-05,2.829850957656216e-05,2.5857662151522106e-05,7.0667,6.4
3.4453125,5.514783125200276e-05,5.417149228198674e-05,3.90382382467384e-05,2.488132318150608e-05,7.0667,6.4
3.44921875,6.933525691004809e-05,3.0739357001602215e-05,4.5872611036850557e-05,2.9274848546578178e-05,7.0667,6.4
3.453125,5.758867867704282e-05,1.6094272451361885e-05,-5.842843781185608e-06,2.3904984211490058e-05,7.0667,6.4
3.45703125,3.7573729791714366e-05,4.001457721675442e-05,-1.2189047086289752e-05,2.0487797816433986e-05,7.0667,6.4
3.4609375,3.0251187516594204e-05,5.270698382696271e-05,2.6834001121538125e-05,2.829850957656216e-05,7.0667,6.4
3.46484375,5.270698382696271e-05,2.3904984211490058e-05,2.7810340091554148e-05,2.878667906157017e-05,7.0667,6.4
3.46875,5.368332279697873e-05,5.465966176699475e-05,3.269203494163426e-05,2.2440475756466028e-05,7.0667,6.4
3.47265625,4.7337119491874584e-05,6.149403455710691e-05,2.0487797816433986e-05,2.6834001121538125e-05,7.0667,6.4
3.4765625,4.684895000686658e-05,3.90382382467384e-05,2.439315369649807e-05,2.829850957656216e-05,7.0667,6.4
3.48046875,4.684895000686658e-05,3.659739082169834e-05,3.8550068761730395e-05,2.3904984211490058e-05,7.0667,6.4
3.484375,5.758867867704282e-05,1.5606102966353874e-05,3.0739357001602215e-05,2.7810340091554148e-05,7.0667,6.4
3.48828125,6.198220404211491e-05,2.2440475756466028e-05,4.684895000686658e-05,3.0739357001602215e-05,7.0667,6.4
3.4921875,7.03115958800641e-05,2.976301803158619e-05,2.2440475756466028e-05,3.7085560306706354e-05,7.0667,6.4
3.49609375,6.198220404211491e-05,3.318020442664227e-05,1.0236238631265752e-05,3.5132882366674316e-05,7.0667,6.4
3.5,6.442305146715498e-05,4.245542464179448e-05,4.440810258182652e-05,3.269203494163426e-05,7.0667,6.4
3.50390625,9.423190064545664e-05,4.684895000686658e-05,2.6345831636530114e-05,3.7085560306706354e-05,7.0667,6.4
3.5078125,9.081471425040057e-05,4.001457721675442e-05,3.269203494163426e-05,2.7322170606546137e-05,7.0667,6.4
3.51171875,7.47051212451362e-05,4.34317636118105e-05,4.9289797431906635e-05,2.1952306271458016e-05,7.0667,6.4
3.515625,6.689440948500802e-05,4.245542464179448e-05,5.026613640192266e-05,2.5369492666514095e-05,7.0667,6.4
3.51953125,5.319515331197072e-05,2.7810340091554148e-05,4.391993309681851e-05,2.6834001121538125e-05,7.0667,6.4
3.5234375,5.368332279697873e-05,2.439315369649807e-05,1.8535119876401938e-05,2.3416814726482047e-05,7.0667,6.4
3.52734375,6.491122095216298e-05,3.46447128816663e-05,2.1464136786450005e-05,2.488132318150608e-05,7.0667,6.4
3.53125,6.884708742504007e-05,5.319515331197072e-05,3.7085560306706354e-05,2.488132318150608e-05,7.0667,6.4
3.53515625,5.026613640192266e-05,4.294359412680248e-05,3.890035326161609e-06,2.1464136786450005e-05,7.0667,6.4
3.5390625,4.440810258182652e-05,2.0975967301441994e-05,-2.9138268711375426e-06,2.6345831636530114e-05,7.0667,6.4
3.54296875,5.2218814341954696e-05,-4.3783353261615755e-06,4.1479085671778456e-05,3.269203494163426e-05,7.0667,6.4
3.546875,5.026613640192266e-05,-9.61148931105499e-07,4.440810258182652e-05,3.4156543396658294e-05,7.0667,6.4
3.55078125,4.7825288976882595e-05,5.270698382696271e-05,4.5872611036850557e-05,2.6834001121538125e-05,7.0667,6.4
3.5546875,3.8550068761730395e-05,4.977796691691464e-05,4.538444155184254e-05,2.6345831636530114e-05,7.0667,6.4
3.55859375,4.5872611036850557e-05,4.866374296177632e-06,1.1212577601281776e-05,3.269203494163426e-05,7.0667,6.4
3.5625,3.90382382467384e-05,2.3416814726482047e-05,1.5606102966353874e-05,2.7810340091554148e-05,7.0667,6.4
3.56640625,2.7322170606546137e-05,5.758867867704282e-05,5.270698382696271e-05,2.6345831636530114e-05,7.0667,6.4
3.5703125,2.7810340091554148e-05,4.245542464179448e-05,1.951145884641796e-05,2.7810340091554148e-05,7.0667,6.4
3.57421875,2.439315369649807e-05,2.292864524147404e-05,1.365342502632183e-05,2.488132318150608e-05,7.0667,6.4
3.578125,1.9999628331425975e-05,2.292864524147404e-05,4.4896272066834534e-05,3.171569597161824e-05,7.0667,6.4
3.58203125,3.890035326161609e-06,1.6094272451361885e-05,4.977796691691464e-05,3.171569597161824e-05,7.0667,6.4
3.5859375,1.2677086056305808e-05,1.755878090638592e-05,5.026613640192266e-05,2.878667906157017e-05,7.0667,6.4
3.58984375,1.0236238631265752e-05,2.9274848546578178e-05,4.001457721675442e-05,3.1227526486610226e-05,7.0667,6.4
3.59375,-1.937487901121521e-06,1.7070611421377907e-05,3.1227526486610226e-05,2.6834001121538125e-05,7.0667,6.4
3.59765625,1.9999628331425975e-05,2.3416814726482047e-05,4.831345846189061e-05,2.878667906157017e-05,7.0667,6.4
3.6015625,1.6094272451361885e-05,5.5636000737010774e-05,3.1227526486610226e-05,3.0739357001602215e-05,7.0667,6.4
3.60546875,-3.890165841153565e-06,3.90382382467384e-05,8.77173017624172e-06,2.488132318150608e-05,7.0667,6.4
3.609375,-7.795521721217652e-06,-1.44931841611351e-06,2.488132318150608e-05,2.6345831636530114e-05,7.0667,6.4
3.61328125,-9.61148931105499e-07,2.7810340091554148e-05,3.659739082169834e-05,3.46447128816663e-05,7.0667,6.4
3.6171875,-6.819182751201631e-06,5.954135661707486e-05,4.9289797431906635e-05,3.318020442664227e-05,7.0667,6.4
3.62109375,-1.951158936140992e-05,5.66123397070268e-05,6.10058650720989e-05,3.269203494163426e-05,7.0667,6.4
3.625,-8.283691206225664e-06,6.149403455710691e-05,5.1730644856946685e-05,3.171569597161824e-05,7.0667,6.4
3.62890625,2.4255268711375773e-06,5.66123397070268e-05,3.90382382467384e-05,2.6834001121538125e-05,7.0667,6.4
3.6328125,-4.866504811169587e-06,3.952640773174641e-05,4.7825288976882595e-05,2.976301803158619e-05,7.0667,6.4
3.63671875,4.7284893110553325e-07,3.8550068761730395e-05,2.0487797816433986e-05,3.562105185168232e-05,7.0667,6.4
3.640625,3.401865841153599e-06,9.610184161135442e-07,-1.2189047086289752e-05,3.220386545662624e-05,7.0667,6.4
3.64453125,-1.121270811627373e-05,9.259899661249731e-06,1.7070611421377907e-05,3.7085560306706354e-05,7.0667,6.4
3.6484375,-2.3905114726482013e-05,4.831345846189061e-05,4.196725515678646e-05,4.001457721675442e-05,7.0667,6.4
3.65234375,-4.3783353261615755e-06,4.4896272066834534e-05,4.831345846189061e-05,3.3668373911650276e-05,7.0667,6.4
3.65625,-3.401996356145554e-06,4.7337119491874584e-05,5.319515331197072e-05,2.976301803158619e-05,7.0667,6.4
3.66015625,-1.999975884641793e-05,6.051769558709088e-05,5.66123397070268e-05,2.976301803158619e-05,7.0667,6.4
3.6640625,-2.8298640091554114e-05,5.612417022201878e-05,5.905318713206685e-05,3.3668373911650276e-05,7.0667,6.4
3.66796875,-2.634596215152207e-05,3.318020442664227e-05,6.10058650720989e-05,3.5132882366674316e-05,7.0667,6.4
3.671875,-1.609440296635384e-05,1.4629763996337851e-05,4.294359412680248e-05,4.001457721675442e-05,7.0667,6.4
3.67578125,-2.3416945241474e-05,2.439315369649807e-05,3.7085560306706354e-05,4.050274670176243e-05,7.0667,6.4
3.6796875,-1.8535250391393893e-05,2.976301803158619e-05,2.5369492666514095e-05,3.3668373911650276e-05,7.0667,6.4
3.68359375,-4.050287721675439e-05,3.220386545662624e-05,-1.44931841611351e-06,3.318020442664227e-05,7.0667,6.4
3.6875,-5.173077537193864e-05,6.051769558709088e-05,4.294359412680248e-05,3.3668373911650276e-05,7.0667,6.4
3.69140625,-2.8298640091554114e-05,4.880162794689862e-05,7.079976536507211e-05,3.269203494163426e-05,7.0667,6.4
3.6953125,-3.855019927672234e-05,1.0236238631265752e-05,5.319515331197072e-05,3.5132882366674316e-05,7.0667,6.4
3.69921875,-4.001470773174638e-05,5.842713266193654e-06,3.5132882366674316e-05,3.0251187516594204e-05,7.0667,6.4
3.703125,-5.221894485694665e-05,1.4141594511329842e-05,3.269203494163426e-05,2.488132318150608e-05,7.0667,6.4
3.70703125,-3.415667391165024e-05,4.5872611036850557e-05,3.90382382467384e-05,2.829850957656216e-05,7.0667,6.4
3.7109375,-2.536962318150605e-05,5.026613640192266e-05,3.90382382467384e-05,2.6834001121538125e-05,7.0667,6.4
3.71484375,-3.464484339665826e-05,5.075430588693066e-05,2.9274848546578178e-05,2.6345831636530114e-05,7.0667,6.4
3.71875,-3.9038368761730354e-05,4.440810258182652e-05,2.829850957656216e-05,2.878667906157017e-05,7.0667,6.4
3.72265625,-6.0029656617074824e-05,1.902328936140995e-05,4.391993309681851e-05,2.7810340091554148e-05,7.0667,6.4
3.7265625,-6.34468430121309e-05,2.9274848546578178e-05,3.952640773174641e-05,2.0487797816433986e-05,7.0667,6.4
3.73046875,-8.153962455024032e-05,2.1952306271458016e-05,5.319515331197072e-05,1.8046950391393927e-05,7.0667,6.4
3.734375,-9.03266752803845e-05,2.829850957656216e-05,6.491122095216298e-05,2.6834001121538125e-05,7.0667,6.4
3.73828125,-9.960189549553672e-05,5.124247537193867e-05,3.1227526486610226e-05,2.5369492666514095e-05,7.0667,6.4
3.7421875,-0.00011424698004577704,4.34317636118105e-05,1.1700747086289786e-05,2.1952306271458016e-05,7.0667,6.4
3.74609375,-0.00010643626828564887,3.7085560306706354e-05,1.937357386129566e-06,2.0975967301441994e-05,7.0667,6.4
3.75,-9.813738704051269e-05,3.0251187516594204e-05,2.7810340091554148e-05,2.292864524147404e-05,7.0667,6.4
3.75390625,-8.886216682536047e-05,5.2218814341954696e-05,4.0990916186770444e-05,2.5857662151522106e-05,7.0667,6.4
3.7578125,-7.958694661020826e-05,4.001457721675442e-05,2.976301803158619e-05,2.829850957656216e-05,7.0667,6.4
3.76171875,-7.22644043350881e-05,1.8046950391393927e-05,3.8550068761730395e-05,3.659739082169834e-05,7.0667,6.4
3.765625,-5.124260588693063e-05,4.5872611036850557e-05,2.1464136786450005e-05,3.220386545662624e-05,7.0667,6.4
3.76953125,-4.2455555156786426e-05,4.294359412680248e-05,3.3668373911650276e-05,2.878667906157017e-05,7.0667,6.4
3.7734375,-2.195243678644997e-05,1.5606102966353874e-05,4.196725515678646e-05,3.46447128816663e-05,7.0667,6.4
3.77734375,-1.951158936140992e-05,3.0739357001602215e-05,2.1464136786450005e-05,3.0739357001602215e-05,7.0667,6.4
3.78125,-1.560623348134583e-05,6.787074845502406e-05,2.7810340091554148e-05,2.829850957656216e-05,7.0667,6.4
3.78515625,1.6094272451361885e-05,5.1730644856946685e-05,3.8550068761730395e-05,2.829850957656216e-05,7.0667,6.4
3.7890625,1.1212577601281776e-05,3.3668373911650276e-05,2.5369492666514095e-05,3.3668373911650276e-05,7.0667,6.4
3.79296875,2.5857662151522106e-05,4.4896272066834534e-05,5.124247537193867e-05,3.610922133669034e-05,7.0667,6.4
3.796875,5.2218814341954696e-05,3.952640773174641e-05,2.5857662151522106e-05,3.171569597161824e-05,7.0667,6.4
3.80078125,6.393488198214696e-05,2.6345831636530114e-05,-7.307352236209642e-06,2.7322170606546137e-05,7.0667,6.4
3.8046875,7.47051212451362e-05,4.0990916186770444e-05,2.7322170606546137e-05,2.3904984211490058e-05,7.0667,6.4
3.80859375,9.423190064545664e-05,4.7337119491874584e-05,5.465966176699475e-05,3.171569597161824e-05,7.0667,6.4
3.8125,9.227922270542459e-05,2.976301803158619e-05,4.9289797431906635e-05,3.806189927672238e-05,7.0667,6.4
3.81640625,7.47051212451362e-05,3.3668373911650276e-05,2.976301803158619e-05,4.001457721675442e-05,7.0667,6.4
3.8203125,8.105132455024035e-05,6.491122095216298e-05,6.247037352712293e-05,3.952640773174641e-05,7.0667,6.4
3.82421875,9.520823961547266e-05,6.640624000000002e-05,4.9289797431906635e-05,3.4156543396658294e-05,7.0667,6.4
3.828125,0.00010594796828564891,4.538444155184254e-05,1.6582441936369896e-05,2.829850957656216e-05,7.0667,6.4
3.83203125,0.00010448345983062488,4.440810258182652e-05,3.4156543396658294e-05,2.7322170606546137e-05,7.0667,6.4
3.8359375,8.544484991531244e-05,4.7337119491874584e-05,3.7085560306706354e-05,2.7810340091554148e-05,7.0667,6.4
3.83984375,8.78856973403525e-05,1.755878090638592e-05,3.8550068761730395e-05,2.488132318150608e-05,7.0667,6.4
3.84375,7.812230764019227e-05,1.1212577601281776e-05,2.2440475756466028e-05,3.0251187516594204e-05,7.0667,6.4
3.84765625,7.128793485008013e-05,4.880162794689862e-05,2.7322170606546137e-05,3.220386545662624e-05,7.0667,6.4
3.8515625,4.538444155184254e-05,5.026613640192266e-05,4.831345846189061e-05,3.220386545662624e-05,7.0667,6.4
3.85546875,2.488132318150608e-05,4.880162794689862e-05,2.3904984211490058e-05,3.659739082169834e-05,7.0667,6.4
3.859375,3.269203494163426e-05,4.34317636118105e-05,2.9274848546578178e-05,3.7573729791714366e-05,7.0667,6.4
3.86328125,2.2440475756466028e-05,4.866374296177632e-06,3.610922133669034e-05,3.659739082169834e-05,7.0667,6.4
3.8671875,2.2440475756466028e-05,1.365342502632183e-05,3.0739357001602215e-05,3.318020442664227e-05,7.0667,6.4
3.87109375,-9.260030176241686e-06,4.538444155184254e-05,4.391993309681851e-05,3.269203494163426e-05,7.0667,6.4
3.875,-3.464484339665826e-05,5.026613640192266e-05,3.7573729791714366e-05,3.0251187516594204e-05,7.0667,6.4
3.87890625,-2.2440606271457983e-05,3.3668373911650276e-05,3.3668373911650276e-05,3.1227526486610226e-05,7.0667,6.4
3.8828125,-4.001470773174638e-05,2.0487797816433986e-05,2.6834001121538125e-05,3.610922133669034e-05,7.0667,6.4
3.88671875,-5.514796176699472e-05,2.0487797816433986e-05,2.488132318150608e-05,3.318020442664227e-05,7.0667,6.4
3.890625,-6.393501249713892e-05,2.1464136786450005e-05,2.292864524147404e-05,3.4156543396658294e-05,7.0667,6.4
3.89453125,-7.812243815518424e-05,1.8535119876401938e-05,1.1212577601281776e-05,4.050274670176243e-05,7.0667,6.4
3.8984375,-8.54449804303044e-05,9.748069146257742e-06,1.951145884641796e-05,3.1227526486610226e-05,7.0667,6.4
3.90234375,-7.421708227512015e-05,4.538444155184254e-05,3.3668373911650276e-05,2.292864524147404e-05,7.0667,6.4
3.90625,-6.637585992217897e-05,7.47051212451362e-05,3.5132882366674316e-05,2.292864524147404e-05,7.0667,6.4
3.91015625,-8.788582785534446e-05,5.856501764705884e-05,4.34317636118105e-05,2.7810340091554148e-05,7.0667,6.4
3.9140625,-0.0001030190818905928,4.1479085671778456e-05,5.026613640192266e-05,3.1227526486610226e-05,7.0667,6.4
3.91796875,-8.837399734035246e-05,1.5117933481345863e-05,1.9999628331425975e-05,2.878667906157017e-05,7.0667,6.4
3.921875,-9.618470910048064e-05,2.0975967301441994e-05,1.6582441936369896e-05,3.0251187516594204e-05,7.0667,6.4
3.92578125,-0.00013767911532616155,6.295854301213094e-05,3.5132882366674316e-05,3.0251187516594204e-05,7.0667,6.4
3.9296875,-0.00018600789434195466,4.294359412680248e-05,3.952640773174641e-05,2.5857662151522106e-05,7.0667,6.4
3.93359375,-0.00019772396198214693,2.976301803158619e-05,4.7337119491874584e-05,2.488132318150608e-05,7.0667,6.4
3.9375,-0.00021386406558022427,4.7825288976882595e-05,4.050274670176243e-05,3.318020442664227e-05,7.0667,6.4
3.94140625,-0.0002280209806454566,4.294359412680248e-05,2.9274848546578178e-05,3.4156543396658294e-05,7.0667,6.4
3.9453125,-0.00022850915013046462,4.9289797431906635e-05,4.050274670176243e-05,3.0251187516594204e-05,7.0667,6.4
3.94921875,-0.00020800603176012816,5.612417022201878e-05,4.440810258182652e-05,2.878667906157017e-05,7.0667,6.4
3.953125,-0.0001786853520668345,3.90382382467384e-05,2.2440475756466028e-05,3.171569597161824e-05,7.0667,6.4
3.95703125,-0.00018551972485694664,3.3668373911650276e-05,1.0724408116273763e-05,3.610922133669034e-05,7.0667,6.4
3.9609375,-0.0001703864708216983,5.368332279697873e-05,2.3904984211490058e-05,3.0251187516594204e-05,7.0667,6.4
3.96484375,-0.00016013491163653008,3.806189927672238e-05,3.562105185168232e-05,2.7810340091554148e-05,7.0667,6.4
3.96875,-0.00015427687781643392,4.5872611036850557e-05,2.488132318150608e-05,2.3904984211490058e-05,7.0667,6.4
3.97265625,-0.00014890701348134583,4.050274670176243e-05,2.3416814726482047e-05,1.9999628331425975e-05,7.0667,6.4
3.9765625,-0.0001703864708216983,-8.283691206225664e-06,2.5369492666514095e-05,2.439315369649807e-05,7.0667,6.4
3.98046875,-0.00018356704691691462,1.1212577601281776e-05,2.5369492666514095e-05,2.878667906157017e-05,7.0667,6.4
3.984375,-0.00020361250639505606,3.171569597161824e-05,1.902328936140995e-05,3.1227526486610226e-05,7.0667,6.4
3.98828125,-0.00018649606382696267,4.294359412680248e-05,3.46447128816663e-05,3.318020442664227e-05,7.0667,6.4
3.9921875,-0.00016501660648661018,5.2218814341954696e-05,6.149403455710691e-05,3.3668373911650276e-05,7.0667,6.4
3.99609375,-0.00016794562339665823,3.562105185168232e-05,6.393488198214696e-05,3.562105185168232e-05,7.0667,6.4
4.0,-0.0001645284370016022,2.6345831636530114e-05,3.90382382467384e-05,3.269203494163426e-05,7.0667,6.4
4.00390625,-0.00016892196236667427,4.5872611036850557e-05,2.829850957656216e-05,2.976301803158619e-05,7.0667,6.4
4.0078125,-0.000155741386271458,3.220386545662624e-05,3.3668373911650276e-05,3.171569597161824e-05,7.0667,6.4
4.01171875,-0.00013670277635614557,2.3416814726482047e-05,1.8535119876401938e-05,3.5132882366674316e-05,7.0667,6.4
4.015625,-0.00012156952232089721,4.1479085671778456e-05,9.259899661249731e-06,3.5132882366674316e-05,7.0667,6.4
4.01953125,-9.276752270542456e-05,3.269203494163426e-05,8.77173017624172e-06,2.488132318150608e-05,7.0667,6.4
4.0234375,-6.149416507209886e-05,3.562105185168232e-05,2.6345831636530114e-05,2.6834001121538125e-05,7.0667,6.4
4.02734375,-1.658257245136185e-05,8.105132455024035e-05,4.880162794689862e-05,3.562105185168232e-05,7.0667,6.4
4.03125,-1.44931841611351e-06,6.539939043717099e-05,4.538444155184254e-05,2.7810340091554148e-05,7.0667,6.4
4.03515625,2.913696356145588e-06,5.1730644856946685e-05,3.610922133669034e-05,2.5369492666514095e-05,7.0667,6.4
4.0390625,7.795391206225697e-06,5.5636000737010774e-05,3.171569597161824e-05,2.878667906157017e-05,7.0667,6.4
4.04296875,1.951145884641796e-05,1.4629763996337851e-05,1.4141594511329842e-05,3.171569597161824e-05,7.0667,6.4
4.046875,2.9274848546578178e-05,2.5857662151522106e-05,2.829850957656216e-05,3.220386545662624e-05,7.0667,6.4
4.05078125,3.7085560306706354e-05,3.0739357001602215e-05,4.636078052185856e-05,2.976301803158619e-05,7.0667,6.4
4.0546875,7.42169517601282e-05,3.0739357001602215e-05,4.294359412680248e-05,3.3668373911650276e-05,7.0667,6.4
4.05859375,0.00010448345983062488,2.878667906157017e-05,2.5369492666514095e-05,3.8550068761730395e-05,7.0667,6.4
4.0625,0.00013816715429617763,7.795391206225697e-06,2.9274848546578178e-05,3.269203494163426e-05,7.0667,6.4
4.06640625,0.00017038634030670636,2.439315369649807e-05,4.440810258182652e-05,2.7810340091554148e-05,7.0667,6.4
4.0703125,0.00018747227228198672,2.878667906157017e-05,2.9274848546578178e-05,2.878667906157017e-05,7.0667,6.4
4.07421875,0.00021874562991531246,3.952640773174641e-05,2.7810340091554148e-05,3.220386545662624e-05,7.0667,6.4
4.078125,0.0002309498670405127,5.075430588693066e-05,4.7337119491874584e-05,3.46447128816663e-05,7.0667,6.4
4.08203125,0.0002480357990157931,6.295854301213094e-05,4.538444155184254e-05,3.171569597161824e-05,7.0667,6.4
4.0859375,0.0002846485103913939,5.2218814341954696e-05,3.171569597161824e-05,3.171569597161824e-05,7.0667,6.4
4.08984375,0.000289042035756466,2.1464136786450005e-05,4.001457721675442e-05,3.318020442664227e-05,7.0667,6.4
4.09375,0.0002929473916365301,3.7085560306706354e-05,3.318020442664227e-05,3.46447128816663e-05,7.0667,6.4
4.09765625,0.0003158913574319066,8.77173017624172e-06,2.0975967301441994e-05,3.4156543396658294e-05,7.0667,6.4
4.1015625,0.0004311298664866102,-1.072453863126572e-05,2.3904984211490058e-05,3.3668373911650276e-05,7.0667,6.4
4.10546875,0.0005795639005218586,5.319515331197072e-05,3.90382382467384e-05,3.46447128816663e-05,7.0667,6.4
4.109375,0.0006367102408606089,7.079976536507211e-05,3.220386545662624e-05,2.7810340091554148e-05,7.0667,6.4
4.11328125,0.0006494026474708171,5.075430588693066e-05,2.7322170606546137e-05,2.976301803158619e-05,7.0667,6.4
4.1171875,0.0006537961728358893,4.391993309681851e-05,4.34317636118105e-05,3.7573729791714366e-05,7.0667,6.4
4.12109375,0.0006718584437811856,6.982342639505609e-05,2.1464136786450005e-05,3.952640773174641e-05,7.0667,6.4
4.125,0.0006689294268711376,5.319515331197072e-05,2.3904984211490058e-05,4.050274670176243e-05,7.0667,6.4
4.12890625,0.0006518434948958572,1.4141594511329842e-05,6.344671249713895e-05,3.7573729791714366e-05,7.0667,6.4
4.1328125,0.0006401274272556649,1.9999628331425975e-05,3.7085560306706354e-05,2.829850957656216e-05,7.0667,6.4
4.13671875,0.0006181598004303045,2.3904984211490058e-05,-5.842843781185608e-06,2.6345831636530114e-05,7.0667,6.4
4.140625,0.0006176716309452964,2.976301803158619e-05,2.0975967301441994e-05,3.318020442664227e-05,7.0667,6.4
4.14453125,0.0006132781055802242,5.758867867704282e-05,3.610922133669034e-05,3.269203494163426e-05,7.0667,6.4
4.1484375,0.0006186479699153125,7.128793485008013e-05,3.7573729791714366e-05,3.318020442664227e-05,7.0667,6.4
4.15234375,0.0005907917986770428,4.0990916186770444e-05,4.7825288976882595e-05,4.34317636118105e-05,7.0667,6.4
4.15625,0.0005693123413366903,1.4141594511329842e-05,1.8046950391393927e-05,3.7085560306706354e-05,7.0667,6.4
4.16015625,0.000597138001982147,3.90382382467384e-05,5.354543781185643e-06,2.7810340091554148e-05,7.0667,6.4
4.1640625,0.0005893272902220187,4.880162794689862e-05,2.976301803158619e-05,3.318020442664227e-05,7.0667,6.4
4.16796875,0.0005673596633966583,3.318020442664227e-05,2.7322170606546137e-05,3.0251187516594204e-05,7.0667,6.4
4.171875,0.0005512500703913939,2.976301803158619e-05,1.951145884641796e-05,2.7810340091554148e-05,7.0667,6.4
4.17578125,0.0005322114604760814,2.292864524147404e-05,2.878667906157017e-05,3.7085560306706354e-05,7.0667,6.4
4.1796875,0.0005082911557106889,-5.354674296177598e-06,5.026613640192266e-05,4.001457721675442e-05,7.0667,6.4
4.18359375,0.0004892525457953765,3.0251187516594204e-05,6.787074845502406e-05,3.90382382467384e-05,7.0667,6.4
4.1875,0.0004755838002151522,9.520823961547266e-05,6.640624000000002e-05,3.952640773174641e-05,7.0667,6.4
4.19140625,0.00045846735764705883,6.933525691004809e-05,5.758867867704282e-05,3.562105185168232e-05,7.0667,6.4
4.1953125,0.0004501684764019226,5.856501764705884e-05,2.878667906157017e-05,3.1227526486610226e-05,7.0667,6.4
4.19921875,0.00044626312052185857,5.905318713206685e-05,1.951145884641796e-05,3.0251187516594204e-05,7.0667,6.4
