timestamp,TP9,AF7,AF8,TP10,Valence,Arousal
0.0,-2.734052241702905e-05,-5.3707842316319497e-05,-2.0986473884184008e-05,-2.929561427328906e-05,3.3333,2.9333
0.00390625,-3.0273160201419072e-05,-3.661399865415424e-05,3.914527122911444e-06,-2.734052241702905e-05,3.3333,2.9333
0.0078125,-3.563645272602425e-05,-3.368136086976423e-05,2.4482082307164316e-06,-2.5874203524834044e-05,3.3333,2.9333
0.01171875,-3.514767976195924e-05,-4.5887474891279454e-05,-8.780359862668789e-06,-2.6362976488899034e-05,3.3333,2.9333
0.015625,-2.8806841309224054e-05,-3.074872308537421e-05,-2.1964019812314006e-05,-3.172626901350421e-05,3.3333,2.9333
0.01953125,-2.685174945296404e-05,3.4257541588464377e-06,-2.0986473884184008e-05,-3.905786347447926e-05,3.3333,2.9333
0.0234375,-2.8806841309224054e-05,9.818893385214194e-07,-1.854260906385899e-05,-3.9546636438544265e-05,3.3333,2.9333
0.02734375,-3.661399865415424e-05,-2.3919111668574018e-05,-1.6111954323643827e-05,-3.465890679789423e-05,3.3333,2.9333
0.03125,-4.2968047186999296e-05,-4.101295533073927e-05,-1.6111954323643827e-05,-3.563645272602425e-05,3.3333,2.9333
0.03515625,-4.150172829480428e-05,-3.808031754634926e-05,-2.2452792776379013e-05,-3.465890679789423e-05,3.3333,2.9333
0.0390625,-3.7591544582284256e-05,-2.929561427328906e-05,-3.9546636438544265e-05,-3.368136086976423e-05,3.3333,2.9333
0.04296875,-4.199050125886929e-05,-3.9546636438544265e-05,-3.808031754634926e-05,-3.856909051041426e-05,3.3333,2.9333
0.046875,-4.686502081940945e-05,-5.468538824444951e-05,-1.2201770611123806e-05,-3.221504197756921e-05,3.3333,2.9333
0.05078125,-4.442115599908443e-05,-5.468538824444951e-05,-3.563645272602425e-05,-3.514767976195924e-05,3.3333,2.9333
0.0546875,-3.612522569008925e-05,-4.8820112675669464e-05,-5.468538824444951e-05,-4.442115599908443e-05,3.3333,2.9333
0.05859375,-2.5874203524834044e-05,-4.2968047186999296e-05,-4.052418236667428e-05,-4.539870192721445e-05,3.3333,2.9333
0.0625,-2.2452792776379013e-05,-3.856909051041426e-05,-1.6600727287708834e-05,-3.905786347447926e-05,3.3333,2.9333
0.06640625,-3.465890679789423e-05,-4.150172829480428e-05,-1.4156862467383816e-05,-3.612522569008925e-05,3.3333,2.9333
0.0703125,-4.199050125886929e-05,-5.077520453192949e-05,-1.6600727287708834e-05,-2.9784387237354065e-05,3.3333,2.9333
0.07421875,-3.074872308537421e-05,-5.809358891279467e-05,-2.6362976488899034e-05,-2.8806841309224054e-05,3.3333,2.9333
0.078125,-2.294156574044402e-05,-4.7353793783474456e-05,-3.221504197756921e-05,-2.734052241702905e-05,3.3333,2.9333
0.08203125,-2.0986473884184008e-05,-4.539870192721445e-05,-2.2452792776379013e-05,-2.7829295381094056e-05,3.3333,2.9333
0.0859375,-2.489665759670403e-05,-5.858236187685968e-05,-8.780359862668789e-06,-3.074872308537421e-05,3.3333,2.9333
0.08984375,-2.5385430560769036e-05,-6.640272930189972e-05,-1.366808950331881e-05,-2.685174945296404e-05,3.3333,2.9333
0.09375,-2.685174945296404e-05,-7.127724886243991e-05,-3.1237496049439215e-05,-3.1237496049439215e-05,3.3333,2.9333
0.09765625,-3.0273160201419072e-05,-5.7116042984664656e-05,-1.1712997647058798e-05,-2.685174945296404e-05,3.3333,2.9333
0.1015625,-3.1237496049439215e-05,-6.738027523002972e-05,-1.708950025177384e-05,-1.9520154991988986e-05,3.3333,2.9333
0.10546875,-3.905786347447926e-05,-9.32588221652552e-05,-1.7565063135728977e-05,-2.2452792776379013e-05,3.3333,2.9333
0.109375,-4.150172829480428e-05,-8.690477363241015e-05,-2.6362976488899034e-05,-2.294156574044402e-05,3.3333,2.9333
0.11328125,-3.3192587905699224e-05,-6.835782115815974e-05,-3.9546636438544265e-05,-2.5874203524834044e-05,3.3333,2.9333
0.1171875,-3.0273160201419072e-05,-6.493641040970472e-05,-4.003540940260927e-05,-3.3192587905699224e-05,3.3333,2.9333
0.12109375,-3.710277161821925e-05,-8.154148110780496e-05,-4.393238303501944e-05,-2.929561427328906e-05,3.3333,2.9333
0.125,-3.612522569008925e-05,-8.105270814373997e-05,-2.0986473884184008e-05,-2.0497700920119e-05,3.3333,2.9333
0.12890625,-3.368136086976423e-05,-7.274356775463491e-05,-2.8806841309224054e-05,-1.6600727287708834e-05,3.3333,2.9333
0.1328125,-4.101295533073927e-05,-8.885986548867015e-05,-6.786904819409475e-05,-2.8806841309224054e-05,3.3333,2.9333
0.13671875,-3.514767976195924e-05,-8.690477363241015e-05,-7.714252443121995e-05,-3.9546636438544265e-05,3.3333,2.9333
0.140625,-2.6362976488899034e-05,-7.665375146715493e-05,-6.39588644815747e-05,-4.6376247855344455e-05,3.3333,2.9333
0.14453125,-3.074872308537421e-05,-6.982414005035474e-05,-4.6376247855344455e-05,-4.345682015106429e-05,3.3333,2.9333
0.1484375,-4.2968047186999296e-05,-7.665375146715493e-05,-4.784256674753946e-05,-3.612522569008925e-05,3.3333,2.9333
0.15234375,-4.539870192721445e-05,-7.274356775463491e-05,-4.442115599908443e-05,-3.808031754634926e-05,3.3333,2.9333
0.15625,-4.345682015106429e-05,-5.3707842316319497e-05,-3.905786347447926e-05,-3.514767976195924e-05,3.3333,2.9333
0.16015625,-3.808031754634926e-05,-4.686502081940945e-05,-3.7591544582284256e-05,-3.612522569008925e-05,3.3333,2.9333
0.1640625,-2.6362976488899034e-05,-3.710277161821925e-05,-2.8806841309224054e-05,-4.5887474891279454e-05,3.3333,2.9333
0.16796875,-1.9520154991988986e-05,-3.172626901350421e-05,-3.4170133833829225e-05,-4.393238303501944e-05,3.3333,2.9333
0.171875,-2.0986473884184008e-05,-4.784256674753946e-05,-4.101295533073927e-05,-4.247927422293429e-05,3.3333,2.9333
0.17578125,-2.685174945296404e-05,-3.612522569008925e-05,-4.539870192721445e-05,-4.6376247855344455e-05,3.3333,2.9333
0.1796875,-3.270381494163422e-05,-1.3179316539253819e-05,-4.490992896314944e-05,-4.393238303501944e-05,3.3333,2.9333
0.18359375,-3.563645272602425e-05,-3.808031754634926e-05,-3.368136086976423e-05,-4.247927422293429e-05,3.3333,2.9333
0.1875,-3.368136086976423e-05,-4.2968047186999296e-05,-2.0986473884184008e-05,-3.563645272602425e-05,3.3333,2.9333
0.19140625,-3.221504197756921e-05,-4.199050125886929e-05,-2.9784387237354065e-05,-2.9784387237354065e-05,3.3333,2.9333
0.1953125,-2.7829295381094056e-05,-4.8820112675669464e-05,-3.808031754634926e-05,-2.929561427328906e-05,3.3333,2.9333
0.19921875,-2.8806841309224054e-05,-4.7353793783474456e-05,-1.9031382027923996e-05,-3.221504197756921e-05,3.3333,2.9333
0.203125,-3.563645272602425e-05,-5.517416120851452e-05,-1.2690543575188811e-05,-4.345682015106429e-05,3.3333,2.9333
0.20703125,-3.514767976195924e-05,-6.44476374456397e-05,-1.6111954323643827e-05,-4.979765860379947e-05,3.3333,2.9333
0.2109375,-3.3192587905699224e-05,-5.907113484092467e-05,-2.8806841309224054e-05,-4.199050125886929e-05,3.3333,2.9333
0.21484375,-3.710277161821925e-05,-5.175275046005949e-05,-2.8318068345159046e-05,-3.514767976195924e-05,3.3333,2.9333
0.21875,-3.612522569008925e-05,-5.2241523424124495e-05,-2.0497700920119e-05,-3.368136086976423e-05,3.3333,2.9333
0.22265625,-3.1237496049439215e-05,-4.101295533073927e-05,-2.3919111668574018e-05,-3.465890679789423e-05,3.3333,2.9333
0.2265625,-2.8318068345159046e-05,-2.489665759670403e-05,-1.4156862467383816e-05,-4.052418236667428e-05,3.3333,2.9333
0.23046875,-2.5874203524834044e-05,-1.7565063135728977e-05,-2.0497700920119e-05,-4.7353793783474456e-05,3.3333,2.9333
0.234375,-2.5874203524834044e-05,-2.3919111668574018e-05,-4.833133971160447e-05,-4.979765860379947e-05,3.3333,2.9333
0.23828125,-2.8806841309224054e-05,-3.808031754634926e-05,-4.199050125886929e-05,-4.6376247855344455e-05,3.3333,2.9333
0.2421875,-2.734052241702905e-05,-4.003540940260927e-05,-3.172626901350421e-05,-4.539870192721445e-05,3.3333,2.9333
0.24609375,-2.7829295381094056e-05,-3.563645272602425e-05,-3.368136086976423e-05,-3.465890679789423e-05,3.3333,2.9333
0.25,-2.5874203524834044e-05,-4.003540940260927e-05,-2.5385430560769036e-05,-2.734052241702905e-05,3.3333,2.9333
0.25390625,-2.685174945296404e-05,-3.808031754634926e-05,-3.0273160201419072e-05,-3.465890679789423e-05,3.3333,2.9333
0.2578125,-3.0273160201419072e-05,-2.3430338704509024e-05,-5.2730296388189495e-05,-4.150172829480428e-05,3.3333,2.9333
0.26171875,-2.2452792776379013e-05,-1.9520154991988986e-05,-4.9308885639734465e-05,-4.490992896314944e-05,3.3333,2.9333
0.265625,-2.1964019812314006e-05,-1.0735451718928799e-05,-3.221504197756921e-05,-3.612522569008925e-05,3.3333,2.9333
0.26953125,-3.270381494163422e-05,-3.4170133833829225e-05,-3.172626901350421e-05,-4.052418236667428e-05,3.3333,2.9333
0.2734375,-4.5887474891279454e-05,-5.907113484092467e-05,-4.199050125886929e-05,-4.490992896314944e-05,3.3333,2.9333
0.27734375,-5.126397749599448e-05,-4.150172829480428e-05,-4.6376247855344455e-05,-3.661399865415424e-05,3.3333,2.9333
0.28125,-5.126397749599448e-05,-3.661399865415424e-05,-3.563645272602425e-05,-3.905786347447926e-05,3.3333,2.9333
0.28515625,-4.003540940260927e-05,-2.8318068345159046e-05,-4.101295533073927e-05,-4.5887474891279454e-05,3.3333,2.9333
0.2890625,-2.7829295381094056e-05,-2.8806841309224054e-05,-4.2968047186999296e-05,-4.345682015106429e-05,3.3333,2.9333
0.29296875,-3.221504197756921e-05,-3.7591544582284256e-05,-3.612522569008925e-05,-3.514767976195924e-05,3.3333,2.9333
0.296875,-3.4170133833829225e-05,-2.5385430560769036e-05,-3.808031754634926e-05,-3.4170133833829225e-05,3.3333,2.9333
0.30078125,-3.808031754634926e-05,-1.7565063135728977e-05,-2.2452792776379013e-05,-3.368136086976423e-05,3.3333,2.9333
0.3046875,-4.101295533073927e-05,-3.172626901350421e-05,-2.3919111668574018e-05,-3.368136086976423e-05,3.3333,2.9333
0.30859375,-3.710277161821925e-05,-4.6376247855344455e-05,-4.052418236667428e-05,-3.465890679789423e-05,3.3333,2.9333
0.3125,-4.101295533073927e-05,-4.9308885639734465e-05,-5.664048010070952e-05,-2.734052241702905e-05,3.3333,2.9333
0.31640625,-4.345682015106429e-05,-5.468538824444951e-05,-6.004868076905468e-05,-2.3430338704509024e-05,3.3333,2.9333
0.3203125,-3.661399865415424e-05,-6.1026226697184694e-05,-7.420988664682991e-05,-2.8806841309224054e-05,3.3333,2.9333
0.32421875,-3.465890679789423e-05,-9.130373030899517e-05,-7.32323407186999e-05,-3.270381494163422e-05,3.3333,2.9333
0.328125,-3.856909051041426e-05,-0.00010204352543831537,-5.028643156786448e-05,-2.734052241702905e-05,3.3333,2.9333
0.33203125,-3.270381494163422e-05,-7.763129739528494e-05,-4.442115599908443e-05,-2.7829295381094056e-05,3.3333,2.9333
0.3359375,-3.270381494163422e-05,-8.641600066834513e-05,-5.566293417257951e-05,-2.734052241702905e-05,3.3333,2.9333
0.33984375,-3.221504197756921e-05,-9.47251410574502e-05,-7.420988664682991e-05,-2.6362976488899034e-05,3.3333,2.9333
0.34375,-2.3430338704509024e-05,-8.837109252460515e-05,-7.02997029343099e-05,-3.172626901350421e-05,3.3333,2.9333
0.34765625,-2.489665759670403e-05,-9.130373030899517e-05,-6.24925455893797e-05,-2.7829295381094056e-05,3.3333,2.9333
0.3515625,-2.3430338704509024e-05,-8.690477363241015e-05,-5.760481594872966e-05,-2.8318068345159046e-05,3.3333,2.9333
0.35546875,-2.0986473884184008e-05,-7.714252443121995e-05,-5.126397749599448e-05,-2.5874203524834044e-05,3.3333,2.9333
0.359375,-1.7565063135728977e-05,-7.469865961089494e-05,-5.32190693522545e-05,-2.8318068345159046e-05,3.3333,2.9333
0.36328125,-1.805383609979398e-05,-7.17660218265049e-05,-4.7353793783474456e-05,-3.221504197756921e-05,3.3333,2.9333
0.3671875,-2.734052241702905e-05,-7.32323407186999e-05,-3.808031754634926e-05,-2.4407884632639025e-05,3.3333,2.9333
0.37109375,-2.4407884632639025e-05,-7.518743257495993e-05,-3.710277161821925e-05,-1.854260906385899e-05,3.3333,2.9333
0.375,-2.5385430560769036e-05,-8.788231956054014e-05,-5.3707842316319497e-05,-2.685174945296404e-05,3.3333,2.9333
0.37890625,-2.3430338704509024e-05,-8.397213584802012e-05,-5.664048010070952e-05,-3.563645272602425e-05,3.3333,2.9333
0.3828125,-1.366808950331881e-05,-6.24925455893797e-05,-3.4170133833829225e-05,-3.661399865415424e-05,3.3333,2.9333
0.38671875,-1.6600727287708834e-05,-4.8820112675669464e-05,-1.2201770611123806e-05,-3.270381494163422e-05,3.3333,2.9333
0.390625,-1.708950025177384e-05,-3.3192587905699224e-05,-1.6111954323643827e-05,-2.8806841309224054e-05,3.3333,2.9333
0.39453125,-1.9520154991988986e-05,-4.052418236667428e-05,-3.612522569008925e-05,-2.8318068345159046e-05,3.3333,2.9333
0.3984375,-2.6362976488899034e-05,-4.247927422293429e-05,-4.442115599908443e-05,-2.6362976488899034e-05,3.3333,2.9333
0.40234375,-2.0008927956053993e-05,-1.854260906385899e-05,-9.26913282673378e-06,-2.5385430560769036e-05,3.3333,2.9333
0.40625,-2.3919111668574018e-05,-2.3919111668574018e-05,-1.4156862467383816e-05,-3.1237496049439215e-05,3.3333,2.9333
0.41015625,-3.3192587905699224e-05,-3.1237496049439215e-05,-3.1237496049439215e-05,-3.612522569008925e-05,3.3333,2.9333
0.4140625,-3.270381494163422e-05,-2.5385430560769036e-05,-3.368136086976423e-05,-3.074872308537421e-05,3.3333,2.9333
0.41796875,-3.563645272602425e-05,-3.270381494163422e-05,-4.5887474891279454e-05,-2.734052241702905e-05,3.3333,2.9333
0.421875,-2.9784387237354065e-05,-3.3192587905699224e-05,-2.8806841309224054e-05,-3.0273160201419072e-05,3.3333,2.9333
0.42578125,-1.7565063135728977e-05,-2.1964019812314006e-05,-1.805383609979398e-05,-3.514767976195924e-05,3.3333,2.9333
0.4296875,-1.3179316539253819e-05,-1.1224224682993793e-05,-2.8318068345159046e-05,-4.052418236667428e-05,3.3333,2.9333
0.43359375,-2.0008927956053993e-05,-1.366808950331881e-05,-3.7591544582284256e-05,-4.345682015106429e-05,3.3333,2.9333
0.4375,-2.4407884632639025e-05,-1.513440839551383e-05,-3.172626901350421e-05,-3.514767976195924e-05,3.3333,2.9333
0.44140625,-1.805383609979398e-05,-9.26913282673378e-06,-2.0497700920119e-05,-3.3192587905699224e-05,3.3333,2.9333
0.4453125,-1.2201770611123806e-05,-1.6111954323643827e-05,-1.9520154991988986e-05,-3.270381494163422e-05,3.3333,2.9333
0.44921875,-1.0735451718928799e-05,-2.0986473884184008e-05,-3.3192587905699224e-05,-3.1237496049439215e-05,3.3333,2.9333
0.453125,-1.2201770611123806e-05,-3.1237496049439215e-05,-3.7591544582284256e-05,-4.101295533073927e-05,3.3333,2.9333
0.45703125,-1.366808950331881e-05,-3.514767976195924e-05,-3.856909051041426e-05,-3.905786347447926e-05,3.3333,2.9333
0.4609375,-1.4645635431448824e-05,-3.0273160201419072e-05,-3.612522569008925e-05,-3.710277161821925e-05,3.3333,2.9333
0.46484375,-1.9031382027923996e-05,-3.221504197756921e-05,-3.9546636438544265e-05,-3.612522569008925e-05,3.3333,2.9333
0.46875,-2.294156574044402e-05,-3.1237496049439215e-05,-3.9546636438544265e-05,-3.563645272602425e-05,3.3333,2.9333
0.47265625,-1.805383609979398e-05,-2.1964019812314006e-05,-3.3192587905699224e-05,-3.905786347447926e-05,3.3333,2.9333
0.4765625,-1.5623181359578836e-05,-1.708950025177384e-05,-3.7591544582284256e-05,-2.6362976488899034e-05,3.3333,2.9333
0.48046875,-2.734052241702905e-05,-2.0497700920119e-05,-3.221504197756921e-05,-1.708950025177384e-05,3.3333,2.9333
0.484375,-2.929561427328906e-05,-4.2968047186999296e-05,-2.0008927956053993e-05,-2.5385430560769036e-05,3.3333,2.9333
0.48828125,-2.734052241702905e-05,-4.7353793783474456e-05,-1.513440839551383e-05,-2.8318068345159046e-05,3.3333,2.9333
0.4921875,-2.685174945296404e-05,-2.7829295381094056e-05,-2.6362976488899034e-05,-2.6362976488899034e-05,3.3333,2.9333
0.49609375,-2.1475246848249e-05,-2.3430338704509024e-05,-4.003540940260927e-05,-3.172626901350421e-05,3.3333,2.9333
0.5,-2.3919111668574018e-05,-2.6362976488899034e-05,-2.5385430560769036e-05,-3.7591544582284256e-05,3.3333,2.9333
0.50390625,-3.270381494163422e-05,-4.686502081940945e-05,-1.6600727287708834e-05,-3.661399865415424e-05,3.3333,2.9333
0.5078125,-3.905786347447926e-05,-3.074872308537421e-05,-3.7591544582284256e-05,-3.0273160201419072e-05,3.3333,2.9333
0.51171875,-4.003540940260927e-05,-2.685174945296404e-05,-4.393238303501944e-05,-3.172626901350421e-05,3.3333,2.9333
0.515625,-3.465890679789423e-05,-3.9546636438544265e-05,-3.1237496049439215e-05,-3.514767976195924e-05,3.3333,2.9333
0.51953125,-2.8806841309224054e-05,-2.1964019812314006e-05,-3.465890679789423e-05,-4.052418236667428e-05,3.3333,2.9333
0.5234375,-3.0273160201419072e-05,-3.465890679789423e-05,-3.1237496049439215e-05,-4.442115599908443e-05,3.3333,2.9333
0.52734375,-3.710277161821925e-05,-3.3192587905699224e-05,-2.489665759670403e-05,-3.661399865415424e-05,3.3333,2.9333
0.53125,-3.856909051041426e-05,-1.6600727287708834e-05,-2.294156574044402e-05,-3.074872308537421e-05,3.3333,2.9333
0.53515625,-3.563645272602425e-05,-1.6111954323643827e-05,-3.905786347447926e-05,-2.685174945296404e-05,3.3333,2.9333
0.5390625,-3.3192587905699224e-05,-2.7829295381094056e-05,-4.490992896314944e-05,-3.7591544582284256e-05,3.3333,2.9333
0.54296875,-2.9784387237354065e-05,-3.172626901350421e-05,-3.612522569008925e-05,-4.833133971160447e-05,3.3333,2.9333
0.546875,-3.1237496049439215e-05,-3.074872308537421e-05,-4.052418236667428e-05,-4.833133971160447e-05,3.3333,2.9333
0.55078125,-3.808031754634926e-05,-4.247927422293429e-05,-5.3707842316319497e-05,-5.2730296388189495e-05,3.3333,2.9333
0.5546875,-3.612522569008925e-05,-4.2968047186999296e-05,-4.6376247855344455e-05,-5.028643156786448e-05,3.3333,2.9333
0.55859375,-4.2968047186999296e-05,-6.151499966124969e-05,-6.1026226697184694e-05,-4.6376247855344455e-05,3.3333,2.9333
0.5625,-4.6376247855344455e-05,-5.517416120851452e-05,-5.4196615280384504e-05,-5.126397749599448e-05,3.3333,2.9333
0.56640625,-4.199050125886929e-05,-4.784256674753946e-05,-2.3919111668574018e-05,-4.784256674753946e-05,3.3333,2.9333
0.5703125,-4.345682015106429e-05,-6.542518337376972e-05,-3.221504197756921e-05,-4.833133971160447e-05,3.3333,2.9333
0.57421875,-4.8820112675669464e-05,-6.004868076905468e-05,-4.784256674753946e-05,-5.664048010070952e-05,3.3333,2.9333
0.578125,-4.7353793783474456e-05,-6.151499966124969e-05,-4.686502081940945e-05,-4.833133971160447e-05,3.3333,2.9333
0.58203125,-4.150172829480428e-05,-7.127724886243991e-05,-3.905786347447926e-05,-4.052418236667428e-05,3.3333,2.9333
0.5859375,-4.003540940260927e-05,-7.32323407186999e-05,-3.808031754634926e-05,-4.199050125886929e-05,3.3333,2.9333
0.58984375,-3.710277161821925e-05,-6.347009151750972e-05,-2.9784387237354065e-05,-4.052418236667428e-05,3.3333,2.9333
0.59375,-4.5887474891279454e-05,-5.760481594872966e-05,-4.052418236667428e-05,-3.856909051041426e-05,3.3333,2.9333
0.59765625,-4.784256674753946e-05,-5.175275046005949e-05,-3.905786347447926e-05,-3.661399865415424e-05,3.3333,2.9333
0.6015625,-4.003540940260927e-05,-4.2968047186999296e-05,-2.4407884632639025e-05,-3.514767976195924e-05,3.3333,2.9333
0.60546875,-3.905786347447926e-05,-3.514767976195924e-05,-2.685174945296404e-05,-3.172626901350421e-05,3.3333,2.9333
0.609375,-3.661399865415424e-05,-3.1237496049439215e-05,-3.172626901350421e-05,-2.6362976488899034e-05,3.3333,2.9333
0.61328125,-3.368136086976423e-05,-4.393238303501944e-05,-4.003540940260927e-05,-2.0986473884184008e-05,3.3333,2.9333
0.6171875,-3.9546636438544265e-05,-4.393238303501944e-05,-2.2452792776379013e-05,-1.4156862467383816e-05,3.3333,2.9333
0.62109375,-4.539870192721445e-05,-3.514767976195924e-05,-1.366808950331881e-05,-1.805383609979398e-05,3.3333,2.9333
0.625,-3.9546636438544265e-05,-7.32323407186999e-05,-3.368136086976423e-05,-2.0986473884184008e-05,3.3333,2.9333
0.62890625,-4.199050125886929e-05,-0.00011082822871137557,-4.052418236667428e-05,-1.2690543575188811e-05,3.3333,2.9333
0.6328125,-4.2968047186999296e-05,-0.0001240118886610208,-6.542518337376972e-05,-3.417067338063603e-06,3.3333,2.9333
0.63671875,-3.612522569008925e-05,-0.00014159450528725107,-7.909761628747994e-05,-4.8701761501487505e-06,3.3333,2.9333
0.640625,-3.563645272602425e-05,-0.00014110573232318605,-8.885986548867015e-05,-1.708950025177384e-05,3.3333,2.9333
0.64453125,-3.808031754634926e-05,-0.00013817309453879604,-9.277004920119017e-05,-2.6362976488899034e-05,3.3333,2.9333
0.6484375,-3.905786347447926e-05,-0.00012060368799267564,-8.397213584802012e-05,-2.2452792776379013e-05,3.3333,2.9333
0.65234375,-3.710277161821925e-05,-0.00013572922971847104,-0.0001054649361867704,-1.0735451718928799e-05,3.3333,2.9333
0.65625,-4.686502081940945e-05,-0.00018456689588464178,-0.00012207000688487065,-6.825268006408763e-06,3.3333,2.9333
0.66015625,-5.077520453192949e-05,-0.00019970564769054703,-0.00010497616322270539,-9.732025177385922e-07,3.3333,2.9333
0.6640625,-4.442115599908443e-05,-0.00018016793920805672,-0.00010790880100709543,-1.950748445868598e-06,3.3333,2.9333
0.66796875,-3.905786347447926e-05,-0.0001484373267841611,-0.00011620473131609063,-1.3179316539253819e-05,3.3333,2.9333
0.671875,-4.6376247855344455e-05,-0.00016845059815060652,-0.00011473841242389562,-5.847722078278763e-06,3.3333,2.9333
0.67578125,-5.126397749599448e-05,-0.00018407812292057677,-0.00013378734794232088,-1.950748445868598e-06,3.3333,2.9333
0.6796875,-4.5887474891279454e-05,-0.00016064344080567633,-0.00014208327825131607,-1.5623181359578836e-05,3.3333,2.9333
0.68359375,-4.5887474891279454e-05,-0.00015135675448844127,-0.00010985068278324558,-1.7565063135728977e-05,3.3333,2.9333
0.6875,-4.393238303501944e-05,-0.00013476489387045088,-0.00010936190981918056,-1.513440839551383e-05,3.3333,2.9333
0.69140625,-4.199050125886929e-05,-0.00010204352543831537,-0.0001113170016754406,-1.708950025177384e-05,3.3333,2.9333
0.6953125,-4.393238303501944e-05,-9.374759512932018e-05,-9.715579579766534e-05,-7.802813934538776e-06,3.3333,2.9333
0.69921875,-5.2241523424124495e-05,-0.00010790880100709543,-0.00011033945574731058,-1.0246678754863793e-05,3.3333,2.9333
0.703125,-5.566293417257951e-05,-9.423636809338521e-05,-8.446090881208513e-05,-2.0497700920119e-05,3.3333,2.9333
0.70703125,-5.077520453192949e-05,-6.493641040970472e-05,-4.490992896314944e-05,-2.4407884632639025e-05,3.3333,2.9333
0.7109375,-4.247927422293429e-05,-5.468538824444951e-05,-3.3192587905699224e-05,-2.8806841309224054e-05,3.3333,2.9333
0.71484375,-3.270381494163422e-05,-4.150172829480428e-05,-4.101295533073927e-05,-2.685174945296404e-05,3.3333,2.9333
0.71875,-3.7591544582284256e-05,-2.6362976488899034e-05,-4.150172829480428e-05,-2.5874203524834044e-05,3.3333,2.9333
0.72265625,-4.345682015106429e-05,-3.074872308537421e-05,-3.7591544582284256e-05,-2.6362976488899034e-05,3.3333,2.9333
0.7265625,-3.9546636438544265e-05,-2.8806841309224054e-05,-2.734052241702905e-05,-2.5385430560769036e-05,3.3333,2.9333
0.73046875,-4.052418236667428e-05,-1.4156862467383816e-05,-3.3192587905699224e-05,-3.7591544582284256e-05,3.3333,2.9333
0.734375,-3.9546636438544265e-05,-3.417067338063603e-06,-3.221504197756921e-05,-4.539870192721445e-05,3.3333,2.9333
0.73828125,-3.465890679789423e-05,2.936981194781438e-06,-1.950748445868598e-06,-3.710277161821925e-05,3.3333,2.9333
0.7421875,-3.368136086976423e-05,9.818893385214194e-07,1.8075733000686673e-05,-2.7829295381094056e-05,3.3333,2.9333
0.74609375,-3.3192587905699224e-05,6.847164907301462e-06,-3.90584030212861e-06,-2.9784387237354065e-05,3.3333,2.9333
0.75,-3.172626901350421e-05,2.0030824856946692e-05,-1.366808950331881e-05,-3.612522569008925e-05,3.3333,2.9333
0.75390625,-2.8806841309224054e-05,2.5394117381551864e-05,1.470662302586426e-06,-3.808031754634926e-05,3.3333,2.9333
0.7578125,-2.9784387237354065e-05,2.10083707850767e-05,1.1721684467841633e-05,-3.563645272602425e-05,3.3333,2.9333
0.76171875,-2.9784387237354065e-05,2.9793074058136892e-05,3.4257541588464377e-06,-4.442115599908443e-05,3.3333,2.9333
0.765625,-2.8318068345159046e-05,3.906655029526209e-05,-3.90584030212861e-06,-5.32190693522545e-05,3.3333,2.9333
0.76953125,-3.563645272602425e-05,3.468080369878693e-05,4.343410391413727e-09,-4.833133971160447e-05,3.3333,2.9333
0.7734375,-4.101295533073927e-05,2.9793074058136892e-05,-1.4645635431448824e-05,-4.686502081940945e-05,3.3333,2.9333
0.77734375,-4.6376247855344455e-05,3.515636658274207e-05,-1.0735451718928799e-05,-4.101295533073927e-05,3.3333,2.9333
0.78125,-4.539870192721445e-05,4.00440962233921e-05,1.4654322252231651e-05,-3.661399865415424e-05,3.3333,2.9333
0.78515625,-3.368136086976423e-05,4.639814475623714e-05,1.1232911503776627e-05,-4.052418236667428e-05,3.3333,2.9333
0.7890625,-2.734052241702905e-05,3.6622685474937076e-05,-5.847722078278763e-06,-4.686502081940945e-05,3.3333,2.9333
0.79296875,-2.929561427328906e-05,3.370325777065692e-05,-7.314040970473769e-06,-4.833133971160447e-05,3.3333,2.9333
0.796875,-2.8318068345159046e-05,4.1021642151522114e-05,-1.854260906385899e-05,-4.490992896314944e-05,3.3333,2.9333
0.80078125,-2.8318068345159046e-05,2.5394117381551864e-05,-2.0497700920119e-05,-3.9546636438544265e-05,3.3333,2.9333
0.8046875,-3.3192587905699224e-05,1.5143095216296657e-05,-4.381403186083744e-06,-3.514767976195924e-05,3.3333,2.9333
0.80859375,-3.9546636438544265e-05,1.9053278928816688e-05,4.931163744564202e-07,-3.074872308537421e-05,3.3333,2.9333
0.8125,-3.856909051041426e-05,2.0030824856946692e-05,-9.732025177385922e-07,-3.1237496049439215e-05,3.3333,2.9333
0.81640625,-2.8806841309224054e-05,2.4905344417486857e-05,7.335937871366468e-06,-3.221504197756921e-05,3.3333,2.9333
0.8203125,-2.0497700920119e-05,2.0519597821011693e-05,1.0744138539711627e-05,-3.1237496049439215e-05,3.3333,2.9333
0.82421875,-2.1964019812314006e-05,-2.928294373998611e-06,7.824710835431468e-06,-3.808031754634926e-05,3.3333,2.9333
0.828125,-2.8806841309224054e-05,-3.1237496049439215e-05,-4.381403186083744e-06,-4.979765860379947e-05,3.3333,2.9333
0.83203125,-3.368136086976423e-05,-1.708950025177384e-05,-1.1224224682993793e-05,-4.5887474891279454e-05,3.3333,2.9333
0.8359375,-3.4170133833829225e-05,-1.950748445868598e-06,-9.732025177385922e-07,-2.8806841309224054e-05,3.3333,2.9333
0.83984375,-3.465890679789423e-05,-8.291586898603781e-06,9.818893385214194e-07,-2.6362976488899034e-05,3.3333,2.9333
0.84375,-2.2452792776379013e-05,8.313483799496473e-06,9.766592611581622e-06,-3.172626901350421e-05,3.3333,2.9333
0.84765625,-1.6111954323643827e-05,3.4192030734721924e-05,-7.314040970473769e-06,-3.856909051041426e-05,3.3333,2.9333
0.8515625,-2.6362976488899034e-05,3.468080369878693e-05,-1.4645635431448824e-05,-4.9308885639734465e-05,3.3333,2.9333
0.85546875,-3.7591544582284256e-05,2.588289034561687e-05,-9.757905790798786e-06,-4.393238303501944e-05,3.3333,2.9333
0.859375,-4.101295533073927e-05,4.053286918745711e-05,-6.33649504234377e-06,-2.9784387237354065e-05,3.3333,2.9333
0.86328125,-4.2968047186999296e-05,4.7375690684367155e-05,8.80225676356148e-06,-2.685174945296404e-05,3.3333,2.9333
0.8671875,-3.710277161821925e-05,5.1272664316777315e-05,1.5143095216296657e-05,-3.074872308537421e-05,3.3333,2.9333
0.87109375,-2.9784387237354065e-05,4.98063454245823e-05,-6.825268006408763e-06,-4.052418236667428e-05,3.3333,2.9333
0.875,-3.221504197756921e-05,3.6622685474937076e-05,-2.0008927956053993e-05,-4.539870192721445e-05,3.3333,2.9333
0.87890625,-2.8318068345159046e-05,2.832675516594188e-05,-2.9784387237354065e-05,-4.6376247855344455e-05,3.3333,2.9333
0.8828125,-3.0273160201419072e-05,3.3214484806591916e-05,-2.8318068345159046e-05,-5.028643156786448e-05,3.3333,2.9333
0.88671875,-3.221504197756921e-05,2.832675516594188e-05,-9.732025177385922e-07,-4.393238303501944e-05,3.3333,2.9333
0.890625,-2.734052241702905e-05,1.8075733000686673e-05,-4.381403186083744e-06,-3.661399865415424e-05,3.3333,2.9333
0.89453125,-2.929561427328906e-05,2.343902552529185e-05,-4.8701761501487505e-06,-3.563645272602425e-05,3.3333,2.9333
0.8984375,-2.8806841309224054e-05,2.1497143749141697e-05,1.3188003360036646e-05,-3.368136086976423e-05,3.3333,2.9333
0.90234375,-2.489665759670403e-05,2.0030824856946692e-05,5.380846015106456e-06,-4.247927422293429e-05,3.3333,2.9333
0.90625,-2.3430338704509024e-05,3.7600231403067083e-05,-2.928294373998611e-06,-5.2241523424124495e-05,3.3333,2.9333
0.91015625,-2.489665759670403e-05,2.7349209237811876e-05,-5.358949114213757e-06,-4.833133971160447e-05,3.3333,2.9333
0.9140625,-3.1237496049439215e-05,1.9053278928816688e-05,-1.7565063135728977e-05,-4.247927422293429e-05,3.3333,2.9333
0.91796875,-3.465890679789423e-05,4.493182586404214e-05,-1.7565063135728977e-05,-4.345682015106429e-05,3.3333,2.9333
0.921875,-3.172626901350421e-05,4.8828799496452305e-05,-1.4645635431448824e-05,-4.686502081940945e-05,3.3333,2.9333
0.92578125,-4.101295533073927e-05,3.906655029526209e-05,2.4482082307164316e-06,-3.7591544582284256e-05,3.3333,2.9333
0.9296875,-4.686502081940945e-05,3.174816591439691e-05,-2.928294373998611e-06,-3.368136086976423e-05,3.3333,2.9333
0.93359375,-3.465890679789423e-05,3.4192030734721924e-05,-2.1964019812314006e-05,-4.052418236667428e-05,3.3333,2.9333
0.9375,-3.172626901350421e-05,4.00440962233921e-05,-1.708950025177384e-05,-3.368136086976423e-05,3.3333,2.9333
0.94140625,-4.833133971160447e-05,5.616039395742735e-05,6.358391943236462e-06,-3.1237496049439215e-05,3.3333,2.9333
0.9453125,-4.8820112675669464e-05,7.128593568322274e-05,3.468080369878693e-05,-3.9546636438544265e-05,3.3333,2.9333
0.94921875,-3.3192587905699224e-05,5.5671620993362346e-05,8.80225676356148e-06,-4.199050125886929e-05,3.3333,2.9333
0.953125,-3.0273160201419072e-05,5.273898320897232e-05,-1.7565063135728977e-05,-4.052418236667428e-05,3.3333,2.9333
0.95703125,-2.8318068345159046e-05,5.909303174181737e-05,-2.4407884632639025e-05,-4.7353793783474456e-05,3.3333,2.9333
0.9609375,-3.221504197756921e-05,4.83400265323873e-05,-2.4395214099336045e-06,-4.393238303501944e-05,3.3333,2.9333
0.96484375,-2.7829295381094056e-05,5.273898320897232e-05,1.856450596475168e-05,-4.9308885639734465e-05,3.3333,2.9333
0.96875,-1.7565063135728977e-05,4.1510415115587115e-05,-4.8701761501487505e-06,-5.615170713664451e-05,3.3333,2.9333
0.97265625,-1.805383609979398e-05,2.9304301094071892e-05,-3.0273160201419072e-05,-4.490992896314944e-05,3.3333,2.9333
0.9765625,-2.5385430560769036e-05,5.1272664316777315e-05,-2.5385430560769036e-05,-3.7591544582284256e-05,3.3333,2.9333
0.98046875,-2.8806841309224054e-05,3.468080369878693e-05,-8.291586898603781e-06,-4.150172829480428e-05,3.3333,2.9333
0.984375,-2.2452792776379013e-05,3.5645139546807075e-05,1.9594352666514323e-06,-3.7591544582284256e-05,3.3333,2.9333
0.98828125,-1.6600727287708834e-05,5.7137939885557355e-05,1.1232911503776627e-05,-3.710277161821925e-05,3.3333,2.9333
0.9921875,-1.9031382027923996e-05,4.93175724605173e-05,-1.950748445868598e-06,-4.199050125886929e-05,3.3333,2.9333
0.99609375,-2.1964019812314006e-05,3.808900436713209e-05,-1.805383609979398e-05,-4.199050125886929e-05,3.3333,2.9333
1.0,-2.7829295381094056e-05,4.1510415115587115e-05,-2.0497700920119e-05,-4.101295533073927e-05,3.3333,2.9333
1.00390625,-3.368136086976423e-05,5.0783891352712314e-05,-1.6600727287708834e-05,-3.905786347447926e-05,3.3333,2.9333
1.0078125,-2.929561427328906e-05,3.906655029526209e-05,1.2699230395971639e-05,-3.7591544582284256e-05,3.3333,2.9333
1.01171875,-2.0986473884184008e-05,2.9793074058136892e-05,-2.928294373998611e-06,-4.052418236667428e-05,3.3333,2.9333
1.015625,-2.1475246848249e-05,3.906655029526209e-05,-2.9784387237354065e-05,-4.490992896314944e-05,3.3333,2.9333
1.01953125,-2.3919111668574018e-05,5.860425877775237e-05,-3.465890679789423e-05,-4.539870192721445e-05,3.3333,2.9333
1.0234375,-2.5385430560769036e-05,6.73757519707027e-05,-3.465890679789423e-05,-4.979765860379947e-05,3.3333,2.9333
1.02734375,-2.5874203524834044e-05,5.7137939885557355e-05,-2.3919111668574018e-05,-4.8820112675669464e-05,3.3333,2.9333
1.03125,-2.6362976488899034e-05,6.199924936598766e-05,-1.7565063135728977e-05,-3.270381494163422e-05,3.3333,2.9333
1.03515625,-3.221504197756921e-05,6.248802233005266e-05,-2.5385430560769036e-05,-2.9784387237354065e-05,3.3333,2.9333
1.0390625,-3.465890679789423e-05,4.590937179217214e-05,-2.0986473884184008e-05,-3.368136086976423e-05,3.3333,2.9333
1.04296875,-2.734052241702905e-05,4.7375690684367155e-05,-2.4395214099336045e-06,-2.8318068345159046e-05,3.3333,2.9333
1.046875,-3.172626901350421e-05,4.93175724605173e-05,-9.757905790798786e-06,-3.4170133833829225e-05,3.3333,2.9333
1.05078125,-3.661399865415424e-05,3.6622685474937076e-05,-2.0008927956053993e-05,-3.563645272602425e-05,3.3333,2.9333
1.0546875,-3.3192587905699224e-05,2.9304301094071892e-05,-4.2968047186999296e-05,-3.221504197756921e-05,3.3333,2.9333
1.05859375,-3.4170133833829225e-05,1.660941410849167e-05,-4.003540940260927e-05,-3.4170133833829225e-05,3.3333,2.9333
1.0625,-3.074872308537421e-05,8.80225676356148e-06,-1.6600727287708834e-05,-2.8806841309224054e-05,3.3333,2.9333
1.06640625,-2.734052241702905e-05,2.197270663309684e-05,-1.4156862467383816e-05,-2.9784387237354065e-05,3.3333,2.9333
1.0703125,-2.4407884632639025e-05,3.468080369878693e-05,-2.0497700920119e-05,-3.661399865415424e-05,3.3333,2.9333
1.07421875,-2.734052241702905e-05,4.98063454245823e-05,-1.4156862467383816e-05,-3.7591544582284256e-05,3.3333,2.9333
1.078125,-2.929561427328906e-05,4.3465506971847124e-05,-8.780359862668789e-06,-3.270381494163422e-05,3.3333,2.9333
1.08203125,-2.6362976488899034e-05,7.335937871366468e-06,-1.3179316539253819e-05,-3.221504197756921e-05,3.3333,2.9333
1.0859375,-2.734052241702905e-05,-1.2201770611123806e-05,-8.780359862668789e-06,-2.489665759670403e-05,3.3333,2.9333
1.08984375,-2.8806841309224054e-05,-5.847722078278763e-06,-1.2201770611123806e-05,-2.2452792776379013e-05,3.3333,2.9333
1.09375,-2.8318068345159046e-05,4.403300086976443e-06,-8.291586898603781e-06,-2.3430338704509024e-05,3.3333,2.9333
1.09765625,-2.9784387237354065e-05,9.818893385214194e-07,-1.0735451718928799e-05,-2.294156574044402e-05,3.3333,2.9333
1.1015625,-2.929561427328906e-05,1.1232911503776627e-05,-2.1964019812314006e-05,-3.1237496049439215e-05,3.3333,2.9333
1.10546875,-2.5874203524834044e-05,8.313483799496473e-06,-1.708950025177384e-05,-3.661399865415424e-05,3.3333,2.9333
1.109375,-3.172626901350421e-05,-1.1224224682993793e-05,5.380846015106456e-06,-3.710277161821925e-05,3.3333,2.9333
1.11328125,-3.710277161821925e-05,-7.802813934538776e-06,-5.847722078278763e-06,-3.9546636438544265e-05,3.3333,2.9333
1.1171875,-3.368136086976423e-05,-1.805383609979398e-05,-3.7591544582284256e-05,-4.052418236667428e-05,3.3333,2.9333
1.12109375,-3.856909051041426e-05,-1.805383609979398e-05,-2.3919111668574018e-05,-4.199050125886929e-05,3.3333,2.9333
1.125,-4.2968047186999296e-05,-1.2201770611123806e-05,9.818893385214194e-07,-4.199050125886929e-05,3.3333,2.9333
1.12890625,-3.270381494163422e-05,-2.294156574044402e-05,1.8075733000686673e-05,-4.784256674753946e-05,3.3333,2.9333
1.1328125,-2.4407884632639025e-05,-4.6376247855344455e-05,2.4482082307164316e-06,-4.539870192721445e-05,3.3333,2.9333
1.13671875,-2.3430338704509024e-05,-7.616497850308994e-05,-3.270381494163422e-05,-3.3192587905699224e-05,3.3333,2.9333
1.140625,-2.3919111668574018e-05,-8.739354659647515e-05,-1.854260906385899e-05,-3.221504197756921e-05,3.3333,2.9333
1.14453125,-3.172626901350421e-05,-7.372111368276492e-05,5.869618979171456e-06,-3.3192587905699224e-05,3.3333,2.9333
1.1484375,-3.465890679789423e-05,-6.39588644815747e-05,-4.844295536735856e-07,-3.661399865415424e-05,3.3333,2.9333
1.15234375,-2.4407884632639025e-05,-4.784256674753946e-05,-3.417067338063603e-06,-3.270381494163422e-05,3.3333,2.9333
1.15625,-2.7829295381094056e-05,-2.4407884632639025e-05,4.343410391413727e-09,-2.5385430560769036e-05,3.3333,2.9333
1.16015625,-2.9784387237354065e-05,-1.4645635431448824e-05,-4.844295536735856e-07,-2.8806841309224054e-05,3.3333,2.9333
1.1640625,-1.805383609979398e-05,1.9594352666514323e-06,1.9594352666514323e-06,-2.7829295381094056e-05,3.3333,2.9333
1.16796875,-2.294156574044402e-05,-1.5623181359578836e-05,1.9594352666514323e-06,-2.6362976488899034e-05,3.3333,2.9333
1.171875,-3.0273160201419072e-05,-3.465890679789423e-05,-2.928294373998611e-06,-3.4170133833829225e-05,3.3333,2.9333
1.17578125,-2.489665759670403e-05,-3.710277161821925e-05,-1.6600727287708834e-05,-3.4170133833829225e-05,3.3333,2.9333
1.1796875,-2.6362976488899034e-05,-6.542518337376972e-05,-2.0497700920119e-05,-3.3192587905699224e-05,3.3333,2.9333
1.18359375,-2.929561427328906e-05,-7.812007035934993e-05,-1.366808950331881e-05,-4.101295533073927e-05,3.3333,2.9333
1.1875,-2.489665759670403e-05,-6.1026226697184694e-05,-1.7565063135728977e-05,-3.856909051041426e-05,3.3333,2.9333
1.19140625,-3.270381494163422e-05,-5.126397749599448e-05,-2.4407884632639025e-05,-3.368136086976423e-05,3.3333,2.9333
1.1953125,-3.563645272602425e-05,-5.028643156786448e-05,-2.489665759670403e-05,-3.563645272602425e-05,3.3333,2.9333
1.19921875,-3.221504197756921e-05,-3.4170133833829225e-05,-2.685174945296404e-05,-2.929561427328906e-05,3.3333,2.9333
1.203125,-2.8806841309224054e-05,-2.734052241702905e-05,-1.9520154991988986e-05,-2.7829295381094056e-05,3.3333,2.9333
1.20703125,-2.4407884632639025e-05,-2.929561427328906e-05,-1.4645635431448824e-05,-3.3192587905699224e-05,3.3333,2.9333
1.2109375,-2.0497700920119e-05,-2.2452792776379013e-05,-1.708950025177384e-05,-3.270381494163422e-05,3.3333,2.9333
1.21484375,-1.9520154991988986e-05,-2.1475246848249e-05,-2.489665759670403e-05,-2.929561427328906e-05,3.3333,2.9333
1.21875,-2.1964019812314006e-05,-1.3179316539253819e-05,-2.929561427328906e-05,-2.6362976488899034e-05,3.3333,2.9333
1.22265625,-2.5874203524834044e-05,-1.366808950331881e-05,-2.5385430560769036e-05,-2.929561427328906e-05,3.3333,2.9333
1.2265625,-2.685174945296404e-05,-2.0008927956053993e-05,-2.929561427328906e-05,-3.465890679789423e-05,3.3333,2.9333
1.23046875,-3.368136086976423e-05,-1.7565063135728977e-05,-3.270381494163422e-05,-3.9546636438544265e-05,3.3333,2.9333
1.234375,-3.661399865415424e-05,-4.150172829480428e-05,-4.2968047186999296e-05,-3.710277161821925e-05,3.3333,2.9333
1.23828125,-3.465890679789423e-05,-4.5887474891279454e-05,-5.077520453192949e-05,-2.8806841309224054e-05,3.3333,2.9333
1.2421875,-3.7591544582284256e-05,-2.8318068345159046e-05,-2.2452792776379013e-05,-3.0273160201419072e-05,3.3333,2.9333
1.24609375,-3.514767976195924e-05,-2.8318068345159046e-05,8.80225676356148e-06,-3.0273160201419072e-05,3.3333,2.9333
1.25,-3.612522569008925e-05,-2.489665759670403e-05,2.4482082307164316e-06,-2.929561427328906e-05,3.3333,2.9333
1.25390625,-3.808031754634926e-05,-1.9520154991988986e-05,-1.7565063135728977e-05,-2.7829295381094056e-05,3.3333,2.9333
1.2578125,-3.270381494163422e-05,-9.26913282673378e-06,-2.1964019812314006e-05,-2.9784387237354065e-05,3.3333,2.9333
1.26171875,-3.4170133833829225e-05,-1.3179316539253819e-05,-2.734052241702905e-05,-3.1237496049439215e-05,3.3333,2.9333
1.265625,-4.052418236667428e-05,-3.710277161821925e-05,-2.1964019812314006e-05,-2.6362976488899034e-05,3.3333,2.9333
1.26953125,-3.661399865415424e-05,-3.514767976195924e-05,-1.513440839551383e-05,-3.270381494163422e-05,3.3333,2.9333
1.2734375,-3.4170133833829225e-05,-3.0273160201419072e-05,-3.9546636438544265e-05,-3.465890679789423e-05,3.3333,2.9333
1.27734375,-3.221504197756921e-05,-3.1237496049439215e-05,-3.661399865415424e-05,-4.150172829480428e-05,3.3333,2.9333
1.28125,-2.6362976488899034e-05,-1.0246678754863793e-05,-2.294156574044402e-05,-4.490992896314944e-05,3.3333,2.9333
1.28515625,-2.5385430560769036e-05,1.470662302586426e-06,-2.5874203524834044e-05,-3.368136086976423e-05,3.3333,2.9333
1.2890625,-2.6362976488899034e-05,-2.4395214099336045e-06,-1.7565063135728977e-05,-2.7829295381094056e-05,3.3333,2.9333
1.29296875,-2.685174945296404e-05,-4.381403186083744e-06,-2.929561427328906e-05,-2.929561427328906e-05,3.3333,2.9333
1.296875,-2.734052241702905e-05,-5.358949114213757e-06,-3.661399865415424e-05,-2.294156574044402e-05,3.3333,2.9333
1.30078125,-3.074872308537421e-05,-1.6111954323643827e-05,-2.0008927956053993e-05,-1.854260906385899e-05,3.3333,2.9333
1.3046875,-3.172626901350421e-05,-3.4170133833829225e-05,-2.734052241702905e-05,-3.368136086976423e-05,3.3333,2.9333
1.30859375,-3.368136086976423e-05,-4.101295533073927e-05,-3.9546636438544265e-05,-4.442115599908443e-05,3.3333,2.9333
1.3125,-3.172626901350421e-05,-4.199050125886929e-05,-3.612522569008925e-05,-4.393238303501944e-05,3.3333,2.9333
1.31640625,-3.0273160201419072e-05,-3.270381494163422e-05,-3.3192587905699224e-05,-3.808031754634926e-05,3.3333,2.9333
1.3203125,-3.074872308537421e-05,-3.710277161821925e-05,-2.4407884632639025e-05,-3.074872308537421e-05,3.3333,2.9333
1.32421875,-2.8806841309224054e-05,-4.199050125886929e-05,-2.489665759670403e-05,-3.465890679789423e-05,3.3333,2.9333
1.328125,-2.8318068345159046e-05,-2.3430338704509024e-05,-1.366808950331881e-05,-3.905786347447926e-05,3.3333,2.9333
1.33203125,-2.9784387237354065e-05,-1.2690543575188811e-05,-1.513440839551383e-05,-3.612522569008925e-05,3.3333,2.9333
1.3359375,-3.074872308537421e-05,-1.805383609979398e-05,-2.8806841309224054e-05,-3.1237496049439215e-05,3.3333,2.9333
1.33984375,-3.074872308537421e-05,-1.7565063135728977e-05,-2.8806841309224054e-05,-2.8318068345159046e-05,3.3333,2.9333
1.34375,-2.9784387237354065e-05,-1.708950025177384e-05,-1.9031382027923996e-05,-2.3919111668574018e-05,3.3333,2.9333
1.34765625,-3.074872308537421e-05,-1.4156862467383816e-05,-6.33649504234377e-06,-2.294156574044402e-05,3.3333,2.9333
1.3515625,-2.8806841309224054e-05,-4.003540940260927e-05,-3.0273160201419072e-05,-2.1964019812314006e-05,3.3333,2.9333
1.35546875,-2.685174945296404e-05,-5.2241523424124495e-05,-2.5874203524834044e-05,-1.7565063135728977e-05,3.3333,2.9333
1.359375,-3.514767976195924e-05,-5.615170713664451e-05,-2.0986473884184008e-05,-2.734052241702905e-05,3.3333,2.9333
1.36328125,-4.101295533073927e-05,-7.469865961089494e-05,-3.0273160201419072e-05,-3.1237496049439215e-05,3.3333,2.9333
1.3671875,-3.856909051041426e-05,-8.641600066834513e-05,-2.0986473884184008e-05,-2.734052241702905e-05,3.3333,2.9333
1.37109375,-3.661399865415424e-05,-9.715579579766534e-05,-3.661399865415424e-05,-3.270381494163422e-05,3.3333,2.9333
1.375,-3.7591544582284256e-05,-9.47251410574502e-05,-4.7353793783474456e-05,-3.710277161821925e-05,3.3333,2.9333
1.37890625,-3.808031754634926e-05,-9.862211468986034e-05,-2.3430338704509024e-05,-3.856909051041426e-05,3.3333,2.9333
1.3828125,-3.563645272602425e-05,-0.00011082822871137557,-2.7829295381094056e-05,-3.368136086976423e-05,3.3333,2.9333
1.38671875,-3.612522569008925e-05,-0.0001054649361867704,-4.539870192721445e-05,-3.1237496049439215e-05,3.3333,2.9333
1.390625,-4.003540940260927e-05,-0.0001059537091508354,-3.661399865415424e-05,-3.4170133833829225e-05,3.3333,2.9333
1.39453125,-3.661399865415424e-05,-0.00010693125507896542,-2.8806841309224054e-05,-3.612522569008925e-05,3.3333,2.9333
1.3984375,-2.7829295381094056e-05,-9.521391402151518e-05,-3.074872308537421e-05,-4.199050125886929e-05,3.3333,2.9333
1.40234375,-2.734052241702905e-05,-0.0001054649361867704,-2.9784387237354065e-05,-4.247927422293429e-05,3.3333,2.9333
1.40625,-3.465890679789423e-05,-0.00011620473131609063,-4.345682015106429e-05,-3.661399865415424e-05,3.3333,2.9333
1.41015625,-3.9546636438544265e-05,-0.00011522718538796061,-5.077520453192949e-05,-3.905786347447926e-05,3.3333,2.9333
1.4140625,-4.003540940260927e-05,-0.00011815982317235063,-4.247927422293429e-05,-3.612522569008925e-05,3.3333,2.9333
1.41796875,-3.661399865415424e-05,-0.00010350984433051039,-2.1964019812314006e-05,-2.685174945296404e-05,3.3333,2.9333
1.421875,-2.1475246848249e-05,-8.641600066834513e-05,-1.2690543575188811e-05,-2.4407884632639025e-05,3.3333,2.9333
1.42578125,-2.5385430560769036e-05,-8.251902703593497e-05,-2.734052241702905e-05,-2.8806841309224054e-05,3.3333,2.9333
1.4296875,-4.003540940260927e-05,-7.420988664682991e-05,-5.2730296388189495e-05,-3.661399865415424e-05,3.3333,2.9333
1.43359375,-4.247927422293429e-05,-8.251902703593497e-05,-4.7353793783474456e-05,-4.101295533073927e-05,3.3333,2.9333
1.4375,-4.2968047186999296e-05,-9.228127623712518e-05,-2.734052241702905e-05,-3.661399865415424e-05,3.3333,2.9333
1.44140625,-3.905786347447926e-05,-8.983741141680016e-05,-3.221504197756921e-05,-3.3192587905699224e-05,3.3333,2.9333
1.4453125,-3.856909051041426e-05,-8.690477363241015e-05,-4.6376247855344455e-05,-3.0273160201419072e-05,3.3333,2.9333
1.44921875,-4.150172829480428e-05,-8.154148110780496e-05,-5.126397749599448e-05,-2.9784387237354065e-05,3.3333,2.9333
1.453125,-3.465890679789423e-05,-7.469865961089494e-05,-4.7353793783474456e-05,-3.856909051041426e-05,3.3333,2.9333
1.45703125,-3.172626901350421e-05,-7.078847589837488e-05,-3.612522569008925e-05,-3.808031754634926e-05,3.3333,2.9333
1.4609375,-3.270381494163422e-05,-6.738027523002972e-05,-2.3430338704509024e-05,-2.929561427328906e-05,3.3333,2.9333
1.46484375,-2.7829295381094056e-05,-8.690477363241015e-05,-3.808031754634926e-05,-2.7829295381094056e-05,3.3333,2.9333
1.46875,-2.8318068345159046e-05,-9.081495734493018e-05,-5.858236187685968e-05,-3.368136086976423e-05,3.3333,2.9333
1.47265625,-3.3192587905699224e-05,-8.397213584802012e-05,-5.077520453192949e-05,-3.1237496049439215e-05,3.3333,2.9333
1.4765625,-3.3192587905699224e-05,-8.690477363241015e-05,-3.661399865415424e-05,-2.9784387237354065e-05,3.3333,2.9333
1.48046875,-3.0273160201419072e-05,-8.592722770428013e-05,-2.0497700920119e-05,-3.514767976195924e-05,3.3333,2.9333
1.484375,-3.4170133833829225e-05,-8.690477363241015e-05,-3.612522569008925e-05,-3.661399865415424e-05,3.3333,2.9333
1.48828125,-3.465890679789423e-05,-8.105270814373997e-05,-5.3707842316319497e-05,-3.7591544582284256e-05,3.3333,2.9333
1.4921875,-3.514767976195924e-05,-7.763129739528494e-05,-5.2241523424124495e-05,-3.856909051041426e-05,3.3333,2.9333
1.49609375,-4.101295533073927e-05,-5.126397749599448e-05,-4.784256674753946e-05,-3.710277161821925e-05,3.3333,2.9333
1.5,-4.150172829480428e-05,-2.929561427328906e-05,-3.514767976195924e-05,-3.4170133833829225e-05,3.3333,2.9333
1.50390625,-4.247927422293429e-05,-3.563645272602425e-05,-4.150172829480428e-05,-3.4170133833829225e-05,3.3333,2.9333
1.5078125,-3.270381494163422e-05,-1.366808950331881e-05,-4.393238303501944e-05,-3.563645272602425e-05,3.3333,2.9333
1.51171875,-2.7829295381094056e-05,-2.5874203524834044e-05,-5.809358891279467e-05,-4.101295533073927e-05,3.3333,2.9333
1.515625,-3.270381494163422e-05,-3.661399865415424e-05,-6.24925455893797e-05,-4.539870192721445e-05,3.3333,2.9333
1.51953125,-3.4170133833829225e-05,-2.2452792776379013e-05,-4.052418236667428e-05,-4.199050125886929e-05,3.3333,2.9333
1.5234375,-3.856909051041426e-05,-3.856909051041426e-05,-4.490992896314944e-05,-4.052418236667428e-05,3.3333,2.9333
1.52734375,-3.856909051041426e-05,-3.563645272602425e-05,-6.591395633783472e-05,-3.612522569008925e-05,3.3333,2.9333
1.53125,-3.7591544582284256e-05,-3.4170133833829225e-05,-6.933536708628975e-05,-2.8806841309224054e-05,3.3333,2.9333
1.53515625,-3.172626901350421e-05,-1.708950025177384e-05,-5.468538824444951e-05,-2.294156574044402e-05,3.3333,2.9333
1.5390625,-2.294156574044402e-05,-1.1224224682993793e-05,-4.101295533073927e-05,-2.3919111668574018e-05,3.3333,2.9333
1.54296875,-3.074872308537421e-05,-1.5623181359578836e-05,-4.052418236667428e-05,-4.442115599908443e-05,3.3333,2.9333
1.546875,-3.856909051041426e-05,-3.90584030212861e-06,-3.7591544582284256e-05,-3.4170133833829225e-05,3.3333,2.9333
1.55078125,-3.074872308537421e-05,-3.465890679789423e-05,-6.884659412222475e-05,-1.708950025177384e-05,3.3333,2.9333
1.5546875,-3.661399865415424e-05,-6.640272930189972e-05,-8.543845474021512e-05,-2.5874203524834044e-05,3.3333,2.9333
1.55859375,-4.784256674753946e-05,-5.4196615280384504e-05,-5.615170713664451e-05,-2.5385430560769036e-05,3.3333,2.9333
1.5625,-5.028643156786448e-05,-4.7353793783474456e-05,-5.468538824444951e-05,-1.9520154991988986e-05,3.3333,2.9333
1.56640625,-4.9308885639734465e-05,-5.615170713664451e-05,-7.17660218265049e-05,-2.1964019812314006e-05,3.3333,2.9333
1.5703125,-4.539870192721445e-05,-6.347009151750972e-05,-7.567620553902491e-05,-1.6111954323643827e-05,3.3333,2.9333
1.57421875,-5.3707842316319497e-05,-6.39588644815747e-05,-8.641600066834513e-05,-1.1224224682993793e-05,3.3333,2.9333
1.578125,-6.640272930189972e-05,-6.0537453733119687e-05,-8.007516221560996e-05,-1.4645635431448824e-05,3.3333,2.9333
1.58203125,-6.835782115815974e-05,-7.567620553902491e-05,-6.738027523002972e-05,-6.33649504234377e-06,3.3333,2.9333
1.5859375,-6.640272930189972e-05,-9.374759512932018e-05,-8.543845474021512e-05,-4.381403186083744e-06,3.3333,2.9333
1.58984375,-6.933536708628975e-05,-9.521391402151518e-05,-9.764456876173037e-05,-3.417067338063603e-06,3.3333,2.9333
1.59375,-7.17660218265049e-05,-9.715579579766534e-05,-8.397213584802012e-05,1.470662302586426e-06,3.3333,2.9333
1.59765625,-7.763129739528494e-05,-0.00011033945574731058,-7.909761628747994e-05,-1.4619754818035986e-06,3.3333,2.9333
1.6015625,-8.494968177615012e-05,-0.00012011491502861064,-7.860884332341496e-05,-1.0735451718928799e-05,3.3333,2.9333
1.60546875,-9.032618438086515e-05,-0.00010155475247425039,-8.690477363241015e-05,-1.0735451718928799e-05,3.3333,2.9333
1.609375,-9.130373030899517e-05,-8.543845474021512e-05,-9.911088765392537e-05,-1.950748445868598e-06,3.3333,2.9333
1.61328125,-8.690477363241015e-05,-9.715579579766534e-05,-7.860884332341496e-05,-3.417067338063603e-06,3.3333,2.9333
1.6171875,-8.105270814373997e-05,-9.081495734493018e-05,-4.784256674753946e-05,-1.4156862467383816e-05,3.3333,2.9333
1.62109375,-7.909761628747994e-05,-6.884659412222475e-05,-4.6376247855344455e-05,-2.7829295381094056e-05,3.3333,2.9333
1.625,-7.665375146715493e-05,-6.39588644815747e-05,-5.7116042984664656e-05,-2.929561427328906e-05,3.3333,2.9333
1.62890625,-7.420988664682991e-05,-8.837109252460515e-05,-7.17660218265049e-05,-2.294156574044402e-05,3.3333,2.9333
1.6328125,-7.078847589837488e-05,-8.29945899198901e-05,-7.420988664682991e-05,-1.513440839551383e-05,3.3333,2.9333
1.63671875,-6.933536708628975e-05,-7.420988664682991e-05,-4.2968047186999296e-05,-1.2690543575188811e-05,3.3333,2.9333
1.640625,-7.274356775463491e-05,-8.494968177615012e-05,-4.833133971160447e-05,-1.1224224682993793e-05,3.3333,2.9333
1.64453125,-6.493641040970472e-05,-7.518743257495993e-05,-5.615170713664451e-05,-1.4645635431448824e-05,3.3333,2.9333
1.6484375,-5.907113484092467e-05,-6.004868076905468e-05,-4.686502081940945e-05,-2.489665759670403e-05,3.3333,2.9333
1.65234375,-5.615170713664451e-05,-7.17660218265049e-05,-6.982414005035474e-05,-2.8318068345159046e-05,3.3333,2.9333
1.65625,-5.175275046005949e-05,-7.958638925154497e-05,-5.2241523424124495e-05,-3.1237496049439215e-05,3.3333,2.9333
1.66015625,-5.664048010070952e-05,-7.909761628747994e-05,-3.7591544582284256e-05,-2.5385430560769036e-05,3.3333,2.9333
1.6640625,-5.907113484092467e-05,-7.518743257495993e-05,-6.640272930189972e-05,-3.3192587905699224e-05,3.3333,2.9333
1.66796875,-5.809358891279467e-05,-5.2730296388189495e-05,-5.7116042984664656e-05,-4.345682015106429e-05,3.3333,2.9333
1.671875,-5.566293417257951e-05,-6.640272930189972e-05,-4.2968047186999296e-05,-2.5385430560769036e-05,3.3333,2.9333
1.67578125,-5.517416120851452e-05,-6.835782115815974e-05,-3.221504197756921e-05,-3.514767976195924e-05,3.3333,2.9333
1.6796875,-5.7116042984664656e-05,-4.8820112675669464e-05,-4.003540940260927e-05,-5.2730296388189495e-05,3.3333,2.9333
1.68359375,-5.7116042984664656e-05,-5.4196615280384504e-05,-5.077520453192949e-05,-3.905786347447926e-05,3.3333,2.9333
1.6875,-6.004868076905468e-05,-6.151499966124969e-05,-6.591395633783472e-05,-3.368136086976423e-05,3.3333,2.9333
1.69140625,-6.44476374456397e-05,-6.786904819409475e-05,-8.203025407186996e-05,-4.539870192721445e-05,3.3333,2.9333
1.6953125,-5.566293417257951e-05,-5.566293417257951e-05,-4.784256674753946e-05,-5.3707842316319497e-05,3.3333,2.9333
1.69921875,-4.6376247855344455e-05,-4.8820112675669464e-05,-4.150172829480428e-05,-3.661399865415424e-05,3.3333,2.9333
1.703125,-4.101295533073927e-05,-5.955990780498967e-05,-5.2730296388189495e-05,-3.0273160201419072e-05,3.3333,2.9333
1.70703125,-3.465890679789423e-05,-5.175275046005949e-05,-5.566293417257951e-05,-3.563645272602425e-05,3.3333,2.9333
1.7109375,-2.9784387237354065e-05,-4.150172829480428e-05,-4.5887474891279454e-05,-3.221504197756921e-05,3.3333,2.9333
1.71484375,-3.0273160201419072e-05,-3.661399865415424e-05,-3.612522569008925e-05,-2.734052241702905e-05,3.3333,2.9333
1.71875,-4.442115599908443e-05,-4.784256674753946e-05,-3.563645272602425e-05,-3.808031754634926e-05,3.3333,2.9333
1.72265625,-4.784256674753946e-05,-4.979765860379947e-05,-1.4156862467383816e-05,-4.101295533073927e-05,3.3333,2.9333
1.7265625,-3.465890679789423e-05,-2.7829295381094056e-05,-3.074872308537421e-05,-3.905786347447926e-05,3.3333,2.9333
1.73046875,-3.1237496049439215e-05,-8.291586898603781e-06,-5.955990780498967e-05,-4.101295533073927e-05,3.3333,2.9333
1.734375,-3.856909051041426e-05,-1.805383609979398e-05,-6.200377262531469e-05,-4.2968047186999296e-05,3.3333,2.9333
1.73828125,-3.9546636438544265e-05,-4.442115599908443e-05,-3.4170133833829225e-05,-4.199050125886929e-05,3.3333,2.9333
1.7421875,-3.661399865415424e-05,-2.3919111668574018e-05,-1.805383609979398e-05,-3.4170133833829225e-05,3.3333,2.9333
1.74609375,-3.368136086976423e-05,-5.847722078278763e-06,-5.760481594872966e-05,-3.221504197756921e-05,3.3333,2.9333
1.75,-4.8820112675669464e-05,-1.2201770611123806e-05,-6.640272930189972e-05,-5.760481594872966e-05,3.3333,2.9333
1.75390625,-4.8820112675669464e-05,2.0519597821011693e-05,-3.612522569008925e-05,-5.7116042984664656e-05,3.3333,2.9333
1.7578125,-1.9031382027923996e-05,4.3954279935912124e-05,-1.9031382027923996e-05,-4.979765860379947e-05,3.3333,2.9333
1.76171875,-1.805383609979398e-05,1.3676776324101645e-05,-5.077520453192949e-05,-6.347009151750972e-05,3.3333,2.9333
1.765625,-2.2452792776379013e-05,4.403300086976443e-06,-6.004868076905468e-05,-4.199050125886929e-05,3.3333,2.9333
1.76953125,-3.563645272602425e-05,2.10083707850767e-05,-4.2968047186999296e-05,-2.685174945296404e-05,3.3333,2.9333
1.7734375,-5.2730296388189495e-05,3.223693887846191e-05,-4.979765860379947e-05,-4.345682015106429e-05,3.3333,2.9333
1.77734375,-2.929561427328906e-05,6.346556825818267e-05,-1.708950025177384e-05,-5.664048010070952e-05,3.3333,2.9333
1.78125,-1.1712997647058798e-05,7.128593568322274e-05,-6.825268006408763e-06,-1.6600727287708834e-05,3.3333,2.9333
1.78515625,-3.3192587905699224e-05,2.9304301094071892e-05,-5.32190693522545e-05,-2.4407884632639025e-05,3.3333,2.9333
1.7890625,-3.808031754634926e-05,4.93175724605173e-05,-6.39588644815747e-05,-4.199050125886929e-05,3.3333,2.9333
1.79296875,-3.221504197756921e-05,7.66492282078279e-05,-3.9546636438544265e-05,-3.1237496049439215e-05,3.3333,2.9333
1.796875,-2.5385430560769036e-05,6.981961679102772e-05,-7.802813934538776e-06,-2.294156574044402e-05,3.3333,2.9333
1.80078125,-1.2690543575188811e-05,7.275225457541774e-05,-1.6600727287708834e-05,-1.1224224682993793e-05,3.3333,2.9333
1.8046875,-1.9031382027923996e-05,5.029511838864731e-05,-4.052418236667428e-05,-1.9520154991988986e-05,3.3333,2.9333
1.80859375,-3.710277161821925e-05,3.223693887846191e-05,-4.003540940260927e-05,-3.368136086976423e-05,3.3333,2.9333
1.8125,-4.150172829480428e-05,5.0783891352712314e-05,-4.833133971160447e-05,-3.9546636438544265e-05,3.3333,2.9333
1.81640625,-3.270381494163422e-05,5.322775617303733e-05,-4.442115599908443e-05,-4.247927422293429e-05,3.3333,2.9333
1.8203125,-2.685174945296404e-05,4.444305289997713e-05,-1.9031382027923996e-05,-4.442115599908443e-05,3.3333,2.9333
1.82421875,-2.0497700920119e-05,2.10083707850767e-05,-2.1475246848249e-05,-3.221504197756921e-05,3.3333,2.9333
1.828125,-2.4407884632639025e-05,-3.1237496049439215e-05,-3.563645272602425e-05,-2.929561427328906e-05,3.3333,2.9333
1.83203125,-3.4170133833829225e-05,-5.32190693522545e-05,-3.514767976195924e-05,-3.7591544582284256e-05,3.3333,2.9333
1.8359375,-2.8318068345159046e-05,-5.028643156786448e-05,-1.805383609979398e-05,-3.905786347447926e-05,3.3333,2.9333
1.83984375,-2.489665759670403e-05,-5.126397749599448e-05,-9.757905790798786e-06,-4.199050125886929e-05,3.3333,2.9333
1.84375,-4.393238303501944e-05,-6.004868076905468e-05,-5.468538824444951e-05,-5.809358891279467e-05,3.3333,2.9333
1.84765625,-5.32190693522545e-05,-4.686502081940945e-05,-6.004868076905468e-05,-5.028643156786448e-05,3.3333,2.9333
1.8515625,-4.490992896314944e-05,-2.489665759670403e-05,-4.979765860379947e-05,-4.150172829480428e-05,3.3333,2.9333
1.85546875,-3.856909051041426e-05,-1.6111954323643827e-05,-5.175275046005949e-05,-6.933536708628975e-05,3.3333,2.9333
1.859375,-4.052418236667428e-05,-9.26913282673378e-06,-5.517416120851452e-05,-6.884659412222475e-05,3.3333,2.9333
1.86328125,-4.101295533073927e-05,1.0744138539711627e-05,-6.29813185534447e-05,-5.028643156786448e-05,3.3333,2.9333
1.8671875,-4.833133971160447e-05,2.637166330968187e-05,-6.591395633783472e-05,-4.247927422293429e-05,3.3333,2.9333
1.87109375,-4.7353793783474456e-05,2.832675516594188e-05,-5.907113484092467e-05,-4.979765860379947e-05,3.3333,2.9333
1.875,-2.7829295381094056e-05,4.3465506971847124e-05,-5.077520453192949e-05,-6.933536708628975e-05,3.3333,2.9333
1.87890625,-3.0273160201419072e-05,2.9304301094071892e-05,-4.247927422293429e-05,-7.860884332341496e-05,3.3333,2.9333
1.8828125,-3.710277161821925e-05,3.914527122911444e-06,-5.907113484092467e-05,-5.3707842316319497e-05,3.3333,2.9333
1.88671875,-3.856909051041426e-05,-9.732025177385922e-07,-7.274356775463491e-05,-3.905786347447926e-05,3.3333,2.9333
1.890625,-3.612522569008925e-05,-2.685174945296404e-05,-6.29813185534447e-05,-4.833133971160447e-05,3.3333,2.9333
1.89453125,-4.003540940260927e-05,-4.393238303501944e-05,-5.615170713664451e-05,-5.664048010070952e-05,3.3333,2.9333
1.8984375,-4.393238303501944e-05,-4.442115599908443e-05,-4.101295533073927e-05,-6.542518337376972e-05,3.3333,2.9333
1.90234375,-3.856909051041426e-05,-5.2241523424124495e-05,-2.929561427328906e-05,-6.44476374456397e-05,3.3333,2.9333
1.90625,-3.710277161821925e-05,-6.786904819409475e-05,-5.077520453192949e-05,-4.393238303501944e-05,3.3333,2.9333
1.91015625,-3.221504197756921e-05,-6.884659412222475e-05,-6.29813185534447e-05,-3.4170133833829225e-05,3.3333,2.9333
1.9140625,-3.465890679789423e-05,-6.347009151750972e-05,-5.2241523424124495e-05,-4.150172829480428e-05,3.3333,2.9333
1.91796875,-4.490992896314944e-05,-6.933536708628975e-05,-3.563645272602425e-05,-3.172626901350421e-05,3.3333,2.9333
1.921875,-4.686502081940945e-05,-7.518743257495993e-05,-3.221504197756921e-05,-3.612522569008925e-05,3.3333,2.9333
1.92578125,-5.3707842316319497e-05,-8.739354659647515e-05,-3.3192587905699224e-05,-5.32190693522545e-05,3.3333,2.9333
1.9296875,-4.199050125886929e-05,-6.640272930189972e-05,-1.708950025177384e-05,-3.905786347447926e-05,3.3333,2.9333
1.93359375,-2.0497700920119e-05,-4.393238303501944e-05,-2.6362976488899034e-05,-3.4170133833829225e-05,3.3333,2.9333
1.9375,-4.539870192721445e-05,-7.909761628747994e-05,-8.007516221560996e-05,-4.784256674753946e-05,3.3333,2.9333
1.94140625,-7.958638925154497e-05,-0.00011620473131609063,-7.372111368276492e-05,-6.347009151750972e-05,3.3333,2.9333
1.9453125,-5.566293417257951e-05,-0.00012158123392080566,-4.2968047186999296e-05,-3.710277161821925e-05,3.3333,2.9333
1.94921875,-4.833133971160447e-05,-0.00013085471015793085,-5.7116042984664656e-05,-4.150172829480428e-05,3.3333,2.9333
1.953125,-4.686502081940945e-05,-0.00011913736910048063,-5.858236187685968e-05,-5.028643156786448e-05,3.3333,2.9333
1.95703125,-4.784256674753946e-05,-0.00010693125507896542,-5.2241523424124495e-05,-4.9308885639734465e-05,3.3333,2.9333
1.9609375,-6.738027523002972e-05,-8.690477363241015e-05,-3.9546636438544265e-05,-3.905786347447926e-05,3.3333,2.9333
1.96484375,-4.003540940260927e-05,-4.539870192721445e-05,-3.612522569008925e-05,-1.805383609979398e-05,3.3333,2.9333
1.96875,-2.5874203524834044e-05,-6.786904819409475e-05,-6.347009151750972e-05,-3.514767976195924e-05,3.3333,2.9333
1.97265625,-4.7353793783474456e-05,-9.959966061799036e-05,-7.274356775463491e-05,-6.1026226697184694e-05,3.3333,2.9333
1.9765625,-4.150172829480428e-05,-7.860884332341496e-05,-5.664048010070952e-05,-5.955990780498967e-05,3.3333,2.9333
1.98046875,-3.221504197756921e-05,-5.955990780498967e-05,-5.2730296388189495e-05,-3.808031754634926e-05,3.3333,2.9333
1.984375,-4.2968047186999296e-05,-5.809358891279467e-05,-5.566293417257951e-05,-3.221504197756921e-05,3.3333,2.9333
1.98828125,-3.661399865415424e-05,-1.7565063135728977e-05,-5.2241523424124495e-05,-3.856909051041426e-05,3.3333,2.9333
1.9921875,-4.9308885639734465e-05,-3.7591544582284256e-05,-6.689150226596473e-05,-3.4170133833829225e-05,3.3333,2.9333
1.99609375,-6.29813185534447e-05,-0.00010497616322270539,-6.200377262531469e-05,-4.9308885639734465e-05,3.3333,2.9333
2.0,-2.0986473884184008e-05,-6.1026226697184694e-05,-3.0273160201419072e-05,-3.9546636438544265e-05,3.3333,2.9333
2.00390625,-2.2452792776379013e-05,-2.685174945296404e-05,-3.1237496049439215e-05,-2.489665759670403e-05,3.3333,2.9333
2.0078125,-4.833133971160447e-05,-5.664048010070952e-05,-4.784256674753946e-05,-3.368136086976423e-05,3.3333,2.9333
2.01171875,-4.979765860379947e-05,-4.539870192721445e-05,-4.490992896314944e-05,-3.612522569008925e-05,3.3333,2.9333
2.015625,-5.175275046005949e-05,-3.710277161821925e-05,-4.150172829480428e-05,-3.808031754634926e-05,3.3333,2.9333
2.01953125,-5.175275046005949e-05,-6.542518337376972e-05,-5.028643156786448e-05,-4.7353793783474456e-05,3.3333,2.9333
2.0234375,-3.7591544582284256e-05,-4.8820112675669464e-05,-4.052418236667428e-05,-4.539870192721445e-05,3.3333,2.9333
2.02734375,-2.0008927956053993e-05,2.4482082307164316e-06,-1.4645635431448824e-05,-1.4156862467383816e-05,3.3333,2.9333
2.03125,-1.4156862467383816e-05,8.80225676356148e-06,-9.26913282673378e-06,-3.074872308537421e-05,3.3333,2.9333
2.03515625,-3.221504197756921e-05,-2.4407884632639025e-05,-3.661399865415424e-05,-5.664048010070952e-05,3.3333,2.9333
2.0390625,-4.6376247855344455e-05,-1.513440839551383e-05,-3.368136086976423e-05,-1.6600727287708834e-05,3.3333,2.9333
2.04296875,-3.710277161821925e-05,-7.802813934538776e-06,-2.0008927956053993e-05,4.8920730510414495e-06,3.3333,2.9333
2.046875,-4.979765860379947e-05,-6.835782115815974e-05,-7.32323407186999e-05,-3.172626901350421e-05,3.3333,2.9333
2.05078125,-5.566293417257951e-05,-0.00010497616322270539,-8.29945899198901e-05,-4.979765860379947e-05,3.3333,2.9333
2.0546875,-4.7353793783474456e-05,-8.934863845273516e-05,-5.077520453192949e-05,-4.247927422293429e-05,3.3333,2.9333
2.05859375,-3.710277161821925e-05,-7.372111368276492e-05,-4.393238303501944e-05,-4.247927422293429e-05,3.3333,2.9333
2.0625,-3.7591544582284256e-05,-9.764456876173037e-05,-6.44476374456397e-05,-4.9308885639734465e-05,3.3333,2.9333
2.06640625,-4.003540940260927e-05,-9.911088765392537e-05,-7.420988664682991e-05,-2.2452792776379013e-05,3.3333,2.9333
2.0703125,-2.3919111668574018e-05,-8.203025407186996e-05,-8.788231956054014e-05,4.343410391413727e-09,3.3333,2.9333
2.07421875,-3.172626901350421e-05,-8.105270814373997e-05,-0.00010302107136644539,-2.2452792776379013e-05,3.3333,2.9333
2.078125,-3.856909051041426e-05,-8.007516221560996e-05,-0.00010936190981918056,-3.612522569008925e-05,3.3333,2.9333
2.08203125,-4.5887474891279454e-05,-9.959966061799036e-05,-0.00015037920856031126,-2.6362976488899034e-05,3.3333,2.9333
2.0859375,-4.6376247855344455e-05,-9.277004920119017e-05,-0.0001635628685099565,-1.2201770611123806e-05,3.3333,2.9333
2.08984375,-3.0273160201419072e-05,-1.950748445868598e-06,-0.00017333832779125655,-1.805383609979398e-05,3.3333,2.9333
2.09375,-3.1237496049439215e-05,5.420530210116734e-05,-0.00017772407438773171,-2.734052241702905e-05,3.3333,2.9333
2.09765625,-4.8820112675669464e-05,6.83532978988327e-05,-0.00016113221376974136,-2.0986473884184008e-05,3.3333,2.9333
2.1015625,-4.150172829480428e-05,9.325429890592815e-05,-0.00017089446297093155,-2.1964019812314006e-05,3.3333,2.9333
2.10546875,-1.3179316539253819e-05,0.00013378282468299386,-0.0001620965496177615,-3.710277161821925e-05,3.3333,2.9333
2.109375,-1.0246678754863793e-05,0.00015234298723735412,-0.00016162098673380633,-3.368136086976423e-05,3.3333,2.9333
2.11328125,-3.1237496049439215e-05,0.0001323165057907988,-0.00017772407438773171,-1.9520154991988986e-05,3.3333,2.9333
2.1171875,-5.2730296388189495e-05,0.00013769300839551384,-0.00017480464668345158,-3.465890679789423e-05,3.3333,2.9333
2.12109375,-5.32190693522545e-05,0.0001489215764888991,-0.00013329857497825588,-3.710277161821925e-05,3.3333,2.9333
2.125,-4.442115599908443e-05,0.00016454910125886932,-0.0001044873902586404,-3.221504197756921e-05,3.3333,2.9333
2.12890625,-4.003540940260927e-05,0.0001870062374456398,-0.00012060368799267564,-3.563645272602425e-05,3.3333,2.9333
2.1328125,-3.7591544582284256e-05,0.00018602869151750973,-0.00010302107136644539,-4.5887474891279454e-05,3.3333,2.9333
2.13671875,-3.514767976195924e-05,0.00018553991855344473,-7.958638925154497e-05,-5.3707842316319497e-05,3.3333,2.9333
2.140625,-3.465890679789423e-05,0.00018945010226596476,-6.39588644815747e-05,-5.028643156786448e-05,3.3333,2.9333
2.14453125,-3.563645272602425e-05,0.00018945010226596476,-7.274356775463491e-05,-4.199050125886929e-05,3.3333,2.9333
2.1484375,-3.3192587905699224e-05,0.00020018989739528498,-7.518743257495993e-05,-5.517416120851452e-05,3.3333,2.9333
2.15234375,-3.9546636438544265e-05,0.00019530216775463495,-5.907113484092467e-05,-6.004868076905468e-05,3.3333,2.9333
2.15625,-4.7353793783474456e-05,0.00018211850780498973,-5.2241523424124495e-05,-4.9308885639734465e-05,3.3333,2.9333
2.16015625,-5.32190693522545e-05,0.00020604196288395515,-3.7591544582284256e-05,-5.175275046005949e-05,3.3333,2.9333
2.1640625,-3.563645272602425e-05,0.00021679496809338524,-2.5874203524834044e-05,-5.907113484092467e-05,3.3333,2.9333
2.16796875,-2.0986473884184008e-05,0.00017967464298466473,-4.345682015106429e-05,-6.884659412222475e-05,3.3333,2.9333
2.171875,-4.6376247855344455e-05,0.0001503878953810941,-6.786904819409475e-05,-7.225479479056991e-05,3.3333,2.9333
2.17578125,-6.347009151750972e-05,0.00014550016574044406,-6.004868076905468e-05,-7.372111368276492e-05,3.3333,2.9333
2.1796875,-4.833133971160447e-05,0.0001489215764888991,-5.028643156786448e-05,-6.44476374456397e-05,3.3333,2.9333
2.18359375,-4.833133971160447e-05,0.00014256752795605406,-5.7116042984664656e-05,-5.4196615280384504e-05,3.3333,2.9333
2.1875,-5.955990780498967e-05,0.0001308501868986038,-5.955990780498967e-05,-5.809358891279467e-05,3.3333,2.9333
2.19140625,-5.2730296388189495e-05,0.00012450934844586865,-5.907113484092467e-05,-7.17660218265049e-05,3.3333,2.9333
2.1953125,-3.808031754634926e-05,0.00011668898102082858,-3.368136086976423e-05,-8.056393517967496e-05,3.3333,2.9333
2.19921875,-2.489665759670403e-05,0.00010937059663996339,-3.221504197756921e-05,-6.835782115815974e-05,3.3333,2.9333
2.203125,-3.9546636438544265e-05,8.83665692652781e-05,-5.468538824444951e-05,-6.786904819409475e-05,3.3333,2.9333
2.20703125,-5.3707842316319497e-05,7.46941363515679e-05,-5.468538824444951e-05,-7.225479479056991e-05,3.3333,2.9333
2.2109375,-4.833133971160447e-05,8.153695784847794e-05,-4.101295533073927e-05,-6.29813185534447e-05,3.3333,2.9333
2.21484375,-5.4196615280384504e-05,0.00013964810025177387,-4.052418236667428e-05,-5.7116042984664656e-05,3.3333,2.9333
2.21875,-6.004868076905468e-05,0.00026122046750286107,-2.8806841309224054e-05,-5.615170713664451e-05,3.3333,2.9333
2.22265625,-4.686502081940945e-05,0.0003554611790066377,-1.6111954323643827e-05,-4.442115599908443e-05,3.3333,2.9333
2.2265625,-4.784256674753946e-05,0.000374510114525063,-4.199050125886929e-05,-4.490992896314944e-05,3.3333,2.9333
2.23046875,-3.905786347447926e-05,0.0004052631810208286,-2.1475246848249e-05,-6.29813185534447e-05,3.3333,2.9333
2.234375,-3.710277161821925e-05,0.0004164917491142138,-2.0986473884184008e-05,-6.933536708628975e-05,3.3333,2.9333
2.23828125,-4.7353793783474456e-05,0.00040185498035248343,-3.368136086976423e-05,-6.0537453733119687e-05,3.3333,2.9333
2.2421875,-5.664048010070952e-05,0.0004116172295536736,-1.3179316539253819e-05,-5.2241523424124495e-05,3.3333,2.9333
2.24609375,-5.858236187685968e-05,0.0004204019328267338,-2.929561427328906e-05,-4.2968047186999296e-05,3.3333,2.9333
2.25,-4.7353793783474456e-05,0.00044042841427328915,-3.270381494163422e-05,-3.9546636438544265e-05,3.3333,2.9333
2.25390625,-4.784256674753946e-05,0.0004814325029343099,-2.734052241702905e-05,-4.979765860379947e-05,3.3333,2.9333
2.2578125,-4.5887474891279454e-05,0.0004941406,-2.7829295381094056e-05,-5.175275046005949e-05,3.3333,2.9333
2.26171875,-4.8820112675669464e-05,0.0004570202748912795,-3.3192587905699224e-05,-5.955990780498967e-05,3.3333,2.9333
2.265625,-5.2730296388189495e-05,0.0004550651830350195,-3.808031754634926e-05,-6.1026226697184694e-05,3.3333,2.9333
2.26953125,-5.809358891279467e-05,0.0004555539559990845,-2.4407884632639025e-05,-5.809358891279467e-05,3.3333,2.9333
2.2734375,-5.566293417257951e-05,0.0004536120742229343,1.612064114442666e-05,-4.442115599908443e-05,3.3333,2.9333
2.27734375,-3.074872308537421e-05,0.0004560427289631495,2.5394117381551864e-05,-4.2968047186999296e-05,3.3333,2.9333
2.28125,-4.052418236667428e-05,0.0004174692950423438,-3.7591544582284256e-05,-6.640272930189972e-05,3.3333,2.9333
2.28515625,-5.126397749599448e-05,0.00036620097413595794,-5.517416120851452e-05,-6.982414005035474e-05,3.3333,2.9333
2.2890625,-1.366808950331881e-05,0.00032128670176241706,-2.5385430560769036e-05,-4.2968047186999296e-05,3.3333,2.9333
2.29296875,-2.685174945296404e-05,0.00026610819714351113,-2.6362976488899034e-05,-4.2968047186999296e-05,3.3333,2.9333
2.296875,-1.5623181359578836e-05,0.00027099592678416114,-3.90584030212861e-06,-4.442115599908443e-05,3.3333,2.9333
2.30078125,2.936981194781438e-06,0.00023095617397116046,-4.6376247855344455e-05,-5.32190693522545e-05,3.3333,2.9333
2.3046875,-5.468538824444951e-05,0.0001513654413092241,-0.00012207000688487065,-8.739354659647515e-05,3.3333,2.9333
2.30859375,-4.345682015106429e-05,0.0001718674856397345,-0.0001122945476035706,-7.665375146715493e-05,3.3333,2.9333
2.3125,-2.3430338704509024e-05,0.00016210523643854431,-0.0001054649361867704,-6.39588644815747e-05,3.3333,2.9333
2.31640625,-4.539870192721445e-05,0.0001386705543236439,-0.00011669350428015561,-7.518743257495993e-05,3.3333,2.9333
2.3203125,-5.664048010070952e-05,0.00020067867035934999,-8.397213584802012e-05,-7.665375146715493e-05,3.3333,2.9333
2.32421875,-4.979765860379947e-05,0.0002441398339208057,-5.615170713664451e-05,-7.02997029343099e-05,3.3333,2.9333
2.328125,-2.8806841309224054e-05,0.00022704599025864043,-7.372111368276492e-05,-5.7116042984664656e-05,3.3333,2.9333
2.33203125,-2.3430338704509024e-05,0.0002446286068848707,-5.175275046005949e-05,-5.175275046005949e-05,3.3333,2.9333
2.3359375,-2.4407884632639025e-05,0.0002539020831219959,-2.8318068345159046e-05,-5.077520453192949e-05,3.3333,2.9333
2.33984375,-2.1475246848249e-05,0.00022997862804303046,-3.0273160201419072e-05,-4.490992896314944e-05,3.3333,2.9333
2.34375,-4.003540940260927e-05,0.00023485314760357062,-4.393238303501944e-05,-4.784256674753946e-05,3.3333,2.9333
2.34765625,-4.345682015106429e-05,0.0002607316945387961,-2.7829295381094056e-05,-6.44476374456397e-05,3.3333,2.9333
2.3515625,-2.6362976488899034e-05,0.0002739153544884413,1.470662302586426e-06,-5.028643156786448e-05,3.3333,2.9333
2.35546875,-1.6111954323643827e-05,0.0002836908137697414,-1.2201770611123806e-05,-3.270381494163422e-05,3.3333,2.9333
2.359375,-2.4395214099336045e-06,0.0003061479499565118,-2.294156574044402e-05,-4.442115599908443e-05,3.3333,2.9333
2.36328125,-2.4407884632639025e-05,0.00028807656036621655,-3.368136086976423e-05,-3.368136086976423e-05,3.3333,2.9333
2.3671875,-5.3707842316319497e-05,0.00028026940302128636,-5.4196615280384504e-05,-3.3192587905699224e-05,3.3333,2.9333
2.37109375,-5.32190693522545e-05,0.00028320204080567636,-5.32190693522545e-05,-4.247927422293429e-05,3.3333,2.9333
2.375,-2.685174945296404e-05,0.00026952960789196616,-2.3919111668574018e-05,-3.514767976195924e-05,3.3333,2.9333
2.37890625,-7.314040970473769e-06,0.00028124694894941636,-3.172626901350421e-05,-3.0273160201419072e-05,3.3333,2.9333
2.3828125,-4.2968047186999296e-05,0.0002587766026825361,-7.860884332341496e-05,-6.44476374456397e-05,3.3333,2.9333
2.38671875,-6.542518337376972e-05,0.00024608171569695585,-8.154148110780496e-05,-7.958638925154497e-05,3.3333,2.9333
2.390625,-2.0497700920119e-05,0.00029783880956740674,-4.490992896314944e-05,-3.9546636438544265e-05,3.3333,2.9333
2.39453125,-9.732025177385922e-07,0.00029296429000686655,-4.8820112675669464e-05,-2.8806841309224054e-05,3.3333,2.9333
2.3984375,-4.150172829480428e-05,0.0002519469912657359,-6.347009151750972e-05,-5.858236187685968e-05,3.3333,2.9333
2.40234375,-6.39588644815747e-05,0.0002465704886610208,-6.835782115815974e-05,-5.517416120851452e-05,3.3333,2.9333
2.40625,-5.566293417257951e-05,0.0002495031264454109,-6.933536708628975e-05,-4.686502081940945e-05,3.3333,2.9333
2.41015625,-2.1964019812314006e-05,0.0002597541486106661,-4.686502081940945e-05,-4.5887474891279454e-05,3.3333,2.9333
2.4140625,-1.7565063135728977e-05,0.00026952960789196616,-3.7591544582284256e-05,-3.465890679789423e-05,3.3333,2.9333
2.41796875,-3.270381494163422e-05,0.0002690408349279012,-2.9784387237354065e-05,-2.8318068345159046e-05,3.3333,2.9333
2.421875,-4.539870192721445e-05,0.00024803680755321585,-3.612522569008925e-05,-5.858236187685968e-05,3.3333,2.9333
2.42578125,-3.612522569008925e-05,0.0002163061951293202,-2.929561427328906e-05,-5.126397749599448e-05,3.3333,2.9333
2.4296875,-3.074872308537421e-05,0.00020018989739528498,-1.5623181359578836e-05,-4.2968047186999296e-05,3.3333,2.9333
2.43359375,-2.9784387237354065e-05,0.0001806521889127947,-3.7591544582284256e-05,-7.02997029343099e-05,3.3333,2.9333
2.4375,-3.9546636438544265e-05,0.00012157671066147863,-6.933536708628975e-05,-6.347009151750972e-05,3.3333,2.9333
2.44140625,-4.003540940260927e-05,0.00012499812140993365,-4.686502081940945e-05,-4.345682015106429e-05,3.3333,2.9333
2.4453125,-4.003540940260927e-05,0.0001274287761501488,-3.4170133833829225e-05,-4.784256674753946e-05,3.3333,2.9333
2.44921875,-4.979765860379947e-05,0.00011668898102082858,-4.490992896314944e-05,-4.686502081940945e-05,3.3333,2.9333
2.453125,-3.514767976195924e-05,0.00013378282468299386,-2.8318068345159046e-05,-3.808031754634926e-05,3.3333,2.9333
2.45703125,-3.4170133833829225e-05,0.0001191328458411536,-3.221504197756921e-05,-3.3192587905699224e-05,3.3333,2.9333
2.4609375,-3.270381494163422e-05,0.00012304302955367362,-3.368136086976423e-05,-3.3192587905699224e-05,3.3333,2.9333
2.46484375,-3.7591544582284256e-05,0.00012304302955367362,-3.465890679789423e-05,-4.247927422293429e-05,3.3333,2.9333
2.46875,-3.9546636438544265e-05,0.00012353180251773864,-3.172626901350421e-05,-3.563645272602425e-05,3.3333,2.9333
2.47265625,-3.1237496049439215e-05,0.00012597566733806365,-4.247927422293429e-05,-3.270381494163422e-05,3.3333,2.9333
2.4765625,-4.247927422293429e-05,0.00010888182367589839,-5.566293417257951e-05,-4.784256674753946e-05,3.3333,2.9333
2.48046875,-4.6376247855344455e-05,9.227675297779814e-05,-5.2730296388189495e-05,-4.7353793783474456e-05,3.3333,2.9333
2.484375,-4.5887474891279454e-05,9.129920704966814e-05,-3.808031754634926e-05,-4.490992896314944e-05,3.3333,2.9333
2.48828125,-4.247927422293429e-05,0.0001098593696040284,-3.856909051041426e-05,-4.199050125886929e-05,3.3333,2.9333
2.4921875,-3.710277161821925e-05,0.00011962161880521861,-4.8820112675669464e-05,-4.247927422293429e-05,3.3333,2.9333
2.49609375,-3.4170133833829225e-05,0.0001191328458411536,-4.101295533073927e-05,-4.686502081940945e-05,3.3333,2.9333
2.5,-3.7591544582284256e-05,0.0001191328458411536,-5.664048010070952e-05,-5.32190693522545e-05,3.3333,2.9333
2.50390625,-4.686502081940945e-05,0.00010937059663996339,-6.835782115815974e-05,-6.24925455893797e-05,3.3333,2.9333
2.5078125,-4.539870192721445e-05,6.83532978988327e-05,-6.884659412222475e-05,-6.44476374456397e-05,3.3333,2.9333
2.51171875,-4.2968047186999296e-05,3.468080369878693e-05,-7.909761628747994e-05,-5.126397749599448e-05,3.3333,2.9333
2.515625,-4.490992896314944e-05,3.125939295033191e-05,-5.809358891279467e-05,-4.442115599908443e-05,3.3333,2.9333
2.51953125,-4.9308885639734465e-05,1.8075733000686673e-05,-5.175275046005949e-05,-5.175275046005949e-05,3.3333,2.9333
2.5234375,-5.126397749599448e-05,2.8815528130006888e-05,-5.517416120851452e-05,-5.517416120851452e-05,3.3333,2.9333
2.52734375,-4.6376247855344455e-05,6.542066011444267e-05,-4.247927422293429e-05,-5.32190693522545e-05,3.3333,2.9333
2.53125,-4.101295533073927e-05,9.472061779812315e-05,-3.856909051041426e-05,-4.345682015106429e-05,3.3333,2.9333
2.53515625,-3.270381494163422e-05,8.983288815747313e-05,-3.514767976195924e-05,-4.2968047186999296e-05,3.3333,2.9333
2.5390625,-3.4170133833829225e-05,4.3465506971847124e-05,-3.514767976195924e-05,-5.4196615280384504e-05,3.3333,2.9333
2.54296875,-4.7353793783474456e-05,-4.381403186083744e-06,-3.1237496049439215e-05,-6.29813185534447e-05,3.3333,2.9333
2.546875,-4.686502081940945e-05,-2.294156574044402e-05,-3.4170133833829225e-05,-6.0537453733119687e-05,3.3333,2.9333
2.55078125,-4.345682015106429e-05,-1.3179316539253819e-05,-3.514767976195924e-05,-5.3707842316319497e-05,3.3333,2.9333
2.5546875,-4.833133971160447e-05,-3.270381494163422e-05,-3.368136086976423e-05,-4.784256674753946e-05,3.3333,2.9333
2.55859375,-5.32190693522545e-05,-8.105270814373997e-05,-3.3192587905699224e-05,-4.979765860379947e-05,3.3333,2.9333
2.5625,-5.468538824444951e-05,-7.909761628747994e-05,-1.366808950331881e-05,-6.44476374456397e-05,3.3333,2.9333
2.56640625,-4.490992896314944e-05,-8.105270814373997e-05,-2.1475246848249e-05,-6.151499966124969e-05,3.3333,2.9333
2.5703125,-2.8806841309224054e-05,-0.0001122945476035706,-6.29813185534447e-05,-4.490992896314944e-05,3.3333,2.9333
2.57421875,-2.4407884632639025e-05,-0.00012792207237354082,-4.979765860379947e-05,-3.221504197756921e-05,3.3333,2.9333
2.578125,-4.345682015106429e-05,-0.0001464822349279011,-3.661399865415424e-05,-3.4170133833829225e-05,3.3333,2.9333
2.58203125,-3.172626901350421e-05,-0.0001547781652368963,-4.9308885639734465e-05,-5.077520453192949e-05,3.3333,2.9333
2.5859375,-1.2201770611123806e-05,-0.00015868834894941633,-4.490992896314944e-05,-4.539870192721445e-05,3.3333,2.9333
2.58984375,-3.1237496049439215e-05,-0.0002094678968917372,-5.7116042984664656e-05,-4.150172829480428e-05,3.3333,2.9333
2.59375,-4.8820112675669464e-05,-0.0002514627415609979,-6.39588644815747e-05,-6.24925455893797e-05,3.3333,2.9333
2.59765625,-4.150172829480428e-05,-0.00022167401091325244,-4.9308885639734465e-05,-6.151499966124969e-05,3.3333,2.9333
2.6015625,-3.710277161821925e-05,-0.00020555771317921722,-3.3192587905699224e-05,-5.2241523424124495e-05,3.3333,2.9333
2.60546875,-4.052418236667428e-05,-0.00021483118941634238,-3.172626901350421e-05,-4.979765860379947e-05,3.3333,2.9333
2.609375,-3.9546636438544265e-05,-0.00019286282619363697,-3.3192587905699224e-05,-4.101295533073927e-05,3.3333,2.9333
2.61328125,-4.6376247855344455e-05,-0.00014306082417944607,-2.8318068345159046e-05,-3.9546636438544265e-05,3.3333,2.9333
2.6171875,-4.9308885639734465e-05,-0.00010057720654612037,-2.5385430560769036e-05,-4.052418236667428e-05,3.3333,2.9333
2.62109375,-5.2730296388189495e-05,-7.518743257495993e-05,-2.3919111668574018e-05,-4.393238303501944e-05,3.3333,2.9333
2.625,-5.3707842316319497e-05,-5.566293417257951e-05,-4.150172829480428e-05,-5.4196615280384504e-05,3.3333,2.9333
2.62890625,-4.833133971160447e-05,-4.003540940260927e-05,-5.468538824444951e-05,-5.468538824444951e-05,3.3333,2.9333
2.6328125,-4.247927422293429e-05,-1.0735451718928799e-05,-3.856909051041426e-05,-4.979765860379947e-05,3.3333,2.9333
2.63671875,-4.199050125886929e-05,2.4482082307164316e-06,-1.4645635431448824e-05,-4.345682015106429e-05,3.3333,2.9333
2.640625,-3.9546636438544265e-05,7.824710835431468e-06,-6.825268006408763e-06,-4.2968047186999296e-05,3.3333,2.9333
2.64453125,-4.101295533073927e-05,1.1721684467841633e-05,-2.4407884632639025e-05,-4.8820112675669464e-05,3.3333,2.9333
2.6484375,-4.5887474891279454e-05,4.403300086976443e-06,-4.199050125886929e-05,-5.32190693522545e-05,3.3333,2.9333
2.65234375,-4.101295533073927e-05,2.5394117381551864e-05,-2.0497700920119e-05,-5.028643156786448e-05,3.3333,2.9333
2.65625,-3.905786347447926e-05,4.590937179217214e-05,9.818893385214194e-07,-4.7353793783474456e-05,3.3333,2.9333
2.66015625,-3.661399865415424e-05,5.0783891352712314e-05,-1.366808950331881e-05,-5.028643156786448e-05,3.3333,2.9333
2.6640625,-3.661399865415424e-05,7.567168227969788e-05,-8.780359862668789e-06,-5.028643156786448e-05,3.3333,2.9333
2.66796875,-3.856909051041426e-05,9.032166112153813e-05,-1.2690543575188811e-05,-4.8820112675669464e-05,3.3333,2.9333
2.671875,-3.368136086976423e-05,0.00011375634323643857,-2.294156574044402e-05,-4.5887474891279454e-05,3.3333,2.9333
2.67578125,-3.270381494163422e-05,0.00013329405171892884,-2.3430338704509024e-05,-4.393238303501944e-05,3.3333,2.9333
2.6796875,-3.368136086976423e-05,0.0001308501868986038,-3.368136086976423e-05,-4.7353793783474456e-05,3.3333,2.9333
2.68359375,-3.563645272602425e-05,0.00013329405171892884,-2.0497700920119e-05,-5.077520453192949e-05,3.3333,2.9333
2.6875,-4.150172829480428e-05,0.00014012366313572903,-2.489665759670403e-05,-4.784256674753946e-05,3.3333,2.9333
2.69140625,-4.393238303501944e-05,0.00013378282468299386,-2.4407884632639025e-05,-4.052418236667428e-05,3.3333,2.9333
2.6953125,-4.6376247855344455e-05,7.079716271915772e-05,-1.4156862467383816e-05,-3.710277161821925e-05,3.3333,2.9333
2.69921875,-4.393238303501944e-05,1.470662302586426e-06,4.403300086976443e-06,-3.221504197756921e-05,3.3333,2.9333
2.703125,-4.003540940260927e-05,-1.6600727287708834e-05,4.8920730510414495e-06,-2.294156574044402e-05,3.3333,2.9333
2.70703125,-4.686502081940945e-05,-3.465890679789423e-05,-2.2452792776379013e-05,-3.221504197756921e-05,3.3333,2.9333
2.7109375,-5.126397749599448e-05,-5.809358891279467e-05,-3.563645272602425e-05,-4.345682015106429e-05,3.3333,2.9333
2.71484375,-5.175275046005949e-05,-5.615170713664451e-05,-3.172626901350421e-05,-4.393238303501944e-05,3.3333,2.9333
2.71875,-5.809358891279467e-05,-8.29945899198901e-05,-3.074872308537421e-05,-4.101295533073927e-05,3.3333,2.9333
2.72265625,-5.858236187685968e-05,-0.00013866186750286104,-2.685174945296404e-05,-3.905786347447926e-05,3.3333,2.9333
2.7265625,-5.7116042984664656e-05,-0.00016991691704280152,-3.710277161821925e-05,-4.2968047186999296e-05,3.3333,2.9333
2.73046875,-5.7116042984664656e-05,-0.000194817918049897,-5.566293417257951e-05,-4.5887474891279454e-05,3.3333,2.9333
2.734375,-5.028643156786448e-05,-0.00024510869302815283,-5.2730296388189495e-05,-4.539870192721445e-05,3.3333,2.9333
2.73828125,-4.9308885639734465e-05,-0.0002739198777477683,-4.686502081940945e-05,-4.7353793783474456e-05,3.3333,2.9333
2.7421875,-4.539870192721445e-05,-0.00028123826212863353,-5.858236187685968e-05,-4.833133971160447e-05,3.3333,2.9333
2.74609375,-3.9546636438544265e-05,-0.000313959630560769,-7.812007035934993e-05,-3.9546636438544265e-05,3.3333,2.9333
2.75,-4.101295533073927e-05,-0.00035936267589837487,-9.666702283360035e-05,-3.514767976195924e-05,3.3333,2.9333
2.75390625,-4.833133971160447e-05,-0.00037156878991989015,-0.00010057720654612037,-3.368136086976423e-05,3.3333,2.9333
2.7578125,-5.566293417257951e-05,-0.00035790956708628977,-0.0001059537091508354,-3.905786347447926e-05,3.3333,2.9333
2.76171875,-5.517416120851452e-05,-0.0003500891996612497,-0.0001230343427328908,-3.710277161821925e-05,3.3333,2.9333
2.765625,-4.979765860379947e-05,-0.00036327285961089493,-0.00013378734794232088,-2.8806841309224054e-05,3.3333,2.9333
2.76953125,-5.175275046005949e-05,-0.0003422820423163195,-0.0001484373267841611,-3.661399865415424e-05,3.3333,2.9333
2.7734375,-5.2241523424124495e-05,-0.0003051749272877088,-0.0001479485538200961,-3.905786347447926e-05,3.3333,2.9333
2.77734375,-5.028643156786448e-05,-0.0003002871976470588,-0.0001562444841290913,-2.5385430560769036e-05,3.3333,2.9333
2.78125,-5.760481594872966e-05,-0.00029344437615014875,-0.0001596658948775463,-1.9520154991988986e-05,3.3333,2.9333
2.78515625,-5.615170713664451e-05,-0.00027880760738841837,-0.00017187200889906155,-2.5874203524834044e-05,3.3333,2.9333
2.7890625,-5.3707842316319497e-05,-0.0002700096940352483,-0.00020506894021515216,-1.9031382027923996e-05,3.3333,2.9333
2.79296875,-6.0537453733119687e-05,-0.0002431536011718929,-0.000200683193618677,-1.1712997647058798e-05,3.3333,2.9333
2.796875,-6.24925455893797e-05,-0.00018846386951705194,-0.00017187200889906155,-9.26913282673378e-06,3.3333,2.9333
2.80078125,-6.0537453733119687e-05,-0.0001620965496177615,-0.00017431587371938655,-1.0735451718928799e-05,3.3333,2.9333
2.8046875,-6.738027523002972e-05,-0.00014061695935912107,-0.0002060464861432822,-1.5623181359578836e-05,3.3333,2.9333
2.80859375,-7.518743257495993e-05,-8.105270814373997e-05,-0.00021142298874799722,-1.9031382027923996e-05,3.3333,2.9333
2.8125,-6.786904819409475e-05,-7.860884332341496e-05,-0.00020751280503547717,-2.3919111668574018e-05,3.3333,2.9333
2.81640625,-6.24925455893797e-05,-0.00014306082417944607,-0.0002036026213229572,-2.294156574044402e-05,3.3333,2.9333
2.8203125,-6.44476374456397e-05,-0.00013719554861066604,-0.00019139650730144197,-2.0986473884184008e-05,3.3333,2.9333
2.82421875,-5.664048010070952e-05,-7.274356775463491e-05,-0.00018895264248111694,-3.514767976195924e-05,3.3333,2.9333
2.828125,-5.4196615280384504e-05,-4.2968047186999296e-05,-0.00019090773433737694,-3.905786347447926e-05,3.3333,2.9333
2.83203125,-5.7116042984664656e-05,-2.4407884632639025e-05,-0.0001865219877409018,-3.465890679789423e-05,3.3333,2.9333
2.8359375,-5.2241523424124495e-05,7.335937871366468e-06,-0.0001655179603662165,-3.612522569008925e-05,3.3333,2.9333
2.83984375,-4.8820112675669464e-05,7.824710835431468e-06,-0.00015037920856031126,-3.0273160201419072e-05,3.3333,2.9333
2.84375,-5.32190693522545e-05,8.80225676356148e-06,-0.00013817309453879604,-1.805383609979398e-05,3.3333,2.9333
2.84765625,-5.566293417257951e-05,-1.3179316539253819e-05,-0.00011864859613641564,-9.757905790798786e-06,3.3333,2.9333
2.8515625,-5.858236187685968e-05,-9.26913282673378e-06,-0.00010057720654612037,-1.708950025177384e-05,3.3333,2.9333
2.85546875,-5.809358891279467e-05,3.7111458439002076e-05,-9.570268698558021e-05,-3.074872308537421e-05,3.3333,2.9333
2.859375,4.343410391413727e-09,4.343410391413727e-09,4.343410391413727e-09,4.343410391413727e-09,3.3333,2.9333
2.86328125,4.343410391413727e-09,4.343410391413727e-09,4.343410391413727e-09,4.343410391413727e-09,3.3333,2.9333
2.8671875,4.343410391413727e-09,4.343410391413727e-09,4.343410391413727e-09,4.343410391413727e-09,3.3333,2.9333
2.87109375,4.343410391413727e-09,4.343410391413727e-09,4.343410391413727e-09,4.343410391413727e-09,3.3333,2.9333
2.875,4.343410391413727e-09,4.343410391413727e-09,4.343410391413727e-09,4.343410391413727e-09,3.3333,2.9333
2.87890625,4.343410391413727e-09,4.343410391413727e-09,4.343410391413727e-09,4.343410391413727e-09,3.3333,2.9333
2.8828125,4.343410391413727e-09,4.343410391413727e-09,4.343410391413727e-09,4.343410391413727e-09,3.3333,2.9333
2.88671875,4.343410391413727e-09,4.343410391413727e-09,4.343410391413727e-09,4.343410391413727e-09,3.3333,2.9333
2.890625,4.343410391413727e-09,4.343410391413727e-09,4.343410391413727e-09,4.343410391413727e-09,3.3333,2.9333
2.89453125,4.343410391413727e-09,4.343410391413727e-09,4.343410391413727e-09,4.343410391413727e-09,3.3333,2.9333
2.8984375,4.343410391413727e-09,4.343410391413727e-09,4.343410391413727e-09,4.343410391413727e-09,3.3333,2.9333
2.90234375,4.343410391413727e-09,4.343410391413727e-09,4.343410391413727e-09,4.343410391413727e-09,3.3333,2.9333
2.90625,4.343410391413727e-09,4.343410391413727e-09,4.343410391413727e-09,4.343410391413727e-09,3.3333,2.9333
2.91015625,4.343410391413727e-09,4.343410391413727e-09,4.343410391413727e-09,4.343410391413727e-09,3.3333,2.9333
2.9140625,4.343410391413727e-09,4.343410391413727e-09,4.343410391413727e-09,4.343410391413727e-09,3.3333,2.9333
2.91796875,4.343410391413727e-09,4.343410391413727e-09,4.343410391413727e-09,4.343410391413727e-09,3.3333,2.9333
2.921875,4.343410391413727e-09,4.343410391413727e-09,4.343410391413727e-09,4.343410391413727e-09,3.3333,2.9333
2.92578125,4.343410391413727e-09,4.343410391413727e-09,4.343410391413727e-09,4.343410391413727e-09,3.3333,2.9333
2.9296875,4.343410391413727e-09,4.343410391413727e-09,4.343410391413727e-09,4.343410391413727e-09,3.3333,2.9333
2.93359375,4.343410391413727e-09,4.343410391413727e-09,4.343410391413727e-09,4.343410391413727e-09,3.3333,2.9333
2.9375,4.343410391413727e-09,4.343410391413727e-09,4.343410391413727e-09,4.343410391413727e-09,3.3333,2.9333
2.94140625,4.343410391413727e-09,4.343410391413727e-09,4.343410391413727e-09,4.343410391413727e-09,3.3333,2.9333
2.9453125,4.343410391413727e-09,4.343410391413727e-09,4.343410391413727e-09,4.343410391413727e-09,3.3333,2.9333
2.94921875,4.343410391413727e-09,4.343410391413727e-09,4.343410391413727e-09,4.343410391413727e-09,3.3333,2.9333
2.953125,4.343410391413727e-09,4.343410391413727e-09,4.343410391413727e-09,4.343410391413727e-09,3.3333,2.9333
2.95703125,4.343410391413727e-09,4.343410391413727e-09,4.343410391413727e-09,4.343410391413727e-09,3.3333,2.9333
2.9609375,4.343410391413727e-09,4.343410391413727e-09,4.343410391413727e-09,4.343410391413727e-09,3.3333,2.9333
2.96484375,4.343410391413727e-09,4.343410391413727e-09,4.343410391413727e-09,4.343410391413727e-09,3.3333,2.9333
2.96875,4.343410391413727e-09,4.343410391413727e-09,4.343410391413727e-09,4.343410391413727e-09,3.3333,2.9333
2.97265625,4.343410391413727e-09,4.343410391413727e-09,4.343410391413727e-09,4.343410391413727e-09,3.3333,2.9333
2.9765625,4.343410391413727e-09,4.343410391413727e-09,4.343410391413727e-09,4.343410391413727e-09,3.3333,2.9333
2.98046875,4.343410391413727e-09,4.343410391413727e-09,4.343410391413727e-09,4.343410391413727e-09,3.3333,2.9333
2.984375,4.343410391413727e-09,4.343410391413727e-09,4.343410391413727e-09,4.343410391413727e-09,3.3333,2.9333
2.98828125,4.343410391413727e-09,4.343410391413727e-09,4.343410391413727e-09,4.343410391413727e-09,3.3333,2.9333
2.9921875,4.343410391413727e-09,4.343410391413727e-09,4.343410391413727e-09,4.343410391413727e-09,3.3333,2.9333
2.99609375,4.343410391413727e-09,4.343410391413727e-09,4.343410391413727e-09,4.343410391413727e-09,3.3333,2.9333
