timestamp,TP9,AF7,AF8,TP10,Valence,Arousal
0.0,2.489723593499656e-05,2.294750295567253e-05,4.394387368276493e-05,-8.398403906312523e-09,4.2,3.6
0.00390625,2.001800466010529e-05,4.3453991024643315e-05,3.17359978423743e-05,-1.2696359249256125e-05,4.2,3.6
0.0078125,1.659862370641642e-05,5.761159984435798e-05,2.7336851572442198e-05,8.300011477836265e-06,4.2,3.6
0.01171875,3.1246115184252685e-05,3.417561347981994e-05,4.442395868772411e-05,2.5387118593118174e-05,4.2,3.6
0.015625,4.638348932021057e-05,1.7568591369497214e-05,4.784333964141298e-05,1.3179242752727545e-05,4.2,3.6
0.01953125,5.566186686503394e-05,-4.397747020675979e-06,3.270596550545509e-05,-2.937896699473569e-06,4.2,3.6
0.0234375,4.5893606662088955e-05,-1.465588988174258e-05,2.1967737639429317e-05,2.0507887318226905e-05,4.2,3.6
0.02734375,3.954472741283284e-05,1.9038239343862058e-05,1.7568591369497214e-05,4.198434305027847e-05,4.2,3.6
0.03125,3.5635463801022355e-05,4.442395868772411e-05,2.6846968914320582e-05,3.759499443350881e-05,4.2,3.6
0.03515625,3.3685730821698324e-05,4.0034610070954444e-05,3.075623252613107e-05,2.294750295567253e-05,4.2,3.6
0.0390625,3.270596550545509e-05,3.17359978423743e-05,1.5618858390173187e-05,1.6108741048294802e-05,4.2,3.6
0.04296875,4.29641083665217e-05,2.8806499546807045e-05,9.759861799038674e-06,1.4639093073929955e-05,4.2,3.6
0.046875,4.101437538719767e-05,5.517198420691234e-05,2.6366883909361403e-05,-1.5625857544823374e-05,4.2,3.6
0.05078125,3.0266349868009457e-05,2.929638220492866e-05,2.489723593499656e-05,-3.809187624628061e-05,4.2,3.6
0.0546875,3.0266349868009457e-05,-1.367612456549935e-05,2.3437385613794147e-05,1.7568591369497214e-05,4.2,3.6
0.05859375,1.8548356685740442e-05,9.713669123369185e-07,3.0266349868009457e-05,4.052449272907606e-05,4.2,3.6
0.0625,1.8058474027618826e-05,1.024974445716029e-05,1.4159008068970777e-05,1.8548356685740442e-05,4.2,3.6
0.06640625,3.515537879606317e-05,2.0507887318226905e-05,1.268936009460593e-05,3.9054844754711226e-05,4.2,3.6
0.0703125,3.856496209658961e-05,2.0987972323186085e-05,2.831661688868543e-05,4.882310495765621e-05,4.2,3.6
0.07421875,2.8806499546807045e-05,2.8806499546807045e-05,3.5635463801022355e-05,4.442395868772411e-05,4.2,3.6
0.078125,2.1967737639429317e-05,2.977646720988784e-05,3.3685730821698324e-05,4.2474225708400084e-05,4.2,3.6
0.08203125,1.2199477436484315e-05,2.3437385613794147e-05,2.6366883909361403e-05,2.1967737639429317e-05,4.2,3.6
0.0859375,2.977646720988784e-05,3.612534645914397e-05,2.587700125123979e-05,1.4159008068970777e-05,4.2,3.6
0.08984375,3.6615229117265587e-05,4.540372400396734e-05,2.831661688868543e-05,1.3179242752727545e-05,4.2,3.6
0.09375,2.7336851572442198e-05,4.491384134584572e-05,2.5387118593118174e-05,1.122950977340352e-05,4.2,3.6
0.09765625,2.929638220492866e-05,2.6846968914320582e-05,2.7826734230563814e-05,2.489723593499656e-05,4.2,3.6
0.1015625,3.954472741283284e-05,2.001800466010529e-05,2.2457620297550932e-05,3.6615229117265587e-05,4.2,3.6
0.10546875,4.101437538719767e-05,3.4665496137941556e-05,2.1967737639429317e-05,3.6615229117265587e-05,4.2,3.6
0.109375,2.6366883909361403e-05,4.1494460392156865e-05,3.17359978423743e-05,1.8058474027618826e-05,4.2,3.6
0.11328125,1.8058474027618826e-05,3.856496209658961e-05,4.638348932021057e-05,-9.783660669871067e-07,4.2,3.6
0.1171875,1.2199477436484315e-05,2.294750295567253e-05,2.294750295567253e-05,2.294750295567253e-05,4.2,3.6
0.12109375,1.659862370641642e-05,2.8806499546807045e-05,1.6108741048294802e-05,3.9054844754711226e-05,4.2,3.6
0.125,2.831661688868543e-05,6.494024440985731e-05,4.638348932021057e-05,2.7826734230563814e-05,4.2,3.6
0.12890625,3.8084877091630414e-05,6.249083111924926e-05,3.6615229117265587e-05,2.1967737639429317e-05,4.2,3.6
0.1328125,3.1246115184252685e-05,5.126272059510185e-05,4.638348932021057e-05,1.9528122001983674e-05,4.2,3.6
0.13671875,2.3437385613794147e-05,4.540372400396734e-05,5.6151749523155555e-05,2.8806499546807045e-05,4.2,3.6
0.140625,2.977646720988784e-05,4.394387368276493e-05,4.638348932021057e-05,3.0266349868009457e-05,4.2,3.6
0.14453125,2.3437385613794147e-05,6.591021207293812e-05,4.784333964141298e-05,2.294750295567253e-05,4.2,3.6
0.1484375,2.391747061875334e-05,6.152086345616846e-05,5.468210154879072e-05,2.929638220492866e-05,4.2,3.6
0.15234375,1.7568591369497214e-05,2.0987972323186085e-05,4.73632546364538e-05,3.4665496137941556e-05,4.2,3.6
0.15625,8.780096482795458e-06,7.810128819714649e-06,4.052449272907606e-05,2.1967737639429317e-05,4.2,3.6
0.16015625,2.831661688868543e-05,2.001800466010529e-05,4.0034610070954444e-05,-1.4682487251087224e-06,4.2,3.6
0.1640625,3.270596550545509e-05,2.8806499546807045e-05,4.73632546364538e-05,4.880630524147406e-06,4.2,3.6
0.16796875,2.831661688868543e-05,3.954472741283284e-05,5.126272059510185e-05,1.9038239343862058e-05,4.2,3.6
0.171875,3.3685730821698324e-05,4.2474225708400084e-05,3.9054844754711226e-05,2.001800466010529e-05,4.2,3.6
0.17578125,2.587700125123979e-05,1.8058474027618826e-05,3.1246115184252685e-05,2.7336851572442198e-05,4.2,3.6
0.1796875,6.8303635034714316e-06,9.269979140917058e-06,2.7826734230563814e-05,2.587700125123979e-05,4.2,3.6
0.18359375,5.850598187228201e-06,3.4665496137941556e-05,4.101437538719767e-05,1.9528122001983674e-05,4.2,3.6
0.1875,3.0266349868009457e-05,6.688997738918135e-05,4.638348932021057e-05,2.2457620297550932e-05,4.2,3.6
0.19140625,4.442395868772411e-05,6.34705964354925e-05,4.0034610070954444e-05,3.1246115184252685e-05,4.2,3.6
0.1953125,4.198434305027847e-05,3.5635463801022355e-05,4.394387368276493e-05,3.759499443350881e-05,4.2,3.6
0.19921875,3.856496209658961e-05,2.929638220492866e-05,3.5635463801022355e-05,3.9054844754711226e-05,4.2,3.6
0.203125,4.638348932021057e-05,4.3453991024643315e-05,2.6366883909361403e-05,2.587700125123979e-05,4.2,3.6
0.20703125,3.612534645914397e-05,5.712171718623637e-05,5.9081247818722824e-05,9.269979140917058e-06,4.2,3.6
0.2109375,2.001800466010529e-05,5.468210154879072e-05,9.423522736552988e-05,-2.937896699473569e-06,4.2,3.6
0.21484375,1.659862370641642e-05,4.980287027389944e-05,6.737986004730297e-05,5.370513182269008e-06,4.2,3.6
0.21875,2.587700125123979e-05,5.27323685694667e-05,4.3453991024643315e-05,2.921099891660944e-06,4.2,3.6
0.22265625,3.6615229117265587e-05,4.9312987615777826e-05,4.73632546364538e-05,9.759861799038674e-06,4.2,3.6
0.2265625,3.075623252613107e-05,4.784333964141298e-05,5.0772837936980234e-05,5.1752603253223466e-05,4.2,3.6
0.23046875,2.391747061875334e-05,5.322225122758831e-05,4.442395868772411e-05,6.298071377737088e-05,4.2,3.6
0.234375,2.6846968914320582e-05,5.566186686503394e-05,4.540372400396734e-05,4.882310495765621e-05,4.2,3.6
0.23828125,3.270596550545509e-05,5.370233623254749e-05,4.394387368276493e-05,3.3685730821698324e-05,4.2,3.6
0.2421875,2.929638220492866e-05,3.759499443350881e-05,2.6366883909361403e-05,2.6846968914320582e-05,4.2,3.6
0.24609375,2.6366883909361403e-05,3.856496209658961e-05,2.489723593499656e-05,3.4665496137941556e-05,4.2,3.6
0.25,2.489723593499656e-05,6.298071377737088e-05,5.029275293202106e-05,2.6366883909361403e-05,4.2,3.6
0.25390625,2.7826734230563814e-05,5.956133282368199e-05,5.663183452811475e-05,1.3669125410849161e-05,4.2,3.6
0.2578125,2.5387118593118174e-05,5.468210154879072e-05,4.784333964141298e-05,1.659862370641642e-05,4.2,3.6
0.26171875,2.489723593499656e-05,3.319584816357671e-05,4.980287027389944e-05,1.8548356685740442e-05,4.2,3.6
0.265625,3.270596550545509e-05,8.780096482795458e-06,4.5893606662088955e-05,8.300011477836265e-06,4.2,3.6
0.26953125,4.442395868772411e-05,2.7826734230563814e-05,5.322225122758831e-05,-4.884834088654912e-07,4.2,3.6
0.2734375,4.980287027389944e-05,4.5893606662088955e-05,6.201074611429007e-05,-2.937896699473569e-06,4.2,3.6
0.27734375,4.540372400396734e-05,3.759499443350881e-05,5.6151749523155555e-05,1.7568591369497214e-05,4.2,3.6
0.28125,4.101437538719767e-05,3.222588050049592e-05,5.126272059510185e-05,3.5635463801022355e-05,4.2,3.6
0.28515625,4.29641083665217e-05,4.198434305027847e-05,3.319584816357671e-05,3.0266349868009457e-05,4.2,3.6
0.2890625,4.198434305027847e-05,5.712171718623637e-05,3.3685730821698324e-05,3.075623252613107e-05,4.2,3.6
0.29296875,3.612534645914397e-05,5.0772837936980234e-05,4.442395868772411e-05,3.612534645914397e-05,4.2,3.6
0.296875,3.270596550545509e-05,3.1246115184252685e-05,3.0266349868009457e-05,3.3685730821698324e-05,4.2,3.6
0.30078125,2.8806499546807045e-05,1.8548356685740442e-05,2.0987972323186085e-05,2.831661688868543e-05,4.2,3.6
0.3046875,2.587700125123979e-05,3.0266349868009457e-05,3.17359978423743e-05,2.6846968914320582e-05,4.2,3.6
0.30859375,2.977646720988784e-05,4.73632546364538e-05,3.7105111775387196e-05,1.512897573205157e-05,4.2,3.6
0.3125,3.759499443350881e-05,4.394387368276493e-05,3.4665496137941556e-05,1.268936009460593e-05,4.2,3.6
0.31640625,3.856496209658961e-05,2.4407353276874956e-05,1.4639093073929955e-05,2.1967737639429317e-05,4.2,3.6
0.3203125,1.17095947783627e-05,1.0739627115281904e-05,4.880630524147406e-06,2.977646720988784e-05,4.2,3.6
0.32421875,-8.307010632486459e-06,2.4407353276874956e-05,1.122950977340352e-05,3.17359978423743e-05,4.2,3.6
0.328125,1.268936009460593e-05,2.6366883909361403e-05,2.0987972323186085e-05,-4.884834088654912e-07,4.2,3.6
0.33203125,4.0034610070954444e-05,6.8303635034714316e-06,3.075623252613107e-05,-1.9535121156633864e-05,4.2,3.6
0.3359375,5.566186686503394e-05,9.759861799038674e-06,2.0507887318226905e-05,2.14778549813077e-05,4.2,3.6
0.33984375,4.980287027389944e-05,-8.398403906312523e-09,2.4407353276874956e-05,3.9054844754711226e-05,4.2,3.6
0.34375,4.101437538719767e-05,-7.817127974364844e-06,3.3685730821698324e-05,2.489723593499656e-05,4.2,3.6
0.34765625,4.101437538719767e-05,1.17095947783627e-05,2.4407353276874956e-05,2.14778549813077e-05,4.2,3.6
0.3515625,3.319584816357671e-05,2.8806499546807045e-05,2.14778549813077e-05,3.222588050049592e-05,4.2,3.6
0.35546875,2.489723593499656e-05,1.9528122001983674e-05,1.9528122001983674e-05,4.394387368276493e-05,4.2,3.6
0.359375,3.6615229117265587e-05,1.8548356685740442e-05,1.4639093073929955e-05,4.29641083665217e-05,4.2,3.6
0.36328125,4.052449272907606e-05,3.612534645914397e-05,1.4159008068970777e-05,3.3685730821698324e-05,4.2,3.6
0.3671875,3.759499443350881e-05,3.075623252613107e-05,1.512897573205157e-05,2.7826734230563814e-05,4.2,3.6
0.37109375,3.856496209658961e-05,1.7088506364538034e-05,1.512897573205157e-05,2.489723593499656e-05,4.2,3.6
0.375,3.222588050049592e-05,1.3669125410849161e-05,8.300011477836265e-06,1.9528122001983674e-05,4.2,3.6
0.37890625,3.7105111775387196e-05,1.024974445716029e-05,2.441014886701765e-06,1.5618858390173187e-05,4.2,3.6
0.3828125,2.831661688868543e-05,1.5618858390173187e-05,6.8303635034714316e-06,1.659862370641642e-05,4.2,3.6
0.38671875,1.7088506364538034e-05,2.2457620297550932e-05,1.3669125410849161e-05,1.659862370641642e-05,4.2,3.6
0.390625,2.391747061875334e-05,2.5387118593118174e-05,2.7336851572442198e-05,2.5387118593118174e-05,4.2,3.6
0.39453125,3.4665496137941556e-05,2.3437385613794147e-05,2.587700125123979e-05,2.2457620297550932e-05,4.2,3.6
0.3984375,4.8333222299534594e-05,6.8303635034714316e-06,1.6108741048294802e-05,1.3179242752727545e-05,4.2,3.6
0.40234375,5.517198420691234e-05,1.3179242752727545e-05,1.3669125410849161e-05,1.7088506364538034e-05,4.2,3.6
0.40625,6.005121548180361e-05,2.1967737639429317e-05,1.5618858390173187e-05,5.850598187228201e-06,4.2,3.6
0.41015625,4.442395868772411e-05,2.5387118593118174e-05,2.7336851572442198e-05,1.9511322285801497e-06,4.2,3.6
0.4140625,4.0034610070954444e-05,2.4407353276874956e-05,3.075623252613107e-05,1.6108741048294802e-05,4.2,3.6
0.41796875,4.1494460392156865e-05,1.8548356685740442e-05,2.391747061875334e-05,2.7826734230563814e-05,4.2,3.6
0.421875,2.6846968914320582e-05,1.512897573205157e-05,7.320246161593033e-06,4.198434305027847e-05,4.2,3.6
0.42578125,1.9528122001983674e-05,1.8058474027618826e-05,1.122950977340352e-05,4.394387368276493e-05,4.2,3.6
0.4296875,1.3179242752727545e-05,1.3179242752727545e-05,3.5635463801022355e-05,2.14778549813077e-05,4.2,3.6
0.43359375,3.4665496137941556e-05,1.512897573205157e-05,4.198434305027847e-05,1.9511322285801497e-06,4.2,3.6
0.4375,5.9081247818722824e-05,8.300011477836265e-06,2.5387118593118174e-05,1.122950977340352e-05,4.2,3.6
0.44140625,5.712171718623637e-05,2.441014886701765e-06,3.900865207904175e-06,3.6615229117265587e-05,4.2,3.6
0.4453125,4.5893606662088955e-05,2.001800466010529e-05,3.900865207904175e-06,4.687337197833219e-05,4.2,3.6
0.44921875,2.587700125123979e-05,2.489723593499656e-05,9.759861799038674e-06,4.394387368276493e-05,4.2,3.6
0.453125,3.6615229117265587e-05,2.5387118593118174e-05,4.880630524147406e-06,3.515537879606317e-05,4.2,3.6
0.45703125,6.34705964354925e-05,5.850598187228201e-06,-6.8373626581216126e-06,2.2457620297550932e-05,4.2,3.6
0.4609375,5.0772837936980234e-05,-7.3272453162432284e-06,-4.884834088654912e-07,1.8548356685740442e-05,4.2,3.6
0.46484375,3.5635463801022355e-05,-4.884834088654912e-07,-8.398403906312523e-09,2.391747061875334e-05,4.2,3.6
0.46875,5.322225122758831e-05,-2.937896699473569e-06,-1.1726391586175325e-05,2.2457620297550932e-05,4.2,3.6
0.47265625,5.468210154879072e-05,-1.4682487251087224e-06,-1.221627424429694e-05,1.7088506364538034e-05,4.2,3.6
0.4765625,5.27323685694667e-05,1.4159008068970777e-05,-8.307010632486459e-06,1.4639093073929955e-05,4.2,3.6
0.48046875,5.566186686503394e-05,1.8058474027618826e-05,-8.796893290608074e-06,1.8548356685740442e-05,4.2,3.6
0.484375,4.540372400396734e-05,2.0987972323186085e-05,-1.221627424429694e-05,1.9038239343862058e-05,4.2,3.6
0.48828125,4.29641083665217e-05,1.8548356685740442e-05,-1.4682487251087224e-06,1.3179242752727545e-05,4.2,3.6
0.4921875,3.075623252613107e-05,1.6108741048294802e-05,2.001800466010529e-05,1.17095947783627e-05,4.2,3.6
0.49609375,3.222588050049592e-05,7.320246161593033e-06,1.2199477436484315e-05,2.0987972323186085e-05,4.2,3.6
0.5,4.8333222299534594e-05,-5.37751233691921e-06,-2.4480140413519533e-06,2.831661688868543e-05,4.2,3.6
0.50390625,4.198434305027847e-05,-2.937896699473569e-06,-9.783660669871067e-07,3.612534645914397e-05,4.2,3.6
0.5078125,4.73632546364538e-05,-3.4179817044327477e-06,3.900865207904175e-06,3.4665496137941556e-05,4.2,3.6
0.51171875,4.9312987615777826e-05,-4.887629678797594e-06,7.320246161593033e-06,2.977646720988784e-05,4.2,3.6
0.515625,4.394387368276493e-05,5.370513182269008e-06,1.5618858390173187e-05,2.4407353276874956e-05,4.2,3.6
0.51953125,4.198434305027847e-05,1.512897573205157e-05,2.1967737639429317e-05,1.512897573205157e-05,4.2,3.6
0.5234375,4.198434305027847e-05,9.713669123369185e-07,3.4109825497825595e-06,1.9038239343862058e-05,4.2,3.6
0.52734375,5.1752603253223466e-05,4.39074786602579e-06,3.900865207904175e-06,2.7826734230563814e-05,4.2,3.6
0.53125,6.0541098139925225e-05,3.0266349868009457e-05,1.9528122001983674e-05,2.587700125123979e-05,4.2,3.6
0.53515625,5.6151749523155555e-05,2.929638220492866e-05,1.6108741048294802e-05,1.9528122001983674e-05,4.2,3.6
0.5390625,5.663183452811475e-05,1.3669125410849161e-05,1.0739627115281904e-05,2.14778549813077e-05,4.2,3.6
0.54296875,4.638348932021057e-05,9.269979140917058e-06,7.810128819714649e-06,2.391747061875334e-05,4.2,3.6
0.546875,2.6366883909361403e-05,1.268936009460593e-05,7.320246161593033e-06,2.2457620297550932e-05,4.2,3.6
0.55078125,4.1494460392156865e-05,1.3179242752727545e-05,5.850598187228201e-06,2.1967737639429317e-05,4.2,3.6
0.5546875,6.0541098139925225e-05,1.512897573205157e-05,2.921099891660944e-06,2.391747061875334e-05,4.2,3.6
0.55859375,6.834982771038375e-05,6.340480845349816e-06,9.759861799038674e-06,2.0507887318226905e-05,4.2,3.6
0.5625,6.298071377737088e-05,1.4612495704585342e-06,4.81484254215303e-07,1.659862370641642e-05,4.2,3.6
0.56640625,4.9312987615777826e-05,8.780096482795458e-06,-5.37751233691921e-06,1.9038239343862058e-05,4.2,3.6
0.5703125,4.980287027389944e-05,1.7568591369497214e-05,9.759861799038674e-06,1.6108741048294802e-05,4.2,3.6
0.57421875,5.126272059510185e-05,1.3179242752727545e-05,1.17095947783627e-05,1.7088506364538034e-05,4.2,3.6
0.578125,4.540372400396734e-05,-1.958131383230338e-06,1.024974445716029e-05,2.489723593499656e-05,4.2,3.6
0.58203125,4.73632546364538e-05,3.4109825497825595e-06,2.921099891660944e-06,3.1246115184252685e-05,4.2,3.6
0.5859375,5.370233623254749e-05,2.2457620297550932e-05,8.300011477836265e-06,2.8806499546807045e-05,4.2,3.6
0.58984375,5.370233623254749e-05,2.2457620297550932e-05,2.001800466010529e-05,2.6366883909361403e-05,4.2,3.6
0.59375,4.687337197833219e-05,1.268936009460593e-05,1.9528122001983674e-05,3.270596550545509e-05,4.2,3.6
0.59765625,4.980287027389944e-05,1.8058474027618826e-05,4.39074786602579e-06,2.1967737639429317e-05,4.2,3.6
0.6015625,4.9312987615777826e-05,1.6108741048294802e-05,9.759861799038674e-06,1.8058474027618826e-05,4.2,3.6
0.60546875,4.2474225708400084e-05,6.8303635034714316e-06,1.122950977340352e-05,2.4407353276874956e-05,4.2,3.6
0.609375,3.4665496137941556e-05,2.6846968914320582e-05,2.294750295567253e-05,2.929638220492866e-05,4.2,3.6
0.61328125,1.8058474027618826e-05,3.0266349868009457e-05,3.612534645914397e-05,2.6846968914320582e-05,4.2,3.6
0.6171875,3.1246115184252685e-05,1.17095947783627e-05,2.831661688868543e-05,2.14778549813077e-05,4.2,3.6
0.62109375,5.761159984435798e-05,1.659862370641642e-05,2.391747061875334e-05,2.2457620297550932e-05,4.2,3.6
0.625,6.34705964354925e-05,1.7088506364538034e-05,1.268936009460593e-05,2.1967737639429317e-05,4.2,3.6
0.62890625,6.005121548180361e-05,1.9038239343862058e-05,1.4639093073929955e-05,2.001800466010529e-05,4.2,3.6
0.6328125,6.005121548180361e-05,2.4407353276874956e-05,3.319584816357671e-05,2.14778549813077e-05,4.2,3.6
0.63671875,6.103098079804684e-05,2.14778549813077e-05,3.9054844754711226e-05,2.5387118593118174e-05,4.2,3.6
0.640625,5.566186686503394e-05,1.512897573205157e-05,8.780096482795458e-06,2.1967737639429317e-05,4.2,3.6
0.64453125,4.882310495765621e-05,3.417561347981994e-05,-2.4480140413519533e-06,1.8058474027618826e-05,4.2,3.6
0.6484375,5.126272059510185e-05,4.394387368276493e-05,1.3669125410849161e-05,1.9528122001983674e-05,4.2,3.6
0.65234375,5.468210154879072e-05,3.0266349868009457e-05,2.0507887318226905e-05,2.391747061875334e-05,4.2,3.6
0.65625,4.1494460392156865e-05,3.17359978423743e-05,2.2457620297550932e-05,2.489723593499656e-05,4.2,3.6
0.66015625,3.8084877091630414e-05,3.417561347981994e-05,2.0987972323186085e-05,2.4407353276874956e-05,4.2,3.6
0.6640625,5.029275293202106e-05,2.3437385613794147e-05,1.8548356685740442e-05,1.8058474027618826e-05,4.2,3.6
0.66796875,5.9081247818722824e-05,1.7088506364538034e-05,1.7088506364538034e-05,2.001800466010529e-05,4.2,3.6
0.671875,6.591021207293812e-05,2.7336851572442198e-05,1.122950977340352e-05,2.489723593499656e-05,4.2,3.6
0.67578125,6.201074611429007e-05,2.6366883909361403e-05,2.6366883909361403e-05,1.8548356685740442e-05,4.2,3.6
0.6796875,5.9081247818722824e-05,2.831661688868543e-05,5.6151749523155555e-05,2.587700125123979e-05,4.2,3.6
0.68359375,5.27323685694667e-05,1.4159008068970777e-05,4.101437538719767e-05,4.442395868772411e-05,4.2,3.6
0.6875,4.5893606662088955e-05,-1.07466262699321e-05,-7.817127974364844e-06,3.954472741283284e-05,4.2,3.6
0.69140625,4.638348932021057e-05,-4.887629678797594e-06,-3.516237795071336e-05,3.3685730821698324e-05,4.2,3.6
0.6953125,3.954472741283284e-05,-4.151125719996948e-05,-4.9319986770428016e-05,4.2474225708400084e-05,4.2,3.6
0.69921875,3.515537879606317e-05,-0.00010936980300297552,-8.78835496177615e-05,3.7105111775387196e-05,4.2,3.6
0.703125,4.784333964141298e-05,-0.0001298762910719463,-0.00011229930129854276,3.7105111775387196e-05,4.2,3.6
0.70703125,5.859136516060121e-05,-0.00012743667543450062,-0.00012792655809262224,4.101437538719767e-05,4.2,3.6
0.7109375,5.0772837936980234e-05,-0.00014843304616159303,-0.00015917127402761882,4.2474225708400084e-05,4.2,3.6
0.71484375,4.491384134584572e-05,-0.00018065752741283284,-0.0001835870257084001,4.491384134584572e-05,4.2,3.6
0.71875,5.6151749523155555e-05,-0.0002016538981399252,-0.00023387837939116502,4.687337197833219e-05,4.2,3.6
0.72265625,4.784333964141298e-05,-0.00022850926545815213,-0.0002729416225497825,5.0772837936980234e-05,4.2,3.6
0.7265625,4.052449272907606e-05,-0.000267082625958648,-0.0002719716548867018,4.784333964141298e-05,4.2,3.6
0.73046875,3.515537879606317e-05,-0.0002963776089143206,-0.00029149837763942934,5.322225122758831e-05,4.2,3.6
0.734375,2.489723593499656e-05,-0.00031005513272907605,-0.0003124947483665217,5.0772837936980234e-05,4.2,3.6
0.73828125,2.489723593499656e-05,-0.0003364206173891813,-0.00031737397964141294,4.101437538719767e-05,4.2,3.6
0.7421875,2.977646720988784e-05,-0.00036327598470740826,-0.00033251135377737086,4.9312987615777826e-05,4.2,3.6
0.74609375,2.5387118593118174e-05,-0.0003588768384374762,-0.00033202147111924924,4.980287027389944e-05,4.2,3.6
0.75,1.8058474027618826e-05,-0.0003398399983428702,-0.00032714223984435796,6.0541098139925225e-05,4.2,3.6
0.75390625,9.713669123369185e-07,-0.00032079336059510184,-0.00031982339293202107,7.811808791332876e-05,4.2,3.6
0.7578125,-1.4682487251087224e-06,-0.0003188436276157778,-0.0003066357517753872,6.737986004730297e-05,4.2,3.6
0.76171875,1.0739627115281904e-05,-0.0003071256344335088,-0.000288568879343862,7.37287392965591e-05,4.2,3.6
0.765625,5.850598187228201e-06,-0.00029393799327687495,-0.00026024386405127027,9.960434129854275e-05,4.2,3.6
0.76953125,1.4639093073929955e-05,-0.0002680623912748913,-0.0002421867892729076,9.911445864042113e-05,4.2,3.6
0.7734375,1.2199477436484315e-05,-0.00023925729097734033,-0.00022850926545815213,7.56784722758831e-05,4.2,3.6
0.77734375,-3.907864362554363e-06,-0.0002153314219546807,-0.0002099525103685054,7.176920866407263e-05,4.2,3.6
0.78125,-6.8373626581216126e-06,-0.00017626817879606317,-0.00018309714305027848,7.128912365911344e-05,4.2,3.6
0.78515625,-1.2696359249256125e-05,-0.00016406030295567254,-0.00016015103934386205,6.34705964354925e-05,4.2,3.6
0.7890625,-1.709550551918822e-05,-0.0001342754373418784,-0.00014306393222858013,6.981947568474859e-05,4.2,3.6
0.79296875,-1.4166007223620966e-05,-9.325266355077439e-05,-0.00010790015502861067,5.859136516060121e-05,4.2,3.6
0.796875,-1.367612456549935e-05,-7.811528941481651e-05,-6.494724356450751e-05,3.1246115184252685e-05,4.2,3.6
0.80078125,-2.10047691309987e-05,-6.689697654383153e-05,-4.78601364492256e-05,4.101437538719767e-05,4.2,3.6
0.8046875,-4.297110752117189e-05,-4.3460990179293506e-05,-2.9793264017700464e-05,5.029275293202106e-05,4.2,3.6
0.80859375,-5.761859899900816e-05,-1.9045238498512248e-05,-8.398403906312523e-09,5.1752603253223466e-05,4.2,3.6
0.8125,-4.1021374541847866e-05,1.4612495704585342e-06,2.441014886701765e-06,4.5893606662088955e-05,4.2,3.6
0.81640625,-2.4904235089646752e-05,2.2457620297550932e-05,1.7088506364538034e-05,3.075623252613107e-05,4.2,3.6
0.8203125,-2.9303381359578848e-05,3.417561347981994e-05,3.954472741283284e-05,3.612534645914397e-05,4.2,3.6
0.82421875,-3.027334902265965e-05,4.1494460392156865e-05,5.126272059510185e-05,4.0034610070954444e-05,4.2,3.6
0.828125,-2.8323616043335623e-05,4.8333222299534594e-05,6.44503617517357e-05,4.638348932021057e-05,4.2,3.6
0.83203125,-4.200113985809109e-05,5.6151749523155555e-05,9.814449097734035e-05,4.882310495765621e-05,4.2,3.6
0.8359375,-4.444075549553673e-05,6.591021207293812e-05,0.0001074130708690013,3.417561347981994e-05,4.2,3.6
0.83984375,-2.5394117747768368e-05,6.640009473105974e-05,9.325546204928665e-05,7.810128819714649e-06,4.2,3.6
0.84375,-2.4414352431525136e-05,8.00776185458152e-05,0.00010400348756847487,-2.295450211032273e-05,4.2,3.6
0.84765625,-3.272276231326772e-05,8.544673247882809e-05,0.00011083245182269015,-3.907864362554363e-06,4.2,3.6
0.8515625,-2.9793264017700464e-05,8.544673247882809e-05,0.00011181221713893339,3.856496209658961e-05,4.2,3.6
0.85546875,-2.3444384768444344e-05,9.569507768673228e-05,0.00011132233448081177,4.980287027389944e-05,4.2,3.6
0.859375,-1.5625857544823374e-05,0.00010253383959411002,0.00010644310320592049,3.7105111775387196e-05,4.2,3.6
0.86328125,-1.7585388177309837e-05,0.00010546333788967726,0.0001074130708690013,2.977646720988784e-05,4.2,3.6
0.8671875,-2.3444384768444344e-05,0.00010302372225223163,0.00010693298586404211,3.222588050049592e-05,4.2,3.6
0.87109375,-2.0514886472877086e-05,0.00010790295352712291,0.00011425183277637901,1.512897573205157e-05,4.2,3.6
0.875,-1.9535121156633864e-05,0.00011279198245517662,0.0001284094415960937,4.81484254215303e-07,4.2,3.6
0.87890625,-1.5625857544823374e-05,0.0001074130708690013,0.00012109059468375675,1.4159008068970777e-05,4.2,3.6
0.8828125,-1.367612456549935e-05,0.00010253383959411002,0.00010839283618524453,2.3437385613794147e-05,4.2,3.6
0.88671875,-2.0514886472877086e-05,0.00010546333788967726,0.00010693298586404211,2.5387118593118174e-05,4.2,3.6
0.890625,-2.295450211032273e-05,0.00011572148075074386,0.00012207036,2.7336851572442198e-05,4.2,3.6
0.89453125,-1.7585388177309837e-05,0.00011669144841382467,0.0001288993242542153,4.39074786602579e-06,4.2,3.6
0.8984375,-8.796893290608074e-06,0.00010986248415960938,0.00012109059468375675,-1.2696359249256125e-05,4.2,3.6
0.90234375,-5.867394995040826e-06,0.00010253383959411002,0.00011816109638818951,1.122950977340352e-05,4.2,3.6
0.90625,-7.817127974364844e-06,0.00010302372225223163,0.00011865097904631113,3.4665496137941556e-05,4.2,3.6
0.91015625,-8.307010632486459e-06,0.00011474171543450063,0.00011279198245517662,4.29641083665217e-05,4.2,3.6
0.9140625,-4.887629678797594e-06,0.00011083245182269015,0.0001074130708690013,2.6846968914320582e-05,4.2,3.6
0.91796875,6.8303635034714316e-06,9.374534470740827e-05,0.00011572148075074386,1.659862370641642e-05,4.2,3.6
0.921875,9.759861799038674e-06,7.762820525520714e-05,0.00012450997563744564,2.587700125123979e-05,4.2,3.6
0.92578125,8.300011477836265e-06,8.641670014190891e-05,0.00010693298586404211,2.7336851572442198e-05,4.2,3.6
0.9296875,5.850598187228201e-06,0.0001020439569359884,0.00010253383959411002,2.831661688868543e-05,4.2,3.6
0.93359375,2.921099891660944e-06,9.325546204928665e-05,0.00011279198245517662,1.024974445716029e-05,4.2,3.6
0.9375,1.122950977340352e-05,9.716472566109712e-05,0.00011083245182269015,-4.397747020675979e-06,4.2,3.6
0.94140625,2.0987972323186085e-05,0.0001010739892729076,0.00010986248415960938,1.659862370641642e-05,4.2,3.6
0.9453125,1.0739627115281904e-05,0.00010839283618524453,0.0001010739892729076,7.320246161593033e-06,4.2,3.6
0.94921875,1.024974445716029e-05,0.00011132233448081177,0.00010888271884336614,6.8303635034714316e-06,4.2,3.6
0.953125,8.780096482795458e-06,0.00010058410661478598,0.00012158047734187837,4.1494460392156865e-05,4.2,3.6
0.95703125,6.8303635034714316e-06,9.765460831921874e-05,0.00010448357257343403,3.9054844754711226e-05,4.2,3.6
0.9609375,2.6846968914320582e-05,8.886611343251697e-05,9.032596375371938e-05,2.6846968914320582e-05,4.2,3.6
0.96484375,3.4665496137941556e-05,9.227569673304342e-05,9.520519502861066e-05,3.4665496137941556e-05,4.2,3.6
0.96875,2.489723593499656e-05,8.934619843747615e-05,9.618496034485389e-05,2.7826734230563814e-05,4.2,3.6
0.97265625,2.001800466010529e-05,8.348720184634162e-05,9.325546204928665e-05,2.4407353276874956e-05,4.2,3.6
0.9765625,-9.783660669871067e-07,7.469870695963987e-05,9.325546204928665e-05,3.954472741283284e-05,4.2,3.6
0.98046875,-3.907864362554363e-06,7.079924100099182e-05,8.495684982070647e-05,2.831661688868543e-05,4.2,3.6
0.984375,2.5387118593118174e-05,7.37287392965591e-05,8.153746886701761e-05,-7.3272453162432284e-06,4.2,3.6
0.98828125,2.6366883909361403e-05,6.591021207293812e-05,9.325546204928665e-05,-6.347480000000004e-06,4.2,3.6
0.9921875,1.512897573205157e-05,6.494024440985731e-05,0.00010009422395666436,2.001800466010529e-05,4.2,3.6
0.99609375,1.9528122001983674e-05,6.494024440985731e-05,8.886611343251697e-05,4.198434305027847e-05,4.2,3.6
1.0,2.587700125123979e-05,6.591021207293812e-05,7.714812025024795e-05,4.1494460392156865e-05,4.2,3.6
1.00390625,2.14778549813077e-05,6.54203294148165e-05,8.1047586208896e-05,2.7826734230563814e-05,4.2,3.6
1.0078125,2.3437385613794147e-05,7.176920866407263e-05,8.59366151369497e-05,2.587700125123979e-05,4.2,3.6
1.01171875,2.6366883909361403e-05,8.837623077439536e-05,9.960434129854275e-05,2.0507887318226905e-05,4.2,3.6
1.015625,2.6366883909361403e-05,8.690658280003052e-05,0.00010790295352712291,2.0987972323186085e-05,4.2,3.6
1.01953125,2.0507887318226905e-05,6.494024440985731e-05,9.179561172808421e-05,2.6846968914320582e-05,4.2,3.6
1.0234375,1.9038239343862058e-05,5.27323685694667e-05,8.055770355077438e-05,4.880630524147406e-06,4.2,3.6
1.02734375,2.2457620297550932e-05,5.859136516060121e-05,8.837623077439536e-05,1.9511322285801497e-06,4.2,3.6
1.03125,2.294750295567253e-05,6.737986004730297e-05,8.495684982070647e-05,8.300011477836265e-06,4.2,3.6
1.03515625,2.6366883909361403e-05,6.54203294148165e-05,7.714812025024795e-05,1.8058474027618826e-05,4.2,3.6
1.0390625,1.9528122001983674e-05,6.883971036850536e-05,5.859136516060121e-05,3.5635463801022355e-05,4.2,3.6
1.04296875,-2.4480140413519533e-06,6.201074611429007e-05,3.7105111775387196e-05,3.8084877091630414e-05,4.2,3.6
1.046875,4.81484254215303e-07,5.0772837936980234e-05,5.0772837936980234e-05,3.417561347981994e-05,4.2,3.6
1.05078125,1.7568591369497214e-05,5.9081247818722824e-05,6.103098079804684e-05,1.3669125410849161e-05,4.2,3.6
1.0546875,3.0266349868009457e-05,5.859136516060121e-05,4.980287027389944e-05,2.14778549813077e-05,4.2,3.6
1.05859375,4.882310495765621e-05,4.491384134584572e-05,4.638348932021057e-05,3.4665496137941556e-05,4.2,3.6
1.0625,4.73632546364538e-05,5.224248591134508e-05,5.27323685694667e-05,1.8548356685740442e-05,4.2,3.6
1.06640625,2.587700125123979e-05,5.322225122758831e-05,5.81014825024796e-05,2.001800466010529e-05,4.2,3.6
1.0703125,2.489723593499656e-05,5.0772837936980234e-05,7.128912365911344e-05,4.101437538719767e-05,4.2,3.6
1.07421875,3.17359978423743e-05,5.663183452811475e-05,7.37287392965591e-05,4.9312987615777826e-05,4.2,3.6
1.078125,3.270596550545509e-05,4.198434305027847e-05,6.34705964354925e-05,3.954472741283284e-05,4.2,3.6
1.08203125,3.7105111775387196e-05,2.14778549813077e-05,5.517198420691234e-05,3.515537879606317e-05,4.2,3.6
1.0859375,3.319584816357671e-05,2.8806499546807045e-05,5.0772837936980234e-05,2.0987972323186085e-05,4.2,3.6
1.08984375,2.977646720988784e-05,5.126272059510185e-05,6.005121548180361e-05,1.268936009460593e-05,4.2,3.6
1.09375,2.8806499546807045e-05,4.980287027389944e-05,6.54203294148165e-05,5.850598187228201e-06,4.2,3.6
1.09765625,2.1967737639429317e-05,4.3453991024643315e-05,5.761159984435798e-05,9.713669123369185e-07,4.2,3.6
1.1015625,2.921099891660944e-06,5.4192218890669105e-05,6.103098079804684e-05,3.222588050049592e-05,4.2,3.6
1.10546875,5.850598187228201e-06,3.954472741283284e-05,5.81014825024796e-05,4.0034610070954444e-05,4.2,3.6
1.109375,2.5387118593118174e-05,2.3437385613794147e-05,3.5635463801022355e-05,3.612534645914397e-05,4.2,3.6
1.11328125,2.929638220492866e-05,2.489723593499656e-05,3.17359978423743e-05,3.1246115184252685e-05,4.2,3.6
1.1171875,2.7826734230563814e-05,2.4407353276874956e-05,2.831661688868543e-05,1.9038239343862058e-05,4.2,3.6
1.12109375,2.929638220492866e-05,2.391747061875334e-05,1.4639093073929955e-05,2.831661688868543e-05,4.2,3.6
1.125,3.612534645914397e-05,3.3685730821698324e-05,1.5618858390173187e-05,2.6846968914320582e-05,4.2,3.6
1.12890625,4.052449272907606e-05,3.270596550545509e-05,1.659862370641642e-05,1.0739627115281904e-05,4.2,3.6
1.1328125,3.515537879606317e-05,2.7826734230563814e-05,9.269979140917058e-06,1.659862370641642e-05,4.2,3.6
1.13671875,3.0266349868009457e-05,2.5387118593118174e-05,-5.867394995040826e-06,3.17359978423743e-05,4.2,3.6
1.140625,3.17359978423743e-05,2.0507887318226905e-05,-2.4480140413519533e-06,3.612534645914397e-05,4.2,3.6
1.14453125,2.977646720988784e-05,2.4407353276874956e-05,1.4639093073929955e-05,2.3437385613794147e-05,4.2,3.6
1.1484375,2.977646720988784e-05,1.9528122001983674e-05,2.294750295567253e-05,1.7088506364538034e-05,4.2,3.6
1.15234375,1.8548356685740442e-05,2.977646720988784e-05,3.17359978423743e-05,1.0739627115281904e-05,4.2,3.6
1.15625,1.3179242752727545e-05,3.515537879606317e-05,3.8084877091630414e-05,8.780096482795458e-06,4.2,3.6
1.16015625,2.6366883909361403e-05,3.075623252613107e-05,2.5387118593118174e-05,1.7568591369497214e-05,4.2,3.6
1.1640625,3.3685730821698324e-05,4.198434305027847e-05,2.14778549813077e-05,2.977646720988784e-05,4.2,3.6
1.16796875,3.222588050049592e-05,2.8806499546807045e-05,3.3685730821698324e-05,3.075623252613107e-05,4.2,3.6
1.171875,3.1246115184252685e-05,1.7568591369497214e-05,3.417561347981994e-05,1.268936009460593e-05,4.2,3.6
1.17578125,2.6366883909361403e-05,9.759861799038674e-06,3.17359978423743e-05,2.8806499546807045e-05,4.2,3.6
1.1796875,2.14778549813077e-05,1.024974445716029e-05,2.1967737639429317e-05,3.6615229117265587e-05,4.2,3.6
1.18359375,3.222588050049592e-05,1.8058474027618826e-05,1.5618858390173187e-05,2.6846968914320582e-05,4.2,3.6
1.1875,2.831661688868543e-05,2.3437385613794147e-05,2.0987972323186085e-05,3.5635463801022355e-05,4.2,3.6
1.19140625,1.512897573205157e-05,3.3685730821698324e-05,2.294750295567253e-05,3.9054844754711226e-05,4.2,3.6
1.1953125,2.14778549813077e-05,3.5635463801022355e-05,2.0507887318226905e-05,3.319584816357671e-05,4.2,3.6
1.19921875,3.075623252613107e-05,2.7336851572442198e-05,7.320246161593033e-06,3.417561347981994e-05,4.2,3.6
1.203125,3.3685730821698324e-05,1.3669125410849161e-05,-2.937896699473569e-06,3.515537879606317e-05,4.2,3.6
1.20703125,4.394387368276493e-05,2.14778549813077e-05,-4.884834088654912e-07,3.515537879606317e-05,4.2,3.6
1.2109375,5.322225122758831e-05,2.977646720988784e-05,1.9511322285801497e-06,2.6366883909361403e-05,4.2,3.6
1.21484375,4.540372400396734e-05,2.294750295567253e-05,-2.937896699473569e-06,4.880630524147406e-06,4.2,3.6
1.21875,2.8806499546807045e-05,2.3437385613794147e-05,-6.347480000000004e-06,4.880630524147406e-06,4.2,3.6
1.22265625,2.391747061875334e-05,1.8058474027618826e-05,-1.221627424429694e-05,2.831661688868543e-05,4.2,3.6
1.2265625,3.319584816357671e-05,1.8548356685740442e-05,-3.4179817044327477e-06,3.515537879606317e-05,4.2,3.6
1.23046875,3.1246115184252685e-05,2.489723593499656e-05,6.8303635034714316e-06,2.977646720988784e-05,4.2,3.6
1.234375,3.075623252613107e-05,3.856496209658961e-05,1.8058474027618826e-05,2.0987972323186085e-05,4.2,3.6
1.23828125,4.1494460392156865e-05,3.3685730821698324e-05,1.9528122001983674e-05,1.3669125410849161e-05,4.2,3.6
1.2421875,3.075623252613107e-05,1.8058474027618826e-05,2.1967737639429317e-05,1.2199477436484315e-05,4.2,3.6
1.24609375,1.7568591369497214e-05,3.759499443350881e-05,3.1246115184252685e-05,5.370513182269008e-06,4.2,3.6
1.25,1.6108741048294802e-05,3.270596550545509e-05,2.6366883909361403e-05,1.4639093073929955e-05,4.2,3.6
1.25390625,2.489723593499656e-05,1.024974445716029e-05,2.587700125123979e-05,3.954472741283284e-05,4.2,3.6
1.2578125,2.8806499546807045e-05,1.024974445716029e-05,2.929638220492866e-05,4.5893606662088955e-05,4.2,3.6
1.26171875,2.5387118593118174e-05,1.4639093073929955e-05,2.4407353276874956e-05,3.954472741283284e-05,4.2,3.6
1.265625,2.1967737639429317e-05,1.659862370641642e-05,1.5618858390173187e-05,3.515537879606317e-05,4.2,3.6
1.26953125,2.0507887318226905e-05,2.831661688868543e-05,1.8058474027618826e-05,3.515537879606317e-05,4.2,3.6
1.2734375,2.2457620297550932e-05,3.515537879606317e-05,2.587700125123979e-05,3.270596550545509e-05,4.2,3.6
1.27734375,2.489723593499656e-05,3.5635463801022355e-05,2.8806499546807045e-05,2.0507887318226905e-05,4.2,3.6
1.28125,2.977646720988784e-05,3.6615229117265587e-05,2.4407353276874956e-05,2.0987972323186085e-05,4.2,3.6
1.28515625,3.856496209658961e-05,2.3437385613794147e-05,1.4639093073929955e-05,1.7088506364538034e-05,4.2,3.6
1.2890625,4.2474225708400084e-05,2.001800466010529e-05,1.0739627115281904e-05,-6.347480000000004e-06,4.2,3.6
1.29296875,3.856496209658961e-05,2.0987972323186085e-05,1.3669125410849161e-05,3.900865207904175e-06,4.2,3.6
1.296875,3.270596550545509e-05,2.001800466010529e-05,1.512897573205157e-05,3.5635463801022355e-05,4.2,3.6
1.30078125,3.319584816357671e-05,2.294750295567253e-05,1.4159008068970777e-05,4.1494460392156865e-05,4.2,3.6
1.3046875,3.515537879606317e-05,3.17359978423743e-05,9.269979140917058e-06,3.7105111775387196e-05,4.2,3.6
1.30859375,3.4665496137941556e-05,3.7105111775387196e-05,2.441014886701765e-06,2.6366883909361403e-05,4.2,3.6
1.3125,3.270596550545509e-05,2.6846968914320582e-05,5.370513182269008e-06,2.1967737639429317e-05,4.2,3.6
1.31640625,3.222588050049592e-05,3.075623252613107e-05,9.759861799038674e-06,2.587700125123979e-05,4.2,3.6
1.3203125,3.612534645914397e-05,2.977646720988784e-05,7.320246161593033e-06,1.6108741048294802e-05,4.2,3.6
1.32421875,3.8084877091630414e-05,2.14778549813077e-05,1.9511322285801497e-06,9.759861799038674e-06,4.2,3.6
1.328125,3.319584816357671e-05,1.7568591369497214e-05,4.880630524147406e-06,-8.796893290608074e-06,4.2,3.6
1.33203125,2.831661688868543e-05,2.1967737639429317e-05,2.1967737639429317e-05,-9.28677594872969e-06,4.2,3.6
1.3359375,2.929638220492866e-05,1.7088506364538034e-05,2.587700125123979e-05,3.3685730821698324e-05,4.2,3.6
1.33984375,3.319584816357671e-05,1.8058474027618826e-05,1.9038239343862058e-05,5.126272059510185e-05,4.2,3.6
1.34375,2.977646720988784e-05,2.14778549813077e-05,1.17095947783627e-05,3.6615229117265587e-05,4.2,3.6
1.34765625,1.7088506364538034e-05,2.4407353276874956e-05,1.17095947783627e-05,2.929638220492866e-05,4.2,3.6
1.3515625,2.1967737639429317e-05,2.0987972323186085e-05,1.4639093073929955e-05,2.6366883909361403e-05,4.2,3.6
1.35546875,3.612534645914397e-05,1.122950977340352e-05,1.4159008068970777e-05,3.270596550545509e-05,4.2,3.6
1.359375,3.954472741283284e-05,1.3179242752727545e-05,1.3179242752727545e-05,3.954472741283284e-05,4.2,3.6
1.36328125,3.856496209658961e-05,1.5618858390173187e-05,2.0987972323186085e-05,2.6846968914320582e-05,4.2,3.6
1.3671875,3.612534645914397e-05,1.7088506364538034e-05,1.9528122001983674e-05,7.320246161593033e-06,4.2,3.6
1.37109375,3.222588050049592e-05,1.4159008068970777e-05,2.294750295567253e-05,1.9038239343862058e-05,4.2,3.6
1.375,2.831661688868543e-05,2.4407353276874956e-05,3.075623252613107e-05,3.612534645914397e-05,4.2,3.6
1.37890625,2.4407353276874956e-05,2.1967737639429317e-05,3.0266349868009457e-05,3.759499443350881e-05,4.2,3.6
1.3828125,2.001800466010529e-05,2.294750295567253e-05,2.391747061875334e-05,2.8806499546807045e-05,4.2,3.6
1.38671875,2.14778549813077e-05,2.8806499546807045e-05,2.294750295567253e-05,1.9038239343862058e-05,4.2,3.6
1.390625,1.8548356685740442e-05,2.294750295567253e-05,3.612534645914397e-05,2.489723593499656e-05,4.2,3.6
1.39453125,2.7336851572442198e-05,2.2457620297550932e-05,3.7105111775387196e-05,2.5387118593118174e-05,4.2,3.6
1.3984375,4.442395868772411e-05,3.270596550545509e-05,2.7826734230563814e-05,2.7336851572442198e-05,4.2,3.6
1.40234375,4.491384134584572e-05,2.7336851572442198e-05,3.3685730821698324e-05,3.9054844754711226e-05,4.2,3.6
1.40625,3.8084877091630414e-05,1.8058474027618826e-05,3.17359978423743e-05,3.954472741283284e-05,4.2,3.6
1.41015625,3.5635463801022355e-05,2.1967737639429317e-05,2.2457620297550932e-05,3.17359978423743e-05,4.2,3.6
1.4140625,3.3685730821698324e-05,3.270596550545509e-05,2.6366883909361403e-05,2.6366883909361403e-05,4.2,3.6
1.41796875,3.222588050049592e-05,3.417561347981994e-05,3.319584816357671e-05,2.489723593499656e-05,4.2,3.6
1.421875,3.4665496137941556e-05,3.075623252613107e-05,4.1494460392156865e-05,3.17359978423743e-05,4.2,3.6
1.42578125,3.0266349868009457e-05,2.929638220492866e-05,4.784333964141298e-05,2.5387118593118174e-05,4.2,3.6
1.4296875,2.0987972323186085e-05,4.1494460392156865e-05,5.566186686503394e-05,-9.783660669871067e-07,4.2,3.6
1.43359375,2.391747061875334e-05,5.1752603253223466e-05,6.249083111924926e-05,5.370513182269008e-06,4.2,3.6
1.4375,3.222588050049592e-05,3.9054844754711226e-05,4.980287027389944e-05,3.6615229117265587e-05,4.2,3.6
1.44140625,2.929638220492866e-05,2.929638220492866e-05,4.101437538719767e-05,4.394387368276493e-05,4.2,3.6
1.4453125,2.977646720988784e-05,3.7105111775387196e-05,4.198434305027847e-05,2.6366883909361403e-05,4.2,3.6
1.44921875,4.198434305027847e-05,4.784333964141298e-05,5.0772837936980234e-05,1.3179242752727545e-05,4.2,3.6
1.453125,5.224248591134508e-05,4.9312987615777826e-05,4.638348932021057e-05,2.5387118593118174e-05,4.2,3.6
1.45703125,4.5893606662088955e-05,3.515537879606317e-05,3.1246115184252685e-05,3.1246115184252685e-05,4.2,3.6
1.4609375,3.417561347981994e-05,1.5618858390173187e-05,1.8548356685740442e-05,3.759499443350881e-05,4.2,3.6
1.46484375,3.3685730821698324e-05,1.4639093073929955e-05,2.001800466010529e-05,3.8084877091630414e-05,4.2,3.6
1.46875,3.0266349868009457e-05,1.5618858390173187e-05,3.417561347981994e-05,2.001800466010529e-05,4.2,3.6
1.47265625,9.269979140917058e-06,2.5387118593118174e-05,3.8084877091630414e-05,2.1967737639429317e-05,4.2,3.6
1.4765625,1.9038239343862058e-05,3.4665496137941556e-05,3.7105111775387196e-05,3.270596550545509e-05,4.2,3.6
1.48046875,3.4665496137941556e-05,1.8058474027618826e-05,3.515537879606317e-05,3.759499443350881e-05,4.2,3.6
1.484375,3.3685730821698324e-05,1.024974445716029e-05,2.7336851572442198e-05,2.391747061875334e-05,4.2,3.6
1.48828125,4.394387368276493e-05,2.0507887318226905e-05,2.6846968914320582e-05,1.7088506364538034e-05,4.2,3.6
1.4921875,4.052449272907606e-05,2.8806499546807045e-05,3.8084877091630414e-05,3.6615229117265587e-05,4.2,3.6
1.49609375,3.5635463801022355e-05,2.6846968914320582e-05,3.4665496137941556e-05,3.9054844754711226e-05,4.2,3.6
1.5,3.3685730821698324e-05,2.2457620297550932e-05,2.489723593499656e-05,2.977646720988784e-05,4.2,3.6
1.50390625,2.8806499546807045e-05,1.6108741048294802e-05,2.4407353276874956e-05,2.921099891660944e-06,4.2,3.6
1.5078125,3.17359978423743e-05,2.0507887318226905e-05,3.5635463801022355e-05,-1.709550551918822e-05,4.2,3.6
1.51171875,3.6615229117265587e-05,2.4407353276874956e-05,4.1494460392156865e-05,7.320246161593033e-06,4.2,3.6
1.515625,3.954472741283284e-05,2.2457620297550932e-05,4.394387368276493e-05,3.075623252613107e-05,4.2,3.6
1.51953125,4.29641083665217e-05,2.6846968914320582e-05,3.856496209658961e-05,3.612534645914397e-05,4.2,3.6
1.5234375,3.075623252613107e-05,2.7336851572442198e-05,2.6366883909361403e-05,3.17359978423743e-05,4.2,3.6
1.52734375,2.2457620297550932e-05,3.0266349868009457e-05,1.9528122001983674e-05,3.856496209658961e-05,4.2,3.6
1.53125,2.3437385613794147e-05,3.515537879606317e-05,2.1967737639429317e-05,5.1752603253223466e-05,4.2,3.6
1.53515625,2.7336851572442198e-05,2.6366883909361403e-05,2.3437385613794147e-05,4.0034610070954444e-05,4.2,3.6
1.5390625,3.17359978423743e-05,1.7088506364538034e-05,2.0507887318226905e-05,2.587700125123979e-05,4.2,3.6
1.54296875,2.489723593499656e-05,1.4639093073929955e-05,1.8058474027618826e-05,2.0507887318226905e-05,4.2,3.6
1.546875,2.6366883909361403e-05,1.3669125410849161e-05,1.6108741048294802e-05,2.3437385613794147e-05,4.2,3.6
1.55078125,3.222588050049592e-05,1.8548356685740442e-05,1.3669125410849161e-05,3.3685730821698324e-05,4.2,3.6
1.5546875,3.270596550545509e-05,2.1967737639429317e-05,2.14778549813077e-05,1.7088506364538034e-05,4.2,3.6
1.55859375,3.954472741283284e-05,2.6846968914320582e-05,2.489723593499656e-05,9.713669123369185e-07,4.2,3.6
1.5625,4.101437538719767e-05,2.489723593499656e-05,2.1967737639429317e-05,2.7336851572442198e-05,4.2,3.6
1.56640625,3.075623252613107e-05,2.294750295567253e-05,2.587700125123979e-05,4.73632546364538e-05,4.2,3.6
1.5703125,1.5618858390173187e-05,2.489723593499656e-05,3.4665496137941556e-05,4.687337197833219e-05,4.2,3.6
1.57421875,1.2199477436484315e-05,2.5387118593118174e-05,5.517198420691234e-05,3.6615229117265587e-05,4.2,3.6
1.578125,3.612534645914397e-05,2.5387118593118174e-05,5.0772837936980234e-05,3.075623252613107e-05,4.2,3.6
1.58203125,4.687337197833219e-05,1.9528122001983674e-05,3.319584816357671e-05,2.7826734230563814e-05,4.2,3.6
1.5859375,3.8084877091630414e-05,2.5387118593118174e-05,3.0266349868009457e-05,2.4407353276874956e-05,4.2,3.6
1.58984375,2.8806499546807045e-05,3.8084877091630414e-05,3.222588050049592e-05,2.929638220492866e-05,4.2,3.6
1.59375,1.9528122001983674e-05,4.394387368276493e-05,3.8084877091630414e-05,2.6366883909361403e-05,4.2,3.6
1.59765625,1.3669125410849161e-05,3.515537879606317e-05,3.075623252613107e-05,1.8058474027618826e-05,4.2,3.6
1.6015625,2.6846968914320582e-05,2.6846968914320582e-05,3.0266349868009457e-05,7.810128819714649e-06,4.2,3.6
1.60546875,3.759499443350881e-05,2.391747061875334e-05,2.5387118593118174e-05,-5.867394995040826e-06,4.2,3.6
1.609375,4.0034610070954444e-05,2.489723593499656e-05,1.8058474027618826e-05,2.14778549813077e-05,4.2,3.6
1.61328125,3.7105111775387196e-05,3.5635463801022355e-05,2.929638220492866e-05,5.761159984435798e-05,4.2,3.6
1.6171875,3.1246115184252685e-05,2.6846968914320582e-05,2.391747061875334e-05,5.517198420691234e-05,4.2,3.6
1.62109375,2.4407353276874956e-05,1.9528122001983674e-05,1.0739627115281904e-05,3.954472741283284e-05,4.2,3.6
1.625,1.512897573205157e-05,1.4639093073929955e-05,2.001800466010529e-05,3.1246115184252685e-05,4.2,3.6
1.62890625,2.7826734230563814e-05,2.001800466010529e-05,3.417561347981994e-05,3.17359978423743e-05,4.2,3.6
1.6328125,3.515537879606317e-05,2.7826734230563814e-05,2.7826734230563814e-05,3.417561347981994e-05,4.2,3.6
1.63671875,3.4665496137941556e-05,2.0987972323186085e-05,1.659862370641642e-05,2.587700125123979e-05,4.2,3.6
1.640625,3.7105111775387196e-05,1.0739627115281904e-05,2.001800466010529e-05,2.4407353276874956e-05,4.2,3.6
1.64453125,3.6615229117265587e-05,1.9038239343862058e-05,2.14778549813077e-05,2.3437385613794147e-05,4.2,3.6
1.6484375,3.5635463801022355e-05,2.831661688868543e-05,2.7336851572442198e-05,3.900865207904175e-06,4.2,3.6
1.65234375,2.4407353276874956e-05,2.587700125123979e-05,3.075623252613107e-05,1.512897573205157e-05,4.2,3.6
1.65625,2.0507887318226905e-05,2.391747061875334e-05,3.075623252613107e-05,3.9054844754711226e-05,4.2,3.6
1.66015625,2.6846968914320582e-05,1.2199477436484315e-05,3.17359978423743e-05,3.222588050049592e-05,4.2,3.6
1.6640625,2.391747061875334e-05,1.7088506364538034e-05,2.391747061875334e-05,2.14778549813077e-05,4.2,3.6
1.66796875,2.0987972323186085e-05,3.075623252613107e-05,2.6846968914320582e-05,2.4407353276874956e-05,4.2,3.6
1.671875,2.977646720988784e-05,3.4665496137941556e-05,3.0266349868009457e-05,1.7568591369497214e-05,4.2,3.6
1.67578125,3.954472741283284e-05,4.101437538719767e-05,3.8084877091630414e-05,2.489723593499656e-05,4.2,3.6
1.6796875,3.6615229117265587e-05,3.612534645914397e-05,4.101437538719767e-05,5.956133282368199e-05,4.2,3.6
1.68359375,3.075623252613107e-05,2.0507887318226905e-05,2.4407353276874956e-05,6.640009473105974e-05,4.2,3.6
1.6875,2.977646720988784e-05,2.391747061875334e-05,2.489723593499656e-05,4.3453991024643315e-05,4.2,3.6
1.69140625,1.4639093073929955e-05,2.6366883909361403e-05,3.319584816357671e-05,3.1246115184252685e-05,4.2,3.6
1.6953125,9.713669123369185e-07,2.6366883909361403e-05,3.17359978423743e-05,4.29641083665217e-05,4.2,3.6
1.69921875,1.3669125410849161e-05,3.270596550545509e-05,3.0266349868009457e-05,4.1494460392156865e-05,4.2,3.6
1.703125,3.759499443350881e-05,2.929638220492866e-05,3.0266349868009457e-05,3.1246115184252685e-05,4.2,3.6
1.70703125,4.540372400396734e-05,2.4407353276874956e-05,2.977646720988784e-05,2.6846968914320582e-05,4.2,3.6
1.7109375,3.7105111775387196e-05,2.489723593499656e-05,2.7826734230563814e-05,1.0739627115281904e-05,4.2,3.6
1.71484375,3.222588050049592e-05,2.391747061875334e-05,3.222588050049592e-05,-8.796893290608074e-06,4.2,3.6
1.71875,3.5635463801022355e-05,2.831661688868543e-05,3.6615229117265587e-05,-1.1726391586175325e-05,4.2,3.6
1.72265625,3.417561347981994e-05,3.3685730821698324e-05,4.198434305027847e-05,3.222588050049592e-05,4.2,3.6
1.7265625,2.6846968914320582e-05,3.3685730821698324e-05,3.612534645914397e-05,5.322225122758831e-05,4.2,3.6
1.73046875,2.977646720988784e-05,3.3685730821698324e-05,3.515537879606317e-05,4.5893606662088955e-05,4.2,3.6
1.734375,3.270596550545509e-05,2.3437385613794147e-05,3.515537879606317e-05,5.1752603253223466e-05,4.2,3.6
1.73828125,2.977646720988784e-05,1.122950977340352e-05,3.0266349868009457e-05,4.198434305027847e-05,4.2,3.6
1.7421875,3.0266349868009457e-05,8.300011477836265e-06,2.391747061875334e-05,3.1246115184252685e-05,4.2,3.6
1.74609375,3.1246115184252685e-05,1.268936009460593e-05,2.391747061875334e-05,3.319584816357671e-05,4.2,3.6
1.75,3.17359978423743e-05,1.9528122001983674e-05,2.6846968914320582e-05,3.17359978423743e-05,4.2,3.6
1.75390625,3.319584816357671e-05,2.587700125123979e-05,3.1246115184252685e-05,1.9528122001983674e-05,4.2,3.6
1.7578125,3.3685730821698324e-05,2.0987972323186085e-05,2.294750295567253e-05,1.268936009460593e-05,4.2,3.6
1.76171875,3.222588050049592e-05,8.780096482795458e-06,7.320246161593033e-06,1.512897573205157e-05,4.2,3.6
1.765625,3.270596550545509e-05,2.921099891660944e-06,3.4109825497825595e-06,2.2457620297550932e-05,4.2,3.6
1.76953125,2.8806499546807045e-05,1.268936009460593e-05,1.4612495704585342e-06,3.270596550545509e-05,4.2,3.6
1.7734375,2.0987972323186085e-05,2.001800466010529e-05,1.3669125410849161e-05,3.515537879606317e-05,4.2,3.6
1.77734375,2.14778549813077e-05,1.3669125410849161e-05,1.122950977340352e-05,2.977646720988784e-05,4.2,3.6
1.78125,3.075623252613107e-05,1.7088506364538034e-05,1.9511322285801497e-06,2.8806499546807045e-05,4.2,3.6
1.78515625,4.29641083665217e-05,1.3179242752727545e-05,5.850598187228201e-06,1.659862370641642e-05,4.2,3.6
1.7890625,4.1494460392156865e-05,1.7088506364538034e-05,1.122950977340352e-05,7.320246161593033e-06,4.2,3.6
1.79296875,2.929638220492866e-05,2.0507887318226905e-05,1.9528122001983674e-05,1.268936009460593e-05,4.2,3.6
1.796875,3.075623252613107e-05,1.9038239343862058e-05,2.4407353276874956e-05,2.3437385613794147e-05,4.2,3.6
1.80078125,3.270596550545509e-05,1.6108741048294802e-05,2.0507887318226905e-05,4.0034610070954444e-05,4.2,3.6
1.8046875,2.4407353276874956e-05,5.370513182269008e-06,1.7568591369497214e-05,4.491384134584572e-05,4.2,3.6
1.80859375,1.659862370641642e-05,1.9038239343862058e-05,2.6366883909361403e-05,3.5635463801022355e-05,4.2,3.6
1.8125,3.270596550545509e-05,4.101437538719767e-05,4.540372400396734e-05,2.7826734230563814e-05,4.2,3.6
1.81640625,4.540372400396734e-05,3.7105111775387196e-05,5.1752603253223466e-05,2.587700125123979e-05,4.2,3.6
1.8203125,3.4665496137941556e-05,3.319584816357671e-05,3.7105111775387196e-05,2.14778549813077e-05,4.2,3.6
1.82421875,3.319584816357671e-05,3.319584816357671e-05,3.3685730821698324e-05,1.8548356685740442e-05,4.2,3.6
1.828125,2.8806499546807045e-05,3.759499443350881e-05,3.0266349868009457e-05,2.7336851572442198e-05,4.2,3.6
1.83203125,1.6108741048294802e-05,2.977646720988784e-05,2.489723593499656e-05,3.856496209658961e-05,4.2,3.6
1.8359375,1.8548356685740442e-05,1.512897573205157e-05,2.14778549813077e-05,3.612534645914397e-05,4.2,3.6
1.83984375,3.1246115184252685e-05,1.5618858390173187e-05,1.268936009460593e-05,2.929638220492866e-05,4.2,3.6
1.84375,4.052449272907606e-05,3.270596550545509e-05,1.659862370641642e-05,2.294750295567253e-05,4.2,3.6
1.84765625,3.7105111775387196e-05,3.5635463801022355e-05,2.831661688868543e-05,2.8806499546807045e-05,4.2,3.6
1.8515625,2.6846968914320582e-05,3.6615229117265587e-05,3.0266349868009457e-05,2.929638220492866e-05,4.2,3.6
1.85546875,2.977646720988784e-05,3.9054844754711226e-05,4.052449272907606e-05,2.4407353276874956e-05,4.2,3.6
1.859375,3.0266349868009457e-05,2.587700125123979e-05,4.052449272907606e-05,3.075623252613107e-05,4.2,3.6
1.86328125,2.8806499546807045e-05,3.222588050049592e-05,2.6846968914320582e-05,3.3685730821698324e-05,4.2,3.6
1.8671875,3.319584816357671e-05,4.1494460392156865e-05,3.417561347981994e-05,3.075623252613107e-05,4.2,3.6
1.87109375,1.6108741048294802e-05,2.929638220492866e-05,4.394387368276493e-05,2.3437385613794147e-05,4.2,3.6
1.875,-8.398403906312523e-09,1.9528122001983674e-05,5.1752603253223466e-05,1.2199477436484315e-05,4.2,3.6
1.87890625,1.122950977340352e-05,7.810128819714649e-06,4.8333222299534594e-05,9.269979140917058e-06,4.2,3.6
1.8828125,2.294750295567253e-05,-5.37751233691921e-06,3.1246115184252685e-05,2.8806499546807045e-05,4.2,3.6
1.88671875,3.3685730821698324e-05,-8.398403906312523e-09,2.6366883909361403e-05,3.759499443350881e-05,4.2,3.6
1.890625,3.9054844754711226e-05,1.4159008068970777e-05,2.6366883909361403e-05,3.17359978423743e-05,4.2,3.6
1.89453125,2.929638220492866e-05,2.001800466010529e-05,3.4665496137941556e-05,3.270596550545509e-05,4.2,3.6
1.8984375,2.6846968914320582e-05,1.7568591369497214e-05,2.7336851572442198e-05,3.319584816357671e-05,4.2,3.6
1.90234375,3.222588050049592e-05,2.0507887318226905e-05,1.4639093073929955e-05,3.319584816357671e-05,4.2,3.6
1.90625,2.6366883909361403e-05,2.2457620297550932e-05,1.4639093073929955e-05,2.4407353276874956e-05,4.2,3.6
1.91015625,2.6846968914320582e-05,2.0507887318226905e-05,1.3669125410849161e-05,3.1246115184252685e-05,4.2,3.6
1.9140625,2.7336851572442198e-05,1.9528122001983674e-05,2.5387118593118174e-05,2.831661688868543e-05,4.2,3.6
1.91796875,2.294750295567253e-05,2.294750295567253e-05,2.6846968914320582e-05,1.4159008068970777e-05,4.2,3.6
1.921875,3.3685730821698324e-05,1.8058474027618826e-05,1.4639093073929955e-05,2.001800466010529e-05,4.2,3.6
1.92578125,3.9054844754711226e-05,1.268936009460593e-05,7.320246161593033e-06,2.294750295567253e-05,4.2,3.6
1.9296875,4.394387368276493e-05,1.268936009460593e-05,8.300011477836265e-06,3.1246115184252685e-05,4.2,3.6
1.93359375,4.442395868772411e-05,1.4159008068970777e-05,1.8058474027618826e-05,2.5387118593118174e-05,4.2,3.6
1.9375,2.7336851572442198e-05,2.2457620297550932e-05,2.489723593499656e-05,3.900865207904175e-06,4.2,3.6
1.94140625,1.17095947783627e-05,2.831661688868543e-05,1.9038239343862058e-05,1.659862370641642e-05,4.2,3.6
1.9453125,2.4407353276874956e-05,2.4407353276874956e-05,1.17095947783627e-05,4.2474225708400084e-05,4.2,3.6
1.94921875,4.052449272907606e-05,1.7568591369497214e-05,1.9528122001983674e-05,4.980287027389944e-05,4.2,3.6
1.953125,3.612534645914397e-05,1.4159008068970777e-05,2.391747061875334e-05,3.4665496137941556e-05,4.2,3.6
1.95703125,1.7088506364538034e-05,1.7568591369497214e-05,2.489723593499656e-05,3.612534645914397e-05,4.2,3.6
1.9609375,9.269979140917058e-06,1.659862370641642e-05,2.1967737639429317e-05,3.5635463801022355e-05,4.2,3.6
1.96484375,3.417561347981994e-05,1.4639093073929955e-05,5.850598187228201e-06,1.8058474027618826e-05,4.2,3.6
1.96875,4.052449272907606e-05,1.5618858390173187e-05,1.9511322285801497e-06,2.001800466010529e-05,4.2,3.6
1.97265625,3.6615229117265587e-05,1.0739627115281904e-05,6.8303635034714316e-06,2.6366883909361403e-05,4.2,3.6
1.9765625,4.1494460392156865e-05,1.4612495704585342e-06,6.340480845349816e-06,2.977646720988784e-05,4.2,3.6
1.98046875,4.198434305027847e-05,-6.347480000000004e-06,3.4109825497825595e-06,1.9038239343862058e-05,4.2,3.6
1.984375,3.515537879606317e-05,-1.5145772539864196e-05,-7.3272453162432284e-06,-8.398403906312523e-09,4.2,3.6
1.98828125,3.17359978423743e-05,-2.10047691309987e-05,-1.9045238498512248e-05,1.0739627115281904e-05,4.2,3.6
1.9921875,2.5387118593118174e-05,-2.4904235089646752e-05,-2.4414352431525136e-05,4.29641083665217e-05,4.2,3.6
1.99609375,1.17095947783627e-05,-2.4904235089646752e-05,-6.347480000000004e-06,5.322225122758831e-05,4.2,3.6
2.0,9.759861799038674e-06,-2.0514886472877086e-05,-3.4179817044327477e-06,3.7105111775387196e-05,4.2,3.6
2.00390625,2.6366883909361403e-05,-2.2464619452201113e-05,-2.881349870145724e-05,8.300011477836265e-06,4.2,3.6
2.0078125,4.0034610070954444e-05,-2.295450211032273e-05,-2.4414352431525136e-05,1.0739627115281904e-05,4.2,3.6
2.01171875,4.29641083665217e-05,-1.7585388177309837e-05,-2.0514886472877086e-05,3.222588050049592e-05,4.2,3.6
2.015625,3.319584816357671e-05,-2.10047691309987e-05,-2.295450211032273e-05,4.052449272907606e-05,4.2,3.6
2.01953125,3.0266349868009457e-05,-2.0025003814755477e-05,-1.8555355840390632e-05,4.491384134584572e-05,4.2,3.6
2.0234375,3.759499443350881e-05,-1.7585388177309837e-05,-2.1484854135957888e-05,3.954472741283284e-05,4.2,3.6
2.02734375,3.0266349868009457e-05,-1.5145772539864196e-05,-1.709550551918822e-05,2.6846968914320582e-05,4.2,3.6
2.03125,2.8806499546807045e-05,9.713669123369185e-07,6.8303635034714316e-06,2.7826734230563814e-05,4.2,3.6
2.03515625,1.9038239343862058e-05,1.7568591369497214e-05,2.5387118593118174e-05,3.4665496137941556e-05,4.2,3.6
2.0390625,5.850598187228201e-06,1.512897573205157e-05,2.977646720988784e-05,1.6108741048294802e-05,4.2,3.6
2.04296875,2.7336851572442198e-05,1.7568591369497214e-05,1.9528122001983674e-05,8.300011477836265e-06,4.2,3.6
2.046875,4.491384134584572e-05,1.8548356685740442e-05,8.780096482795458e-06,2.929638220492866e-05,4.2,3.6
2.05078125,4.8333222299534594e-05,2.2457620297550932e-05,1.024974445716029e-05,3.954472741283284e-05,4.2,3.6
2.0546875,4.638348932021057e-05,2.6366883909361403e-05,2.001800466010529e-05,4.442395868772411e-05,4.2,3.6
2.05859375,3.515537879606317e-05,2.391747061875334e-05,1.9038239343862058e-05,3.1246115184252685e-05,4.2,3.6
2.0625,2.7826734230563814e-05,2.1967737639429317e-05,1.6108741048294802e-05,2.7336851572442198e-05,4.2,3.6
2.06640625,2.929638220492866e-05,2.7336851572442198e-05,1.5618858390173187e-05,3.17359978423743e-05,4.2,3.6
2.0703125,3.6615229117265587e-05,3.5635463801022355e-05,2.294750295567253e-05,1.7088506364538034e-05,4.2,3.6
2.07421875,3.9054844754711226e-05,2.7336851572442198e-05,3.856496209658961e-05,2.0987972323186085e-05,4.2,3.6
2.078125,3.319584816357671e-05,3.1246115184252685e-05,3.3685730821698324e-05,2.831661688868543e-05,4.2,3.6
2.08203125,2.5387118593118174e-05,3.3685730821698324e-05,3.222588050049592e-05,3.7105111775387196e-05,4.2,3.6
2.0859375,2.489723593499656e-05,2.6366883909361403e-05,3.270596550545509e-05,4.2474225708400084e-05,4.2,3.6
2.08984375,3.075623252613107e-05,2.8806499546807045e-05,3.17359978423743e-05,3.759499443350881e-05,4.2,3.6
2.09375,2.977646720988784e-05,3.17359978423743e-05,4.442395868772411e-05,3.3685730821698324e-05,4.2,3.6
2.09765625,1.8058474027618826e-05,4.1494460392156865e-05,5.1752603253223466e-05,2.294750295567253e-05,4.2,3.6
2.1015625,2.7336851572442198e-05,4.638348932021057e-05,4.73632546364538e-05,2.4407353276874956e-05,4.2,3.6
2.10546875,3.759499443350881e-05,4.540372400396734e-05,4.687337197833219e-05,2.8806499546807045e-05,4.2,3.6
2.109375,2.7826734230563814e-05,5.6151749523155555e-05,5.566186686503394e-05,2.6366883909361403e-05,4.2,3.6
2.11328125,2.4407353276874956e-05,5.9081247818722824e-05,6.103098079804684e-05,1.0739627115281904e-05,4.2,3.6
2.1171875,2.1967737639429317e-05,5.956133282368199e-05,6.494024440985731e-05,1.8548356685740442e-05,4.2,3.6
2.12109375,3.4665496137941556e-05,6.44503617517357e-05,7.665823759212634e-05,4.638348932021057e-05,4.2,3.6
2.125,4.29641083665217e-05,7.176920866407263e-05,7.665823759212634e-05,4.73632546364538e-05,4.2,3.6
2.12890625,4.101437538719767e-05,9.13057290699626e-05,8.837623077439536e-05,4.687337197833219e-05,4.2,3.6
2.1328125,3.8084877091630414e-05,0.00010155407427786679,0.00010155407427786679,3.612534645914397e-05,4.2,3.6
2.13671875,2.7336851572442198e-05,9.716472566109712e-05,9.423522736552988e-05,2.6846968914320582e-05,4.2,3.6
2.140625,2.294750295567253e-05,9.618496034485389e-05,9.472511002365146e-05,3.17359978423743e-05,4.2,3.6
2.14453125,2.489723593499656e-05,0.000112302099797055,0.00010986248415960938,2.391747061875334e-05,4.2,3.6
2.1484375,2.294750295567253e-05,0.0001235302103212024,0.000112302099797055,7.320246161593033e-06,4.2,3.6
2.15234375,2.14778549813077e-05,0.00011816109638818951,0.00011620156575570305,-1.958131383230338e-06,4.2,3.6
2.15625,3.6615229117265587e-05,0.00011181221713893339,0.00011279198245517662,1.2199477436484315e-05,4.2,3.6
2.16015625,3.4665496137941556e-05,9.569507768673228e-05,9.569507768673228e-05,3.856496209658961e-05,4.2,3.6
2.1640625,1.268936009460593e-05,7.714812025024795e-05,8.495684982070647e-05,4.5893606662088955e-05,4.2,3.6
2.16796875,2.001800466010529e-05,7.274897398031586e-05,8.055770355077438e-05,4.101437538719767e-05,4.2,3.6
2.171875,3.5635463801022355e-05,6.54203294148165e-05,8.153746886701761e-05,3.612534645914397e-05,4.2,3.6
2.17578125,4.052449272907606e-05,5.859136516060121e-05,8.641670014190891e-05,3.417561347981994e-05,4.2,3.6
2.1796875,3.8084877091630414e-05,5.663183452811475e-05,8.153746886701761e-05,2.6366883909361403e-05,4.2,3.6
2.18359375,4.101437538719767e-05,5.859136516060121e-05,6.737986004730297e-05,2.1967737639429317e-05,4.2,3.6
2.1875,3.4665496137941556e-05,6.737986004730297e-05,7.030935834287021e-05,2.5387118593118174e-05,4.2,3.6
2.19140625,2.0987972323186085e-05,6.396047909361408e-05,7.225909132219425e-05,3.1246115184252685e-05,4.2,3.6
2.1953125,2.7826734230563814e-05,5.224248591134508e-05,6.834982771038375e-05,2.587700125123979e-05,4.2,3.6
2.19921875,3.222588050049592e-05,5.0772837936980234e-05,6.396047909361408e-05,1.7568591369497214e-05,4.2,3.6
2.203125,2.6846968914320582e-05,3.954472741283284e-05,5.1752603253223466e-05,2.8806499546807045e-05,4.2,3.6
2.20703125,3.1246115184252685e-05,3.075623252613107e-05,4.73632546364538e-05,3.319584816357671e-05,4.2,3.6
2.2109375,4.1494460392156865e-05,3.417561347981994e-05,4.5893606662088955e-05,2.391747061875334e-05,4.2,3.6
2.21484375,4.540372400396734e-05,3.7105111775387196e-05,4.198434305027847e-05,2.6366883909361403e-05,4.2,3.6
2.21875,4.29641083665217e-05,3.075623252613107e-05,3.954472741283284e-05,3.222588050049592e-05,4.2,3.6
2.22265625,2.929638220492866e-05,2.489723593499656e-05,2.831661688868543e-05,1.9038239343862058e-05,4.2,3.6
2.2265625,2.14778549813077e-05,2.5387118593118174e-05,2.5387118593118174e-05,1.268936009460593e-05,4.2,3.6
2.23046875,2.489723593499656e-05,3.0266349868009457e-05,3.4665496137941556e-05,3.222588050049592e-05,4.2,3.6
2.234375,1.7568591369497214e-05,1.2199477436484315e-05,3.759499443350881e-05,4.052449272907606e-05,4.2,3.6
2.23828125,1.8058474027618826e-05,9.759861799038674e-06,4.3453991024643315e-05,2.587700125123979e-05,4.2,3.6
2.2421875,2.294750295567253e-05,1.4159008068970777e-05,3.17359978423743e-05,2.4407353276874956e-05,4.2,3.6
2.24609375,2.929638220492866e-05,1.4612495704585342e-06,2.391747061875334e-05,3.417561347981994e-05,4.2,3.6
2.25,3.5635463801022355e-05,1.3179242752727545e-05,2.977646720988784e-05,3.3685730821698324e-05,4.2,3.6
2.25390625,2.8806499546807045e-05,2.4407353276874956e-05,3.0266349868009457e-05,4.052449272907606e-05,4.2,3.6
2.2578125,2.977646720988784e-05,1.8058474027618826e-05,2.7336851572442198e-05,3.222588050049592e-05,4.2,3.6
2.26171875,2.929638220492866e-05,1.5618858390173187e-05,2.2457620297550932e-05,1.5618858390173187e-05,4.2,3.6
2.265625,3.8084877091630414e-05,2.587700125123979e-05,2.7336851572442198e-05,2.0987972323186085e-05,4.2,3.6
2.26953125,3.9054844754711226e-05,2.831661688868543e-05,3.954472741283284e-05,3.270596550545509e-05,4.2,3.6
2.2734375,3.856496209658961e-05,2.391747061875334e-05,3.17359978423743e-05,3.17359978423743e-05,4.2,3.6
2.27734375,4.2474225708400084e-05,2.0987972323186085e-05,1.17095947783627e-05,2.0507887318226905e-05,4.2,3.6
2.28125,3.856496209658961e-05,8.780096482795458e-06,8.780096482795458e-06,1.4639093073929955e-05,4.2,3.6
2.28515625,2.831661688868543e-05,1.9511322285801497e-06,-8.398403906312523e-09,1.024974445716029e-05,4.2,3.6
2.2890625,2.489723593499656e-05,1.17095947783627e-05,7.320246161593033e-06,1.512897573205157e-05,4.2,3.6
2.29296875,3.0266349868009457e-05,1.659862370641642e-05,2.4407353276874956e-05,2.391747061875334e-05,4.2,3.6
2.296875,3.3685730821698324e-05,1.5618858390173187e-05,1.9038239343862058e-05,2.3437385613794147e-05,4.2,3.6
2.30078125,3.17359978423743e-05,1.024974445716029e-05,2.294750295567253e-05,2.6846968914320582e-05,4.2,3.6
2.3046875,3.4665496137941556e-05,1.17095947783627e-05,3.6615229117265587e-05,3.4665496137941556e-05,4.2,3.6
2.30859375,3.759499443350881e-05,1.9038239343862058e-05,3.5635463801022355e-05,4.442395868772411e-05,4.2,3.6
2.3125,3.612534645914397e-05,1.7568591369497214e-05,2.6846968914320582e-05,4.0034610070954444e-05,4.2,3.6
2.31640625,4.491384134584572e-05,1.2199477436484315e-05,2.8806499546807045e-05,3.856496209658961e-05,4.2,3.6
2.3203125,4.882310495765621e-05,-8.398403906312523e-09,2.1967737639429317e-05,4.29641083665217e-05,4.2,3.6
2.32421875,4.5893606662088955e-05,1.9511322285801497e-06,2.6846968914320582e-05,4.491384134584572e-05,4.2,3.6
2.328125,4.101437538719767e-05,-2.4480140413519533e-06,1.4639093073929955e-05,4.1494460392156865e-05,4.2,3.6
2.33203125,2.929638220492866e-05,-1.8555355840390632e-05,-1.5625857544823374e-05,3.4665496137941556e-05,4.2,3.6
2.3359375,4.540372400396734e-05,-1.1236508928053716e-05,-6.347480000000004e-06,4.198434305027847e-05,4.2,3.6
2.33984375,5.1752603253223466e-05,-3.174299699702449e-05,-2.3444384768444344e-05,5.1752603253223466e-05,4.2,3.6
2.34375,3.856496209658961e-05,-5.908824697337301e-05,-6.44573609063859e-05,4.1494460392156865e-05,4.2,3.6
2.34765625,4.442395868772411e-05,-7.03163574975204e-05,-8.886331493400473e-05,3.8084877091630414e-05,4.2,3.6
2.3515625,5.224248591134508e-05,-8.69135819546807e-05,-0.00010644030470740825,4.638348932021057e-05,4.2,3.6
2.35546875,5.6151749523155555e-05,-0.00011473891693598841,-0.00012255744415960935,5.370233623254749e-05,4.2,3.6
2.359375,4.882310495765621e-05,-0.00016162068731822687,-0.0001572215410482948,5.81014825024796e-05,4.2,3.6
2.36328125,4.198434305027847e-05,-0.00019726454952315555,-0.00019237552059510186,5.761159984435798e-05,4.2,3.6
2.3671875,5.566186686503394e-05,-0.00021435165663843747,-0.00022021065322957198,5.468210154879072e-05,4.2,3.6
2.37109375,6.152086345616846e-05,-0.00022899914811627374,-0.00023729776034485387,5.517198420691234e-05,4.2,3.6
2.375,5.956133282368199e-05,-0.00022557976716258487,-0.00024315675693598838,5.81014825024796e-05,4.2,3.6
2.37890625,6.591021207293812e-05,-0.0002329084117280842,-0.00025048540150148776,6.688997738918135e-05,4.2,3.6
2.3828125,6.34705964354925e-05,-0.00024706602054779886,-0.00024706602054779886,6.981947568474859e-05,4.2,3.6
2.38671875,5.322225122758831e-05,-0.0002514553691645685,-0.00025243513448081176,7.128912365911344e-05,4.2,3.6
2.390625,5.859136516060121e-05,-0.00024071714129854276,-0.00024022725864042115,7.128912365911344e-05,4.2,3.6
2.39453125,5.9081247818722824e-05,-0.000231928646411841,-0.0002333884967330434,6.932959302662698e-05,4.2,3.6
2.3984375,4.2474225708400084e-05,-0.00023094888109559777,-0.00022997891343251697,6.201074611429007e-05,4.2,3.6
2.40234375,4.638348932021057e-05,-0.00021288200866407262,-0.00021337189132219423,5.370233623254749e-05,4.2,3.6
2.40625,5.6151749523155555e-05,-0.00019677466686503396,-0.00020946262771038377,6.396047909361408e-05,4.2,3.6
2.41015625,5.956133282368199e-05,-0.00018505667368276494,-0.00020214378079804683,6.786974270542458e-05,4.2,3.6
2.4140625,6.883971036850536e-05,-0.00017674826380102235,-0.0001835870257084001,6.54203294148165e-05,4.2,3.6
2.41796875,6.786974270542458e-05,-0.00016942941688868543,-0.00016698980125123976,5.4192218890669105e-05,4.2,3.6
2.421875,6.591021207293812e-05,-0.00014355381488670175,-0.00014452378254978257,5.761159984435798e-05,4.2,3.6
2.42578125,6.005121548180361e-05,-0.0001142490342778668,-0.00012743667543450062,6.981947568474859e-05,4.2,3.6
2.4296875,5.27323685694667e-05,-8.886331493400473e-05,-0.00011766841523155565,5.9081247818722824e-05,4.2,3.6
2.43359375,6.152086345616846e-05,-6.933659218127717e-05,-9.179281322957199e-05,4.101437538719767e-05,4.2,3.6
2.4375,6.737986004730297e-05,-5.9578129631494617e-05,-6.836662451819638e-05,2.391747061875334e-05,4.2,3.6
2.44140625,6.201074611429007e-05,-4.980986942854963e-05,-5.4199218045319295e-05,8.300011477836265e-06,4.2,3.6
2.4453125,4.394387368276493e-05,-2.63738830640116e-05,-3.516237795071336e-05,1.8058474027618826e-05,4.2,3.6
2.44921875,4.1494460392156865e-05,-9.28677594872969e-06,-2.1484854135957888e-05,4.29641083665217e-05,4.2,3.6
2.453125,5.27323685694667e-05,-6.347480000000004e-06,-1.0256743611810484e-05,4.3453991024643315e-05,4.2,3.6
2.45703125,4.638348932021057e-05,9.713669123369185e-07,8.780096482795458e-06,3.3685730821698324e-05,4.2,3.6
2.4609375,4.0034610070954444e-05,1.3669125410849161e-05,2.001800466010529e-05,2.4407353276874956e-05,4.2,3.6
2.46484375,5.0772837936980234e-05,3.6615229117265587e-05,4.29641083665217e-05,2.489723593499656e-05,4.2,3.6
2.46875,5.27323685694667e-05,5.9081247818722824e-05,6.103098079804684e-05,2.14778549813077e-05,4.2,3.6
2.47265625,4.198434305027847e-05,6.396047909361408e-05,5.81014825024796e-05,7.320246161593033e-06,4.2,3.6
2.4765625,2.7826734230563814e-05,7.030935834287021e-05,6.932959302662698e-05,5.850598187228201e-06,4.2,3.6
2.48046875,1.9528122001983674e-05,8.153746886701761e-05,7.518858961776149e-05,1.268936009460593e-05,4.2,3.6
2.484375,1.268936009460593e-05,9.032596375371938e-05,8.348720184634162e-05,1.6108741048294802e-05,4.2,3.6
2.48828125,5.370513182269008e-06,9.862457598229952e-05,9.472511002365146e-05,1.2199477436484315e-05,4.2,3.6
2.4921875,1.4612495704585342e-06,0.0001010739892729076,0.00010448357257343403,8.300011477836265e-06,4.2,3.6
2.49609375,1.3669125410849161e-05,9.13057290699626e-05,0.00010693298586404211,8.780096482795458e-06,4.2,3.6
2.5,3.222588050049592e-05,9.276557939116503e-05,0.00010986248415960938,6.8303635034714316e-06,4.2,3.6
2.50390625,3.5635463801022355e-05,0.00010448357257343403,0.00011376195011825742,3.4109825497825595e-06,4.2,3.6
2.5078125,3.1246115184252685e-05,0.00011669144841382467,0.00012596982595864805,-5.867394995040826e-06,4.2,3.6
2.51171875,3.319584816357671e-05,0.0001274394739330129,0.00013573808616159302,-3.4179817044327477e-06,4.2,3.6
2.515625,3.3685730821698324e-05,0.00013622796881971463,0.00013378835318226902,3.4109825497825595e-06,4.2,3.6
2.51953125,2.7336851572442198e-05,0.00013915746711528192,0.00013085885488670174,-8.398403906312523e-09,4.2,3.6
2.5234375,1.5618858390173187e-05,0.00013475832084534979,0.00013426843818722817,4.81484254215303e-07,4.2,3.6
2.52734375,8.780096482795458e-06,0.0001352482035034714,0.00014843584466010527,1.268936009460593e-05,4.2,3.6
2.53125,1.8548356685740442e-05,0.00014208696541084914,0.0001459864313694972,2.001800466010529e-05,4.2,3.6
2.53515625,2.7336851572442198e-05,0.00013231870520790417,0.0001450164637064164,8.780096482795458e-06,4.2,3.6
2.5390625,9.759861799038674e-06,0.00011865097904631113,0.0001298790895704585,3.4109825497825595e-06,4.2,3.6
2.54296875,-2.937896699473569e-06,0.0001332984705241474,0.00012450997563744564,8.300011477836265e-06,4.2,3.6
2.546875,1.3669125410849161e-05,0.0001411072000946059,0.00013915746711528192,4.880630524147406e-06,4.2,3.6
2.55078125,2.2457620297550932e-05,0.0001298790895704585,0.0001332984705241474,-8.398403906312523e-09,4.2,3.6
2.5546875,2.7826734230563814e-05,0.00012158047734187837,0.00012547994330052643,9.269979140917058e-06,4.2,3.6
2.55859375,3.1246115184252685e-05,0.00011669144841382467,0.00011962094670939191,1.3179242752727545e-05,4.2,3.6
2.5625,3.270596550545509e-05,0.00011523159809262224,0.00011034256916456854,-3.4179817044327477e-06,4.2,3.6
2.56640625,2.0507887318226905e-05,0.000112302099797055,0.00010839283618524453,-9.783660669871067e-07,4.2,3.6
2.5703125,1.17095947783627e-05,0.00011376195011825742,0.00011669144841382467,1.4639093073929955e-05,4.2,3.6
2.57421875,1.7568591369497214e-05,0.00011474171543450063,0.00011913106405127029,1.8058474027618826e-05,4.2,3.6
2.578125,8.780096482795458e-06,0.00010546333788967726,0.00011474171543450063,1.5618858390173187e-05,4.2,3.6
2.58203125,4.39074786602579e-06,9.472511002365146e-05,0.00011327206746013581,1.5618858390173187e-05,4.2,3.6
2.5859375,5.850598187228201e-06,9.716472566109712e-05,0.00010644310320592049,2.1967737639429317e-05,4.2,3.6
2.58984375,1.6108741048294802e-05,0.00010253383959411002,0.00011327206746013581,2.831661688868543e-05,4.2,3.6
2.59375,2.7336851572442198e-05,0.00010986248415960938,0.00012109059468375675,2.0507887318226905e-05,4.2,3.6
2.59765625,2.1967737639429317e-05,0.00010986248415960938,0.00011523159809262224,1.4159008068970777e-05,4.2,3.6
2.6015625,3.5635463801022355e-05,0.00011376195011825742,0.00011181221713893339,1.7088506364538034e-05,4.2,3.6
2.60546875,3.9054844754711226e-05,0.00010595322054779888,0.00011816109638818951,1.512897573205157e-05,4.2,3.6
2.609375,2.391747061875334e-05,8.886611343251697e-05,0.00010986248415960938,8.300011477836265e-06,4.2,3.6
2.61328125,1.7568591369497214e-05,8.934619843747615e-05,0.00010302372225223163,6.340480845349816e-06,4.2,3.6
2.6171875,9.269979140917058e-06,8.788634811627374e-05,0.00010644310320592049,5.370513182269008e-06,4.2,3.6
2.62109375,1.024974445716029e-05,8.202735152513923e-05,9.520519502861066e-05,-8.398403906312523e-09,4.2,3.6
2.625,1.8058474027618826e-05,8.300711684138246e-05,8.886611343251697e-05,1.268936009460593e-05,4.2,3.6
2.62890625,1.8548356685740442e-05,8.397708450446324e-05,8.739646545815213e-05,2.929638220492866e-05,4.2,3.6
2.6328125,1.3669125410849161e-05,8.788634811627374e-05,8.886611343251697e-05,2.1967737639429317e-05,4.2,3.6
2.63671875,8.780096482795458e-06,8.934619843747615e-05,8.397708450446324e-05,1.8548356685740442e-05,4.2,3.6
2.640625,2.5387118593118174e-05,9.032596375371938e-05,8.495684982070647e-05,2.6366883909361403e-05,4.2,3.6
2.64453125,3.222588050049592e-05,7.909785322957199e-05,8.00776185458152e-05,2.831661688868543e-05,4.2,3.6
2.6484375,2.3437385613794147e-05,6.640009473105974e-05,7.518858961776149e-05,1.7088506364538034e-05,4.2,3.6
2.65234375,2.294750295567253e-05,6.591021207293812e-05,7.323885663843748e-05,1.4612495704585342e-06,4.2,3.6
2.65625,2.3437385613794147e-05,6.103098079804684e-05,6.591021207293812e-05,1.0739627115281904e-05,4.2,3.6
2.66015625,2.391747061875334e-05,6.298071377737088e-05,6.494024440985731e-05,2.7336851572442198e-05,4.2,3.6
2.6640625,1.9038239343862058e-05,5.859136516060121e-05,5.9081247818722824e-05,2.7336851572442198e-05,4.2,3.6
2.66796875,1.8058474027618826e-05,5.370233623254749e-05,5.712171718623637e-05,1.9528122001983674e-05,4.2,3.6
2.671875,1.024974445716029e-05,5.712171718623637e-05,6.688997738918135e-05,1.2199477436484315e-05,4.2,3.6
2.67578125,4.880630524147406e-06,6.298071377737088e-05,7.616835493400472e-05,1.7568591369497214e-05,4.2,3.6
2.6796875,3.17359978423743e-05,5.9081247818722824e-05,7.274897398031586e-05,2.5387118593118174e-05,4.2,3.6
2.68359375,4.3453991024643315e-05,4.980287027389944e-05,5.81014825024796e-05,2.5387118593118174e-05,4.2,3.6
2.6875,3.1246115184252685e-05,5.81014825024796e-05,6.249083111924926e-05,1.3179242752727545e-05,4.2,3.6
2.69140625,2.7336851572442198e-05,6.494024440985731e-05,7.469870695963987e-05,7.810128819714649e-06,4.2,3.6
2.6953125,2.4407353276874956e-05,6.737986004730297e-05,6.249083111924926e-05,2.391747061875334e-05,4.2,3.6
2.69921875,2.2457620297550932e-05,6.005121548180361e-05,4.687337197833219e-05,3.4665496137941556e-05,4.2,3.6
2.703125,2.391747061875334e-05,5.0772837936980234e-05,4.784333964141298e-05,3.6615229117265587e-05,4.2,3.6
2.70703125,3.270596550545509e-05,5.468210154879072e-05,5.029275293202106e-05,2.929638220492866e-05,4.2,3.6
2.7109375,3.0266349868009457e-05,6.103098079804684e-05,5.81014825024796e-05,1.659862370641642e-05,4.2,3.6
2.71484375,2.294750295567253e-05,6.591021207293812e-05,6.298071377737088e-05,1.8058474027618826e-05,4.2,3.6
2.71875,2.7336851572442198e-05,5.956133282368199e-05,6.640009473105974e-05,2.8806499546807045e-05,4.2,3.6
2.72265625,1.3669125410849161e-05,5.0772837936980234e-05,5.517198420691234e-05,2.1967737639429317e-05,4.2,3.6
2.7265625,2.0987972323186085e-05,5.029275293202106e-05,4.5893606662088955e-05,1.024974445716029e-05,4.2,3.6
2.73046875,4.0034610070954444e-05,5.322225122758831e-05,5.517198420691234e-05,2.5387118593118174e-05,4.2,3.6
2.734375,3.4665496137941556e-05,5.81014825024796e-05,5.761159984435798e-05,3.17359978423743e-05,4.2,3.6
2.73828125,2.8806499546807045e-05,4.9312987615777826e-05,5.4192218890669105e-05,3.17359978423743e-05,4.2,3.6
2.7421875,2.831661688868543e-05,3.9054844754711226e-05,4.491384134584572e-05,3.0266349868009457e-05,4.2,3.6
2.74609375,2.977646720988784e-05,4.8333222299534594e-05,4.3453991024643315e-05,1.7088506364538034e-05,4.2,3.6
2.75,2.294750295567253e-05,6.005121548180361e-05,5.517198420691234e-05,1.7568591369497214e-05,4.2,3.6
2.75390625,2.587700125123979e-05,6.201074611429007e-05,5.712171718623637e-05,2.391747061875334e-05,4.2,3.6
2.7578125,2.391747061875334e-05,4.2474225708400084e-05,4.638348932021057e-05,3.270596550545509e-05,4.2,3.6
2.76171875,1.3669125410849161e-05,2.0987972323186085e-05,4.198434305027847e-05,3.954472741283284e-05,4.2,3.6
2.765625,2.831661688868543e-05,3.0266349868009457e-05,4.73632546364538e-05,3.759499443350881e-05,4.2,3.6
2.76953125,4.052449272907606e-05,3.8084877091630414e-05,6.152086345616846e-05,2.831661688868543e-05,4.2,3.6
2.7734375,4.101437538719767e-05,4.3453991024643315e-05,5.468210154879072e-05,2.14778549813077e-05,4.2,3.6
2.77734375,3.6615229117265587e-05,4.052449272907606e-05,4.784333964141298e-05,2.831661688868543e-05,4.2,3.6
2.78125,1.5618858390173187e-05,3.222588050049592e-05,4.687337197833219e-05,2.587700125123979e-05,4.2,3.6
2.78515625,3.900865207904175e-06,3.856496209658961e-05,4.638348932021057e-05,1.4639093073929955e-05,4.2,3.6
2.7890625,1.3179242752727545e-05,5.029275293202106e-05,4.9312987615777826e-05,2.0987972323186085e-05,4.2,3.6
2.79296875,2.587700125123979e-05,4.5893606662088955e-05,4.784333964141298e-05,3.075623252613107e-05,4.2,3.6
2.796875,2.7826734230563814e-05,3.270596550545509e-05,4.442395868772411e-05,3.270596550545509e-05,4.2,3.6
2.80078125,3.222588050049592e-05,3.0266349868009457e-05,5.1752603253223466e-05,3.8084877091630414e-05,4.2,3.6
2.8046875,3.417561347981994e-05,3.1246115184252685e-05,5.4192218890669105e-05,4.0034610070954444e-05,4.2,3.6
2.80859375,2.6366883909361403e-05,3.319584816357671e-05,4.394387368276493e-05,3.8084877091630414e-05,4.2,3.6
2.8125,2.7336851572442198e-05,4.638348932021057e-05,5.126272059510185e-05,3.515537879606317e-05,4.2,3.6
2.81640625,2.831661688868543e-05,4.784333964141298e-05,6.0541098139925225e-05,2.6366883909361403e-05,4.2,3.6
2.8203125,1.8548356685740442e-05,3.856496209658961e-05,5.468210154879072e-05,2.391747061875334e-05,4.2,3.6
2.82421875,2.4407353276874956e-05,3.9054844754711226e-05,4.784333964141298e-05,2.4407353276874956e-05,4.2,3.6
2.828125,3.612534645914397e-05,3.954472741283284e-05,4.29641083665217e-05,1.5618858390173187e-05,4.2,3.6
2.83203125,2.6846968914320582e-05,2.929638220492866e-05,3.6615229117265587e-05,2.294750295567253e-05,4.2,3.6
2.8359375,2.0987972323186085e-05,2.1967737639429317e-05,3.17359978423743e-05,3.759499443350881e-05,4.2,3.6
2.83984375,2.1967737639429317e-05,2.587700125123979e-05,3.417561347981994e-05,4.052449272907606e-05,4.2,3.6
2.84375,1.7568591369497214e-05,2.831661688868543e-05,3.954472741283284e-05,3.270596550545509e-05,4.2,3.6
2.84765625,2.8806499546807045e-05,3.954472741283284e-05,4.0034610070954444e-05,1.6108741048294802e-05,4.2,3.6
2.8515625,3.612534645914397e-05,4.638348932021057e-05,4.1494460392156865e-05,1.4639093073929955e-05,4.2,3.6
2.85546875,2.14778549813077e-05,3.5635463801022355e-05,4.052449272907606e-05,1.8058474027618826e-05,4.2,3.6
2.859375,2.1967737639429317e-05,3.319584816357671e-05,3.954472741283284e-05,2.0987972323186085e-05,4.2,3.6
2.86328125,3.0266349868009457e-05,3.612534645914397e-05,3.954472741283284e-05,2.929638220492866e-05,4.2,3.6
2.8671875,2.929638220492866e-05,3.17359978423743e-05,3.612534645914397e-05,2.294750295567253e-05,4.2,3.6
2.87109375,2.8806499546807045e-05,3.7105111775387196e-05,4.101437538719767e-05,2.001800466010529e-05,4.2,3.6
2.875,2.3437385613794147e-05,4.1494460392156865e-05,4.2474225708400084e-05,3.8084877091630414e-05,4.2,3.6
2.87890625,2.0507887318226905e-05,4.052449272907606e-05,4.491384134584572e-05,4.1494460392156865e-05,4.2,3.6
2.8828125,2.587700125123979e-05,4.2474225708400084e-05,3.6615229117265587e-05,1.9528122001983674e-05,4.2,3.6
2.88671875,3.075623252613107e-05,4.198434305027847e-05,3.075623252613107e-05,6.340480845349816e-06,4.2,3.6
2.890625,3.954472741283284e-05,4.2474225708400084e-05,3.954472741283284e-05,2.0507887318226905e-05,4.2,3.6
2.89453125,2.831661688868543e-05,4.8333222299534594e-05,4.1494460392156865e-05,3.8084877091630414e-05,4.2,3.6
2.8984375,2.001800466010529e-05,3.954472741283284e-05,3.759499443350881e-05,3.515537879606317e-05,4.2,3.6
2.90234375,2.8806499546807045e-05,2.7336851572442198e-05,2.5387118593118174e-05,3.075623252613107e-05,4.2,3.6
2.90625,3.8084877091630414e-05,4.442395868772411e-05,2.7336851572442198e-05,4.101437538719767e-05,4.2,3.6
2.91015625,4.0034610070954444e-05,4.882310495765621e-05,3.6615229117265587e-05,3.8084877091630414e-05,4.2,3.6
2.9140625,2.4407353276874956e-05,3.7105111775387196e-05,4.442395868772411e-05,3.319584816357671e-05,4.2,3.6
2.91796875,1.659862370641642e-05,3.954472741283284e-05,4.784333964141298e-05,3.0266349868009457e-05,4.2,3.6
2.921875,2.929638220492866e-05,3.612534645914397e-05,4.1494460392156865e-05,2.3437385613794147e-05,4.2,3.6
2.92578125,2.929638220492866e-05,2.2457620297550932e-05,3.270596550545509e-05,2.0507887318226905e-05,4.2,3.6
2.9296875,1.8058474027618826e-05,2.587700125123979e-05,3.075623252613107e-05,2.0987972323186085e-05,4.2,3.6
2.93359375,2.6846968914320582e-05,4.1494460392156865e-05,5.0772837936980234e-05,2.5387118593118174e-05,4.2,3.6
2.9375,3.954472741283284e-05,4.540372400396734e-05,5.224248591134508e-05,2.6366883909361403e-05,4.2,3.6
2.94140625,4.101437538719767e-05,3.319584816357671e-05,3.6615229117265587e-05,2.1967737639429317e-05,4.2,3.6
2.9453125,3.3685730821698324e-05,2.7826734230563814e-05,4.442395868772411e-05,2.489723593499656e-05,4.2,3.6
2.94921875,2.8806499546807045e-05,4.29641083665217e-05,5.322225122758831e-05,3.4665496137941556e-05,4.2,3.6
2.953125,2.489723593499656e-05,5.468210154879072e-05,5.1752603253223466e-05,3.3685730821698324e-05,4.2,3.6
2.95703125,1.9528122001983674e-05,4.2474225708400084e-05,4.29641083665217e-05,3.222588050049592e-05,4.2,3.6
2.9609375,2.2457620297550932e-05,2.831661688868543e-05,3.954472741283284e-05,2.977646720988784e-05,4.2,3.6
2.96484375,2.2457620297550932e-05,2.6846968914320582e-05,3.8084877091630414e-05,2.7826734230563814e-05,4.2,3.6
2.96875,1.6108741048294802e-05,2.831661688868543e-05,3.759499443350881e-05,2.0987972323186085e-05,4.2,3.6
2.97265625,2.6366883909361403e-05,3.1246115184252685e-05,4.0034610070954444e-05,1.5618858390173187e-05,4.2,3.6
2.9765625,4.101437538719767e-05,3.5635463801022355e-05,4.5893606662088955e-05,2.4407353276874956e-05,4.2,3.6
2.98046875,4.101437538719767e-05,4.442395868772411e-05,4.540372400396734e-05,2.6846968914320582e-05,4.2,3.6
2.984375,2.6846968914320582e-05,3.17359978423743e-05,2.929638220492866e-05,2.14778549813077e-05,4.2,3.6
2.98828125,2.1967737639429317e-05,2.391747061875334e-05,2.391747061875334e-05,3.270596550545509e-05,4.2,3.6
2.9921875,3.1246115184252685e-05,3.612534645914397e-05,3.7105111775387196e-05,3.954472741283284e-05,4.2,3.6
2.99609375,3.270596550545509e-05,3.759499443350881e-05,5.126272059510185e-05,3.075623252613107e-05,4.2,3.6
3.0,2.2457620297550932e-05,3.1246115184252685e-05,4.3453991024643315e-05,2.5387118593118174e-05,4.2,3.6
3.00390625,1.5618858390173187e-05,1.9038239343862058e-05,3.0266349868009457e-05,2.294750295567253e-05,4.2,3.6
3.0078125,2.391747061875334e-05,2.391747061875334e-05,3.3685730821698324e-05,2.977646720988784e-05,4.2,3.6
3.01171875,2.977646720988784e-05,3.5635463801022355e-05,4.198434305027847e-05,3.515537879606317e-05,4.2,3.6
3.015625,3.3685730821698324e-05,3.270596550545509e-05,4.2474225708400084e-05,3.075623252613107e-05,4.2,3.6
3.01953125,4.101437538719767e-05,3.1246115184252685e-05,4.29641083665217e-05,3.3685730821698324e-05,4.2,3.6
3.0234375,3.9054844754711226e-05,2.6366883909361403e-05,3.954472741283284e-05,4.052449272907606e-05,4.2,3.6
3.02734375,3.3685730821698324e-05,3.612534645914397e-05,4.198434305027847e-05,3.8084877091630414e-05,4.2,3.6
3.03125,2.6846968914320582e-05,4.687337197833219e-05,4.687337197833219e-05,2.489723593499656e-05,4.2,3.6
3.03515625,1.9038239343862058e-05,4.0034610070954444e-05,4.980287027389944e-05,2.14778549813077e-05,4.2,3.6
3.0390625,1.8058474027618826e-05,3.7105111775387196e-05,4.442395868772411e-05,2.0987972323186085e-05,4.2,3.6
3.04296875,1.8548356685740442e-05,2.5387118593118174e-05,3.7105111775387196e-05,2.489723593499656e-05,4.2,3.6
3.046875,3.0266349868009457e-05,1.9528122001983674e-05,3.856496209658961e-05,3.0266349868009457e-05,4.2,3.6
3.05078125,4.0034610070954444e-05,1.9038239343862058e-05,3.515537879606317e-05,2.0987972323186085e-05,4.2,3.6
3.0546875,3.612534645914397e-05,1.7568591369497214e-05,3.075623252613107e-05,2.14778549813077e-05,4.2,3.6
3.05859375,3.0266349868009457e-05,2.6846968914320582e-05,3.8084877091630414e-05,4.052449272907606e-05,4.2,3.6
3.0625,2.587700125123979e-05,2.8806499546807045e-05,3.856496209658961e-05,4.638348932021057e-05,4.2,3.6
3.06640625,2.6846968914320582e-05,2.489723593499656e-05,3.075623252613107e-05,2.7336851572442198e-05,4.2,3.6
3.0703125,2.489723593499656e-05,2.7826734230563814e-05,2.929638220492866e-05,2.294750295567253e-05,4.2,3.6
3.07421875,1.512897573205157e-05,3.6615229117265587e-05,3.4665496137941556e-05,3.075623252613107e-05,4.2,3.6
3.078125,2.489723593499656e-05,4.052449272907606e-05,4.052449272907606e-05,2.6366883909361403e-05,4.2,3.6
3.08203125,3.417561347981994e-05,3.417561347981994e-05,3.417561347981994e-05,1.3669125410849161e-05,4.2,3.6
3.0859375,3.856496209658961e-05,3.417561347981994e-05,2.489723593499656e-05,5.370513182269008e-06,4.2,3.6
3.08984375,3.954472741283284e-05,3.270596550545509e-05,2.391747061875334e-05,1.9038239343862058e-05,4.2,3.6
3.09375,3.270596550545509e-05,3.759499443350881e-05,3.0266349868009457e-05,4.29641083665217e-05,4.2,3.6
3.09765625,3.417561347981994e-05,3.9054844754711226e-05,3.515537879606317e-05,4.638348932021057e-05,4.2,3.6
3.1015625,3.222588050049592e-05,2.929638220492866e-05,3.4665496137941556e-05,3.075623252613107e-05,4.2,3.6
3.10546875,3.612534645914397e-05,3.319584816357671e-05,4.0034610070954444e-05,2.489723593499656e-05,4.2,3.6
3.109375,3.1246115184252685e-05,3.9054844754711226e-05,3.856496209658961e-05,3.075623252613107e-05,4.2,3.6
3.11328125,2.0987972323186085e-05,4.784333964141298e-05,4.8333222299534594e-05,3.515537879606317e-05,4.2,3.6
3.1171875,2.8806499546807045e-05,5.370233623254749e-05,6.298071377737088e-05,2.4407353276874956e-05,4.2,3.6
3.12109375,3.5635463801022355e-05,3.9054844754711226e-05,4.5893606662088955e-05,1.6108741048294802e-05,4.2,3.6
3.125,2.7826734230563814e-05,3.17359978423743e-05,2.6366883909361403e-05,2.2457620297550932e-05,4.2,3.6
3.12890625,2.3437385613794147e-05,3.3685730821698324e-05,3.17359978423743e-05,1.8548356685740442e-05,4.2,3.6
3.1328125,2.6846968914320582e-05,2.7826734230563814e-05,4.101437538719767e-05,2.001800466010529e-05,4.2,3.6
3.13671875,3.856496209658961e-05,2.7826734230563814e-05,3.954472741283284e-05,3.9054844754711226e-05,4.2,3.6
3.140625,4.198434305027847e-05,2.831661688868543e-05,3.3685730821698324e-05,4.0034610070954444e-05,4.2,3.6
3.14453125,2.294750295567253e-05,2.6846968914320582e-05,3.270596550545509e-05,3.515537879606317e-05,4.2,3.6
3.1484375,1.512897573205157e-05,4.052449272907606e-05,4.101437538719767e-05,3.270596550545509e-05,4.2,3.6
3.15234375,3.0266349868009457e-05,4.784333964141298e-05,5.0772837936980234e-05,3.075623252613107e-05,4.2,3.6
3.15625,4.1494460392156865e-05,3.417561347981994e-05,4.052449272907606e-05,2.929638220492866e-05,4.2,3.6
3.16015625,3.515537879606317e-05,2.0987972323186085e-05,2.1967737639429317e-05,1.8058474027618826e-05,4.2,3.6
3.1640625,3.17359978423743e-05,2.6366883909361403e-05,2.5387118593118174e-05,1.6108741048294802e-05,4.2,3.6
3.16796875,3.515537879606317e-05,3.515537879606317e-05,2.6846968914320582e-05,2.1967737639429317e-05,4.2,3.6
3.171875,3.612534645914397e-05,3.3685730821698324e-05,3.270596550545509e-05,2.7336851572442198e-05,4.2,3.6
3.17578125,3.8084877091630414e-05,3.8084877091630414e-05,4.394387368276493e-05,3.856496209658961e-05,4.2,3.6
3.1796875,3.3685730821698324e-05,4.2474225708400084e-05,3.9054844754711226e-05,4.0034610070954444e-05,4.2,3.6
3.18359375,4.3453991024643315e-05,3.4665496137941556e-05,3.319584816357671e-05,2.294750295567253e-05,4.2,3.6
3.1875,4.394387368276493e-05,3.270596550545509e-05,3.222588050049592e-05,7.810128819714649e-06,4.2,3.6
3.19140625,2.489723593499656e-05,3.4665496137941556e-05,3.0266349868009457e-05,1.9528122001983674e-05,4.2,3.6
3.1953125,2.7826734230563814e-05,3.4665496137941556e-05,3.1246115184252685e-05,4.491384134584572e-05,4.2,3.6
3.19921875,3.5635463801022355e-05,2.831661688868543e-05,2.7826734230563814e-05,4.198434305027847e-05,4.2,3.6
3.203125,2.929638220492866e-05,1.9528122001983674e-05,2.2457620297550932e-05,3.075623252613107e-05,4.2,3.6
3.20703125,2.7826734230563814e-05,2.0987972323186085e-05,2.587700125123979e-05,3.319584816357671e-05,4.2,3.6
3.2109375,3.7105111775387196e-05,2.6366883909361403e-05,3.17359978423743e-05,2.8806499546807045e-05,4.2,3.6
3.21484375,4.052449272907606e-05,3.17359978423743e-05,3.9054844754711226e-05,2.1967737639429317e-05,4.2,3.6
3.21875,3.417561347981994e-05,2.831661688868543e-05,4.101437538719767e-05,2.1967737639429317e-05,4.2,3.6
3.22265625,3.417561347981994e-05,2.831661688868543e-05,3.8084877091630414e-05,2.489723593499656e-05,4.2,3.6
3.2265625,3.319584816357671e-05,2.831661688868543e-05,3.759499443350881e-05,1.4639093073929955e-05,4.2,3.6
3.23046875,1.7568591369497214e-05,2.6366883909361403e-05,3.1246115184252685e-05,5.370513182269008e-06,4.2,3.6
3.234375,1.0739627115281904e-05,3.1246115184252685e-05,3.4665496137941556e-05,3.319584816357671e-05,4.2,3.6
3.23828125,2.6846968914320582e-05,2.3437385613794147e-05,3.417561347981994e-05,5.322225122758831e-05,4.2,3.6
3.2421875,3.0266349868009457e-05,1.8058474027618826e-05,1.8058474027618826e-05,4.2474225708400084e-05,4.2,3.6
3.24609375,2.8806499546807045e-05,2.2457620297550932e-05,1.17095947783627e-05,2.831661688868543e-05,4.2,3.6
3.25,3.8084877091630414e-05,3.0266349868009457e-05,2.14778549813077e-05,3.17359978423743e-05,4.2,3.6
3.25390625,3.856496209658961e-05,3.075623252613107e-05,3.17359978423743e-05,3.9054844754711226e-05,4.2,3.6
3.2578125,2.977646720988784e-05,2.6846968914320582e-05,3.270596550545509e-05,2.3437385613794147e-05,4.2,3.6
3.26171875,2.7336851572442198e-05,1.9038239343862058e-05,3.270596550545509e-05,1.2199477436484315e-05,4.2,3.6
3.265625,2.7336851572442198e-05,8.780096482795458e-06,2.8806499546807045e-05,1.659862370641642e-05,4.2,3.6
3.26953125,1.4159008068970777e-05,1.8058474027618826e-05,3.075623252613107e-05,1.9528122001983674e-05,4.2,3.6
3.2734375,1.8058474027618826e-05,3.3685730821698324e-05,4.2474225708400084e-05,1.4159008068970777e-05,4.2,3.6
3.27734375,2.831661688868543e-05,2.929638220492866e-05,4.638348932021057e-05,1.0739627115281904e-05,4.2,3.6
3.28125,3.1246115184252685e-05,2.4407353276874956e-05,4.198434305027847e-05,3.075623252613107e-05,4.2,3.6
3.28515625,4.052449272907606e-05,2.831661688868543e-05,3.954472741283284e-05,4.29641083665217e-05,4.2,3.6
3.2890625,3.222588050049592e-05,2.0507887318226905e-05,3.075623252613107e-05,3.612534645914397e-05,4.2,3.6
3.29296875,2.5387118593118174e-05,2.5387118593118174e-05,3.0266349868009457e-05,2.977646720988784e-05,4.2,3.6
3.296875,2.5387118593118174e-05,3.0266349868009457e-05,4.2474225708400084e-05,2.7826734230563814e-05,4.2,3.6
3.30078125,2.7336851572442198e-05,2.1967737639429317e-05,4.2474225708400084e-05,2.6846968914320582e-05,4.2,3.6
3.3046875,4.052449272907606e-05,2.6366883909361403e-05,3.17359978423743e-05,3.6615229117265587e-05,4.2,3.6
3.30859375,4.1494460392156865e-05,3.0266349868009457e-05,2.6366883909361403e-05,4.540372400396734e-05,4.2,3.6
3.3125,2.294750295567253e-05,2.391747061875334e-05,2.3437385613794147e-05,3.3685730821698324e-05,4.2,3.6
3.31640625,1.4159008068970777e-05,2.7826734230563814e-05,2.6366883909361403e-05,2.5387118593118174e-05,4.2,3.6
3.3203125,2.0507887318226905e-05,2.7336851572442198e-05,2.7826734230563814e-05,1.9528122001983674e-05,4.2,3.6
3.32421875,1.9528122001983674e-05,2.6846968914320582e-05,2.587700125123979e-05,1.512897573205157e-05,4.2,3.6
3.328125,2.7336851572442198e-05,3.4665496137941556e-05,2.977646720988784e-05,2.0507887318226905e-05,4.2,3.6
3.33203125,4.2474225708400084e-05,3.270596550545509e-05,3.3685730821698324e-05,2.587700125123979e-05,4.2,3.6
3.3359375,3.954472741283284e-05,2.7336851572442198e-05,3.7105111775387196e-05,3.222588050049592e-05,4.2,3.6
3.33984375,3.759499443350881e-05,2.489723593499656e-05,3.856496209658961e-05,3.515537879606317e-05,4.2,3.6
3.34375,3.319584816357671e-05,1.7088506364538034e-05,3.0266349868009457e-05,3.417561347981994e-05,4.2,3.6
3.34765625,3.319584816357671e-05,2.3437385613794147e-05,3.075623252613107e-05,2.4407353276874956e-05,4.2,3.6
3.3515625,2.7336851572442198e-05,3.075623252613107e-05,3.6615229117265587e-05,1.9528122001983674e-05,4.2,3.6
3.35546875,1.9528122001983674e-05,3.0266349868009457e-05,2.8806499546807045e-05,3.515537879606317e-05,4.2,3.6
3.359375,2.977646720988784e-05,3.1246115184252685e-05,2.5387118593118174e-05,5.1752603253223466e-05,4.2,3.6
3.36328125,3.3685730821698324e-05,2.391747061875334e-05,1.7568591369497214e-05,3.759499443350881e-05,4.2,3.6
3.3671875,2.831661688868543e-05,2.001800466010529e-05,1.3669125410849161e-05,2.0987972323186085e-05,4.2,3.6
3.37109375,2.7826734230563814e-05,2.4407353276874956e-05,1.8548356685740442e-05,2.977646720988784e-05,4.2,3.6
3.375,3.5635463801022355e-05,3.515537879606317e-05,2.587700125123979e-05,3.319584816357671e-05,4.2,3.6
3.37890625,3.9054844754711226e-05,3.759499443350881e-05,3.1246115184252685e-05,3.4665496137941556e-05,4.2,3.6
3.3828125,3.6615229117265587e-05,3.17359978423743e-05,2.587700125123979e-05,3.515537879606317e-05,4.2,3.6
3.38671875,4.198434305027847e-05,2.7826734230563814e-05,2.489723593499656e-05,2.7336851572442198e-05,4.2,3.6
3.390625,2.831661688868543e-05,2.001800466010529e-05,2.5387118593118174e-05,2.001800466010529e-05,4.2,3.6
3.39453125,1.268936009460593e-05,1.4639093073929955e-05,2.2457620297550932e-05,1.122950977340352e-05,4.2,3.6
3.3984375,2.831661688868543e-05,2.1967737639429317e-05,2.7826734230563814e-05,1.512897573205157e-05,4.2,3.6
3.40234375,3.4665496137941556e-05,3.075623252613107e-05,2.977646720988784e-05,3.417561347981994e-05,4.2,3.6
3.40625,2.391747061875334e-05,2.929638220492866e-05,2.587700125123979e-05,3.6615229117265587e-05,4.2,3.6
3.41015625,2.7336851572442198e-05,3.319584816357671e-05,2.929638220492866e-05,2.831661688868543e-05,4.2,3.6
3.4140625,4.052449272907606e-05,3.3685730821698324e-05,3.612534645914397e-05,3.319584816357671e-05,4.2,3.6
3.41796875,4.784333964141298e-05,3.3685730821698324e-05,4.5893606662088955e-05,4.491384134584572e-05,4.2,3.6
3.421875,4.5893606662088955e-05,3.9054844754711226e-05,3.9054844754711226e-05,3.1246115184252685e-05,4.2,3.6
3.42578125,3.856496209658961e-05,3.954472741283284e-05,2.831661688868543e-05,1.7088506364538034e-05,4.2,3.6
3.4296875,4.052449272907606e-05,4.638348932021057e-05,3.8084877091630414e-05,2.14778549813077e-05,4.2,3.6
3.43359375,2.929638220492866e-05,4.980287027389944e-05,4.491384134584572e-05,2.3437385613794147e-05,4.2,3.6
3.4375,1.659862370641642e-05,3.612534645914397e-05,3.8084877091630414e-05,2.6846968914320582e-05,4.2,3.6
3.44140625,2.8806499546807045e-05,2.489723593499656e-05,2.1967737639429317e-05,2.6846968914320582e-05,4.2,3.6
3.4453125,2.929638220492866e-05,2.2457620297550932e-05,1.4639093073929955e-05,3.270596550545509e-05,4.2,3.6
3.44921875,3.6615229117265587e-05,2.6366883909361403e-05,2.0507887318226905e-05,3.7105111775387196e-05,4.2,3.6
3.453125,4.540372400396734e-05,2.6846968914320582e-05,3.319584816357671e-05,3.1246115184252685e-05,4.2,3.6
3.45703125,4.394387368276493e-05,2.0987972323186085e-05,3.6615229117265587e-05,3.222588050049592e-05,4.2,3.6
3.4609375,3.612534645914397e-05,1.8058474027618826e-05,2.6846968914320582e-05,3.4665496137941556e-05,4.2,3.6
3.46484375,2.0987972323186085e-05,1.512897573205157e-05,2.2457620297550932e-05,2.489723593499656e-05,4.2,3.6
3.46875,2.8806499546807045e-05,2.2457620297550932e-05,2.5387118593118174e-05,1.122950977340352e-05,4.2,3.6
3.47265625,4.052449272907606e-05,2.6366883909361403e-05,3.270596550545509e-05,2.001800466010529e-05,4.2,3.6
3.4765625,4.5893606662088955e-05,2.6366883909361403e-05,3.856496209658961e-05,3.17359978423743e-05,4.2,3.6
3.48046875,4.5893606662088955e-05,1.9528122001983674e-05,3.7105111775387196e-05,2.831661688868543e-05,4.2,3.6
3.484375,2.831661688868543e-05,1.17095947783627e-05,2.489723593499656e-05,2.7826734230563814e-05,4.2,3.6
3.48828125,7.320246161593033e-06,1.4159008068970777e-05,2.1967737639429317e-05,3.222588050049592e-05,4.2,3.6
3.4921875,1.659862370641642e-05,1.9528122001983674e-05,3.270596550545509e-05,3.9054844754711226e-05,4.2,3.6
3.49609375,3.3685730821698324e-05,2.391747061875334e-05,3.515537879606317e-05,3.4665496137941556e-05,4.2,3.6
3.5,3.515537879606317e-05,2.5387118593118174e-05,3.3685730821698324e-05,3.17359978423743e-05,4.2,3.6
3.50390625,3.7105111775387196e-05,2.3437385613794147e-05,3.4665496137941556e-05,3.075623252613107e-05,4.2,3.6
3.5078125,3.1246115184252685e-05,2.7336851572442198e-05,3.1246115184252685e-05,2.1967737639429317e-05,4.2,3.6
3.51171875,2.3437385613794147e-05,3.9054844754711226e-05,2.7826734230563814e-05,2.3437385613794147e-05,4.2,3.6
3.515625,3.17359978423743e-05,4.5893606662088955e-05,3.8084877091630414e-05,1.4639093073929955e-05,4.2,3.6
3.51953125,3.8084877091630414e-05,3.954472741283284e-05,4.394387368276493e-05,-2.937896699473569e-06,4.2,3.6
3.5234375,3.0266349868009457e-05,4.0034610070954444e-05,3.417561347981994e-05,7.810128819714649e-06,4.2,3.6
3.52734375,2.294750295567253e-05,4.1494460392156865e-05,2.977646720988784e-05,3.417561347981994e-05,4.2,3.6
3.53125,1.659862370641642e-05,3.4665496137941556e-05,3.4665496137941556e-05,4.5893606662088955e-05,4.2,3.6
3.53515625,2.489723593499656e-05,3.6615229117265587e-05,3.1246115184252685e-05,4.29641083665217e-05,4.2,3.6
3.5390625,3.954472741283284e-05,3.17359978423743e-05,2.7826734230563814e-05,3.954472741283284e-05,4.2,3.6
3.54296875,2.929638220492866e-05,3.075623252613107e-05,3.1246115184252685e-05,3.0266349868009457e-05,4.2,3.6
3.546875,2.831661688868543e-05,3.417561347981994e-05,3.17359978423743e-05,2.14778549813077e-05,4.2,3.6
3.55078125,4.2474225708400084e-05,3.5635463801022355e-05,3.075623252613107e-05,2.0987972323186085e-05,4.2,3.6
3.5546875,4.8333222299534594e-05,4.980287027389944e-05,3.515537879606317e-05,1.8058474027618826e-05,4.2,3.6
3.55859375,4.540372400396734e-05,3.8084877091630414e-05,3.1246115184252685e-05,2.4407353276874956e-05,4.2,3.6
3.5625,2.7336851572442198e-05,1.9528122001983674e-05,2.6366883909361403e-05,4.2474225708400084e-05,4.2,3.6
3.56640625,1.512897573205157e-05,2.1967737639429317e-05,2.6846968914320582e-05,4.784333964141298e-05,4.2,3.6
3.5703125,2.5387118593118174e-05,2.7826734230563814e-05,2.977646720988784e-05,3.8084877091630414e-05,4.2,3.6
3.57421875,3.8084877091630414e-05,2.4407353276874956e-05,3.8084877091630414e-05,2.8806499546807045e-05,4.2,3.6
3.578125,3.856496209658961e-05,2.391747061875334e-05,4.442395868772411e-05,3.4665496137941556e-05,4.2,3.6
3.58203125,1.9038239343862058e-05,1.9038239343862058e-05,3.9054844754711226e-05,3.8084877091630414e-05,4.2,3.6
3.5859375,1.512897573205157e-05,1.3669125410849161e-05,2.8806499546807045e-05,2.6846968914320582e-05,4.2,3.6
3.58984375,2.977646720988784e-05,2.14778549813077e-05,3.270596550545509e-05,2.831661688868543e-05,4.2,3.6
3.59375,3.3685730821698324e-05,3.17359978423743e-05,3.9054844754711226e-05,2.831661688868543e-05,4.2,3.6
3.59765625,3.17359978423743e-05,2.929638220492866e-05,3.7105111775387196e-05,2.1967737639429317e-05,4.2,3.6
3.6015625,3.515537879606317e-05,2.587700125123979e-05,3.1246115184252685e-05,2.1967737639429317e-05,4.2,3.6
3.60546875,3.7105111775387196e-05,2.8806499546807045e-05,3.075623252613107e-05,2.929638220492866e-05,4.2,3.6
3.609375,2.587700125123979e-05,4.2474225708400084e-05,4.687337197833219e-05,3.954472741283284e-05,4.2,3.6
3.61328125,3.1246115184252685e-05,5.224248591134508e-05,5.1752603253223466e-05,3.612534645914397e-05,4.2,3.6
3.6171875,2.7336851572442198e-05,4.052449272907606e-05,2.8806499546807045e-05,2.6366883909361403e-05,4.2,3.6
3.62109375,2.1967737639429317e-05,2.977646720988784e-05,1.7088506364538034e-05,3.075623252613107e-05,4.2,3.6
3.625,3.319584816357671e-05,2.977646720988784e-05,2.391747061875334e-05,3.5635463801022355e-05,4.2,3.6
3.62890625,4.101437538719767e-05,2.977646720988784e-05,2.6846968914320582e-05,3.4665496137941556e-05,4.2,3.6
3.6328125,3.075623252613107e-05,2.8806499546807045e-05,2.7826734230563814e-05,3.0266349868009457e-05,4.2,3.6
3.63671875,1.17095947783627e-05,2.6846968914320582e-05,3.515537879606317e-05,2.7336851572442198e-05,4.2,3.6
3.640625,1.7568591369497214e-05,2.2457620297550932e-05,3.9054844754711226e-05,2.489723593499656e-05,4.2,3.6
3.64453125,3.3685730821698324e-05,1.5618858390173187e-05,3.1246115184252685e-05,1.6108741048294802e-05,4.2,3.6
3.6484375,3.222588050049592e-05,1.4159008068970777e-05,2.7336851572442198e-05,1.2199477436484315e-05,4.2,3.6
3.65234375,2.3437385613794147e-05,1.8548356685740442e-05,3.075623252613107e-05,2.001800466010529e-05,4.2,3.6
3.65625,3.075623252613107e-05,2.6846968914320582e-05,3.319584816357671e-05,1.268936009460593e-05,4.2,3.6
3.66015625,3.1246115184252685e-05,2.4407353276874956e-05,3.319584816357671e-05,1.3179242752727545e-05,4.2,3.6
3.6640625,2.8806499546807045e-05,1.7568591369497214e-05,2.977646720988784e-05,4.101437538719767e-05,4.2,3.6
3.66796875,2.7826734230563814e-05,2.929638220492866e-05,3.270596550545509e-05,5.1752603253223466e-05,4.2,3.6
3.671875,3.319584816357671e-05,3.8084877091630414e-05,3.270596550545509e-05,4.198434305027847e-05,4.2,3.6
3.67578125,3.759499443350881e-05,3.417561347981994e-05,3.1246115184252685e-05,3.0266349868009457e-05,4.2,3.6
3.6796875,3.075623252613107e-05,2.5387118593118174e-05,2.4407353276874956e-05,2.6846968914320582e-05,4.2,3.6
3.68359375,3.954472741283284e-05,1.4639093073929955e-05,1.9528122001983674e-05,2.831661688868543e-05,4.2,3.6
3.6875,4.101437538719767e-05,1.659862370641642e-05,2.7826734230563814e-05,2.831661688868543e-05,4.2,3.6
3.69140625,2.929638220492866e-05,2.587700125123979e-05,3.612534645914397e-05,2.7336851572442198e-05,4.2,3.6
3.6953125,2.6366883909361403e-05,2.391747061875334e-05,2.8806499546807045e-05,3.270596550545509e-05,4.2,3.6
3.69921875,1.5618858390173187e-05,2.294750295567253e-05,2.831661688868543e-05,3.319584816357671e-05,4.2,3.6
3.703125,1.9038239343862058e-05,2.1967737639429317e-05,3.17359978423743e-05,3.17359978423743e-05,4.2,3.6
3.70703125,2.831661688868543e-05,2.1967737639429317e-05,2.8806499546807045e-05,4.2474225708400084e-05,4.2,3.6
3.7109375,3.319584816357671e-05,2.587700125123979e-05,3.612534645914397e-05,4.2474225708400084e-05,4.2,3.6
3.71484375,4.442395868772411e-05,2.977646720988784e-05,4.052449272907606e-05,3.8084877091630414e-05,4.2,3.6
3.71875,4.29641083665217e-05,2.3437385613794147e-05,3.417561347981994e-05,3.7105111775387196e-05,4.2,3.6
3.72265625,4.2474225708400084e-05,2.14778549813077e-05,3.6615229117265587e-05,3.417561347981994e-05,4.2,3.6
3.7265625,4.73632546364538e-05,2.587700125123979e-05,3.5635463801022355e-05,2.831661688868543e-05,4.2,3.6
3.73046875,2.0507887318226905e-05,2.587700125123979e-05,2.977646720988784e-05,2.489723593499656e-05,4.2,3.6
3.734375,-6.347480000000004e-06,1.9528122001983674e-05,3.1246115184252685e-05,3.3685730821698324e-05,4.2,3.6
3.73828125,1.7568591369497214e-05,2.294750295567253e-05,2.977646720988784e-05,3.515537879606317e-05,4.2,3.6
3.7421875,3.1246115184252685e-05,2.6366883909361403e-05,2.6366883909361403e-05,2.6366883909361403e-05,4.2,3.6
3.74609375,3.270596550545509e-05,1.8058474027618826e-05,1.8548356685740442e-05,3.515537879606317e-05,4.2,3.6
3.75,4.0034610070954444e-05,9.269979140917058e-06,1.9038239343862058e-05,4.394387368276493e-05,4.2,3.6
3.75390625,4.052449272907606e-05,1.024974445716029e-05,3.3685730821698324e-05,3.856496209658961e-05,4.2,3.6
3.7578125,4.0034610070954444e-05,1.7088506364538034e-05,3.856496209658961e-05,3.9054844754711226e-05,4.2,3.6
3.76171875,3.0266349868009457e-05,2.489723593499656e-05,3.3685730821698324e-05,3.856496209658961e-05,4.2,3.6
3.765625,1.6108741048294802e-05,2.4407353276874956e-05,2.929638220492866e-05,2.7336851572442198e-05,4.2,3.6
3.76953125,2.5387118593118174e-05,2.6366883909361403e-05,3.222588050049592e-05,1.512897573205157e-05,4.2,3.6
3.7734375,3.4665496137941556e-05,3.417561347981994e-05,3.954472741283284e-05,1.024974445716029e-05,4.2,3.6
3.77734375,2.4407353276874956e-05,3.319584816357671e-05,4.3453991024643315e-05,1.8548356685740442e-05,4.2,3.6
3.78125,1.3669125410849161e-05,2.6846968914320582e-05,3.7105111775387196e-05,3.5635463801022355e-05,4.2,3.6
3.78515625,2.14778549813077e-05,1.8548356685740442e-05,2.7826734230563814e-05,4.687337197833219e-05,4.2,3.6
3.7890625,2.2457620297550932e-05,2.001800466010529e-05,2.4407353276874956e-05,4.8333222299534594e-05,4.2,3.6
3.79296875,2.0507887318226905e-05,2.831661688868543e-05,2.7826734230563814e-05,3.6615229117265587e-05,4.2,3.6
3.796875,2.7826734230563814e-05,3.3685730821698324e-05,3.270596550545509e-05,2.6366883909361403e-05,4.2,3.6
3.80078125,3.4665496137941556e-05,3.6615229117265587e-05,3.612534645914397e-05,2.587700125123979e-05,4.2,3.6
3.8046875,3.8084877091630414e-05,3.3685730821698324e-05,3.0266349868009457e-05,9.269979140917058e-06,4.2,3.6
3.80859375,4.442395868772411e-05,3.612534645914397e-05,2.7336851572442198e-05,3.4109825497825595e-06,4.2,3.6
3.8125,3.5635463801022355e-05,4.980287027389944e-05,3.6615229117265587e-05,2.6366883909361403e-05,4.2,3.6
3.81640625,1.9038239343862058e-05,5.029275293202106e-05,4.198434305027847e-05,3.7105111775387196e-05,4.2,3.6
3.8203125,2.489723593499656e-05,3.7105111775387196e-05,3.8084877091630414e-05,4.1494460392156865e-05,4.2,3.6
3.82421875,3.6615229117265587e-05,3.9054844754711226e-05,3.8084877091630414e-05,4.101437538719767e-05,4.2,3.6
3.828125,3.17359978423743e-05,2.391747061875334e-05,3.5635463801022355e-05,3.075623252613107e-05,4.2,3.6
3.83203125,3.222588050049592e-05,2.0507887318226905e-05,3.759499443350881e-05,3.1246115184252685e-05,4.2,3.6
3.8359375,4.2474225708400084e-05,3.759499443350881e-05,4.198434305027847e-05,3.515537879606317e-05,4.2,3.6
3.83984375,3.6615229117265587e-05,3.1246115184252685e-05,4.198434305027847e-05,3.4665496137941556e-05,4.2,3.6
3.84375,3.0266349868009457e-05,2.489723593499656e-05,3.8084877091630414e-05,2.391747061875334e-05,4.2,3.6
3.84765625,4.0034610070954444e-05,2.8806499546807045e-05,3.612534645914397e-05,2.001800466010529e-05,4.2,3.6
3.8515625,3.17359978423743e-05,4.052449272907606e-05,4.3453991024643315e-05,2.3437385613794147e-05,4.2,3.6
3.85546875,2.0507887318226905e-05,4.0034610070954444e-05,4.540372400396734e-05,1.9528122001983674e-05,4.2,3.6
3.859375,2.929638220492866e-05,2.489723593499656e-05,3.417561347981994e-05,1.7088506364538034e-05,4.2,3.6
3.86328125,3.3685730821698324e-05,1.6108741048294802e-05,2.294750295567253e-05,2.7826734230563814e-05,4.2,3.6
3.8671875,4.101437538719767e-05,1.268936009460593e-05,2.391747061875334e-05,4.2474225708400084e-05,4.2,3.6
3.87109375,3.759499443350881e-05,1.9528122001983674e-05,2.929638220492866e-05,3.9054844754711226e-05,4.2,3.6
3.875,3.075623252613107e-05,2.831661688868543e-05,2.929638220492866e-05,3.954472741283284e-05,4.2,3.6
3.87890625,3.6615229117265587e-05,3.270596550545509e-05,2.14778549813077e-05,3.3685730821698324e-05,4.2,3.6
3.8828125,3.270596550545509e-05,3.4665496137941556e-05,1.9038239343862058e-05,2.831661688868543e-05,4.2,3.6
3.88671875,3.319584816357671e-05,3.8084877091630414e-05,2.4407353276874956e-05,3.319584816357671e-05,4.2,3.6
3.890625,3.515537879606317e-05,4.491384134584572e-05,3.270596550545509e-05,3.319584816357671e-05,4.2,3.6
3.89453125,2.4407353276874956e-05,4.394387368276493e-05,4.052449272907606e-05,3.319584816357671e-05,4.2,3.6
3.8984375,3.270596550545509e-05,3.759499443350881e-05,4.29641083665217e-05,1.5618858390173187e-05,4.2,3.6
3.90234375,4.540372400396734e-05,3.222588050049592e-05,3.7105111775387196e-05,4.81484254215303e-07,4.2,3.6
3.90625,4.198434305027847e-05,2.7336851572442198e-05,2.6846968914320582e-05,1.024974445716029e-05,4.2,3.6
3.91015625,4.29641083665217e-05,2.929638220492866e-05,2.977646720988784e-05,2.7826734230563814e-05,4.2,3.6
3.9140625,3.7105111775387196e-05,3.6615229117265587e-05,3.759499443350881e-05,3.270596550545509e-05,4.2,3.6
3.91796875,3.222588050049592e-05,3.0266349868009457e-05,3.7105111775387196e-05,3.270596550545509e-05,4.2,3.6
3.921875,3.417561347981994e-05,1.7088506364538034e-05,2.977646720988784e-05,3.6615229117265587e-05,4.2,3.6
3.92578125,3.0266349868009457e-05,2.2457620297550932e-05,2.831661688868543e-05,3.5635463801022355e-05,4.2,3.6
3.9296875,2.831661688868543e-05,3.5635463801022355e-05,3.856496209658961e-05,3.319584816357671e-05,4.2,3.6
3.93359375,2.7826734230563814e-05,3.5635463801022355e-05,4.29641083665217e-05,3.0266349868009457e-05,4.2,3.6
3.9375,2.6366883909361403e-05,3.7105111775387196e-05,4.540372400396734e-05,2.6366883909361403e-05,4.2,3.6
3.94140625,3.759499443350881e-05,2.977646720988784e-05,3.612534645914397e-05,2.391747061875334e-05,4.2,3.6
3.9453125,4.2474225708400084e-05,2.14778549813077e-05,1.8548356685740442e-05,2.7336851572442198e-05,4.2,3.6
3.94921875,4.101437538719767e-05,1.7088506364538034e-05,1.4159008068970777e-05,2.14778549813077e-05,4.2,3.6
3.953125,4.1494460392156865e-05,1.5618858390173187e-05,1.024974445716029e-05,1.5618858390173187e-05,4.2,3.6
3.95703125,3.612534645914397e-05,2.0987972323186085e-05,1.659862370641642e-05,2.929638220492866e-05,4.2,3.6
3.9609375,2.4407353276874956e-05,2.1967737639429317e-05,2.929638220492866e-05,3.1246115184252685e-05,4.2,3.6
3.96484375,2.391747061875334e-05,3.0266349868009457e-05,2.3437385613794147e-05,2.14778549813077e-05,4.2,3.6
3.96875,3.222588050049592e-05,2.831661688868543e-05,2.3437385613794147e-05,2.831661688868543e-05,4.2,3.6
3.97265625,2.7336851572442198e-05,2.8806499546807045e-05,3.5635463801022355e-05,3.5635463801022355e-05,4.2,3.6
3.9765625,3.1246115184252685e-05,3.3685730821698324e-05,3.6615229117265587e-05,1.8548356685740442e-05,4.2,3.6
3.98046875,4.5893606662088955e-05,2.5387118593118174e-05,3.222588050049592e-05,1.268936009460593e-05,4.2,3.6
3.984375,5.370233623254749e-05,3.1246115184252685e-05,3.6615229117265587e-05,3.515537879606317e-05,4.2,3.6
3.98828125,4.3453991024643315e-05,2.929638220492866e-05,3.5635463801022355e-05,4.0034610070954444e-05,4.2,3.6
3.9921875,3.7105111775387196e-05,2.831661688868543e-05,3.6615229117265587e-05,3.4665496137941556e-05,4.2,3.6
3.99609375,2.8806499546807045e-05,3.4665496137941556e-05,4.101437538719767e-05,3.222588050049592e-05,4.2,3.6
4.0,1.4639093073929955e-05,2.4407353276874956e-05,3.856496209658961e-05,3.075623252613107e-05,4.2,3.6
4.00390625,2.0507887318226905e-05,2.001800466010529e-05,3.270596550545509e-05,3.1246115184252685e-05,4.2,3.6
4.0078125,3.3685730821698324e-05,2.294750295567253e-05,2.929638220492866e-05,2.7826734230563814e-05,4.2,3.6
4.01171875,4.2474225708400084e-05,2.6846968914320582e-05,2.8806499546807045e-05,2.0507887318226905e-05,4.2,3.6
4.015625,4.101437538719767e-05,1.9038239343862058e-05,2.587700125123979e-05,2.391747061875334e-05,4.2,3.6
4.01953125,2.7826734230563814e-05,1.5618858390173187e-05,2.2457620297550932e-05,3.4665496137941556e-05,4.2,3.6
4.0234375,2.587700125123979e-05,1.9038239343862058e-05,1.6108741048294802e-05,3.8084877091630414e-05,4.2,3.6
4.02734375,3.1246115184252685e-05,1.8058474027618826e-05,1.9038239343862058e-05,4.1494460392156865e-05,4.2,3.6
4.03125,3.417561347981994e-05,2.2457620297550932e-05,2.0507887318226905e-05,3.3685730821698324e-05,4.2,3.6
4.03515625,2.977646720988784e-05,2.7826734230563814e-05,2.587700125123979e-05,3.3685730821698324e-05,4.2,3.6
4.0390625,3.0266349868009457e-05,2.3437385613794147e-05,3.8084877091630414e-05,3.270596550545509e-05,4.2,3.6
4.04296875,3.9054844754711226e-05,2.1967737639429317e-05,3.17359978423743e-05,2.8806499546807045e-05,4.2,3.6
4.046875,3.5635463801022355e-05,2.7826734230563814e-05,2.2457620297550932e-05,2.6846968914320582e-05,4.2,3.6
4.05078125,3.612534645914397e-05,2.5387118593118174e-05,3.4665496137941556e-05,1.9528122001983674e-05,4.2,3.6
4.0546875,1.9038239343862058e-05,2.294750295567253e-05,3.7105111775387196e-05,1.8058474027618826e-05,4.2,3.6
4.05859375,7.810128819714649e-06,2.0987972323186085e-05,2.7826734230563814e-05,3.4665496137941556e-05,4.2,3.6
4.0625,2.1967737639429317e-05,1.3179242752727545e-05,2.1967737639429317e-05,4.3453991024643315e-05,4.2,3.6
4.06640625,3.075623252613107e-05,1.4159008068970777e-05,2.3437385613794147e-05,3.7105111775387196e-05,4.2,3.6
4.0703125,3.7105111775387196e-05,2.0507887318226905e-05,2.6366883909361403e-05,3.222588050049592e-05,4.2,3.6
4.07421875,2.8806499546807045e-05,2.6366883909361403e-05,3.3685730821698324e-05,3.319584816357671e-05,4.2,3.6
4.078125,2.489723593499656e-05,3.417561347981994e-05,4.491384134584572e-05,2.929638220492866e-05,4.2,3.6
4.08203125,3.759499443350881e-05,3.3685730821698324e-05,4.491384134584572e-05,2.6366883909361403e-05,4.2,3.6
4.0859375,3.222588050049592e-05,3.8084877091630414e-05,4.3453991024643315e-05,3.319584816357671e-05,4.2,3.6
4.08984375,3.222588050049592e-05,4.5893606662088955e-05,4.2474225708400084e-05,4.1494460392156865e-05,4.2,3.6
4.09375,3.270596550545509e-05,5.4192218890669105e-05,4.687337197833219e-05,3.7105111775387196e-05,4.2,3.6
4.09765625,2.14778549813077e-05,5.0772837936980234e-05,5.029275293202106e-05,2.4407353276874956e-05,4.2,3.6
4.1015625,3.270596550545509e-05,4.394387368276493e-05,3.7105111775387196e-05,2.831661688868543e-05,4.2,3.6
4.10546875,4.29641083665217e-05,5.029275293202106e-05,3.4665496137941556e-05,3.856496209658961e-05,4.2,3.6
4.109375,2.831661688868543e-05,4.5893606662088955e-05,3.759499443350881e-05,3.17359978423743e-05,4.2,3.6
4.11328125,3.0266349868009457e-05,3.759499443350881e-05,3.0266349868009457e-05,1.659862370641642e-05,4.2,3.6
4.1171875,3.759499443350881e-05,3.954472741283284e-05,3.4665496137941556e-05,2.3437385613794147e-05,4.2,3.6
4.12109375,3.5635463801022355e-05,2.7826734230563814e-05,3.515537879606317e-05,3.17359978423743e-05,4.2,3.6
4.125,3.759499443350881e-05,2.294750295567253e-05,3.270596550545509e-05,3.515537879606317e-05,4.2,3.6
4.12890625,3.4665496137941556e-05,2.2457620297550932e-05,3.3685730821698324e-05,3.856496209658961e-05,4.2,3.6
4.1328125,3.5635463801022355e-05,2.2457620297550932e-05,4.198434305027847e-05,3.075623252613107e-05,4.2,3.6
4.13671875,2.5387118593118174e-05,2.001800466010529e-05,4.2474225708400084e-05,2.8806499546807045e-05,4.2,3.6
4.140625,1.659862370641642e-05,1.7568591369497214e-05,2.587700125123979e-05,3.0266349868009457e-05,4.2,3.6
4.14453125,3.417561347981994e-05,2.6366883909361403e-05,2.7826734230563814e-05,2.5387118593118174e-05,4.2,3.6
4.1484375,4.1494460392156865e-05,3.17359978423743e-05,3.8084877091630414e-05,2.1967737639429317e-05,4.2,3.6
4.15234375,3.0266349868009457e-05,3.954472741283284e-05,3.5635463801022355e-05,3.075623252613107e-05,4.2,3.6
4.15625,3.319584816357671e-05,3.8084877091630414e-05,3.417561347981994e-05,5.0772837936980234e-05,4.2,3.6
4.16015625,4.29641083665217e-05,2.831661688868543e-05,3.075623252613107e-05,4.882310495765621e-05,4.2,3.6
4.1640625,3.7105111775387196e-05,2.1967737639429317e-05,2.489723593499656e-05,4.2474225708400084e-05,4.2,3.6
4.16796875,3.270596550545509e-05,3.0266349868009457e-05,2.831661688868543e-05,4.198434305027847e-05,4.2,3.6
4.171875,3.222588050049592e-05,4.052449272907606e-05,4.687337197833219e-05,3.515537879606317e-05,4.2,3.6
4.17578125,3.612534645914397e-05,4.198434305027847e-05,5.9081247818722824e-05,2.977646720988784e-05,4.2,3.6
4.1796875,3.270596550545509e-05,3.075623252613107e-05,4.491384134584572e-05,3.222588050049592e-05,4.2,3.6
4.18359375,2.7826734230563814e-05,2.294750295567253e-05,3.515537879606317e-05,3.612534645914397e-05,4.2,3.6
4.1875,3.759499443350881e-05,3.417561347981994e-05,4.882310495765621e-05,4.882310495765621e-05,4.2,3.6
4.19140625,3.954472741283284e-05,3.075623252613107e-05,4.9312987615777826e-05,4.687337197833219e-05,4.2,3.6
4.1953125,4.442395868772411e-05,2.6366883909361403e-05,4.101437538719767e-05,3.319584816357671e-05,4.2,3.6
4.19921875,3.9054844754711226e-05,2.001800466010529e-05,3.612534645914397e-05,3.319584816357671e-05,4.2,3.6
4.203125,3.1246115184252685e-05,3.900865207904175e-06,1.5618858390173187e-05,3.8084877091630414e-05,4.2,3.6
4.20703125,4.540372400396734e-05,-6.347480000000004e-06,-4.397747020675979e-06,4.394387368276493e-05,4.2,3.6
4.2109375,5.0772837936980234e-05,-2.4904235089646752e-05,-2.881349870145724e-05,3.8084877091630414e-05,4.2,3.6
4.21484375,4.687337197833219e-05,-4.88301041123064e-05,-4.688037113298237e-05,4.540372400396734e-05,4.2,3.6
4.21875,4.540372400396734e-05,-7.2256292823682e-05,-6.250762792706187e-05,4.9312987615777826e-05,4.2,3.6
4.22265625,6.249083111924926e-05,-9.423242886701762e-05,-8.935319759212635e-05,4.9312987615777826e-05,4.2,3.6
4.2265625,6.34705964354925e-05,-0.00012792655809262224,-0.0001245071771389334,5.81014825024796e-05,4.2,3.6
4.23046875,4.5893606662088955e-05,-0.00015624177573205156,-0.00015429204275272754,5.663183452811475e-05,4.2,3.6
4.234375,4.5893606662088955e-05,-0.00017284879784237433,-0.0001718690325261311,5.566186686503394e-05,4.2,3.6
4.23828125,5.4192218890669105e-05,-0.00019384516856946668,-0.0001879861719783322,6.932959302662698e-05,4.2,3.6
4.2421875,6.34705964354925e-05,-0.0002172811549340047,-0.0002114221583428702,6.786974270542458e-05,4.2,3.6
4.24609375,5.859136516060121e-05,-0.00023583791002365149,-0.0002324185290699626,6.249083111924926e-05,4.2,3.6
4.25,4.3453991024643315e-05,-0.0002421867892729076,-0.00024022725864042115,7.323885663843748e-05,4.2,3.6
4.25390625,4.1494460392156865e-05,-0.00024706602054779886,-0.00024120702395666438,7.518858961776149e-05,4.2,3.6
4.2578125,5.517198420691234e-05,-0.0002543848674601358,-0.00023778764300297548,8.348720184634162e-05,4.2,3.6
4.26171875,4.784333964141298e-05,-0.0002539047824551766,-0.00024022725864042115,7.860797057145037e-05,4.2,3.6
4.265625,4.882310495765621e-05,-0.00025194525182269014,-0.0002480457858640421,7.030935834287021e-05,4.2,3.6
4.26953125,6.103098079804684e-05,-0.0002514553691645685,-0.0002490157535271229,6.591021207293812e-05,4.2,3.6
4.2734375,5.81014825024796e-05,-0.00023680787768673225,-0.00023925729097734033,6.152086345616846e-05,4.2,3.6
4.27734375,6.103098079804684e-05,-0.00022265026886701762,-0.00022460000184634164,7.176920866407263e-05,4.2,3.6
4.28125,6.786974270542458e-05,-0.00021386177398031585,-0.0002211904185458152,7.176920866407263e-05,4.2,3.6
4.28515625,6.834982771038375e-05,-0.00019726454952315555,-0.0002016538981399252,6.737986004730297e-05,4.2,3.6
4.2890625,6.005121548180361e-05,-0.00018505667368276494,-0.00018749628932021055,4.8333222299534594e-05,4.2,3.6
4.29296875,5.468210154879072e-05,-0.0001738187655054551,-0.00019091567027389942,3.6615229117265587e-05,4.2,3.6
4.296875,5.029275293202106e-05,-0.00016552015327687494,-0.0001782179117753872,5.370233623254749e-05,4.2,3.6
4.30078125,4.1494460392156865e-05,-0.00016064092200198364,-0.00016455018561379415,6.298071377737088e-05,4.2,3.6
4.3046875,4.5893606662088955e-05,-0.0001474532808453498,-0.00015087266179903867,6.688997738918135e-05,4.2,3.6
4.30859375,5.224248591134508e-05,-0.00013280578936751355,-0.00013915466861676967,6.298071377737088e-05,4.2,3.6
4.3125,5.224248591134508e-05,-0.00012157767884336614,-0.0001245071771389334,5.1752603253223466e-05,4.2,3.6
4.31640625,5.81014825024796e-05,-0.0001137689492729076,-0.00010497065673304341,4.8333222299534594e-05,4.2,3.6
4.3203125,6.103098079804684e-05,-0.00011571868225223163,-0.00010253104109559776,4.394387368276493e-05,4.2,3.6
4.32421875,5.9081247818722824e-05,-0.00010742007002365147,-0.000103510806411841,4.2474225708400084e-05,4.2,3.6
4.328125,5.81014825024796e-05,-8.78835496177615e-05,-9.325266355077439e-05,4.73632546364538e-05,4.2,3.6
4.33203125,6.0541098139925225e-05,-8.446416866407263e-05,-8.495405132219424e-05,4.73632546364538e-05,4.2,3.6
