timestamp,TP9,AF7,AF8,TP10,Valence,Arousal
0.0,-2.831137167009994e-05,-2.880250644388494e-05,-3.5635685905241465e-05,-4.2960000140382994e-05,3.7333,5.7333
0.00390625,-3.0265233922331574e-05,-3.1247503469901573e-05,-3.80806829312581e-05,-3.710909022659647e-05,3.7333,5.7333
0.0078125,-3.5155227974364834e-05,-4.491386239261463e-05,-3.2710230948348204e-05,-3.3681823653009835e-05,3.7333,5.7333
0.01171875,-3.5635685905241465e-05,-4.5404997166399624e-05,-2.733977896543831e-05,-4.2960000140382994e-05,3.7333,5.7333
0.015625,-3.9052275635919726e-05,-2.783091373922331e-05,-4.2960000140382994e-05,-4.2960000140382994e-05,3.7333,5.7333
0.01953125,-3.75895481574731e-05,-3.710909022659647e-05,-4.3451134914167994e-05,-3.75895481574731e-05,3.7333,5.7333
0.0234375,-3.3201365722133204e-05,-4.686772464484626e-05,-3.75895481574731e-05,-3.9052275635919726e-05,3.7333,5.7333
0.02734375,-4.052567995727473e-05,-3.954341040970473e-05,-4.003454518348973e-05,-3.3681823653009835e-05,3.7333,5.7333
0.03125,-4.247954220950636e-05,-3.9052275635919726e-05,-4.149727266193636e-05,-3.6126820679026465e-05,3.7333,5.7333
0.03515625,-2.733977896543831e-05,-3.6126820679026465e-05,-2.3933866077668413e-05,-4.198840743572136e-05,3.7333,5.7333
0.0390625,-3.2219096174563204e-05,-3.4172958426794835e-05,-1.4164554816510256e-05,-3.85718177050431e-05,3.7333,5.7333
0.04296875,-4.198840743572136e-05,-3.3201365722133204e-05,-3.2219096174563204e-05,-3.954341040970473e-05,3.7333,5.7333
0.046875,-4.589613194018463e-05,-4.1006137888151364e-05,-4.1006137888151364e-05,-2.9784775991454943e-05,3.7333,5.7333
0.05078125,-4.491386239261463e-05,-4.686772464484626e-05,-4.931272167086289e-05,-2.831137167009994e-05,3.7333,5.7333
0.0546875,-4.149727266193636e-05,-3.3681823653009835e-05,-4.2960000140382994e-05,-4.149727266193636e-05,3.7333,5.7333
0.05859375,-3.80806829312581e-05,-3.3201365722133204e-05,-4.882158689707789e-05,-3.9052275635919726e-05,3.7333,5.7333
0.0625,-3.6126820679026465e-05,-4.7358859418631255e-05,-6.445248491493095e-05,-4.003454518348973e-05,3.7333,5.7333
0.06640625,-3.4172958426794835e-05,-4.686772464484626e-05,-5.3700904106202784e-05,-4.6376589871061255e-05,3.7333,5.7333
0.0703125,-3.0756368696116574e-05,-3.6126820679026465e-05,-4.589613194018463e-05,-3.9052275635919726e-05,3.7333,5.7333
0.07421875,-2.685932103456168e-05,-2.9784775991454943e-05,-5.3700904106202784e-05,-3.5155227974364834e-05,3.7333,5.7333
0.078125,-2.636818626077668e-05,-1.7581144547188522e-05,-3.0265233922331574e-05,-3.80806829312581e-05,3.7333,5.7333
0.08203125,-3.6126820679026465e-05,-1.856341409475852e-05,-2.0997734277866784e-05,-2.5887728329900047e-05,3.7333,5.7333
0.0859375,-4.247954220950636e-05,-4.149727266193636e-05,-4.198840743572136e-05,-2.1488869051651783e-05,3.7333,5.7333
0.08984375,-4.003454518348973e-05,-5.809976338445105e-05,-4.443340446173799e-05,-2.3442731303883417e-05,3.7333,5.7333
0.09375,-3.3681823653009835e-05,-6.982293689784083e-05,-4.3942269687953e-05,-2.5396593556115044e-05,3.7333,5.7333
0.09765625,-3.4172958426794835e-05,-6.20074878889143e-05,-4.882158689707789e-05,-3.2219096174563204e-05,3.7333,5.7333
0.1015625,-3.710909022659647e-05,-5.5654766358434414e-05,-4.784999419241626e-05,-3.0756368696116574e-05,3.7333,5.7333
0.10546875,-3.710909022659647e-05,-5.907135608911268e-05,-4.198840743572136e-05,-3.2219096174563204e-05,3.7333,5.7333
0.109375,-3.75895481574731e-05,-5.419203887998779e-05,-3.4172958426794835e-05,-3.2219096174563204e-05,3.7333,5.7333
0.11328125,-4.491386239261463e-05,-5.419203887998779e-05,-4.1006137888151364e-05,-2.880250644388494e-05,3.7333,5.7333
0.1171875,-4.784999419241626e-05,-5.272931140154115e-05,-4.052567995727473e-05,-3.3201365722133204e-05,3.7333,5.7333
0.12109375,-4.198840743572136e-05,-4.149727266193636e-05,-4.003454518348973e-05,-3.4664093200579834e-05,3.7333,5.7333
0.125,-3.4172958426794835e-05,-3.0756368696116574e-05,-4.3451134914167994e-05,-3.0265233922331574e-05,3.7333,5.7333
0.12890625,-3.4664093200579834e-05,-3.75895481574731e-05,-4.247954220950636e-05,-2.5396593556115044e-05,3.7333,5.7333
0.1328125,-3.6126820679026465e-05,-4.882158689707789e-05,-3.5635685905241465e-05,-2.733977896543831e-05,3.7333,5.7333
0.13671875,-3.1247503469901573e-05,-3.4172958426794835e-05,-2.9293641217669943e-05,-2.9784775991454943e-05,3.7333,5.7333
0.140625,-2.9784775991454943e-05,-2.880250644388494e-05,-3.3681823653009835e-05,-2.2471138599221783e-05,3.7333,5.7333
0.14453125,-3.0756368696116574e-05,-4.5404997166399624e-05,-3.2219096174563204e-05,-2.4414324008545048e-05,3.7333,5.7333
0.1484375,-3.1727961400778205e-05,-4.1006137888151364e-05,-5.614590113221942e-05,-2.9784775991454943e-05,3.7333,5.7333
0.15234375,-3.75895481574731e-05,-3.661795545281147e-05,-6.542407761959256e-05,-2.783091373922331e-05,3.7333,5.7333
0.15625,-4.247954220950636e-05,-3.661795545281147e-05,-4.931272167086289e-05,-2.783091373922331e-05,3.7333,5.7333
0.16015625,-3.954341040970473e-05,-3.1727961400778205e-05,-3.954341040970473e-05,-2.9784775991454943e-05,3.7333,5.7333
0.1640625,-4.003454518348973e-05,-4.3942269687953e-05,-4.6376589871061255e-05,-3.3201365722133204e-05,3.7333,5.7333
0.16796875,-3.9052275635919726e-05,-4.589613194018463e-05,-4.1006137888151364e-05,-3.4172958426794835e-05,3.7333,5.7333
0.171875,-3.1247503469901573e-05,-2.5887728329900047e-05,-2.5396593556115044e-05,-2.783091373922331e-05,3.7333,5.7333
0.17578125,-3.1247503469901573e-05,-2.4414324008545048e-05,-2.2471138599221783e-05,-3.1247503469901573e-05,3.7333,5.7333
0.1796875,-2.880250644388494e-05,-3.0756368696116574e-05,-2.3933866077668413e-05,-4.1006137888151364e-05,3.7333,5.7333
0.18359375,-2.685932103456168e-05,-2.5396593556115044e-05,-1.7090009773403523e-05,-3.3681823653009835e-05,3.7333,5.7333
0.1875,-3.2219096174563204e-05,-2.9784775991454943e-05,-2.3933866077668413e-05,-2.783091373922331e-05,3.7333,5.7333
0.19140625,-3.1727961400778205e-05,-3.710909022659647e-05,-4.5404997166399624e-05,-2.636818626077668e-05,3.7333,5.7333
0.1953125,-2.9293641217669943e-05,-3.3681823653009835e-05,-4.003454518348973e-05,-2.783091373922331e-05,3.7333,5.7333
0.19921875,-2.783091373922331e-05,-3.710909022659647e-05,-3.710909022659647e-05,-3.2710230948348204e-05,3.7333,5.7333
0.203125,-2.5396593556115044e-05,-4.589613194018463e-05,-5.3700904106202784e-05,-3.0756368696116574e-05,3.7333,5.7333
0.20703125,-2.636818626077668e-05,-3.85718177050431e-05,-5.077544914930952e-05,-3.4172958426794835e-05,3.7333,5.7333
0.2109375,-3.0265233922331574e-05,-3.2710230948348204e-05,-3.0265233922331574e-05,-3.6126820679026465e-05,3.7333,5.7333
0.21484375,-3.6126820679026465e-05,-3.710909022659647e-05,-2.685932103456168e-05,-3.1727961400778205e-05,3.7333,5.7333
0.21875,-3.710909022659647e-05,-1.562728229495689e-05,-4.5404997166399624e-05,-3.5635685905241465e-05,3.7333,5.7333
0.22265625,-3.6126820679026465e-05,-1.2210692564278624e-05,-2.5887728329900047e-05,-3.80806829312581e-05,3.7333,5.7333
0.2265625,-3.710909022659647e-05,-2.733977896543831e-05,-1.3673420042725255e-05,-3.9052275635919726e-05,3.7333,5.7333
0.23046875,-3.710909022659647e-05,-2.831137167009994e-05,-2.5887728329900047e-05,-4.149727266193636e-05,3.7333,5.7333
0.234375,-3.6126820679026465e-05,-2.0997734277866784e-05,-1.9535006799420153e-05,-3.5155227974364834e-05,3.7333,5.7333
0.23828125,-4.003454518348973e-05,-2.2471138599221783e-05,-3.9052275635919726e-05,-4.3451134914167994e-05,3.7333,5.7333
0.2421875,-3.85718177050431e-05,-2.4905458782330048e-05,-5.175771869687952e-05,-4.686772464484626e-05,3.7333,5.7333
0.24609375,-3.0265233922331574e-05,-2.5887728329900047e-05,-3.80806829312581e-05,-3.0756368696116574e-05,3.7333,5.7333
0.25,-2.880250644388494e-05,-2.2951596530098414e-05,-2.3442731303883417e-05,-2.5887728329900047e-05,3.7333,5.7333
0.25390625,-2.636818626077668e-05,-1.0747965085831992e-05,-1.9043872025635153e-05,-2.880250644388494e-05,3.7333,5.7333
0.2578125,-3.0756368696116574e-05,-1.9535006799420153e-05,-2.685932103456168e-05,-3.0265233922331574e-05,3.7333,5.7333
0.26171875,-2.733977896543831e-05,-2.051727634699015e-05,-9.765695538261994e-06,-3.3681823653009835e-05,3.7333,5.7333
0.265625,-3.3681823653009835e-05,-3.3201365722133204e-05,-1.1239099859616993e-05,-2.880250644388494e-05,3.7333,5.7333
0.26953125,-3.9052275635919726e-05,-3.954341040970473e-05,-2.0997734277866784e-05,-2.5887728329900047e-05,3.7333,5.7333
0.2734375,-2.880250644388494e-05,-2.880250644388494e-05,-2.831137167009994e-05,-2.831137167009994e-05,3.7333,5.7333
0.27734375,-3.4172958426794835e-05,-3.2219096174563204e-05,-4.149727266193636e-05,-3.0265233922331574e-05,3.7333,5.7333
0.28125,-3.5155227974364834e-05,-2.9293641217669943e-05,-3.710909022659647e-05,-3.5635685905241465e-05,3.7333,5.7333
0.28515625,-3.1727961400778205e-05,-2.783091373922331e-05,-3.4664093200579834e-05,-3.5155227974364834e-05,3.7333,5.7333
0.2890625,-3.80806829312581e-05,-2.831137167009994e-05,-3.5635685905241465e-05,-3.80806829312581e-05,3.7333,5.7333
0.29296875,-3.710909022659647e-05,-2.002614157320515e-05,-4.7358859418631255e-05,-4.5404997166399624e-05,3.7333,5.7333
0.296875,-3.85718177050431e-05,-2.002614157320515e-05,-7.128566437628747e-05,-3.85718177050431e-05,3.7333,5.7333
0.30078125,-3.85718177050431e-05,-2.9293641217669943e-05,-5.956249086289768e-05,-4.198840743572136e-05,3.7333,5.7333
0.3046875,-4.003454518348973e-05,-3.5155227974364834e-05,-1.0256830312046992e-05,-5.272931140154115e-05,3.7333,5.7333
0.30859375,-4.6376589871061255e-05,-4.931272167086289e-05,-1.9043872025635153e-05,-4.2960000140382994e-05,3.7333,5.7333
0.3125,-4.8330452123292885e-05,-5.322044617532616e-05,-4.3451134914167994e-05,-3.2219096174563204e-05,3.7333,5.7333
0.31640625,-4.2960000140382994e-05,-3.5155227974364834e-05,-2.051727634699015e-05,-2.9293641217669943e-05,3.7333,5.7333
0.3203125,-4.3942269687953e-05,-3.6126820679026465e-05,-2.2951596530098414e-05,-2.733977896543831e-05,3.7333,5.7333
0.32421875,-4.198840743572136e-05,-3.80806829312581e-05,-4.1006137888151364e-05,-3.80806829312581e-05,3.7333,5.7333
0.328125,-3.4172958426794835e-05,-4.886378329137098e-06,-7.82251012893873e-06,-3.85718177050431e-05,3.7333,5.7333
0.33203125,-3.661795545281147e-05,-2.932516076905465e-06,1.0253384914930955e-05,-2.2471138599221783e-05,3.7333,5.7333
0.3359375,-3.80806829312581e-05,-5.6637035906004413e-05,-3.1247503469901573e-05,-1.4655689590295256e-05,3.7333,5.7333
0.33984375,-3.1727961400778205e-05,-6.737793987182421e-05,-4.149727266193636e-05,-2.002614157320515e-05,3.7333,5.7333
0.34375,-3.710909022659647e-05,-6.054476041046768e-05,-3.80806829312581e-05,-2.0997734277866784e-05,3.7333,5.7333
0.34765625,-4.6376589871061255e-05,-7.714725113298237e-05,-5.907135608911268e-05,-2.5887728329900047e-05,3.7333,5.7333
0.3515625,-4.589613194018463e-05,-7.22572570809491e-05,-5.322044617532616e-05,-2.4414324008545048e-05,3.7333,5.7333
0.35546875,-5.272931140154115e-05,-6.78690746456092e-05,-5.077544914930952e-05,-1.9535006799420153e-05,3.7333,5.7333
0.359375,-5.468317365377278e-05,-7.030339482871747e-05,-6.445248491493095e-05,-2.3442731303883417e-05,3.7333,5.7333
0.36328125,-5.028431437552452e-05,-6.591521239337757e-05,-6.102521834134431e-05,-1.856341409475852e-05,3.7333,5.7333
0.3671875,-4.589613194018463e-05,-6.297908059357594e-05,-5.419203887998779e-05,-1.3673420042725255e-05,3.7333,5.7333
0.37109375,-4.589613194018463e-05,-6.639567032425421e-05,-4.443340446173799e-05,-1.562728229495689e-05,3.7333,5.7333
0.375,-4.443340446173799e-05,-6.054476041046768e-05,-4.686772464484626e-05,-1.856341409475852e-05,3.7333,5.7333
0.37890625,-4.5404997166399624e-05,-5.809976338445105e-05,-5.468317365377278e-05,-1.856341409475852e-05,3.7333,5.7333
0.3828125,-4.2960000140382994e-05,-5.614590113221942e-05,-4.003454518348973e-05,-1.9535006799420153e-05,3.7333,5.7333
0.38671875,-4.3451134914167994e-05,-5.419203887998779e-05,-2.051727634699015e-05,-1.8072279320973522e-05,3.7333,5.7333
0.390625,-4.7358859418631255e-05,-5.956249086289768e-05,-4.443340446173799e-05,-2.733977896543831e-05,3.7333,5.7333
0.39453125,-4.3451134914167994e-05,-4.443340446173799e-05,-7.177679915007246e-05,-3.85718177050431e-05,3.7333,5.7333
0.3984375,-4.198840743572136e-05,-3.4172958426794835e-05,-6.639567032425421e-05,-3.0756368696116574e-05,3.7333,5.7333
0.40234375,-4.443340446173799e-05,-4.882158689707789e-05,-4.003454518348973e-05,-3.2219096174563204e-05,3.7333,5.7333
0.40625,-4.6376589871061255e-05,-4.7358859418631255e-05,-2.783091373922331e-05,-3.4172958426794835e-05,3.7333,5.7333
0.41015625,-4.7358859418631255e-05,-4.198840743572136e-05,-3.6126820679026465e-05,-2.783091373922331e-05,3.7333,5.7333
0.4140625,-4.784999419241626e-05,-4.5404997166399624e-05,-4.003454518348973e-05,-3.1247503469901573e-05,3.7333,5.7333
0.41796875,-4.1006137888151364e-05,-4.149727266193636e-05,-3.5155227974364834e-05,-2.880250644388494e-05,3.7333,5.7333
0.421875,-3.954341040970473e-05,-4.784999419241626e-05,-3.5155227974364834e-05,-2.4414324008545048e-05,3.7333,5.7333
0.42578125,-4.1006137888151364e-05,-5.126658392309452e-05,-5.6637035906004413e-05,-2.880250644388494e-05,3.7333,5.7333
0.4296875,-4.3942269687953e-05,-5.7608628610666044e-05,-4.149727266193636e-05,-3.6126820679026465e-05,3.7333,5.7333
0.43359375,-4.198840743572136e-05,-5.614590113221942e-05,-2.685932103456168e-05,-3.5155227974364834e-05,3.7333,5.7333
0.4375,-3.5155227974364834e-05,-4.003454518348973e-05,-3.5155227974364834e-05,-3.0265233922331574e-05,3.7333,5.7333
0.44140625,-3.6126820679026465e-05,-3.9052275635919726e-05,-3.3201365722133204e-05,-3.954341040970473e-05,3.7333,5.7333
0.4453125,-3.85718177050431e-05,-3.85718177050431e-05,-3.5635685905241465e-05,-4.1006137888151364e-05,3.7333,5.7333
0.44921875,-3.75895481574731e-05,-3.80806829312581e-05,-2.9293641217669943e-05,-3.661795545281147e-05,3.7333,5.7333
0.453125,-3.661795545281147e-05,-4.149727266193636e-05,-3.75895481574731e-05,-3.6126820679026465e-05,3.7333,5.7333
0.45703125,-4.052567995727473e-05,-4.686772464484626e-05,-4.784999419241626e-05,-3.5635685905241465e-05,3.7333,5.7333
0.4609375,-4.052567995727473e-05,-6.151635311512931e-05,-5.322044617532616e-05,-3.2710230948348204e-05,3.7333,5.7333
0.46484375,-3.710909022659647e-05,-5.175771869687952e-05,-4.784999419241626e-05,-3.6126820679026465e-05,3.7333,5.7333
0.46875,-3.6126820679026465e-05,-4.589613194018463e-05,-4.7358859418631255e-05,-3.6126820679026465e-05,3.7333,5.7333
0.47265625,-3.2219096174563204e-05,-4.3451134914167994e-05,-3.5155227974364834e-05,-3.0756368696116574e-05,3.7333,5.7333
0.4765625,-3.80806829312581e-05,-3.710909022659647e-05,-2.2471138599221783e-05,-3.6126820679026465e-05,3.7333,5.7333
0.48046875,-3.5635685905241465e-05,-3.3681823653009835e-05,-1.1239099859616993e-05,-3.954341040970473e-05,3.7333,5.7333
0.484375,-3.3201365722133204e-05,-2.9293641217669943e-05,-2.2951596530098414e-05,-3.5155227974364834e-05,3.7333,5.7333
0.48828125,-3.80806829312581e-05,-2.5396593556115044e-05,-4.149727266193636e-05,-3.4172958426794835e-05,3.7333,5.7333
0.4921875,-3.5635685905241465e-05,-1.6118417068741892e-05,-2.9293641217669943e-05,-3.3681823653009835e-05,3.7333,5.7333
0.49609375,-3.4664093200579834e-05,-7.331375355153732e-06,-2.685932103456168e-05,-3.3681823653009835e-05,3.7333,5.7333
0.5,-3.710909022659647e-05,-1.660955184252689e-05,-2.3933866077668413e-05,-3.5635685905241465e-05,3.7333,5.7333
0.50390625,-4.247954220950636e-05,-3.4664093200579834e-05,-2.733977896543831e-05,-4.149727266193636e-05,3.7333,5.7333
0.5078125,-4.589613194018463e-05,-4.003454518348973e-05,-3.2710230948348204e-05,-3.710909022659647e-05,3.7333,5.7333
0.51171875,-4.784999419241626e-05,-4.3942269687953e-05,-3.4172958426794835e-05,-2.880250644388494e-05,3.7333,5.7333
0.515625,-4.589613194018463e-05,-3.2710230948348204e-05,-5.175771869687952e-05,-3.710909022659647e-05,3.7333,5.7333
0.51953125,-4.1006137888151364e-05,-3.6126820679026465e-05,-5.859089815823605e-05,-4.198840743572136e-05,3.7333,5.7333
0.5234375,-4.052567995727473e-05,-4.6376589871061255e-05,-2.5887728329900047e-05,-4.003454518348973e-05,3.7333,5.7333
0.52734375,-3.661795545281147e-05,-3.6126820679026465e-05,-1.1239099859616993e-05,-4.198840743572136e-05,3.7333,5.7333
0.53125,-3.4664093200579834e-05,-3.2219096174563204e-05,-1.856341409475852e-05,-3.710909022659647e-05,3.7333,5.7333
0.53515625,-4.003454518348973e-05,-2.5887728329900047e-05,-2.4414324008545048e-05,-3.85718177050431e-05,3.7333,5.7333
0.5390625,-3.80806829312581e-05,-1.9043872025635153e-05,-3.1727961400778205e-05,-4.1006137888151364e-05,3.7333,5.7333
0.54296875,-2.9293641217669943e-05,-3.6126820679026465e-05,-3.1727961400778205e-05,-4.149727266193636e-05,3.7333,5.7333
0.546875,-3.2219096174563204e-05,-5.077544914930952e-05,-4.3942269687953e-05,-4.247954220950636e-05,3.7333,5.7333
0.55078125,-2.880250644388494e-05,-3.3201365722133204e-05,-5.126658392309452e-05,-4.198840743572136e-05,3.7333,5.7333
0.5546875,-2.4905458782330048e-05,-1.6118417068741892e-05,-1.856341409475852e-05,-3.710909022659647e-05,3.7333,5.7333
0.55859375,-3.0756368696116574e-05,-1.9043872025635153e-05,-2.1980003825436783e-05,-3.0756368696116574e-05,3.7333,5.7333
0.5625,-3.1247503469901573e-05,-1.9535006799420153e-05,-2.636818626077668e-05,-3.2219096174563204e-05,3.7333,5.7333
0.56640625,-3.4664093200579834e-05,-1.9043872025635153e-05,-2.685932103456168e-05,-3.954341040970473e-05,3.7333,5.7333
0.5703125,-4.198840743572136e-05,-4.247954220950636e-05,-4.7358859418631255e-05,-4.491386239261463e-05,3.7333,5.7333
0.57421875,-3.75895481574731e-05,-4.3942269687953e-05,-3.661795545281147e-05,-4.491386239261463e-05,3.7333,5.7333
0.578125,-3.661795545281147e-05,-3.2219096174563204e-05,-2.1980003825436783e-05,-3.9052275635919726e-05,3.7333,5.7333
0.58203125,-3.75895481574731e-05,-3.5635685905241465e-05,-3.4172958426794835e-05,-3.0265233922331574e-05,3.7333,5.7333
0.5859375,-3.1247503469901573e-05,-4.3451134914167994e-05,-3.80806829312581e-05,-3.0265233922331574e-05,3.7333,5.7333
0.58984375,-2.0997734277866784e-05,-4.491386239261463e-05,-2.3442731303883417e-05,-3.2710230948348204e-05,3.7333,5.7333
0.59375,-2.4414324008545048e-05,-3.2710230948348204e-05,-2.783091373922331e-05,-3.1247503469901573e-05,3.7333,5.7333
0.59765625,-3.75895481574731e-05,-3.0265233922331574e-05,-4.3942269687953e-05,-3.3681823653009835e-05,3.7333,5.7333
0.6015625,-3.9052275635919726e-05,-3.85718177050431e-05,-5.614590113221942e-05,-3.5635685905241465e-05,3.7333,5.7333
0.60546875,-3.0756368696116574e-05,-4.052567995727473e-05,-3.80806829312581e-05,-3.9052275635919726e-05,3.7333,5.7333
0.609375,-3.85718177050431e-05,-2.880250644388494e-05,-2.3442731303883417e-05,-3.85718177050431e-05,3.7333,5.7333
0.61328125,-4.882158689707789e-05,-1.856341409475852e-05,-1.9535006799420153e-05,-4.247954220950636e-05,3.7333,5.7333
0.6171875,-3.85718177050431e-05,-1.562728229495689e-05,-1.2210692564278624e-05,-3.954341040970473e-05,3.7333,5.7333
0.62109375,-2.831137167009994e-05,-1.9043872025635153e-05,-1.856341409475852e-05,-3.80806829312581e-05,3.7333,5.7333
0.625,-2.831137167009994e-05,-3.6126820679026465e-05,-2.5887728329900047e-05,-4.5404997166399624e-05,3.7333,5.7333
0.62890625,-3.75895481574731e-05,-4.149727266193636e-05,-4.003454518348973e-05,-4.7358859418631255e-05,3.7333,5.7333
0.6328125,-3.4172958426794835e-05,-4.3451134914167994e-05,-5.223817662775615e-05,-4.2960000140382994e-05,3.7333,5.7333
0.63671875,-3.0265233922331574e-05,-4.247954220950636e-05,-3.710909022659647e-05,-3.3201365722133204e-05,3.7333,5.7333
0.640625,-3.661795545281147e-05,-3.954341040970473e-05,-2.880250644388494e-05,-3.661795545281147e-05,3.7333,5.7333
0.64453125,-3.3681823653009835e-05,-4.1006137888151364e-05,-2.5887728329900047e-05,-3.661795545281147e-05,3.7333,5.7333
0.6484375,-2.685932103456168e-05,-3.4172958426794835e-05,-3.954341040970473e-05,-3.5155227974364834e-05,3.7333,5.7333
0.65234375,-3.661795545281147e-05,-3.661795545281147e-05,-5.322044617532616e-05,-4.2960000140382994e-05,3.7333,5.7333
0.65625,-3.661795545281147e-05,-2.783091373922331e-05,-3.5635685905241465e-05,-4.003454518348973e-05,3.7333,5.7333
0.66015625,-3.4172958426794835e-05,-2.1980003825436783e-05,-2.3933866077668413e-05,-4.5404997166399624e-05,3.7333,5.7333
0.6640625,-4.052567995727473e-05,-3.6126820679026465e-05,-3.0265233922331574e-05,-4.882158689707789e-05,3.7333,5.7333
0.66796875,-3.4664093200579834e-05,-3.4172958426794835e-05,-2.9784775991454943e-05,-3.661795545281147e-05,3.7333,5.7333
0.671875,-3.1727961400778205e-05,-2.5396593556115044e-05,-3.661795545281147e-05,-3.0756368696116574e-05,3.7333,5.7333
0.67578125,-2.2951596530098414e-05,-2.783091373922331e-05,-4.1006137888151364e-05,-3.1727961400778205e-05,3.7333,5.7333
0.6796875,-2.0997734277866784e-05,-2.783091373922331e-05,-3.1247503469901573e-05,-3.4664093200579834e-05,3.7333,5.7333
0.68359375,-2.880250644388494e-05,1.9468011322194273e-06,9.271115367360955e-06,-3.3681823653009835e-05,3.7333,5.7333
0.6875,-3.4172958426794835e-05,1.3669974645609222e-05,1.2687705098039216e-05,-2.880250644388494e-05,3.7333,5.7333
0.69140625,-4.589613194018463e-05,-2.2951596530098414e-05,-4.5404997166399624e-05,-2.1980003825436783e-05,3.7333,5.7333
0.6953125,-5.272931140154115e-05,-6.982293689784083e-05,-9.423019978637368e-05,-1.9043872025635153e-05,3.7333,5.7333
0.69921875,-5.223817662775615e-05,-7.567384681162735e-05,-8.447156536812388e-05,-2.5396593556115044e-05,3.7333,5.7333
0.703125,-4.882158689707789e-05,-9.179587960326541e-05,-7.030339482871747e-05,-2.5887728329900047e-05,3.7333,5.7333
0.70703125,-5.956249086289768e-05,-0.00012206472924849316,-8.398043059433888e-05,-1.1239099859616993e-05,3.7333,5.7333
0.7109375,-6.737793987182421e-05,-0.00013231449844052794,-9.130474482948042e-05,-1.960923372243837e-06,3.7333,5.7333
0.71484375,-6.834953257648583e-05,-0.00012011086699626153,-8.690588555123215e-05,-7.061120012203048e-09,3.7333,5.7333
0.71875,-6.884066735027084e-05,-0.00012597245375295643,-0.00010644450807354847,-2.932516076905465e-06,3.7333,5.7333
0.72265625,-6.591521239337757e-05,-0.00014354653718013274,-0.00012597245375295643,-3.4236508506904675e-06,3.7333,5.7333
0.7265625,-6.834953257648583e-05,-0.00013817608519722284,-0.00010449064582131685,1.4556663584344278e-06,3.7333,5.7333
0.73046875,-6.591521239337757e-05,-0.0001342683606927596,-0.00011327768753490499,-7.82251012893873e-06,3.7333,5.7333
0.734375,-5.809976338445105e-05,-0.0001176658699702449,-0.00010986109780422674,-1.1719557790493625e-05,3.7333,5.7333
0.73828125,-6.347021536736094e-05,-9.325860708171206e-05,-7.714725113298237e-05,-1.0747965085831992e-05,3.7333,5.7333
0.7421875,-6.493294284580757e-05,-8.984201735103379e-05,-7.958157131609062e-05,-9.765695538261994e-06,3.7333,5.7333
0.74609375,-5.859089815823605e-05,-9.227633753414206e-05,-8.153543356832226e-05,-1.0747965085831992e-05,3.7333,5.7333
0.75,-5.419203887998779e-05,-8.93508825772488e-05,-7.714725113298237e-05,-1.0747965085831992e-05,3.7333,5.7333
0.75390625,-4.8330452123292885e-05,-7.22572570809491e-05,-5.223817662775615e-05,-1.3673420042725255e-05,3.7333,5.7333
0.7578125,-4.7358859418631255e-05,-6.249862266269931e-05,-4.784999419241626e-05,-1.3673420042725255e-05,3.7333,5.7333
0.76171875,-4.980385644464789e-05,-6.591521239337757e-05,-5.028431437552452e-05,-1.2210692564278624e-05,3.7333,5.7333
0.765625,-5.419203887998779e-05,-6.933180212405583e-05,-3.2219096174563204e-05,-1.7090009773403523e-05,3.7333,5.7333
0.76953125,-5.419203887998779e-05,-6.151635311512931e-05,-3.0756368696116574e-05,-2.4414324008545048e-05,3.7333,5.7333
0.7734375,-4.589613194018463e-05,-4.149727266193636e-05,-3.9052275635919726e-05,-2.880250644388494e-05,3.7333,5.7333
0.77734375,-5.126658392309452e-05,-4.3942269687953e-05,-3.0265233922331574e-05,-3.3681823653009835e-05,3.7333,5.7333
0.78125,-6.102521834134431e-05,-4.931272167086289e-05,-3.954341040970473e-05,-3.3681823653009835e-05,3.7333,5.7333
0.78515625,-5.3700904106202784e-05,-3.3681823653009835e-05,-4.7358859418631255e-05,-3.0756368696116574e-05,3.7333,5.7333
0.7890625,-5.175771869687952e-05,-4.980385644464789e-05,-4.003454518348973e-05,-2.733977896543831e-05,3.7333,5.7333
0.79296875,-5.322044617532616e-05,-6.493294284580757e-05,-2.2471138599221783e-05,-2.5887728329900047e-05,3.7333,5.7333
0.796875,-4.931272167086289e-05,-4.686772464484626e-05,-3.0265233922331574e-05,-2.636818626077668e-05,3.7333,5.7333
0.80078125,-5.175771869687952e-05,-3.4664093200579834e-05,-4.2960000140382994e-05,-2.733977896543831e-05,3.7333,5.7333
0.8046875,-5.077544914930952e-05,-3.954341040970473e-05,-3.661795545281147e-05,-2.3442731303883417e-05,3.7333,5.7333
0.80859375,-4.149727266193636e-05,-4.443340446173799e-05,-2.685932103456168e-05,-2.051727634699015e-05,3.7333,5.7333
0.8125,-4.003454518348973e-05,-4.149727266193636e-05,-1.2210692564278624e-05,-2.4905458782330048e-05,3.7333,5.7333
0.81640625,-3.2710230948348204e-05,-3.661795545281147e-05,-1.1239099859616993e-05,-2.4905458782330048e-05,3.7333,5.7333
0.8203125,-3.4664093200579834e-05,-4.198840743572136e-05,-1.562728229495689e-05,-2.3442731303883417e-05,3.7333,5.7333
0.82421875,-4.686772464484626e-05,-4.198840743572136e-05,-2.9293641217669943e-05,-2.4414324008545048e-05,3.7333,5.7333
0.828125,-4.686772464484626e-05,-4.052567995727473e-05,-2.685932103456168e-05,-2.5396593556115044e-05,3.7333,5.7333
0.83203125,-3.6126820679026465e-05,-4.3942269687953e-05,-1.0256830312046992e-05,-2.3933866077668413e-05,3.7333,5.7333
0.8359375,-2.831137167009994e-05,-3.75895481574731e-05,-1.5146824364080257e-05,-2.4905458782330048e-05,3.7333,5.7333
0.83984375,-3.1247503469901573e-05,-3.0756368696116574e-05,-4.3451134914167994e-05,-3.2710230948348204e-05,3.7333,5.7333
0.84375,-3.1247503469901573e-05,-3.2219096174563204e-05,-6.396135014114594e-05,-4.6376589871061255e-05,3.7333,5.7333
0.84765625,-3.2219096174563204e-05,-4.3451134914167994e-05,-1.4164554816510256e-05,-3.954341040970473e-05,3.7333,5.7333
0.8515625,-3.75895481574731e-05,-3.9052275635919726e-05,-1.0256830312046992e-05,-3.1247503469901573e-05,3.7333,5.7333
0.85546875,-4.247954220950636e-05,-4.003454518348973e-05,-4.8330452123292885e-05,-4.198840743572136e-05,3.7333,5.7333
0.859375,-3.6126820679026465e-05,-3.4664093200579834e-05,-2.783091373922331e-05,-4.1006137888151364e-05,3.7333,5.7333
0.86328125,-2.733977896543831e-05,-3.661795545281147e-05,-2.880250644388494e-05,-3.1727961400778205e-05,3.7333,5.7333
0.8671875,-2.0997734277866784e-05,-4.3942269687953e-05,-3.4172958426794835e-05,-3.1727961400778205e-05,3.7333,5.7333
0.87109375,-2.685932103456168e-05,-2.636818626077668e-05,-4.491386239261463e-05,-2.733977896543831e-05,3.7333,5.7333
0.875,-3.1727961400778205e-05,-3.1247503469901573e-05,-3.4172958426794835e-05,-3.0756368696116574e-05,3.7333,5.7333
0.87890625,-2.4905458782330048e-05,-2.1488869051651783e-05,-1.1239099859616993e-05,-4.247954220950636e-05,3.7333,5.7333
0.8828125,-1.9535006799420153e-05,-2.932516076905465e-06,-1.9535006799420153e-05,-3.710909022659647e-05,3.7333,5.7333
0.88671875,-2.1488869051651783e-05,-2.4905458782330048e-05,-2.002614157320515e-05,-3.80806829312581e-05,3.7333,5.7333
0.890625,-3.3681823653009835e-05,-2.636818626077668e-05,-1.8072279320973522e-05,-3.9052275635919726e-05,3.7333,5.7333
0.89453125,-4.5404997166399624e-05,-3.710909022659647e-05,-1.1239099859616993e-05,-2.5887728329900047e-05,3.7333,5.7333
0.8984375,-3.5635685905241465e-05,-5.175771869687952e-05,-2.1488869051651783e-05,-3.0756368696116574e-05,3.7333,5.7333
0.90234375,-2.9293641217669943e-05,-4.8330452123292885e-05,-2.880250644388494e-05,-3.710909022659647e-05,3.7333,5.7333
0.90625,-3.5155227974364834e-05,-4.3451134914167994e-05,-2.636818626077668e-05,-3.2710230948348204e-05,3.7333,5.7333
0.91015625,-3.1727961400778205e-05,-3.3681823653009835e-05,-4.784999419241626e-05,-3.5635685905241465e-05,3.7333,5.7333
0.9140625,-3.0265233922331574e-05,-2.783091373922331e-05,-3.954341040970473e-05,-3.75895481574731e-05,3.7333,5.7333
0.91796875,-3.4664093200579834e-05,-3.1727961400778205e-05,-2.441381303120465e-06,-3.4664093200579834e-05,3.7333,5.7333
0.921875,-4.2960000140382994e-05,-3.80806829312581e-05,-1.6118417068741892e-05,-3.1247503469901573e-05,3.7333,5.7333
0.92578125,-4.052567995727473e-05,-3.1247503469901573e-05,-2.9784775991454943e-05,-4.003454518348973e-05,3.7333,5.7333
0.9296875,-3.5635685905241465e-05,-2.051727634699015e-05,-1.4164554816510256e-05,-4.8330452123292885e-05,3.7333,5.7333
0.93359375,-4.686772464484626e-05,-2.4905458782330048e-05,-3.661795545281147e-05,-3.3201365722133204e-05,3.7333,5.7333
0.9375,-4.003454518348973e-05,-2.0997734277866784e-05,-3.80806829312581e-05,-3.4172958426794835e-05,3.7333,5.7333
0.94140625,-3.3681823653009835e-05,-2.831137167009994e-05,-3.0756368696116574e-05,-3.80806829312581e-05,3.7333,5.7333
0.9453125,-3.1727961400778205e-05,-4.3451134914167994e-05,-3.661795545281147e-05,-3.0756368696116574e-05,3.7333,5.7333
0.94921875,-2.5887728329900047e-05,-2.5887728329900047e-05,-3.0265233922331574e-05,-2.685932103456168e-05,3.7333,5.7333
0.953125,-2.685932103456168e-05,-2.2471138599221783e-05,-1.0747965085831992e-05,-2.9784775991454943e-05,3.7333,5.7333
0.95703125,-3.1727961400778205e-05,-3.1247503469901573e-05,-1.4697885984588338e-06,-2.880250644388494e-05,3.7333,5.7333
0.9609375,-2.783091373922331e-05,-6.349105807583729e-06,-1.5146824364080257e-05,-2.4414324008545048e-05,3.7333,5.7333
0.96484375,-2.2471138599221783e-05,-1.562728229495689e-05,-2.5396593556115044e-05,-2.880250644388494e-05,3.7333,5.7333
0.96875,-3.710909022659647e-05,-3.5635685905241465e-05,-2.831137167009994e-05,-3.2710230948348204e-05,3.7333,5.7333
0.97265625,-5.517430842755779e-05,-2.2471138599221783e-05,-2.9784775991454943e-05,-2.9293641217669943e-05,3.7333,5.7333
0.9765625,-5.028431437552452e-05,-2.2471138599221783e-05,-4.149727266193636e-05,-3.2219096174563204e-05,3.7333,5.7333
0.98046875,-3.661795545281147e-05,-2.002614157320515e-05,-3.3201365722133204e-05,-3.85718177050431e-05,3.7333,5.7333
0.984375,-3.4664093200579834e-05,-3.0756368696116574e-05,-2.733977896543831e-05,-4.003454518348973e-05,3.7333,5.7333
0.98828125,-4.1006137888151364e-05,-3.0265233922331574e-05,-4.247954220950636e-05,-3.661795545281147e-05,3.7333,5.7333
0.9921875,-4.5404997166399624e-05,-1.7090009773403523e-05,-2.9293641217669943e-05,-3.80806829312581e-05,3.7333,5.7333
0.99609375,-3.661795545281147e-05,-3.1727961400778205e-05,-3.3201365722133204e-05,-4.443340446173799e-05,3.7333,5.7333
1.0,-2.051727634699015e-05,-3.85718177050431e-05,-5.272931140154115e-05,-4.3942269687953e-05,3.7333,5.7333
1.00390625,-1.562728229495689e-05,-3.1247503469901573e-05,-3.80806829312581e-05,-3.80806829312581e-05,3.7333,5.7333
1.0078125,-1.660955184252689e-05,-2.1980003825436783e-05,-2.1488869051651783e-05,-3.2219096174563204e-05,3.7333,5.7333
1.01171875,-1.9535006799420153e-05,-1.7581144547188522e-05,-2.1488869051651783e-05,-2.9293641217669943e-05,3.7333,5.7333
1.015625,-2.685932103456168e-05,-1.7090009773403523e-05,-1.4655689590295256e-05,-2.3442731303883417e-05,3.7333,5.7333
1.01953125,-2.636818626077668e-05,-3.710909022659647e-05,-8.794102833600362e-06,-1.9043872025635153e-05,3.7333,5.7333
1.0234375,-1.9535006799420153e-05,-2.880250644388494e-05,-1.2701827338063624e-05,-2.4414324008545048e-05,3.7333,5.7333
1.02734375,-2.636818626077668e-05,-1.562728229495689e-05,-2.0997734277866784e-05,-2.5887728329900047e-05,3.7333,5.7333
1.03125,-2.685932103456168e-05,-2.3933866077668413e-05,-2.9293641217669943e-05,-3.4172958426794835e-05,3.7333,5.7333
1.03515625,-2.880250644388494e-05,-1.3673420042725255e-05,-3.3201365722133204e-05,-3.5635685905241465e-05,3.7333,5.7333
1.0390625,-3.0265233922331574e-05,1.7577699150072483e-05,-4.886378329137098e-06,-2.636818626077668e-05,3.7333,5.7333
1.04296875,-1.7090009773403523e-05,6.345660410467694e-06,2.43793590600443e-06,-2.733977896543831e-05,3.7333,5.7333
1.046875,-2.733977896543831e-05,-2.5396593556115044e-05,-2.9784775991454943e-05,-2.9784775991454943e-05,3.7333,5.7333
1.05078125,-3.1247503469901573e-05,-2.1980003825436783e-05,-4.198840743572136e-05,-3.5155227974364834e-05,3.7333,5.7333
1.0546875,-2.783091373922331e-05,-1.1239099859616993e-05,-3.4172958426794835e-05,-3.2710230948348204e-05,3.7333,5.7333
1.05859375,-3.4172958426794835e-05,-1.2210692564278624e-05,-3.2710230948348204e-05,-3.661795545281147e-05,3.7333,5.7333
1.0625,-3.1727961400778205e-05,-3.0265233922331574e-05,-2.3933866077668413e-05,-4.003454518348973e-05,3.7333,5.7333
1.06640625,-2.5396593556115044e-05,-2.9784775991454943e-05,-3.3201365722133204e-05,-3.5155227974364834e-05,3.7333,5.7333
1.0703125,-2.3933866077668413e-05,-8.794102833600362e-06,-3.1247503469901573e-05,-3.3201365722133204e-05,3.7333,5.7333
1.07421875,-2.685932103456168e-05,-8.302968059815363e-06,-1.6118417068741892e-05,-3.6126820679026465e-05,3.7333,5.7333
1.078125,-2.9784775991454943e-05,-2.002614157320515e-05,-3.9052275635919726e-05,-3.9052275635919726e-05,3.7333,5.7333
1.08203125,-2.831137167009994e-05,-1.6118417068741892e-05,-5.468317365377278e-05,-4.1006137888151364e-05,3.7333,5.7333
1.0859375,-2.783091373922331e-05,-2.685932103456168e-05,-3.710909022659647e-05,-4.491386239261463e-05,3.7333,5.7333
1.08984375,-2.831137167009994e-05,-2.636818626077668e-05,-1.3192962111848625e-05,-4.149727266193636e-05,3.7333,5.7333
1.09375,-2.9784775991454943e-05,-1.1239099859616993e-05,-2.4414324008545048e-05,-3.954341040970473e-05,3.7333,5.7333
1.09765625,-3.5635685905241465e-05,-1.7090009773403523e-05,-2.880250644388494e-05,-4.198840743572136e-05,3.7333,5.7333
1.1015625,-3.954341040970473e-05,-2.5396593556115044e-05,-3.9052275635919726e-05,-4.931272167086289e-05,3.7333,5.7333
1.10546875,-3.954341040970473e-05,-3.954341040970473e-05,-4.980385644464789e-05,-4.980385644464789e-05,3.7333,5.7333
1.109375,-4.3942269687953e-05,-4.589613194018463e-05,-2.2471138599221783e-05,-4.3451134914167994e-05,3.7333,5.7333
1.11328125,-4.247954220950636e-05,-4.3451134914167994e-05,-2.685932103456168e-05,-3.5635685905241465e-05,3.7333,5.7333
1.1171875,-3.75895481574731e-05,-3.3681823653009835e-05,-2.9784775991454943e-05,-3.0756368696116574e-05,3.7333,5.7333
1.12109375,-4.052567995727473e-05,-1.5146824364080257e-05,-2.636818626077668e-05,-3.9052275635919726e-05,3.7333,5.7333
1.125,-3.85718177050431e-05,-2.4414324008545048e-05,-3.661795545281147e-05,-4.052567995727473e-05,3.7333,5.7333
1.12890625,-3.9052275635919726e-05,-4.5404997166399624e-05,-3.6126820679026465e-05,-3.80806829312581e-05,3.7333,5.7333
1.1328125,-4.198840743572136e-05,-5.126658392309452e-05,-3.0756368696116574e-05,-3.9052275635919726e-05,3.7333,5.7333
1.13671875,-4.1006137888151364e-05,-4.491386239261463e-05,-2.1980003825436783e-05,-3.5155227974364834e-05,3.7333,5.7333
1.140625,-3.9052275635919726e-05,-2.880250644388494e-05,-3.0265233922331574e-05,-3.1727961400778205e-05,3.7333,5.7333
1.14453125,-2.783091373922331e-05,-3.2710230948348204e-05,-4.149727266193636e-05,-2.831137167009994e-05,3.7333,5.7333
1.1484375,-2.880250644388494e-05,-3.85718177050431e-05,-2.733977896543831e-05,-3.6126820679026465e-05,3.7333,5.7333
1.15234375,-3.3681823653009835e-05,-1.856341409475852e-05,-3.9052275635919726e-05,-4.2960000140382994e-05,3.7333,5.7333
1.15625,-3.9052275635919726e-05,-1.1239099859616993e-05,-5.7608628610666044e-05,-4.686772464484626e-05,3.7333,5.7333
1.16015625,-4.198840743572136e-05,-1.9043872025635153e-05,-2.9784775991454943e-05,-4.6376589871061255e-05,3.7333,5.7333
1.1640625,-3.710909022659647e-05,-2.2951596530098414e-05,-2.002614157320515e-05,-3.80806829312581e-05,3.7333,5.7333
1.16796875,-3.85718177050431e-05,-4.686772464484626e-05,-4.003454518348973e-05,-3.5635685905241465e-05,3.7333,5.7333
1.171875,-3.9052275635919726e-05,-4.589613194018463e-05,-4.149727266193636e-05,-3.85718177050431e-05,3.7333,5.7333
1.17578125,-4.5404997166399624e-05,-3.2710230948348204e-05,-4.2960000140382994e-05,-3.1247503469901573e-05,3.7333,5.7333
1.1796875,-4.686772464484626e-05,-4.3942269687953e-05,-3.85718177050431e-05,-3.0756368696116574e-05,3.7333,5.7333
1.18359375,-4.2960000140382994e-05,-4.5404997166399624e-05,-3.5155227974364834e-05,-3.6126820679026465e-05,3.7333,5.7333
1.1875,-4.3451134914167994e-05,-4.149727266193636e-05,-3.6126820679026465e-05,-3.661795545281147e-05,3.7333,5.7333
1.19140625,-4.3942269687953e-05,-5.126658392309452e-05,-5.956249086289768e-05,-3.5635685905241465e-05,3.7333,5.7333
1.1953125,-4.5404997166399624e-05,-3.661795545281147e-05,-4.7358859418631255e-05,-3.710909022659647e-05,3.7333,5.7333
1.19921875,-4.6376589871061255e-05,-3.0756368696116574e-05,-2.5396593556115044e-05,-4.052567995727473e-05,3.7333,5.7333
1.203125,-5.3700904106202784e-05,-6.102521834134431e-05,-3.5155227974364834e-05,-3.9052275635919726e-05,3.7333,5.7333
1.20703125,-6.249862266269931e-05,-4.686772464484626e-05,-2.441381303120465e-06,-3.0756368696116574e-05,3.7333,5.7333
1.2109375,-4.980385644464789e-05,-1.8072279320973522e-05,3.900663384451061e-06,-3.0756368696116574e-05,3.7333,5.7333
1.21484375,-3.1247503469901573e-05,-3.3201365722133204e-05,-5.517430842755779e-05,-4.2960000140382994e-05,3.7333,5.7333
1.21875,-3.6126820679026465e-05,-4.3942269687953e-05,-6.151635311512931e-05,-4.2960000140382994e-05,3.7333,5.7333
1.22265625,-4.198840743572136e-05,-2.002614157320515e-05,-1.3192962111848625e-05,-4.491386239261463e-05,3.7333,5.7333
1.2265625,-3.3201365722133204e-05,-4.395243555352099e-06,-2.783091373922331e-05,-5.3700904106202784e-05,3.7333,5.7333
1.23046875,-2.880250644388494e-05,-6.349105807583729e-06,-2.3933866077668413e-05,-5.907135608911268e-05,3.7333,5.7333
1.234375,-2.9784775991454943e-05,-1.960923372243837e-06,-9.786538246738344e-07,-5.6637035906004413e-05,3.7333,5.7333
1.23828125,-2.9784775991454943e-05,-7.82251012893873e-06,-3.2710230948348204e-05,-6.054476041046768e-05,3.7333,5.7333
1.2421875,-3.1247503469901573e-05,-2.1980003825436783e-05,-2.3933866077668413e-05,-6.493294284580757e-05,3.7333,5.7333
1.24609375,-3.2219096174563204e-05,-1.3192962111848625e-05,2.9290706797894293e-06,-5.859089815823605e-05,3.7333,5.7333
1.25,-2.783091373922331e-05,-1.960923372243837e-06,6.345660410467694e-06,-5.859089815823605e-05,3.7333,5.7333
1.25390625,-2.783091373922331e-05,-6.349105807583729e-06,-4.886378329137098e-06,-5.5654766358434414e-05,3.7333,5.7333
1.2578125,-3.85718177050431e-05,-5.868647876707097e-06,-1.5146824364080257e-05,-5.223817662775615e-05,3.7333,5.7333
1.26171875,-4.3942269687953e-05,-8.794102833600362e-06,-1.1719557790493625e-05,-4.931272167086289e-05,3.7333,5.7333
1.265625,-4.443340446173799e-05,-2.831137167009994e-05,-3.661795545281147e-05,-4.2960000140382994e-05,3.7333,5.7333
1.26953125,-3.80806829312581e-05,-3.5155227974364834e-05,-3.85718177050431e-05,-4.198840743572136e-05,3.7333,5.7333
1.2734375,-2.9293641217669943e-05,-2.2471138599221783e-05,-2.4414324008545048e-05,-4.443340446173799e-05,3.7333,5.7333
1.27734375,-3.2219096174563204e-05,-1.6118417068741892e-05,-2.3442731303883417e-05,-4.443340446173799e-05,3.7333,5.7333
1.28125,-3.1727961400778205e-05,-1.3673420042725255e-05,-2.5887728329900047e-05,-3.85718177050431e-05,3.7333,5.7333
1.28515625,-3.6126820679026465e-05,-2.9784775991454943e-05,-2.636818626077668e-05,-4.052567995727473e-05,3.7333,5.7333
1.2890625,-4.443340446173799e-05,-4.491386239261463e-05,-2.1488869051651783e-05,-3.3681823653009835e-05,3.7333,5.7333
1.29296875,-4.149727266193636e-05,-4.052567995727473e-05,-3.2710230948348204e-05,-3.0265233922331574e-05,3.7333,5.7333
1.296875,-3.9052275635919726e-05,-3.661795545281147e-05,-3.6126820679026465e-05,-4.149727266193636e-05,3.7333,5.7333
1.30078125,-3.4664093200579834e-05,-3.1727961400778205e-05,-2.9293641217669943e-05,-3.661795545281147e-05,3.7333,5.7333
1.3046875,-3.1247503469901573e-05,-3.4172958426794835e-05,-2.783091373922331e-05,-3.0265233922331574e-05,3.7333,5.7333
1.30859375,-4.1006137888151364e-05,-3.85718177050431e-05,-3.2219096174563204e-05,-3.0756368696116574e-05,3.7333,5.7333
1.3125,-4.6376589871061255e-05,-4.491386239261463e-05,-3.4664093200579834e-05,-3.0265233922331574e-05,3.7333,5.7333
1.31640625,-2.9784775991454943e-05,-2.9784775991454943e-05,-3.3201365722133204e-05,-3.3201365722133204e-05,3.7333,5.7333
1.3203125,-2.3442731303883417e-05,-2.1488869051651783e-05,-3.3681823653009835e-05,-3.2219096174563204e-05,3.7333,5.7333
1.32421875,-3.2219096174563204e-05,-3.5155227974364834e-05,-3.3681823653009835e-05,-2.9293641217669943e-05,3.7333,5.7333
1.328125,-3.4172958426794835e-05,-3.5155227974364834e-05,-3.661795545281147e-05,-3.2219096174563204e-05,3.7333,5.7333
1.33203125,-3.4664093200579834e-05,-3.4664093200579834e-05,-4.003454518348973e-05,-3.4664093200579834e-05,3.7333,5.7333
1.3359375,-4.003454518348973e-05,-3.5635685905241465e-05,-4.198840743572136e-05,-2.783091373922331e-05,3.7333,5.7333
1.33984375,-3.80806829312581e-05,-3.0265233922331574e-05,-3.4172958426794835e-05,-2.051727634699015e-05,3.7333,5.7333
1.34375,-3.2219096174563204e-05,-3.0265233922331574e-05,-3.0756368696116574e-05,-2.2951596530098414e-05,3.7333,5.7333
1.34765625,-3.3201365722133204e-05,-3.5155227974364834e-05,-3.3201365722133204e-05,-2.5396593556115044e-05,3.7333,5.7333
1.3515625,-3.3681823653009835e-05,-3.2710230948348204e-05,-3.5155227974364834e-05,-2.636818626077668e-05,3.7333,5.7333
1.35546875,-2.636818626077668e-05,-3.4664093200579834e-05,-3.9052275635919726e-05,-2.9784775991454943e-05,3.7333,5.7333
1.359375,-2.5396593556115044e-05,-3.75895481574731e-05,-2.783091373922331e-05,-2.831137167009994e-05,3.7333,5.7333
1.36328125,-2.9784775991454943e-05,-4.149727266193636e-05,-3.3681823653009835e-05,-3.2219096174563204e-05,3.7333,5.7333
1.3671875,-2.733977896543831e-05,-4.3451134914167994e-05,-2.880250644388494e-05,-3.2710230948348204e-05,3.7333,5.7333
1.37109375,-3.5155227974364834e-05,-4.589613194018463e-05,-2.831137167009994e-05,-3.4172958426794835e-05,3.7333,5.7333
1.375,-4.052567995727473e-05,-4.247954220950636e-05,-3.3201365722133204e-05,-3.710909022659647e-05,3.7333,5.7333
1.37890625,-3.5635685905241465e-05,-4.3451134914167994e-05,-3.4664093200579834e-05,-3.710909022659647e-05,3.7333,5.7333
1.3828125,-3.1247503469901573e-05,-3.710909022659647e-05,-5.614590113221942e-05,-4.198840743572136e-05,3.7333,5.7333
1.38671875,-3.3681823653009835e-05,-3.710909022659647e-05,-4.784999419241626e-05,-4.491386239261463e-05,3.7333,5.7333
1.390625,-4.443340446173799e-05,-5.077544914930952e-05,-5.3700904106202784e-05,-4.003454518348973e-05,3.7333,5.7333
1.39453125,-4.6376589871061255e-05,-4.2960000140382994e-05,-5.468317365377278e-05,-3.3201365722133204e-05,3.7333,5.7333
1.3984375,-3.5635685905241465e-05,-2.831137167009994e-05,-3.5155227974364834e-05,-3.75895481574731e-05,3.7333,5.7333
1.40234375,-3.0265233922331574e-05,-4.247954220950636e-05,-3.2710230948348204e-05,-3.2710230948348204e-05,3.7333,5.7333
1.40625,-3.3201365722133204e-05,-4.8330452123292885e-05,-2.831137167009994e-05,-3.1727961400778205e-05,3.7333,5.7333
1.41015625,-3.6126820679026465e-05,-4.686772464484626e-05,-4.3451134914167994e-05,-3.954341040970473e-05,3.7333,5.7333
1.4140625,-3.710909022659647e-05,-4.052567995727473e-05,-5.468317365377278e-05,-4.052567995727473e-05,3.7333,5.7333
1.41796875,-3.3681823653009835e-05,-3.2219096174563204e-05,-5.614590113221942e-05,-4.003454518348973e-05,3.7333,5.7333
1.421875,-3.9052275635919726e-05,-3.75895481574731e-05,-4.931272167086289e-05,-3.661795545281147e-05,3.7333,5.7333
1.42578125,-3.954341040970473e-05,-5.3700904106202784e-05,-4.980385644464789e-05,-4.052567995727473e-05,3.7333,5.7333
1.4296875,-3.5155227974364834e-05,-4.931272167086289e-05,-3.80806829312581e-05,-4.149727266193636e-05,3.7333,5.7333
1.43359375,-3.9052275635919726e-05,-3.2219096174563204e-05,-1.1719557790493625e-05,-3.6126820679026465e-05,3.7333,5.7333
1.4375,-3.4664093200579834e-05,-2.5396593556115044e-05,-2.002614157320515e-05,-4.003454518348973e-05,3.7333,5.7333
1.44140625,-3.2219096174563204e-05,-3.4664093200579834e-05,-2.9784775991454943e-05,-3.75895481574731e-05,3.7333,5.7333
1.4453125,-4.1006137888151364e-05,-4.198840743572136e-05,-4.198840743572136e-05,-2.733977896543831e-05,3.7333,5.7333
1.44921875,-4.052567995727473e-05,-3.2710230948348204e-05,-4.686772464484626e-05,-3.1247503469901573e-05,3.7333,5.7333
1.453125,-3.5155227974364834e-05,-2.1980003825436783e-05,-3.9052275635919726e-05,-3.4664093200579834e-05,3.7333,5.7333
1.45703125,-3.85718177050431e-05,-3.4172958426794835e-05,-3.1727961400778205e-05,-3.1727961400778205e-05,3.7333,5.7333
1.4609375,-4.198840743572136e-05,-4.491386239261463e-05,-2.051727634699015e-05,-3.0756368696116574e-05,3.7333,5.7333
1.46484375,-4.149727266193636e-05,-4.003454518348973e-05,-2.4905458782330048e-05,-3.2219096174563204e-05,3.7333,5.7333
1.46875,-4.198840743572136e-05,-3.3681823653009835e-05,-4.3451134914167994e-05,-3.0265233922331574e-05,3.7333,5.7333
1.47265625,-3.9052275635919726e-05,-3.661795545281147e-05,-3.2219096174563204e-05,-2.5396593556115044e-05,3.7333,5.7333
1.4765625,-3.4172958426794835e-05,-3.6126820679026465e-05,-1.9535006799420153e-05,-2.831137167009994e-05,3.7333,5.7333
1.48046875,-3.4664093200579834e-05,-3.3681823653009835e-05,-4.198840743572136e-05,-3.2219096174563204e-05,3.7333,5.7333
1.484375,-3.1247503469901573e-05,-4.443340446173799e-05,-4.5404997166399624e-05,-3.1727961400778205e-05,3.7333,5.7333
1.48828125,-3.1727961400778205e-05,-4.491386239261463e-05,-4.6376589871061255e-05,-3.4664093200579834e-05,3.7333,5.7333
1.4921875,-3.85718177050431e-05,-3.6126820679026465e-05,-6.737793987182421e-05,-3.1247503469901573e-05,3.7333,5.7333
1.49609375,-3.80806829312581e-05,-3.954341040970473e-05,-5.5654766358434414e-05,-3.2219096174563204e-05,3.7333,5.7333
1.5,-4.3942269687953e-05,-3.954341040970473e-05,-3.3201365722133204e-05,-3.661795545281147e-05,3.7333,5.7333
1.50390625,-4.931272167086289e-05,-4.3942269687953e-05,-3.3681823653009835e-05,-3.1247503469901573e-05,3.7333,5.7333
1.5078125,-4.686772464484626e-05,-4.443340446173799e-05,-3.85718177050431e-05,-3.85718177050431e-05,3.7333,5.7333
1.51171875,-4.247954220950636e-05,-4.7358859418631255e-05,-3.0756368696116574e-05,-3.3201365722133204e-05,3.7333,5.7333
1.515625,-4.784999419241626e-05,-6.688680509803922e-05,-3.75895481574731e-05,-2.880250644388494e-05,3.7333,5.7333
1.51953125,-4.7358859418631255e-05,-6.591521239337757e-05,-5.175771869687952e-05,-3.4664093200579834e-05,3.7333,5.7333
1.5234375,-4.149727266193636e-05,-5.809976338445105e-05,-3.3681823653009835e-05,-2.3933866077668413e-05,3.7333,5.7333
1.52734375,-4.589613194018463e-05,-6.102521834134431e-05,-1.4164554816510256e-05,-2.0997734277866784e-05,3.7333,5.7333
1.53125,-4.980385644464789e-05,-4.784999419241626e-05,-2.831137167009994e-05,-2.1980003825436783e-05,3.7333,5.7333
1.53515625,-4.589613194018463e-05,-3.85718177050431e-05,-2.1980003825436783e-05,-1.856341409475852e-05,3.7333,5.7333
1.5390625,-4.491386239261463e-05,-3.85718177050431e-05,-2.5396593556115044e-05,-1.856341409475852e-05,3.7333,5.7333
1.54296875,-4.443340446173799e-05,-3.661795545281147e-05,-4.589613194018463e-05,-2.5887728329900047e-05,3.7333,5.7333
1.546875,-3.3201365722133204e-05,-3.661795545281147e-05,-4.8330452123292885e-05,-2.9293641217669943e-05,3.7333,5.7333
1.55078125,-3.75895481574731e-05,-4.6376589871061255e-05,-4.3451134914167994e-05,-2.880250644388494e-05,3.7333,5.7333
1.5546875,-4.491386239261463e-05,-5.028431437552452e-05,-3.2710230948348204e-05,-2.733977896543831e-05,3.7333,5.7333
1.55859375,-4.003454518348973e-05,-3.75895481574731e-05,-1.856341409475852e-05,-2.3933866077668413e-05,3.7333,5.7333
1.5625,-3.5155227974364834e-05,-3.9052275635919726e-05,-1.0256830312046992e-05,-2.3442731303883417e-05,3.7333,5.7333
1.56640625,-3.5155227974364834e-05,-4.5404997166399624e-05,-1.8072279320973522e-05,-2.9293641217669943e-05,3.7333,5.7333
1.5703125,-3.5635685905241465e-05,-4.1006137888151364e-05,-3.710909022659647e-05,-2.4414324008545048e-05,3.7333,5.7333
1.57421875,-3.4664093200579834e-05,-5.3700904106202784e-05,-5.956249086289768e-05,-1.7090009773403523e-05,3.7333,5.7333
1.578125,-3.0265233922331574e-05,-4.5404997166399624e-05,-3.9052275635919726e-05,-1.9535006799420153e-05,3.7333,5.7333
1.58203125,-3.1247503469901573e-05,-2.5396593556115044e-05,-1.6118417068741892e-05,-1.7581144547188522e-05,3.7333,5.7333
1.5859375,-3.5155227974364834e-05,-4.003454518348973e-05,-2.636818626077668e-05,-1.4164554816510256e-05,3.7333,5.7333
1.58984375,-3.3201365722133204e-05,-3.661795545281147e-05,-8.794102833600362e-06,-2.0997734277866784e-05,3.7333,5.7333
1.59375,-3.0756368696116574e-05,-3.85718177050431e-05,-1.7581144547188522e-05,-3.4664093200579834e-05,3.7333,5.7333
1.59765625,-3.0756368696116574e-05,-4.6376589871061255e-05,-2.5887728329900047e-05,-2.880250644388494e-05,3.7333,5.7333
1.6015625,-4.1006137888151364e-05,-7.9101113385214e-05,-2.831137167009994e-05,-1.2701827338063624e-05,3.7333,5.7333
1.60546875,-4.052567995727473e-05,-8.739702032501716e-05,-2.9293641217669943e-05,-1.562728229495689e-05,3.7333,5.7333
1.609375,-3.661795545281147e-05,-2.733977896543831e-05,-2.685932103456168e-05,-2.4905458782330048e-05,3.7333,5.7333
1.61328125,-4.003454518348973e-05,9.752084275577957e-07,-4.882158689707789e-05,-2.4414324008545048e-05,3.7333,5.7333
1.6171875,-3.75895481574731e-05,-3.914785624475467e-06,-5.809976338445105e-05,-2.880250644388494e-05,3.7333,5.7333
1.62109375,-4.003454518348973e-05,-1.660955184252689e-05,-2.831137167009994e-05,-3.1247503469901573e-05,3.7333,5.7333
1.625,-4.052567995727473e-05,-3.0265233922331574e-05,-3.1247503469901573e-05,-1.2210692564278624e-05,3.7333,5.7333
1.62890625,-2.9784775991454943e-05,-4.589613194018463e-05,-6.151635311512931e-05,-1.0747965085831992e-05,3.7333,5.7333
1.6328125,-2.831137167009994e-05,-3.3681823653009835e-05,-4.1006137888151364e-05,-3.3681823653009835e-05,3.7333,5.7333
1.63671875,-4.443340446173799e-05,-3.0756368696116574e-05,-3.0265233922331574e-05,-3.0756368696116574e-05,3.7333,5.7333
1.640625,-4.882158689707789e-05,-7.32395266285191e-05,-6.347021536736094e-05,-1.8072279320973522e-05,3.7333,5.7333
1.64453125,-4.052567995727473e-05,-9.276747230792705e-05,-8.153543356832226e-05,-6.840240581368729e-06,3.7333,5.7333
1.6484375,-4.052567995727473e-05,-6.834953257648583e-05,-7.665611635919736e-05,1.4556663584344278e-06,3.7333,5.7333
1.65234375,-4.491386239261463e-05,-7.9101113385214e-05,-8.348929582055388e-05,-6.840240581368729e-06,3.7333,5.7333
1.65625,-5.272931140154115e-05,-9.325860708171206e-05,-5.907135608911268e-05,3.409528610666058e-06,3.7333,5.7333
1.66015625,-4.686772464484626e-05,-6.249862266269931e-05,-4.686772464484626e-05,9.762250141145955e-06,3.7333,5.7333
1.6640625,-2.1488869051651783e-05,-6.78690746456092e-05,-7.128566437628747e-05,4.39179815823606e-06,3.7333,5.7333
1.66796875,-3.1247503469901573e-05,-0.0001254813189791714,-0.00011424928023956663,-7.061120012203048e-09,3.7333,5.7333
1.671875,-4.149727266193636e-05,-0.00013085177096208134,-0.00012889790870984966,2.9290706797894293e-06,3.7333,5.7333
1.67578125,-2.733977896543831e-05,-0.00012352745672693978,-0.00011523154978713663,8.299522662699324e-06,3.7333,5.7333
1.6796875,-2.831137167009994e-05,-0.000146963126910811,-0.00014745426168459602,-4.886378329137098e-06,3.7333,5.7333
1.68359375,-2.4905458782330048e-05,-0.00016551947988555733,-0.00017333492889448385,-1.2210692564278624e-05,3.7333,5.7333
1.6875,-2.051727634699015e-05,-0.00016405675240711067,-0.00017235265934691384,-1.2210692564278624e-05,3.7333,5.7333
1.69140625,-9.285237607385361e-06,-0.00016113129745021744,-0.00019432560205233842,-2.2951596530098414e-05,3.7333,5.7333
1.6953125,-3.4236508506904675e-06,-0.00019481673682612342,-0.00023046671529716942,-3.5635685905241465e-05,3.7333,5.7333
1.69921875,-7.061120012203048e-09,-0.00020703104511329823,-0.00025439352025482566,-4.3942269687953e-05,3.7333,5.7333
1.703125,9.271115367360955e-06,-0.00021825240700999463,-0.0002788007831433585,-4.491386239261463e-05,3.7333,5.7333
1.70703125,1.4641567350270846e-05,-0.00025439352025482566,-0.0002783096483695735,-6.297908059357594e-05,3.7333,5.7333
1.7109375,2.0503154106965744e-05,-0.0002534112507072556,-0.0002812457801693751,-8.544315807278553e-05,3.7333,5.7333
1.71484375,1.7577699150072483e-05,-0.0002387626222369726,-0.0002841712351262684,-8.788815509880215e-05,3.7333,5.7333
1.71875,2.2948151132982375e-05,-0.0002661060169253071,-0.00030077372584878304,-8.885974780346379e-05,3.7333,5.7333
1.72265625,1.9520884559395745e-05,-0.0002651344242206454,-0.0003129880341359579,-0.00010009178654306858,3.7333,5.7333
1.7265625,2.2457016359197375e-05,-0.0002236228589929045,-0.0002719676036820019,-0.00011132382528267337,3.7333,5.7333
1.73046875,4.296723158617533e-05,-0.00021874354178377963,-0.00027538419341268023,-0.00012109313654383153,3.7333,5.7333
1.734375,5.614245573510338e-05,-0.00019677059907835507,-0.00030126486062256804,-0.0001342683606927596,3.7333,5.7333
1.73828125,7.323608123140306e-05,-0.00018505810240787362,-0.00027684692089112683,-0.00013817608519722284,3.7333,5.7333
1.7421875,8.593084744945448e-05,-0.00019579900637369343,-0.00022948444574959944,-0.00014111221699702445,3.7333,5.7333
1.74609375,7.909766798809796e-05,-0.00016796447691157397,-0.00019726173385214003,-0.0001396388126756695,3.7333,5.7333
1.75,7.226448852674142e-05,-0.00013768495042343785,-0.000183104240155642,-0.00014111221699702445,3.7333,5.7333
1.75390625,5.418859348287175e-05,-9.227633753414206e-05,-0.00015380698321507588,-0.00014012994744945446,3.7333,5.7333
1.7578125,4.2476096812390323e-05,-7.128566437628747e-05,-0.0001352506302403296,-0.00013378790276188295,3.7333,5.7333
1.76171875,3.2226327620355534e-05,-6.396135014114594e-05,-0.00011961973222247652,-0.00012889790870984966,3.7333,5.7333
1.765625,2.1474746811627375e-05,-2.636818626077668e-05,-9.374974185549705e-05,-0.0001230363219531548,3.7333,5.7333
1.76953125,1.1224977619592585e-05,-3.1247503469901573e-05,-7.8609978611429e-05,-0.00011474041501335164,3.7333,5.7333
1.7734375,1.4556663584344278e-06,-2.051727634699015e-05,-3.75895481574731e-05,-0.0001079072355519951,3.7333,5.7333
1.77734375,-5.377513102922098e-06,-7.82251012893873e-06,-3.80806829312581e-05,-0.00010301724149996184,3.7333,5.7333
1.78125,-1.9043872025635153e-05,-2.441381303120465e-06,-5.5654766358434414e-05,-0.0001020456487953002,3.7333,5.7333
1.78515625,-2.4414324008545048e-05,2.0012019333180745e-05,-3.5635685905241465e-05,-0.00010449064582131685,3.7333,5.7333
1.7890625,-2.1980003825436783e-05,2.2948151132982375e-05,-3.9052275635919726e-05,-9.618406203860532e-05,3.7333,5.7333
1.79296875,-1.9535006799420153e-05,2.0012019333180745e-05,-2.4905458782330048e-05,-8.885974780346379e-05,3.7333,5.7333
1.796875,-3.2710230948348204e-05,1.9040426628519114e-05,-9.786538246738344e-07,-8.202656834210725e-05,3.7333,5.7333
1.80078125,-4.6376589871061255e-05,2.7336333568322273e-05,4.39179815823606e-06,-7.519338888075075e-05,3.7333,5.7333
1.8046875,-4.1006137888151364e-05,3.1244058072785534e-05,4.052223456015869e-05,-7.421111933318073e-05,3.7333,5.7333
1.80859375,-3.1727961400778205e-05,3.8077237534142056e-05,3.3197920325017164e-05,-6.933180212405583e-05,3.7333,5.7333
1.8125,-3.0265233922331574e-05,5.321700077821012e-05,1.6104294828717484e-05,-6.151635311512931e-05,3.7333,5.7333
1.81640625,-4.784999419241626e-05,4.393882429083696e-05,4.198496203860533e-05,-6.297908059357594e-05,3.7333,5.7333
1.8203125,-4.149727266193636e-05,3.759677960326543e-05,4.2476096812390323e-05,-6.005362563668268e-05,3.7333,5.7333
1.82421875,-1.562728229495689e-05,3.4169513029678795e-05,2.0994288880750744e-05,-4.5404997166399624e-05,3.7333,5.7333
1.828125,-1.2701827338063624e-05,3.905950708171207e-05,2.1474746811627375e-05,-5.175771869687952e-05,3.7333,5.7333
1.83203125,-1.9535006799420153e-05,4.930927627374686e-05,3.1244058072785534e-05,-5.126658392309452e-05,3.7333,5.7333
1.8359375,-2.880250644388494e-05,4.7355414021515215e-05,3.2706785551232165e-05,-4.980385644464789e-05,3.7333,5.7333
1.83984375,-3.4172958426794835e-05,4.930927627374686e-05,4.492109383840696e-05,-5.322044617532616e-05,3.7333,5.7333
1.84375,-3.80806829312581e-05,4.00310997863737e-05,2.5873606089875643e-05,-4.443340446173799e-05,3.7333,5.7333
1.84765625,-3.710909022659647e-05,4.833768356908523e-05,3.2226327620355534e-05,-3.85718177050431e-05,3.7333,5.7333
1.8515625,-3.3681823653009835e-05,6.689403654383155e-05,6.737449447470816e-05,-4.003454518348973e-05,3.7333,5.7333
1.85546875,-3.4664093200579834e-05,6.737449447470816e-05,4.6383821316853584e-05,-4.198840743572136e-05,3.7333,5.7333
1.859375,-4.052567995727473e-05,5.517086303044175e-05,3.51517825772488e-05,-4.052567995727473e-05,3.7333,5.7333
1.86328125,-4.784999419241626e-05,3.4169513029678795e-05,4.6383821316853584e-05,-3.75895481574731e-05,3.7333,5.7333
1.8671875,-4.980385644464789e-05,2.5873606089875643e-05,3.856837230792706e-05,-2.733977896543831e-05,3.7333,5.7333
1.87109375,-5.5654766358434414e-05,2.7827468342107273e-05,3.368905509880217e-05,-2.3933866077668413e-05,3.7333,5.7333
1.875,-4.931272167086289e-05,4.198496203860533e-05,3.368905509880217e-05,-3.3681823653009835e-05,3.7333,5.7333
1.87890625,-4.1006137888151364e-05,4.5401551769283585e-05,2.4410878611429012e-05,-4.1006137888151364e-05,3.7333,5.7333
1.8828125,-4.149727266193636e-05,3.7105644829480425e-05,2.5382471316090643e-05,-3.954341040970473e-05,3.7333,5.7333
1.88671875,-4.3942269687953e-05,3.8077237534142056e-05,3.1735192846570534e-05,-2.9784775991454943e-05,3.7333,5.7333
1.890625,-4.686772464484626e-05,3.51517825772488e-05,4.881814149996185e-05,-2.685932103456168e-05,3.7333,5.7333
1.89453125,-4.7358859418631255e-05,3.8077237534142056e-05,4.980041104753185e-05,-2.831137167009994e-05,3.7333,5.7333
1.8984375,-4.686772464484626e-05,5.761586005645839e-05,3.1244058072785534e-05,-2.685932103456168e-05,3.7333,5.7333
1.90234375,-4.5404997166399624e-05,4.393882429083696e-05,4.930927627374686e-05,-2.831137167009994e-05,3.7333,5.7333
1.90625,-4.3942269687953e-05,1.3669974645609222e-05,5.272586600442511e-05,-2.4905458782330048e-05,3.7333,5.7333
1.91015625,-5.3700904106202784e-05,2.6364740863660642e-05,3.955064185549706e-05,-2.002614157320515e-05,3.7333,5.7333
1.9140625,-5.7608628610666044e-05,4.687495609063859e-05,2.9781330594338903e-05,-2.1980003825436783e-05,3.7333,5.7333
1.91796875,-4.686772464484626e-05,3.955064185549706e-05,2.8318603115892273e-05,-2.1488869051651783e-05,3.7333,5.7333
1.921875,-3.1247503469901573e-05,2.0012019333180745e-05,2.8799061046768904e-05,-3.0756368696116574e-05,3.7333,5.7333
1.92578125,-3.3201365722133204e-05,1.8058157080949114e-05,2.1474746811627375e-05,-3.1247503469901573e-05,3.7333,5.7333
1.9296875,-4.589613194018463e-05,2.0012019333180745e-05,2.5382471316090643e-05,-2.4414324008545048e-05,3.7333,5.7333
1.93359375,-4.980385644464789e-05,1.3178839871824216e-05,3.0272465368123903e-05,-2.2471138599221783e-05,3.7333,5.7333
1.9375,-6.249862266269931e-05,1.4150432576485847e-05,2.3919743837644005e-05,-2.831137167009994e-05,3.7333,5.7333
1.94140625,-6.639567032425421e-05,1.7086564376287483e-05,1.3178839871824216e-05,-2.9293641217669943e-05,3.7333,5.7333
1.9453125,-4.247954220950636e-05,2.0503154106965744e-05,1.9468011322194273e-06,-2.2951596530098414e-05,3.7333,5.7333
1.94921875,-3.4664093200579834e-05,5.363390862897688e-06,1.4641567350270846e-05,-2.1488869051651783e-05,3.7333,5.7333
1.953125,-5.077544914930952e-05,-4.886378329137098e-06,3.2226327620355534e-05,-2.1488869051651783e-05,3.7333,5.7333
1.95703125,-6.005362563668268e-05,-8.302968059815363e-06,8.299522662699324e-06,-2.2951596530098414e-05,3.7333,5.7333
1.9609375,-4.980385644464789e-05,-2.002614157320515e-05,-3.4236508506904675e-06,-2.3933866077668413e-05,3.7333,5.7333
1.96484375,-2.0997734277866784e-05,-1.1719557790493625e-05,-3.914785624475467e-06,-2.685932103456168e-05,3.7333,5.7333
1.96875,-1.8072279320973522e-05,-1.4655689590295256e-05,-1.562728229495689e-05,-2.3442731303883417e-05,3.7333,5.7333
1.97265625,-2.9784775991454943e-05,-6.349105807583729e-06,-1.4697885984588338e-06,-2.2951596530098414e-05,3.7333,5.7333
1.9765625,-2.9784775991454943e-05,9.752084275577957e-07,4.872256089112692e-06,-2.4905458782330048e-05,3.7333,5.7333
1.98046875,-2.880250644388494e-05,-1.0747965085831992e-05,4.840736537727963e-07,-2.5396593556115044e-05,3.7333,5.7333
1.984375,-4.247954220950636e-05,-1.1239099859616993e-05,-3.4236508506904675e-06,-2.5887728329900047e-05,3.7333,5.7333
1.98828125,-6.054476041046768e-05,-1.9043872025635153e-05,-1.3673420042725255e-05,-1.856341409475852e-05,3.7333,5.7333
1.9921875,-6.102521834134431e-05,-9.765695538261994e-06,1.1716112393377585e-05,-1.562728229495689e-05,3.7333,5.7333
1.99609375,-4.980385644464789e-05,-9.786538246738344e-07,-4.395243555352099e-06,-2.0997734277866784e-05,3.7333,5.7333
2.0,-4.686772464484626e-05,-1.660955184252689e-05,6.345660410467694e-06,-1.562728229495689e-05,3.7333,5.7333
2.00390625,-4.247954220950636e-05,-4.886378329137098e-06,4.39179815823606e-06,-1.9043872025635153e-05,3.7333,5.7333
2.0078125,-3.5635685905241465e-05,-1.7090009773403523e-05,-1.9535006799420153e-05,-2.1980003825436783e-05,3.7333,5.7333
2.01171875,-4.491386239261463e-05,-5.175771869687952e-05,-1.562728229495689e-05,-1.660955184252689e-05,3.7333,5.7333
2.015625,-4.3942269687953e-05,-3.2219096174563204e-05,-2.0997734277866784e-05,-1.0256830312046992e-05,3.7333,5.7333
2.01953125,-1.7090009773403523e-05,-9.786538246738344e-07,-2.0997734277866784e-05,-6.840240581368729e-06,3.7333,5.7333
2.0234375,-2.002614157320515e-05,-2.1488869051651783e-05,-2.4414324008545048e-05,-1.5146824364080257e-05,3.7333,5.7333
2.02734375,-4.2960000140382994e-05,-1.8072279320973522e-05,7.3172531151293255e-06,-1.6118417068741892e-05,3.7333,5.7333
2.03125,-4.003454518348973e-05,4.840736537727963e-07,1.0733842845807586e-05,-2.002614157320515e-05,3.7333,5.7333
2.03515625,-3.6126820679026465e-05,-7.519338888075075e-05,-5.5654766358434414e-05,-3.4664093200579834e-05,3.7333,5.7333
2.0390625,-2.5396593556115044e-05,-0.00011571200771801326,-9.764678951705193e-05,-4.198840743572136e-05,3.7333,5.7333
2.04296875,-2.2471138599221783e-05,-8.447156536812388e-05,-0.00010350837627374685,-3.75895481574731e-05,3.7333,5.7333
2.046875,-2.783091373922331e-05,-9.569292726482031e-05,-0.00011229541798733499,-2.733977896543831e-05,3.7333,5.7333
2.05078125,-2.4414324008545048e-05,-0.00018261310538185698,-0.00016308515970244906,-2.733977896543831e-05,3.7333,5.7333
2.0546875,-1.660955184252689e-05,-0.0002011694583566033,-0.000183104240155642,-3.710909022659647e-05,3.7333,5.7333
2.05859375,-1.6118417068741892e-05,-0.0001982333265568017,-0.000182121970608072,-3.954341040970473e-05,3.7333,5.7333
2.0625,-4.198840743572136e-05,-0.0002275305834973678,-0.00022557672124513613,-3.954341040970473e-05,3.7333,5.7333
2.06640625,-3.6126820679026465e-05,-0.00022899331097581442,-0.000251948523228809,-4.7358859418631255e-05,3.7333,5.7333
2.0703125,7.808387888914324e-06,-0.0002573189752117189,-0.00026756874440375374,-5.028431437552452e-05,3.7333,5.7333
2.07421875,2.1965881585412375e-05,-0.0002817369149431601,-0.0002958944086396582,-5.272931140154115e-05,3.7333,5.7333
2.078125,1.2196570324254216e-05,-0.0002929582768398565,-0.0003080980400839246,-5.468317365377278e-05,3.7333,5.7333
2.08203125,-4.981958937972024e-07,-0.00028661623215228503,-0.0002983394056656748,-5.223817662775615e-05,3.7333,5.7333
2.0859375,7.808387888914324e-06,-0.00025536511295948727,-0.00029491213909208815,-5.5654766358434414e-05,3.7333,5.7333
2.08984375,1.6595429602502484e-05,-0.0002792919179171434,-0.0003173762165712977,-5.468317365377278e-05,3.7333,5.7333
2.09375,8.299522662699324e-06,-0.0002841712351262684,-0.0003100519023361562,-5.175771869687952e-05,3.7333,5.7333
2.09765625,1.4150432576485847e-05,-0.00023925375701075758,-0.0002651344242206454,-6.20074878889143e-05,3.7333,5.7333
2.1015625,1.7086564376287483e-05,-0.00023437443980163267,-0.00025829056791638053,-6.005362563668268e-05,3.7333,5.7333
2.10546875,1.4150432576485847e-05,-0.0002338833050278477,-0.0002705048762035553,-5.6637035906004413e-05,3.7333,5.7333
2.109375,9.271115367360955e-06,-0.00024804079872434577,-0.00026952260665598533,-6.151635311512931e-05,3.7333,5.7333
2.11328125,-2.441381303120465e-06,-0.0002055576407919432,-0.00024511534376745245,-6.933180212405583e-05,3.7333,5.7333
2.1171875,-1.4697885984588338e-06,-0.00014891698916304265,-0.00019140014709544516,-7.079452960250248e-05,3.7333,5.7333
2.12109375,-4.886378329137098e-06,-0.0001523335788937209,-0.00015576084546730753,-6.542407761959256e-05,3.7333,5.7333
2.125,-8.794102833600362e-06,-0.000148436531232166,-0.00015965789312886243,-6.297908059357594e-05,3.7333,5.7333
2.12890625,-8.302968059815363e-06,-0.00013280563321431293,-0.00013574176501411457,-5.5654766358434414e-05,3.7333,5.7333
2.1328125,-1.3192962111848625e-05,-0.00010644450807354847,-0.00010301724149996184,-5.5654766358434414e-05,3.7333,5.7333
2.13671875,-2.880250644388494e-05,-8.056384086366062e-05,-8.447156536812388e-05,-5.223817662775615e-05,3.7333,5.7333
2.140625,-3.954341040970473e-05,-7.030339482871747e-05,-7.421111933318073e-05,-5.028431437552452e-05,3.7333,5.7333
2.14453125,-3.85718177050431e-05,-6.982293689784083e-05,-8.690588555123215e-05,-4.686772464484626e-05,3.7333,5.7333
2.1484375,-4.198840743572136e-05,-4.882158689707789e-05,-6.591521239337757e-05,-4.882158689707789e-05,3.7333,5.7333
2.15234375,-4.003454518348973e-05,-3.914785624475467e-06,-7.331375355153732e-06,-4.6376589871061255e-05,3.7333,5.7333
2.15625,-4.8330452123292885e-05,1.3669974645609222e-05,2.3428609063859006e-05,-3.9052275635919726e-05,3.7333,5.7333
2.16015625,-5.468317365377278e-05,7.3172531151293255e-06,1.5623836897840853e-05,-4.198840743572136e-05,3.7333,5.7333
2.1640625,-5.468317365377278e-05,1.5623836897840853e-05,2.3428609063859006e-05,-4.3942269687953e-05,3.7333,5.7333
2.16796875,-6.151635311512931e-05,2.6845198794537274e-05,5.566199780422674e-05,-4.052567995727473e-05,3.7333,5.7333
2.171875,-6.347021536736094e-05,2.8799061046768904e-05,4.00310997863737e-05,-3.4172958426794835e-05,3.7333,5.7333
2.17578125,-6.102521834134431e-05,4.881814149996185e-05,2.4410878611429012e-05,-2.9293641217669943e-05,3.7333,5.7333
2.1796875,-5.7608628610666044e-05,5.224540807354849e-05,4.7355414021515215e-05,-2.880250644388494e-05,3.7333,5.7333
2.18359375,-5.5654766358434414e-05,4.492109383840696e-05,6.689403654383155e-05,-3.6126820679026465e-05,3.7333,5.7333
2.1875,-5.907135608911268e-05,4.296723158617533e-05,6.88372219531548e-05,-2.9784775991454943e-05,3.7333,5.7333
2.19140625,-5.5654766358434414e-05,4.833768356908523e-05,4.881814149996185e-05,-2.3442731303883417e-05,3.7333,5.7333
2.1953125,-5.907135608911268e-05,7.274494645761807e-05,5.321700077821012e-05,-2.733977896543831e-05,3.7333,5.7333
2.19921875,-7.421111933318073e-05,7.079108420538643e-05,6.151290771801328e-05,-2.783091373922331e-05,3.7333,5.7333
2.203125,-6.884066735027084e-05,6.49401742915999e-05,5.321700077821012e-05,-2.783091373922331e-05,3.7333,5.7333
2.20703125,-4.882158689707789e-05,7.665267096208133e-05,5.907858753490501e-05,-3.2219096174563204e-05,3.7333,5.7333
2.2109375,-5.077544914930952e-05,5.809631798733501e-05,7.372721600518807e-05,-3.5155227974364834e-05,3.7333,5.7333
2.21484375,-6.396135014114594e-05,4.296723158617533e-05,7.421835077897306e-05,-2.5396593556115044e-05,3.7333,5.7333
2.21875,-6.445248491493095e-05,6.88372219531548e-05,6.39579047440299e-05,-1.7581144547188522e-05,3.7333,5.7333
2.22265625,-5.956249086289768e-05,6.49401742915999e-05,5.809631798733501e-05,-2.2471138599221783e-05,3.7333,5.7333
2.2265625,-5.077544914930952e-05,4.784654879530022e-05,5.4679728256656744e-05,-3.5635685905241465e-05,3.7333,5.7333
2.23046875,-4.980385644464789e-05,6.39579047440299e-05,6.49401742915999e-05,-4.052567995727473e-05,3.7333,5.7333
2.234375,-5.907135608911268e-05,5.517086303044175e-05,6.44490395178149e-05,-2.831137167009994e-05,3.7333,5.7333
2.23828125,-5.859089815823605e-05,4.1493827264820324e-05,5.566199780422674e-05,-2.880250644388494e-05,3.7333,5.7333
2.2421875,-5.614590113221942e-05,4.687495609063859e-05,6.640290177004654e-05,-2.733977896543831e-05,3.7333,5.7333
2.24609375,-5.712817067978942e-05,4.492109383840696e-05,4.980041104753185e-05,-2.3933866077668413e-05,3.7333,5.7333
2.25,-4.784999419241626e-05,6.640290177004654e-05,5.029154582131686e-05,-2.880250644388494e-05,3.7333,5.7333
2.25390625,-4.3942269687953e-05,8.446811997100785e-05,8.00692606927596e-05,-2.1980003825436783e-05,3.7333,5.7333
2.2578125,-4.589613194018463e-05,6.981949150072481e-05,7.714380573586634e-05,-1.5146824364080257e-05,3.7333,5.7333
2.26171875,-5.3700904106202784e-05,5.956972230869002e-05,5.761586005645839e-05,-1.1239099859616993e-05,3.7333,5.7333
2.265625,-5.272931140154115e-05,5.858745276112002e-05,4.4429959064621954e-05,-5.868647876707097e-06,3.7333,5.7333
2.26953125,-4.6376589871061255e-05,5.126313852597849e-05,5.566199780422674e-05,-1.0256830312046992e-05,3.7333,5.7333
2.2734375,-4.491386239261463e-05,7.03106262745098e-05,6.054131501335165e-05,-2.0997734277866784e-05,3.7333,5.7333
2.27734375,-5.028431437552452e-05,6.49401742915999e-05,6.835676402227816e-05,-1.7581144547188522e-05,3.7333,5.7333
2.28125,-5.028431437552452e-05,4.784654879530022e-05,5.175427329976348e-05,-1.9535006799420153e-05,3.7333,5.7333
2.28515625,-4.686772464484626e-05,4.198496203860533e-05,5.6633590508888374e-05,-2.4905458782330048e-05,3.7333,5.7333
2.2890625,-4.589613194018463e-05,2.9290195820553904e-05,7.372721600518807e-05,-2.1980003825436783e-05,3.7333,5.7333
2.29296875,-4.3942269687953e-05,3.3197920325017164e-05,5.712472528267338e-05,-1.856341409475852e-05,3.7333,5.7333
2.296875,-4.491386239261463e-05,3.7105644829480425e-05,3.955064185549706e-05,-1.7090009773403523e-05,3.7333,5.7333
2.30078125,-4.686772464484626e-05,3.0752923299000534e-05,2.9781330594338903e-05,-2.636818626077668e-05,3.7333,5.7333
2.3046875,-4.931272167086289e-05,2.3428609063859006e-05,3.4169513029678795e-05,-3.2710230948348204e-05,3.7333,5.7333
2.30859375,-5.077544914930952e-05,2.0012019333180745e-05,3.1735192846570534e-05,-3.0756368696116574e-05,3.7333,5.7333
2.3125,-4.980385644464789e-05,1.4641567350270846e-05,3.955064185549706e-05,-3.0756368696116574e-05,3.7333,5.7333
2.31640625,-5.3700904106202784e-05,1.8549291854734114e-05,3.4169513029678795e-05,-3.2219096174563204e-05,3.7333,5.7333
2.3203125,-5.077544914930952e-05,2.4410878611429012e-05,2.3919743837644005e-05,-3.5155227974364834e-05,3.7333,5.7333
2.32421875,-4.686772464484626e-05,2.9290706797894293e-06,8.779980593575955e-06,-2.880250644388494e-05,3.7333,5.7333
2.328125,-4.589613194018463e-05,-5.868647876707097e-06,9.762250141145955e-06,-2.051727634699015e-05,3.7333,5.7333
2.33203125,-4.1006137888151364e-05,7.3172531151293255e-06,2.9781330594338903e-05,-2.1488869051651783e-05,3.7333,5.7333
2.3359375,-4.198840743572136e-05,8.779980593575955e-06,1.3178839871824216e-05,-3.0265233922331574e-05,3.7333,5.7333
2.33984375,-4.882158689707789e-05,1.4556663584344278e-06,1.1716112393377585e-05,-3.6126820679026465e-05,3.7333,5.7333
2.34375,-5.322044617532616e-05,-1.4655689590295256e-05,2.2948151132982375e-05,-3.2710230948348204e-05,3.7333,5.7333
2.34765625,-4.882158689707789e-05,-2.5887728329900047e-05,4.840736537727963e-07,-3.661795545281147e-05,3.7333,5.7333
2.3515625,-4.980385644464789e-05,-2.0997734277866784e-05,-1.4164554816510256e-05,-3.75895481574731e-05,3.7333,5.7333
2.35546875,-5.077544914930952e-05,-3.4236508506904675e-06,8.299522662699324e-06,-3.5155227974364834e-05,3.7333,5.7333
2.359375,-4.784999419241626e-05,-3.914785624475467e-06,2.0994288880750744e-05,-3.2710230948348204e-05,3.7333,5.7333
2.36328125,-4.931272167086289e-05,-7.82251012893873e-06,8.299522662699324e-06,-3.2710230948348204e-05,3.7333,5.7333
2.3671875,-5.272931140154115e-05,-8.302968059815363e-06,-4.981958937972024e-07,-3.6126820679026465e-05,3.7333,5.7333
2.37109375,-5.077544914930952e-05,-2.2471138599221783e-05,-6.840240581368729e-06,-3.661795545281147e-05,3.7333,5.7333
2.375,-5.809976338445105e-05,-2.733977896543831e-05,-8.794102833600362e-06,-3.3201365722133204e-05,3.7333,5.7333
2.37890625,-6.249862266269931e-05,-3.1727961400778205e-05,-1.3673420042725255e-05,-3.2219096174563204e-05,3.7333,5.7333
2.3828125,-5.175771869687952e-05,-4.3451134914167994e-05,-2.002614157320515e-05,-3.1727961400778205e-05,3.7333,5.7333
2.38671875,-4.686772464484626e-05,-3.2219096174563204e-05,-1.6118417068741892e-05,-3.5635685905241465e-05,3.7333,5.7333
2.390625,-4.589613194018463e-05,8.779980593575955e-06,1.7086564376287483e-05,-4.1006137888151364e-05,3.7333,5.7333
2.39453125,-5.517430842755779e-05,9.271115367360955e-06,1.4641567350270846e-05,-3.1247503469901573e-05,3.7333,5.7333
2.3984375,-6.005362563668268e-05,-1.5146824364080257e-05,-7.331375355153732e-06,-2.1488869051651783e-05,3.7333,5.7333
2.40234375,-5.614590113221942e-05,-1.562728229495689e-05,-1.4697885984588338e-06,-2.002614157320515e-05,3.7333,5.7333
2.40625,-5.907135608911268e-05,-2.051727634699015e-05,-9.786538246738344e-07,-1.856341409475852e-05,3.7333,5.7333
2.41015625,-6.737793987182421e-05,-1.4164554816510256e-05,1.3669974645609222e-05,-9.765695538261994e-06,3.7333,5.7333
2.4140625,-7.079452960250248e-05,-1.1239099859616993e-05,1.8549291854734114e-05,-6.840240581368729e-06,3.7333,5.7333
2.41796875,-6.688680509803922e-05,4.840736537727963e-07,4.492109383840696e-05,4.840736537727963e-07,3.7333,5.7333
2.421875,-6.688680509803922e-05,1.6104294828717484e-05,5.4679728256656744e-05,8.299522662699324e-06,3.7333,5.7333
2.42578125,-6.249862266269931e-05,1.5623836897840853e-05,5.809631798733501e-05,3.900663384451061e-06,3.7333,5.7333
2.4296875,-6.493294284580757e-05,3.409528610666058e-06,6.786562924849317e-05,8.779980593575955e-06,3.7333,5.7333
2.43359375,-7.22572570809491e-05,-1.960923372243837e-06,5.029154582131686e-05,1.1716112393377585e-05,3.7333,5.7333
2.4375,-7.421111933318073e-05,6.345660410467694e-06,3.4169513029678795e-05,8.779980593575955e-06,3.7333,5.7333
2.44140625,-7.22572570809491e-05,9.752084275577957e-07,4.00310997863737e-05,4.872256089112692e-06,3.7333,5.7333
2.4453125,-6.834953257648583e-05,-1.9535006799420153e-05,3.1735192846570534e-05,-3.914785624475467e-06,3.7333,5.7333
2.44921875,-6.982293689784083e-05,-2.1488869051651783e-05,6.345660410467694e-06,-2.932516076905465e-06,3.7333,5.7333
2.453125,-6.737793987182421e-05,-2.051727634699015e-05,5.363390862897688e-06,2.9290706797894293e-06,3.7333,5.7333
2.45703125,-6.249862266269931e-05,-2.1488869051651783e-05,1.4150432576485847e-05,4.840736537727963e-07,3.7333,5.7333
2.4609375,-6.347021536736094e-05,-1.7581144547188522e-05,4.872256089112692e-06,2.43793590600443e-06,3.7333,5.7333
2.46484375,-6.639567032425421e-05,-2.5396593556115044e-05,5.854525636682695e-06,3.409528610666058e-06,3.7333,5.7333
2.46875,-6.982293689784083e-05,-2.3442731303883417e-05,4.39179815823606e-06,-9.285237607385361e-06,3.7333,5.7333
2.47265625,-7.030339482871747e-05,-2.1980003825436783e-05,1.1224977619592585e-05,-1.660955184252689e-05,3.7333,5.7333
2.4765625,-4.491386239261463e-05,-1.9043872025635153e-05,5.854525636682695e-06,-9.765695538261994e-06,3.7333,5.7333
2.48046875,-3.4172958426794835e-05,-1.7090009773403523e-05,-8.302968059815363e-06,-1.6118417068741892e-05,3.7333,5.7333
2.484375,-4.1006137888151364e-05,-2.3933866077668413e-05,2.0012019333180745e-05,-1.3673420042725255e-05,3.7333,5.7333
2.48828125,-3.954341040970473e-05,-1.2701827338063624e-05,8.779980593575955e-06,-1.1719557790493625e-05,3.7333,5.7333
2.4921875,-4.1006137888151364e-05,-5.868647876707097e-06,3.900663384451061e-06,-1.1239099859616993e-05,3.7333,5.7333
2.49609375,-4.491386239261463e-05,-2.4905458782330048e-05,1.4556663584344278e-06,-1.3673420042725255e-05,3.7333,5.7333
2.5,-4.1006137888151364e-05,-1.9535006799420153e-05,-1.9043872025635153e-05,-2.0997734277866784e-05,3.7333,5.7333
2.50390625,-3.5635685905241465e-05,-3.914785624475467e-06,-1.3192962111848625e-05,-1.562728229495689e-05,3.7333,5.7333
2.5078125,-3.2710230948348204e-05,-2.5887728329900047e-05,-1.1239099859616993e-05,-1.4164554816510256e-05,3.7333,5.7333
2.51171875,-3.3201365722133204e-05,-3.2219096174563204e-05,-1.6118417068741892e-05,-9.765695538261994e-06,3.7333,5.7333
2.515625,-3.3681823653009835e-05,-1.6118417068741892e-05,-4.981958937972024e-07,-5.377513102922098e-06,3.7333,5.7333
2.51953125,-4.052567995727473e-05,-2.4905458782330048e-05,8.299522662699324e-06,-1.2701827338063624e-05,3.7333,5.7333
2.5234375,-4.931272167086289e-05,-4.2960000140382994e-05,-7.061120012203048e-09,-2.2471138599221783e-05,3.7333,5.7333
2.52734375,-4.5404997166399624e-05,-3.4172958426794835e-05,-1.1239099859616993e-05,-2.4905458782330048e-05,3.7333,5.7333
2.53125,-3.3201365722133204e-05,-3.2710230948348204e-05,-3.1247503469901573e-05,-2.3442731303883417e-05,3.7333,5.7333
2.53515625,-2.831137167009994e-05,-2.880250644388494e-05,-3.4172958426794835e-05,-2.002614157320515e-05,3.7333,5.7333
2.5390625,-3.5155227974364834e-05,-2.831137167009994e-05,-2.685932103456168e-05,-2.1488869051651783e-05,3.7333,5.7333
2.54296875,-3.661795545281147e-05,-4.784999419241626e-05,-3.2710230948348204e-05,-2.4905458782330048e-05,3.7333,5.7333
2.546875,-3.5635685905241465e-05,-5.028431437552452e-05,-3.80806829312581e-05,-3.1727961400778205e-05,3.7333,5.7333
2.55078125,-3.9052275635919726e-05,-4.052567995727473e-05,-1.7581144547188522e-05,-2.0997734277866784e-05,3.7333,5.7333
2.5546875,-3.954341040970473e-05,-4.149727266193636e-05,-7.061120012203048e-09,-1.4655689590295256e-05,3.7333,5.7333
2.55859375,-4.3451134914167994e-05,-3.4664093200579834e-05,-1.660955184252689e-05,-1.8072279320973522e-05,3.7333,5.7333
2.5625,-4.3451134914167994e-05,-3.1727961400778205e-05,-3.6126820679026465e-05,-2.051727634699015e-05,3.7333,5.7333
2.56640625,-3.0756368696116574e-05,-2.9784775991454943e-05,-3.661795545281147e-05,-2.5887728329900047e-05,3.7333,5.7333
2.5703125,-2.2951596530098414e-05,-2.733977896543831e-05,-3.2219096174563204e-05,-2.5396593556115044e-05,3.7333,5.7333
2.57421875,-3.4172958426794835e-05,-3.0756368696116574e-05,-2.2951596530098414e-05,-1.562728229495689e-05,3.7333,5.7333
2.578125,-3.2710230948348204e-05,-2.051727634699015e-05,-1.7581144547188522e-05,-1.3192962111848625e-05,3.7333,5.7333
2.58203125,-2.3933866077668413e-05,-2.5396593556115044e-05,-3.1727961400778205e-05,-1.7581144547188522e-05,3.7333,5.7333
2.5859375,-3.4172958426794835e-05,-4.198840743572136e-05,-4.3451134914167994e-05,-1.856341409475852e-05,3.7333,5.7333
2.58984375,-3.75895481574731e-05,-2.5396593556115044e-05,-3.9052275635919726e-05,-1.8072279320973522e-05,3.7333,5.7333
2.59375,-3.4664093200579834e-05,-1.2210692564278624e-05,1.9468011322194273e-06,-6.840240581368729e-06,3.7333,5.7333
2.59765625,-2.3933866077668413e-05,-9.786538246738344e-07,2.1965881585412375e-05,-1.562728229495689e-05,3.7333,5.7333
2.6015625,-7.82251012893873e-06,-1.856341409475852e-05,-2.4905458782330048e-05,-3.2219096174563204e-05,3.7333,5.7333
2.60546875,-1.562728229495689e-05,-4.198840743572136e-05,-4.3451134914167994e-05,-3.2219096174563204e-05,3.7333,5.7333
2.609375,-1.2701827338063624e-05,-3.954341040970473e-05,-4.3451134914167994e-05,-4.003454518348973e-05,3.7333,5.7333
2.61328125,-7.82251012893873e-06,-2.733977896543831e-05,-4.3451134914167994e-05,-4.5404997166399624e-05,3.7333,5.7333
2.6171875,-2.002614157320515e-05,-1.7090009773403523e-05,-4.589613194018463e-05,-4.491386239261463e-05,3.7333,5.7333
2.62109375,-1.7090009773403523e-05,-2.002614157320515e-05,-4.8330452123292885e-05,-4.8330452123292885e-05,3.7333,5.7333
2.625,-9.765695538261994e-06,-4.784999419241626e-05,-3.4172958426794835e-05,-3.9052275635919726e-05,3.7333,5.7333
2.62890625,-9.765695538261994e-06,-4.931272167086289e-05,-3.4664093200579834e-05,-3.80806829312581e-05,3.7333,5.7333
2.6328125,-6.349105807583729e-06,-3.0756368696116574e-05,-3.75895481574731e-05,-4.3451134914167994e-05,3.7333,5.7333
2.63671875,-9.765695538261994e-06,-1.6118417068741892e-05,-4.2960000140382994e-05,-3.954341040970473e-05,3.7333,5.7333
2.640625,-1.3192962111848625e-05,-1.9043872025635153e-05,-5.077544914930952e-05,-3.3201365722133204e-05,3.7333,5.7333
2.64453125,-1.4655689590295256e-05,-4.980385644464789e-05,-3.6126820679026465e-05,-2.880250644388494e-05,3.7333,5.7333
2.6484375,-1.660955184252689e-05,-3.3681823653009835e-05,-3.5635685905241465e-05,-3.1727961400778205e-05,3.7333,5.7333
2.65234375,-1.2210692564278624e-05,-2.3933866077668413e-05,-4.6376589871061255e-05,-3.6126820679026465e-05,3.7333,5.7333
2.65625,-1.7581144547188522e-05,-2.2471138599221783e-05,-3.1247503469901573e-05,-3.4172958426794835e-05,3.7333,5.7333
2.66015625,-1.2210692564278624e-05,-1.3192962111848625e-05,-2.051727634699015e-05,-3.5635685905241465e-05,3.7333,5.7333
2.6640625,-3.914785624475467e-06,-2.636818626077668e-05,-5.028431437552452e-05,-3.5635685905241465e-05,3.7333,5.7333
2.66796875,-1.4655689590295256e-05,-3.3681823653009835e-05,-5.712817067978942e-05,-3.2219096174563204e-05,3.7333,5.7333
2.671875,-1.7090009773403523e-05,-4.3451134914167994e-05,-4.589613194018463e-05,-3.3201365722133204e-05,3.7333,5.7333
2.67578125,-1.660955184252689e-05,-2.733977896543831e-05,-5.3700904106202784e-05,-4.2960000140382994e-05,3.7333,5.7333
2.6796875,-2.880250644388494e-05,-8.794102833600362e-06,-3.9052275635919726e-05,-4.2960000140382994e-05,3.7333,5.7333
2.68359375,-2.5887728329900047e-05,-2.2951596530098414e-05,-3.1247503469901573e-05,-3.75895481574731e-05,3.7333,5.7333
2.6875,-2.002614157320515e-05,-5.223817662775615e-05,-3.80806829312581e-05,-4.198840743572136e-05,3.7333,5.7333
2.69140625,-3.0265233922331574e-05,-6.347021536736094e-05,-3.5635685905241465e-05,-3.4664093200579834e-05,3.7333,5.7333
2.6953125,-3.1247503469901573e-05,-5.419203887998779e-05,-5.419203887998779e-05,-3.3681823653009835e-05,3.7333,5.7333
2.69921875,-2.880250644388494e-05,-3.5635685905241465e-05,-3.2219096174563204e-05,-4.5404997166399624e-05,3.7333,5.7333
2.703125,-3.4664093200579834e-05,-3.6126820679026465e-05,-1.5146824364080257e-05,-5.028431437552452e-05,3.7333,5.7333
2.70703125,-3.75895481574731e-05,-5.077544914930952e-05,-3.4664093200579834e-05,-4.3942269687953e-05,3.7333,5.7333
2.7109375,-3.0756368696116574e-05,-4.686772464484626e-05,-5.175771869687952e-05,-3.75895481574731e-05,3.7333,5.7333
2.71484375,-2.4414324008545048e-05,-2.636818626077668e-05,-6.493294284580757e-05,-4.247954220950636e-05,3.7333,5.7333
2.71875,-3.0265233922331574e-05,-2.783091373922331e-05,-4.931272167086289e-05,-4.1006137888151364e-05,3.7333,5.7333
2.72265625,-3.75895481574731e-05,-5.956249086289768e-05,-6.20074878889143e-05,-3.3681823653009835e-05,3.7333,5.7333
2.7265625,-4.3451134914167994e-05,-6.005362563668268e-05,-4.686772464484626e-05,-3.710909022659647e-05,3.7333,5.7333
2.73046875,-4.931272167086289e-05,-5.322044617532616e-05,-3.954341040970473e-05,-4.2960000140382994e-05,3.7333,5.7333
2.734375,-3.85718177050431e-05,-5.3700904106202784e-05,-6.297908059357594e-05,-4.6376589871061255e-05,3.7333,5.7333
2.73828125,-2.9784775991454943e-05,-4.7358859418631255e-05,-6.005362563668268e-05,-4.6376589871061255e-05,3.7333,5.7333
2.7421875,-3.3201365722133204e-05,-5.077544914930952e-05,-4.5404997166399624e-05,-3.6126820679026465e-05,3.7333,5.7333
2.74609375,-4.7358859418631255e-05,-4.589613194018463e-05,-4.882158689707789e-05,-3.3201365722133204e-05,3.7333,5.7333
2.75,-4.931272167086289e-05,-4.6376589871061255e-05,-4.980385644464789e-05,-3.80806829312581e-05,3.7333,5.7333
2.75390625,-2.733977896543831e-05,-4.003454518348973e-05,-3.3681823653009835e-05,-4.247954220950636e-05,3.7333,5.7333
2.7578125,-2.1980003825436783e-05,-4.2960000140382994e-05,-4.686772464484626e-05,-4.6376589871061255e-05,3.7333,5.7333
2.76171875,-2.880250644388494e-05,-4.931272167086289e-05,-5.175771869687952e-05,-3.85718177050431e-05,3.7333,5.7333
2.765625,-2.3933866077668413e-05,-3.85718177050431e-05,-5.517430842755779e-05,-4.003454518348973e-05,3.7333,5.7333
2.76953125,-2.9293641217669943e-05,-4.3942269687953e-05,-5.468317365377278e-05,-4.149727266193636e-05,3.7333,5.7333
2.7734375,-3.954341040970473e-05,-3.3681823653009835e-05,-3.2710230948348204e-05,-3.80806829312581e-05,3.7333,5.7333
2.77734375,-3.954341040970473e-05,-3.85718177050431e-05,-4.589613194018463e-05,-3.85718177050431e-05,3.7333,5.7333
2.78125,-3.954341040970473e-05,-4.686772464484626e-05,-5.028431437552452e-05,-3.710909022659647e-05,3.7333,5.7333
2.78515625,-3.0756368696116574e-05,-3.1247503469901573e-05,-2.4414324008545048e-05,-3.5155227974364834e-05,3.7333,5.7333
2.7890625,-2.3442731303883417e-05,-5.3700904106202784e-05,-2.636818626077668e-05,-2.733977896543831e-05,3.7333,5.7333
2.79296875,-1.7581144547188522e-05,-5.614590113221942e-05,-3.5635685905241465e-05,-3.5155227974364834e-05,3.7333,5.7333
2.796875,-1.7090009773403523e-05,-4.1006137888151364e-05,-2.9293641217669943e-05,-4.3451134914167994e-05,3.7333,5.7333
2.80078125,-2.4414324008545048e-05,-4.3451134914167994e-05,-3.661795545281147e-05,-4.003454518348973e-05,3.7333,5.7333
2.8046875,-2.733977896543831e-05,-5.077544914930952e-05,-3.9052275635919726e-05,-3.710909022659647e-05,3.7333,5.7333
2.80859375,-2.4414324008545048e-05,-4.8330452123292885e-05,-3.80806829312581e-05,-3.75895481574731e-05,3.7333,5.7333
2.8125,-2.3933866077668413e-05,-4.149727266193636e-05,-5.028431437552452e-05,-4.003454518348973e-05,3.7333,5.7333
2.81640625,-2.733977896543831e-05,-4.5404997166399624e-05,-5.809976338445105e-05,-4.5404997166399624e-05,3.7333,5.7333
2.8203125,-3.3681823653009835e-05,-4.443340446173799e-05,-4.3942269687953e-05,-4.686772464484626e-05,3.7333,5.7333
2.82421875,-3.9052275635919726e-05,-4.931272167086289e-05,-4.784999419241626e-05,-4.491386239261463e-05,3.7333,5.7333
2.828125,-4.003454518348973e-05,-6.396135014114594e-05,-5.6637035906004413e-05,-4.3451134914167994e-05,3.7333,5.7333
2.83203125,-4.6376589871061255e-05,-5.272931140154115e-05,-5.175771869687952e-05,-3.85718177050431e-05,3.7333,5.7333
2.8359375,-4.589613194018463e-05,-4.3942269687953e-05,-4.247954220950636e-05,-3.954341040970473e-05,3.7333,5.7333
2.83984375,-3.4664093200579834e-05,-4.491386239261463e-05,-2.685932103456168e-05,-4.2960000140382994e-05,3.7333,5.7333
2.84375,-3.0756368696116574e-05,-5.5654766358434414e-05,-2.9293641217669943e-05,-3.954341040970473e-05,3.7333,5.7333
2.84765625,-3.710909022659647e-05,-5.859089815823605e-05,-4.3942269687953e-05,-2.831137167009994e-05,3.7333,5.7333
2.8515625,-4.3942269687953e-05,-6.054476041046768e-05,-7.811884383764399e-05,-2.831137167009994e-05,3.7333,5.7333
2.85546875,-4.149727266193636e-05,-5.517430842755779e-05,-8.299816104676889e-05,-3.85718177050431e-05,3.7333,5.7333
2.859375,-5.126658392309452e-05,-4.882158689707789e-05,-5.809976338445105e-05,-3.85718177050431e-05,3.7333,5.7333
2.86328125,-5.223817662775615e-05,-6.737793987182421e-05,-5.907135608911268e-05,-3.2710230948348204e-05,3.7333,5.7333
2.8671875,-3.3201365722133204e-05,-7.079452960250248e-05,-6.78690746456092e-05,-3.0265233922331574e-05,3.7333,5.7333
2.87109375,-2.4905458782330048e-05,-6.102521834134431e-05,-6.884066735027084e-05,-2.880250644388494e-05,3.7333,5.7333
2.875,-4.3942269687953e-05,-5.322044617532616e-05,-4.980385644464789e-05,-1.856341409475852e-05,3.7333,5.7333
2.87890625,-5.077544914930952e-05,-5.859089815823605e-05,-4.247954220950636e-05,-3.75895481574731e-05,3.7333,5.7333
2.8828125,-7.32395266285191e-05,-5.614590113221942e-05,-6.542407761959256e-05,-6.249862266269931e-05,3.7333,5.7333
2.88671875,-9.374974185549705e-05,-5.614590113221942e-05,-7.9101113385214e-05,-2.636818626077668e-05,3.7333,5.7333
2.890625,-4.052567995727473e-05,-5.6637035906004413e-05,-7.567384681162735e-05,-1.2701827338063624e-05,3.7333,5.7333
2.89453125,3.1244058072785534e-05,-6.445248491493095e-05,-8.299816104676889e-05,-3.0756368696116574e-05,3.7333,5.7333
2.8984375,4.1493827264820324e-05,-8.398043059433888e-05,-8.495202329900053e-05,-3.80806829312581e-05,3.7333,5.7333
2.90234375,1.8549291854734114e-05,-7.27483918547341e-05,-8.447156536812388e-05,-3.9052275635919726e-05,3.7333,5.7333
2.90625,1.2687705098039216e-05,-6.737793987182421e-05,-6.933180212405583e-05,-2.831137167009994e-05,3.7333,5.7333
2.91015625,-4.395243555352099e-06,-9.179587960326541e-05,-8.93508825772488e-05,-2.2471138599221783e-05,3.7333,5.7333
2.9140625,-1.1239099859616993e-05,-8.739702032501716e-05,-9.521246933394368e-05,-2.4905458782330048e-05,3.7333,5.7333
2.91796875,-9.285237607385361e-06,-8.056384086366062e-05,-6.493294284580757e-05,-2.4905458782330048e-05,3.7333,5.7333
2.921875,-1.5146824364080257e-05,-9.472133456015867e-05,-9.179587960326541e-05,-3.0265233922331574e-05,3.7333,5.7333
2.92578125,-1.660955184252689e-05,-0.00011376882230869,-0.00010546223852597847,-1.7581144547188522e-05,3.7333,5.7333
2.9296875,-2.002614157320515e-05,-0.0001240185915007248,-8.544315807278553e-05,-1.562728229495689e-05,3.7333,5.7333
2.93359375,-2.9784775991454943e-05,-0.0001245097262745098,-0.00010449064582131685,-3.0756368696116574e-05,3.7333,5.7333
2.9375,-3.5155227974364834e-05,-0.00013036063618829632,-0.00013378790276188295,-2.5396593556115044e-05,3.7333,5.7333
2.94140625,-4.003454518348973e-05,-0.00014745426168459602,-0.00015526971069352254,-2.3442731303883417e-05,3.7333,5.7333
2.9453125,-3.1727961400778205e-05,-0.00017626038385137709,-0.00017528879114671547,-3.661795545281147e-05,3.7333,5.7333
2.94921875,-1.7090009773403523e-05,-0.00017187220141603722,-0.000182121970608072,-3.2219096174563204e-05,3.7333,5.7333
2.953125,-3.3681823653009835e-05,-0.0001874924225909819,-0.00020751150304417482,-1.1719557790493625e-05,3.7333,5.7333
2.95703125,-4.2960000140382994e-05,-0.00021288195502708476,-0.0002109280927748531,-1.0747965085831992e-05,3.7333,5.7333
2.9609375,-2.5887728329900047e-05,-0.00021923467655756465,-0.000216789679531548,-2.002614157320515e-05,3.7333,5.7333
2.96484375,-1.562728229495689e-05,-0.00023729989475852596,-0.00025390238548104067,-1.856341409475852e-05,3.7333,5.7333
2.96875,-1.660955184252689e-05,-0.00024950352620279237,-0.00028026351062180514,-2.4414324008545048e-05,3.7333,5.7333
2.97265625,-2.051727634699015e-05,-0.00024999466097657736,-0.00026122669971618217,-3.661795545281147e-05,3.7333,5.7333
2.9765625,-2.2471138599221783e-05,-0.00023827148746318757,-0.0002465780712458991,-2.5396593556115044e-05,3.7333,5.7333
2.98046875,-2.1980003825436783e-05,-0.0002548739781857023,-0.0002724587384557869,-1.8072279320973522e-05,3.7333,5.7333
2.984375,-1.7581144547188522e-05,-0.000251457388455024,-0.00027636646296025027,-2.051727634699015e-05,3.7333,5.7333
2.98828125,-1.9043872025635153e-05,-0.0002275305834973678,-0.00023631762521095594,-2.0997734277866784e-05,3.7333,5.7333
2.9921875,-1.4164554816510256e-05,-0.00022020626926222626,-0.00024169875403677422,-2.9293641217669943e-05,3.7333,5.7333
2.99609375,-1.4655689590295256e-05,-0.0002055576407919432,-0.0002626894271946288,-2.636818626077668e-05,3.7333,5.7333
3.0,-2.051727634699015e-05,-0.00020360377853971158,-0.0002412076192629892,-2.1488869051651783e-05,3.7333,5.7333
3.00390625,-1.3673420042725255e-05,-0.00020409491331349657,-0.00020312332060883493,-2.4414324008545048e-05,3.7333,5.7333
3.0078125,-1.8072279320973522e-05,-0.00020214105106126495,-0.0001874924225909819,-1.660955184252689e-05,3.7333,5.7333
3.01171875,-2.1980003825436783e-05,-0.00015965789312886243,-0.00018895515006942852,-3.0265233922331574e-05,3.7333,5.7333
3.015625,-1.3192962111848625e-05,-0.00012109313654383153,-0.00017333492889448385,-5.3700904106202784e-05,3.7333,5.7333
3.01953125,-1.6118417068741892e-05,-0.00013183404050965132,-0.00015380698321507588,-4.6376589871061255e-05,3.7333,5.7333
3.0234375,-1.8072279320973522e-05,-0.00011229541798733499,-9.862905906462193e-05,-4.198840743572136e-05,3.7333,5.7333
3.02734375,-2.9293641217669943e-05,-0.00010107405609063858,-8.788815509880215e-05,-2.5887728329900047e-05,3.7333,5.7333
3.03125,-4.247954220950636e-05,-8.202656834210725e-05,-7.714725113298237e-05,-1.3192962111848625e-05,3.7333,5.7333
3.03515625,-2.9293641217669943e-05,-3.4172958426794835e-05,-4.198840743572136e-05,-3.954341040970473e-05,3.7333,5.7333
3.0390625,-3.1247503469901573e-05,-4.395243555352099e-06,-1.5146824364080257e-05,-4.6376589871061255e-05,3.7333,5.7333
3.04296875,-4.784999419241626e-05,-1.3673420042725255e-05,-2.733977896543831e-05,-3.3681823653009835e-05,3.7333,5.7333
3.046875,-5.028431437552452e-05,-2.002614157320515e-05,-2.783091373922331e-05,-3.0756368696116574e-05,3.7333,5.7333
3.05078125,-5.517430842755779e-05,-2.441381303120465e-06,2.3428609063859006e-05,-2.733977896543831e-05,3.7333,5.7333
3.0546875,-5.3700904106202784e-05,3.0272465368123903e-05,4.492109383840696e-05,-2.880250644388494e-05,3.7333,5.7333
3.05859375,-4.931272167086289e-05,4.10133693339437e-05,3.1735192846570534e-05,-2.9784775991454943e-05,3.7333,5.7333
3.0625,-5.6637035906004413e-05,3.2706785551232165e-05,2.4410878611429012e-05,-2.5887728329900047e-05,3.7333,5.7333
3.06640625,-6.005362563668268e-05,4.3447689517051954e-05,5.809631798733501e-05,-2.2951596530098414e-05,3.7333,5.7333
3.0703125,-6.249862266269931e-05,3.56429173510338e-05,6.44490395178149e-05,-1.7581144547188522e-05,3.7333,5.7333
3.07421875,-5.859089815823605e-05,4.833768356908523e-05,4.833768356908523e-05,-1.856341409475852e-05,3.7333,5.7333
3.078125,-5.126658392309452e-05,6.88372219531548e-05,6.298631203936827e-05,-2.4905458782330048e-05,3.7333,5.7333
3.08203125,-5.272931140154115e-05,4.589268654306859e-05,7.421835077897306e-05,-1.9535006799420153e-05,3.7333,5.7333
3.0859375,-5.028431437552452e-05,4.6383821316853584e-05,6.054131501335165e-05,-2.4414324008545048e-05,3.7333,5.7333
3.08984375,-4.980385644464789e-05,5.370813555199511e-05,6.298631203936827e-05,-4.003454518348973e-05,3.7333,5.7333
3.09375,-5.517430842755779e-05,4.930927627374686e-05,6.49401742915999e-05,-3.2219096174563204e-05,3.7333,5.7333
3.09765625,-5.272931140154115e-05,6.103244978713664e-05,6.054131501335165e-05,-3.0265233922331574e-05,3.7333,5.7333
3.1015625,-6.054476041046768e-05,6.49401742915999e-05,7.714380573586634e-05,-3.75895481574731e-05,3.7333,5.7333
3.10546875,-6.737793987182421e-05,5.224540807354849e-05,8.691311699702448e-05,-3.710909022659647e-05,3.7333,5.7333
3.109375,-5.712817067978942e-05,5.077200375219348e-05,7.860653321431295e-05,-2.880250644388494e-05,3.7333,5.7333
3.11328125,-5.3700904106202784e-05,5.418859348287175e-05,7.128221897917142e-05,-2.3442731303883417e-05,3.7333,5.7333
3.1171875,-4.8330452123292885e-05,5.175427329976348e-05,6.835676402227816e-05,-2.5396593556115044e-05,3.7333,5.7333
3.12109375,-4.589613194018463e-05,5.272586600442511e-05,6.49401742915999e-05,-2.5887728329900047e-05,3.7333,5.7333
3.125,-4.491386239261463e-05,5.272586600442511e-05,6.49401742915999e-05,-1.7581144547188522e-05,3.7333,5.7333
3.12890625,-4.198840743572136e-05,5.809631798733501e-05,6.151290771801328e-05,-2.002614157320515e-05,3.7333,5.7333
3.1328125,-3.710909022659647e-05,7.177335375295643e-05,7.811539844052795e-05,-3.4664093200579834e-05,3.7333,5.7333
3.13671875,-4.1006137888151364e-05,6.39579047440299e-05,7.372721600518807e-05,-3.0756368696116574e-05,3.7333,5.7333
3.140625,-4.3942269687953e-05,3.856837230792706e-05,5.809631798733501e-05,-2.880250644388494e-05,3.7333,5.7333
3.14453125,-4.149727266193636e-05,4.2476096812390323e-05,5.272586600442511e-05,-3.710909022659647e-05,3.7333,5.7333
3.1484375,-4.2960000140382994e-05,4.1493827264820324e-05,3.0752923299000534e-05,-3.85718177050431e-05,3.7333,5.7333
3.15234375,-3.85718177050431e-05,4.198496203860533e-05,4.296723158617533e-05,-3.9052275635919726e-05,3.7333,5.7333
3.15625,-3.954341040970473e-05,4.2476096812390323e-05,5.907858753490501e-05,-3.5635685905241465e-05,3.7333,5.7333
3.16015625,-3.9052275635919726e-05,4.930927627374686e-05,5.761586005645839e-05,-3.75895481574731e-05,3.7333,5.7333
3.1640625,-3.4172958426794835e-05,5.418859348287175e-05,6.34667699702449e-05,-3.5635685905241465e-05,3.7333,5.7333
3.16796875,-2.685932103456168e-05,3.661451005569543e-05,5.858745276112002e-05,-3.710909022659647e-05,3.7333,5.7333
3.171875,-2.4414324008545048e-05,4.393882429083696e-05,4.7355414021515215e-05,-3.710909022659647e-05,3.7333,5.7333
3.17578125,-3.1247503469901573e-05,5.321700077821012e-05,4.296723158617533e-05,-3.4664093200579834e-05,3.7333,5.7333
3.1796875,-3.85718177050431e-05,4.881814149996185e-05,5.272586600442511e-05,-3.5155227974364834e-05,3.7333,5.7333
3.18359375,-3.954341040970473e-05,5.418859348287175e-05,5.272586600442511e-05,-4.1006137888151364e-05,3.7333,5.7333
3.1875,-3.954341040970473e-05,2.7336333568322273e-05,1.7086564376287483e-05,-3.3201365722133204e-05,3.7333,5.7333
3.19140625,-3.4172958426794835e-05,2.3428609063859006e-05,1.8058157080949114e-05,-3.0265233922331574e-05,3.7333,5.7333
3.1953125,-2.733977896543831e-05,3.8077237534142056e-05,3.856837230792706e-05,-4.491386239261463e-05,3.7333,5.7333
3.19921875,-3.3201365722133204e-05,4.2476096812390323e-05,3.56429173510338e-05,-4.2960000140382994e-05,3.7333,5.7333
3.203125,-3.4664093200579834e-05,2.9781330594338903e-05,3.7105644829480425e-05,-2.9784775991454943e-05,3.7333,5.7333
3.20703125,-3.80806829312581e-05,1.8058157080949114e-05,1.0253384914930955e-05,-2.831137167009994e-05,3.7333,5.7333
3.2109375,-3.80806829312581e-05,2.4410878611429012e-05,-1.960923372243837e-06,-3.85718177050431e-05,3.7333,5.7333
3.21484375,-3.4664093200579834e-05,1.3669974645609222e-05,1.3178839871824216e-05,-4.882158689707789e-05,3.7333,5.7333
3.21875,-4.052567995727473e-05,6.345660410467694e-06,-1.1239099859616993e-05,-5.614590113221942e-05,3.7333,5.7333
3.22265625,-3.710909022659647e-05,1.1224977619592585e-05,-3.914785624475467e-06,-4.882158689707789e-05,3.7333,5.7333
3.2265625,-2.783091373922331e-05,6.345660410467694e-06,1.7086564376287483e-05,-4.198840743572136e-05,3.7333,5.7333
3.23046875,-3.710909022659647e-05,2.9290706797894293e-06,9.271115367360955e-06,-3.5155227974364834e-05,3.7333,5.7333
3.234375,-3.5635685905241465e-05,2.1965881585412375e-05,1.1224977619592585e-05,-4.198840743572136e-05,3.7333,5.7333
3.23828125,-3.4172958426794835e-05,6.826118341344326e-06,-8.302968059815363e-06,-4.589613194018463e-05,3.7333,5.7333
3.2421875,-4.6376589871061255e-05,-1.856341409475852e-05,4.840736537727963e-07,-3.710909022659647e-05,3.7333,5.7333
3.24609375,-4.2960000140382994e-05,-5.868647876707097e-06,8.299522662699324e-06,-4.247954220950636e-05,3.7333,5.7333
3.25,-3.5635685905241465e-05,-1.3673420042725255e-05,-1.660955184252689e-05,-4.003454518348973e-05,3.7333,5.7333
3.25390625,-3.2219096174563204e-05,-2.002614157320515e-05,-2.2471138599221783e-05,-3.80806829312581e-05,3.7333,5.7333
3.2578125,-3.6126820679026465e-05,-1.2210692564278624e-05,-3.75895481574731e-05,-4.7358859418631255e-05,3.7333,5.7333
3.26171875,-3.5155227974364834e-05,-2.4414324008545048e-05,-3.1727961400778205e-05,-4.686772464484626e-05,3.7333,5.7333
3.265625,-3.661795545281147e-05,-2.831137167009994e-05,1.0733842845807586e-05,-3.6126820679026465e-05,3.7333,5.7333
3.26953125,-4.3942269687953e-05,-3.5635685905241465e-05,-1.660955184252689e-05,-3.2219096174563204e-05,3.7333,5.7333
3.2734375,-3.85718177050431e-05,-2.831137167009994e-05,-3.0756368696116574e-05,-4.198840743572136e-05,3.7333,5.7333
3.27734375,-3.0265233922331574e-05,-8.794102833600362e-06,-2.2951596530098414e-05,-4.443340446173799e-05,3.7333,5.7333
3.28125,-3.0265233922331574e-05,-2.4905458782330048e-05,-2.4414324008545048e-05,-4.052567995727473e-05,3.7333,5.7333
3.28515625,-2.880250644388494e-05,-3.0265233922331574e-05,-1.3673420042725255e-05,-3.85718177050431e-05,3.7333,5.7333
3.2890625,-3.4664093200579834e-05,-3.80806829312581e-05,-2.685932103456168e-05,-2.636818626077668e-05,3.7333,5.7333
3.29296875,-4.1006137888151364e-05,-2.3933866077668413e-05,-2.5887728329900047e-05,-2.685932103456168e-05,3.7333,5.7333
3.296875,-3.4172958426794835e-05,5.854525636682695e-06,-1.3673420042725255e-05,-3.710909022659647e-05,3.7333,5.7333
3.30078125,-3.3681823653009835e-05,-4.886378329137098e-06,-2.2471138599221783e-05,-3.9052275635919726e-05,3.7333,5.7333
3.3046875,-2.685932103456168e-05,-3.0756368696116574e-05,-1.7581144547188522e-05,-3.80806829312581e-05,3.7333,5.7333
3.30859375,-2.4414324008545048e-05,-5.028431437552452e-05,-8.302968059815363e-06,-3.2710230948348204e-05,3.7333,5.7333
3.3125,-2.636818626077668e-05,-2.4905458782330048e-05,-3.1727961400778205e-05,-3.9052275635919726e-05,3.7333,5.7333
3.31640625,-2.880250644388494e-05,-1.562728229495689e-05,-4.931272167086289e-05,-4.2960000140382994e-05,3.7333,5.7333
3.3203125,-2.3933866077668413e-05,-2.3442731303883417e-05,-1.9535006799420153e-05,-4.149727266193636e-05,3.7333,5.7333
3.32421875,-2.4414324008545048e-05,-1.8072279320973522e-05,-1.4655689590295256e-05,-3.9052275635919726e-05,3.7333,5.7333
3.328125,-3.6126820679026465e-05,-3.5635685905241465e-05,-2.3442731303883417e-05,-2.9293641217669943e-05,3.7333,5.7333
3.33203125,-4.052567995727473e-05,-3.2710230948348204e-05,-2.3933866077668413e-05,-2.831137167009994e-05,3.7333,5.7333
3.3359375,-2.9293641217669943e-05,-8.302968059815363e-06,-3.3681823653009835e-05,-3.4664093200579834e-05,3.7333,5.7333
3.33984375,-2.5396593556115044e-05,-1.4164554816510256e-05,-2.2471138599221783e-05,-3.4664093200579834e-05,3.7333,5.7333
3.34375,-2.783091373922331e-05,-2.831137167009994e-05,-2.002614157320515e-05,-2.9784775991454943e-05,3.7333,5.7333
3.34765625,-2.1980003825436783e-05,-3.1247503469901573e-05,-4.882158689707789e-05,-3.1727961400778205e-05,3.7333,5.7333
3.3515625,-2.4905458782330048e-05,-3.6126820679026465e-05,-4.003454518348973e-05,-4.198840743572136e-05,3.7333,5.7333
3.35546875,-2.9293641217669943e-05,-4.1006137888151364e-05,-4.886378329137098e-06,-4.003454518348973e-05,3.7333,5.7333
3.359375,-2.880250644388494e-05,-3.6126820679026465e-05,-4.886378329137098e-06,-3.0756368696116574e-05,3.7333,5.7333
3.36328125,-3.1247503469901573e-05,-3.3681823653009835e-05,-3.4172958426794835e-05,-3.4664093200579834e-05,3.7333,5.7333
3.3671875,-3.75895481574731e-05,-3.4664093200579834e-05,-4.6376589871061255e-05,-4.3451134914167994e-05,3.7333,5.7333
3.37109375,-3.3201365722133204e-05,-3.3681823653009835e-05,-3.710909022659647e-05,-3.4664093200579834e-05,3.7333,5.7333
3.375,-3.710909022659647e-05,-4.052567995727473e-05,-3.3681823653009835e-05,-3.710909022659647e-05,3.7333,5.7333
3.37890625,-4.3451134914167994e-05,-2.002614157320515e-05,-1.7090009773403523e-05,-5.077544914930952e-05,3.7333,5.7333
3.3828125,-4.491386239261463e-05,-2.5887728329900047e-05,-2.9784775991454943e-05,-4.052567995727473e-05,3.7333,5.7333
3.38671875,-3.2219096174563204e-05,-4.149727266193636e-05,-5.126658392309452e-05,-2.636818626077668e-05,3.7333,5.7333
3.390625,-2.0997734277866784e-05,-3.710909022659647e-05,-4.003454518348973e-05,-2.4905458782330048e-05,3.7333,5.7333
3.39453125,-2.5887728329900047e-05,-1.1719557790493625e-05,-1.9535006799420153e-05,-3.80806829312581e-05,3.7333,5.7333
3.3984375,-2.831137167009994e-05,-1.0747965085831992e-05,-4.198840743572136e-05,-4.149727266193636e-05,3.7333,5.7333
3.40234375,-3.5635685905241465e-05,-4.149727266193636e-05,-6.151635311512931e-05,-2.2951596530098414e-05,3.7333,5.7333
3.40625,-4.6376589871061255e-05,-3.4172958426794835e-05,-3.1727961400778205e-05,-1.9535006799420153e-05,3.7333,5.7333
3.41015625,-3.75895481574731e-05,-3.2710230948348204e-05,-5.868647876707097e-06,-3.3201365722133204e-05,3.7333,5.7333
3.4140625,-2.5887728329900047e-05,-4.052567995727473e-05,-7.331375355153732e-06,-3.4664093200579834e-05,3.7333,5.7333
3.41796875,-2.3933866077668413e-05,-3.1247503469901573e-05,-2.9293641217669943e-05,-3.1727961400778205e-05,3.7333,5.7333
3.421875,-2.831137167009994e-05,-3.2219096174563204e-05,-3.6126820679026465e-05,-3.1727961400778205e-05,3.7333,5.7333
3.42578125,-3.4664093200579834e-05,-4.1006137888151364e-05,-3.4172958426794835e-05,-3.5635685905241465e-05,3.7333,5.7333
3.4296875,-3.661795545281147e-05,-3.85718177050431e-05,-3.0756368696116574e-05,-3.5155227974364834e-05,3.7333,5.7333
3.43359375,-3.4172958426794835e-05,-3.5635685905241465e-05,-1.9043872025635153e-05,-2.4414324008545048e-05,3.7333,5.7333
3.4375,-3.3681823653009835e-05,-4.443340446173799e-05,-1.2210692564278624e-05,-1.2701827338063624e-05,3.7333,5.7333
3.44140625,-3.5155227974364834e-05,-1.9535006799420153e-05,1.5132702124055853e-05,-2.685932103456168e-05,3.7333,5.7333
3.4453125,-2.1980003825436783e-05,1.1716112393377585e-05,4.872256089112692e-06,-4.052567995727473e-05,3.7333,5.7333
3.44921875,-1.1239099859616993e-05,-3.5155227974364834e-05,-2.783091373922331e-05,-4.003454518348973e-05,3.7333,5.7333
3.453125,-1.3673420042725255e-05,-4.589613194018463e-05,-2.002614157320515e-05,-4.5404997166399624e-05,3.7333,5.7333
3.45703125,-2.2951596530098414e-05,-5.868647876707097e-06,-9.765695538261994e-06,-4.5404997166399624e-05,3.7333,5.7333
3.4609375,-2.0997734277866784e-05,1.3669974645609222e-05,3.900663384451061e-06,-3.710909022659647e-05,3.7333,5.7333
3.46484375,-7.82251012893873e-06,1.4150432576485847e-05,-2.932516076905465e-06,-5.322044617532616e-05,3.7333,5.7333
3.46875,-1.6118417068741892e-05,1.8549291854734114e-05,2.9290706797894293e-06,-6.78690746456092e-05,3.7333,5.7333
3.47265625,-2.831137167009994e-05,3.2226327620355534e-05,1.7577699150072483e-05,-5.859089815823605e-05,3.7333,5.7333
3.4765625,-2.685932103456168e-05,3.0272465368123903e-05,2.9781330594338903e-05,-5.028431437552452e-05,3.7333,5.7333
3.48046875,-2.5396593556115044e-05,3.1244058072785534e-05,4.3447689517051954e-05,-5.175771869687952e-05,3.7333,5.7333
3.484375,-3.3681823653009835e-05,2.9781330594338903e-05,2.2457016359197375e-05,-5.614590113221942e-05,3.7333,5.7333
3.48828125,-3.5635685905241465e-05,1.6595429602502484e-05,1.8549291854734114e-05,-5.175771869687952e-05,3.7333,5.7333
3.4921875,-3.3201365722133204e-05,1.5623836897840853e-05,2.9781330594338903e-05,-5.322044617532616e-05,3.7333,5.7333
3.49609375,-3.4172958426794835e-05,3.0272465368123903e-05,2.4902013385214012e-05,-5.468317365377278e-05,3.7333,5.7333
3.5,-4.052567995727473e-05,2.0012019333180745e-05,1.7086564376287483e-05,-5.3700904106202784e-05,3.7333,5.7333
3.50390625,-4.443340446173799e-05,-1.2210692564278624e-05,1.3178839871824216e-05,-5.5654766358434414e-05,3.7333,5.7333
3.5078125,-3.661795545281147e-05,-1.3673420042725255e-05,3.1735192846570534e-05,-4.589613194018463e-05,3.7333,5.7333
3.51171875,-3.5635685905241465e-05,-6.349105807583729e-06,1.2196570324254216e-05,-4.198840743572136e-05,3.7333,5.7333
3.515625,-4.491386239261463e-05,1.9468011322194273e-06,-1.4164554816510256e-05,-4.198840743572136e-05,3.7333,5.7333
3.51953125,-4.198840743572136e-05,2.0503154106965744e-05,-1.3192962111848625e-05,-4.1006137888151364e-05,3.7333,5.7333
3.5234375,-3.661795545281147e-05,2.0012019333180745e-05,-2.0997734277866784e-05,-4.784999419241626e-05,3.7333,5.7333
3.52734375,-3.2219096174563204e-05,3.900663384451061e-06,1.2196570324254216e-05,-3.75895481574731e-05,3.7333,5.7333
3.53125,-2.636818626077668e-05,-1.3673420042725255e-05,1.0253384914930955e-05,-3.2710230948348204e-05,3.7333,5.7333
3.53515625,-3.4664093200579834e-05,-7.331375355153732e-06,-1.6118417068741892e-05,-4.003454518348973e-05,3.7333,5.7333
3.5390625,-4.1006137888151364e-05,-4.886378329137098e-06,-8.794102833600362e-06,-4.1006137888151364e-05,3.7333,5.7333
3.54296875,-3.2710230948348204e-05,-1.2210692564278624e-05,3.900663384451061e-06,-3.3201365722133204e-05,3.7333,5.7333
3.546875,-2.5887728329900047e-05,-1.4164554816510256e-05,2.0012019333180745e-05,-3.0756368696116574e-05,3.7333,5.7333
3.55078125,-2.4414324008545048e-05,-1.562728229495689e-05,8.779980593575955e-06,-3.4664093200579834e-05,3.7333,5.7333
3.5546875,-2.2471138599221783e-05,-7.061120012203048e-09,-3.4236508506904675e-06,-4.491386239261463e-05,3.7333,5.7333
3.55859375,-3.1247503469901573e-05,-5.868647876707097e-06,1.1224977619592585e-05,-4.3451134914167994e-05,3.7333,5.7333
3.5625,-3.85718177050431e-05,-1.9043872025635153e-05,1.4556663584344278e-06,-3.4664093200579834e-05,3.7333,5.7333
3.56640625,-3.6126820679026465e-05,-1.5146824364080257e-05,-2.5887728329900047e-05,-3.4172958426794835e-05,3.7333,5.7333
3.5703125,-4.6376589871061255e-05,-1.6118417068741892e-05,-2.9293641217669943e-05,-3.5155227974364834e-05,3.7333,5.7333
3.57421875,-5.712817067978942e-05,-2.1488869051651783e-05,-6.840240581368729e-06,-3.75895481574731e-05,3.7333,5.7333
3.578125,-5.468317365377278e-05,-1.9043872025635153e-05,-1.660955184252689e-05,-3.710909022659647e-05,3.7333,5.7333
3.58203125,-4.052567995727473e-05,-7.331375355153732e-06,-1.856341409475852e-05,-3.4172958426794835e-05,3.7333,5.7333
3.5859375,-3.1727961400778205e-05,-3.4172958426794835e-05,-1.660955184252689e-05,-2.5887728329900047e-05,3.7333,5.7333
3.58984375,-3.5155227974364834e-05,-4.589613194018463e-05,-2.4905458782330048e-05,-3.1247503469901573e-05,3.7333,5.7333
3.59375,-2.4905458782330048e-05,-1.660955184252689e-05,-1.9535006799420153e-05,-4.003454518348973e-05,3.7333,5.7333
3.59765625,-2.1980003825436783e-05,-5.868647876707097e-06,-2.4905458782330048e-05,-3.4172958426794835e-05,3.7333,5.7333
3.6015625,-3.0265233922331574e-05,-2.5887728329900047e-05,-1.4697885984588338e-06,-2.9293641217669943e-05,3.7333,5.7333
3.60546875,-3.80806829312581e-05,-2.685932103456168e-05,-1.4697885984588338e-06,-2.733977896543831e-05,3.7333,5.7333
3.609375,-3.9052275635919726e-05,-2.9784775991454943e-05,-2.9784775991454943e-05,-2.9293641217669943e-05,3.7333,5.7333
3.61328125,-3.0756368696116574e-05,-2.9784775991454943e-05,-2.685932103456168e-05,-3.9052275635919726e-05,3.7333,5.7333
3.6171875,-3.1727961400778205e-05,-3.1727961400778205e-05,-2.9784775991454943e-05,-3.9052275635919726e-05,3.7333,5.7333
3.62109375,-3.4664093200579834e-05,-4.003454518348973e-05,-5.517430842755779e-05,-3.5635685905241465e-05,3.7333,5.7333
3.625,-4.784999419241626e-05,-4.3451134914167994e-05,-5.028431437552452e-05,-3.75895481574731e-05,3.7333,5.7333
3.62890625,-4.7358859418631255e-05,-4.1006137888151364e-05,-2.5396593556115044e-05,-4.052567995727473e-05,3.7333,5.7333
3.6328125,-3.5155227974364834e-05,-2.4905458782330048e-05,-5.126658392309452e-05,-3.1247503469901573e-05,3.7333,5.7333
3.63671875,-3.661795545281147e-05,-1.7090009773403523e-05,-5.3700904106202784e-05,-3.85718177050431e-05,3.7333,5.7333
3.640625,-3.1247503469901573e-05,-3.9052275635919726e-05,-3.954341040970473e-05,-4.3942269687953e-05,3.7333,5.7333
3.64453125,-2.5396593556115044e-05,-4.2960000140382994e-05,-4.882158689707789e-05,-2.9293641217669943e-05,3.7333,5.7333
3.6484375,-3.1727961400778205e-05,-3.5635685905241465e-05,-4.2960000140382994e-05,-3.2219096174563204e-05,3.7333,5.7333
3.65234375,-3.4664093200579834e-05,-3.1247503469901573e-05,-1.9535006799420153e-05,-3.4172958426794835e-05,3.7333,5.7333
3.65625,-3.0756368696116574e-05,2.9290706797894293e-06,-9.765695538261994e-06,-3.4664093200579834e-05,3.7333,5.7333
3.66015625,-1.660955184252689e-05,5.854525636682695e-06,-3.5635685905241465e-05,-3.5155227974364834e-05,3.7333,5.7333
3.6640625,-2.1488869051651783e-05,-4.589613194018463e-05,-5.419203887998779e-05,-3.0265233922331574e-05,3.7333,5.7333
3.66796875,-2.5396593556115044e-05,-7.9101113385214e-05,-6.054476041046768e-05,-3.0265233922331574e-05,3.7333,5.7333
3.671875,-1.7581144547188522e-05,-8.398043059433888e-05,-8.544315807278553e-05,-3.85718177050431e-05,3.7333,5.7333
3.67578125,-3.3681823653009835e-05,-7.9101113385214e-05,-0.0001069249660044251,-2.783091373922331e-05,3.7333,5.7333
3.6796875,-3.0756368696116574e-05,-9.912019383840694e-05,-0.00011424928023956663,-3.0756368696116574e-05,3.7333,5.7333
3.68359375,-3.5635685905241465e-05,-0.00012011086699626153,-0.00010009178654306858,-4.198840743572136e-05,3.7333,5.7333
3.6875,-4.6376589871061255e-05,-0.00011571200771801326,-0.00010986109780422674,-3.4172958426794835e-05,3.7333,5.7333
3.69140625,-3.85718177050431e-05,-0.00013231449844052794,-0.000146963126910811,-3.661795545281147e-05,3.7333,5.7333
3.6953125,-3.954341040970473e-05,-0.0001420838097016861,-0.00015771470771953918,-3.85718177050431e-05,3.7333,5.7333
3.69921875,-3.80806829312581e-05,-0.00015185312096284429,-0.00014989925871061263,-4.6376589871061255e-05,3.7333,5.7333
3.703125,-4.052567995727473e-05,-0.00016113129745021744,-0.00015428744114595253,-4.052567995727473e-05,3.7333,5.7333
3.70703125,-4.491386239261463e-05,-0.000147945396458381,-0.0001523335788937209,-3.80806829312581e-05,3.7333,5.7333
3.7109375,-4.003454518348973e-05,-0.00014012994744945446,-0.00015576084546730753,-4.247954220950636e-05,3.7333,5.7333
3.71484375,-4.784999419241626e-05,-0.00012157359447470816,-0.0001396388126756695,-3.5635685905241465e-05,3.7333,5.7333
3.71875,-5.517430842755779e-05,-0.0001020456487953002,-0.0001079072355519951,-3.75895481574731e-05,3.7333,5.7333
3.72265625,-4.686772464484626e-05,-0.00010107405609063858,-0.00010644450807354847,-4.052567995727473e-05,3.7333,5.7333
3.7265625,-3.6126820679026465e-05,-8.984201735103379e-05,-0.00010009178654306858,-3.954341040970473e-05,3.7333,5.7333
3.73046875,-3.4664093200579834e-05,-8.447156536812388e-05,-9.423019978637368e-05,-4.3942269687953e-05,3.7333,5.7333
3.734375,-4.3451134914167994e-05,-9.130474482948042e-05,-9.423019978637368e-05,-4.443340446173799e-05,3.7333,5.7333
3.73828125,-4.980385644464789e-05,-7.811884383764399e-05,-7.421111933318073e-05,-3.75895481574731e-05,3.7333,5.7333
3.7421875,-4.5404997166399624e-05,-8.056384086366062e-05,-6.884066735027084e-05,-3.80806829312581e-05,3.7333,5.7333
3.74609375,-4.052567995727473e-05,-8.447156536812388e-05,-8.642542762035552e-05,-3.4172958426794835e-05,3.7333,5.7333
3.75,-2.880250644388494e-05,-7.128566437628747e-05,-9.569292726482031e-05,-4.052567995727473e-05,3.7333,5.7333
3.75390625,-2.3933866077668413e-05,-6.933180212405583e-05,-0.00010107405609063858,-4.491386239261463e-05,3.7333,5.7333
3.7578125,-3.661795545281147e-05,-7.470225410696574e-05,-6.982293689784083e-05,-3.3201365722133204e-05,3.7333,5.7333
3.76171875,-4.2960000140382994e-05,-5.5654766358434414e-05,-5.322044617532616e-05,-2.880250644388494e-05,3.7333,5.7333
3.765625,-4.198840743572136e-05,-5.468317365377278e-05,-8.007270608987562e-05,-3.1727961400778205e-05,3.7333,5.7333
3.76953125,-3.0265233922331574e-05,-6.20074878889143e-05,-5.322044617532616e-05,-3.5635685905241465e-05,3.7333,5.7333
3.7734375,-2.636818626077668e-05,-5.6637035906004413e-05,-4.784999419241626e-05,-3.9052275635919726e-05,3.7333,5.7333
3.77734375,-2.733977896543831e-05,-5.419203887998779e-05,-6.982293689784083e-05,-3.4664093200579834e-05,3.7333,5.7333
3.78125,-2.5887728329900047e-05,-4.2960000140382994e-05,-5.712817067978942e-05,-3.0756368696116574e-05,3.7333,5.7333
3.78515625,-2.3442731303883417e-05,-3.5635685905241465e-05,-5.859089815823605e-05,-3.4664093200579834e-05,3.7333,5.7333
3.7890625,-2.783091373922331e-05,-4.686772464484626e-05,-6.347021536736094e-05,-3.5155227974364834e-05,3.7333,5.7333
3.79296875,-3.661795545281147e-05,-4.2960000140382994e-05,-4.980385644464789e-05,-2.685932103456168e-05,3.7333,5.7333
3.796875,-4.003454518348973e-05,-5.7608628610666044e-05,-5.6637035906004413e-05,-2.9293641217669943e-05,3.7333,5.7333
3.80078125,-3.661795545281147e-05,-8.447156536812388e-05,-5.907135608911268e-05,-3.5635685905241465e-05,3.7333,5.7333
3.8046875,-3.0756368696116574e-05,-5.322044617532616e-05,-5.419203887998779e-05,-3.661795545281147e-05,3.7333,5.7333
3.80859375,-2.636818626077668e-05,-3.710909022659647e-05,-4.443340446173799e-05,-4.052567995727473e-05,3.7333,5.7333
3.8125,-3.1727961400778205e-05,-5.859089815823605e-05,-5.517430842755779e-05,-3.1247503469901573e-05,3.7333,5.7333
3.81640625,-3.0265233922331574e-05,-5.077544914930952e-05,-5.419203887998779e-05,-3.2710230948348204e-05,3.7333,5.7333
3.8203125,-2.880250644388494e-05,-4.980385644464789e-05,-7.421111933318073e-05,-3.3201365722133204e-05,3.7333,5.7333
3.82421875,-3.1247503469901573e-05,-5.272931140154115e-05,-6.78690746456092e-05,-2.880250644388494e-05,3.7333,5.7333
3.828125,-3.5635685905241465e-05,-4.1006137888151364e-05,-4.980385644464789e-05,-3.3681823653009835e-05,3.7333,5.7333
3.83203125,-3.75895481574731e-05,-3.661795545281147e-05,-5.712817067978942e-05,-4.198840743572136e-05,3.7333,5.7333
3.8359375,-2.880250644388494e-05,-3.661795545281147e-05,-5.175771869687952e-05,-4.149727266193636e-05,3.7333,5.7333
3.83984375,-3.9052275635919726e-05,-3.75895481574731e-05,-6.151635311512931e-05,-3.661795545281147e-05,3.7333,5.7333
3.84375,-3.4664093200579834e-05,-3.80806829312581e-05,-5.859089815823605e-05,-3.710909022659647e-05,3.7333,5.7333
3.84765625,-2.5887728329900047e-05,-5.175771869687952e-05,-5.5654766358434414e-05,-3.75895481574731e-05,3.7333,5.7333
3.8515625,-3.1247503469901573e-05,-4.686772464484626e-05,-4.443340446173799e-05,-3.710909022659647e-05,3.7333,5.7333
3.85546875,-3.0756368696116574e-05,-3.4664093200579834e-05,-3.75895481574731e-05,-3.1247503469901573e-05,3.7333,5.7333
3.859375,-2.0997734277866784e-05,-2.9293641217669943e-05,-4.3451134914167994e-05,-2.9293641217669943e-05,3.7333,5.7333
3.86328125,-2.1980003825436783e-05,-2.783091373922331e-05,-4.686772464484626e-05,-3.661795545281147e-05,3.7333,5.7333
3.8671875,-3.0756368696116574e-05,-4.247954220950636e-05,-3.5635685905241465e-05,-3.85718177050431e-05,3.7333,5.7333
3.87109375,-3.3681823653009835e-05,-3.954341040970473e-05,-2.1980003825436783e-05,-3.0756368696116574e-05,3.7333,5.7333
3.875,-4.198840743572136e-05,-3.80806829312581e-05,-1.8072279320973522e-05,-2.3933866077668413e-05,3.7333,5.7333
3.87890625,-3.85718177050431e-05,-5.809976338445105e-05,-4.247954220950636e-05,-2.831137167009994e-05,3.7333,5.7333
3.8828125,-3.3681823653009835e-05,-5.419203887998779e-05,-6.102521834134431e-05,-3.4664093200579834e-05,3.7333,5.7333
3.88671875,-2.783091373922331e-05,-4.443340446173799e-05,-3.4664093200579834e-05,-3.2219096174563204e-05,3.7333,5.7333
3.890625,-1.9043872025635153e-05,-3.954341040970473e-05,-3.5635685905241465e-05,-2.783091373922331e-05,3.7333,5.7333
3.89453125,-2.9293641217669943e-05,-3.0265233922331574e-05,-4.3942269687953e-05,-2.636818626077668e-05,3.7333,5.7333
3.8984375,-4.980385644464789e-05,-3.2219096174563204e-05,-3.0756368696116574e-05,-2.831137167009994e-05,3.7333,5.7333
3.90234375,-5.223817662775615e-05,-2.3933866077668413e-05,-3.0265233922331574e-05,-2.4414324008545048e-05,3.7333,5.7333
3.90625,-3.1247503469901573e-05,-2.831137167009994e-05,-4.7358859418631255e-05,-2.4414324008545048e-05,3.7333,5.7333
3.91015625,-2.1980003825436783e-05,-5.077544914930952e-05,-4.8330452123292885e-05,-3.5635685905241465e-05,3.7333,5.7333
3.9140625,-3.2710230948348204e-05,-4.589613194018463e-05,-5.028431437552452e-05,-3.6126820679026465e-05,3.7333,5.7333
3.91796875,-4.3942269687953e-05,-3.85718177050431e-05,-4.8330452123292885e-05,-2.880250644388494e-05,3.7333,5.7333
3.921875,-4.052567995727473e-05,-4.5404997166399624e-05,-2.4414324008545048e-05,-2.9784775991454943e-05,3.7333,5.7333
3.92578125,-3.5635685905241465e-05,-4.3942269687953e-05,-3.2219096174563204e-05,-3.1247503469901573e-05,3.7333,5.7333
3.9296875,-3.75895481574731e-05,-4.052567995727473e-05,-4.149727266193636e-05,-2.831137167009994e-05,3.7333,5.7333
3.93359375,-4.7358859418631255e-05,-3.80806829312581e-05,-5.3700904106202784e-05,-3.3201365722133204e-05,3.7333,5.7333
3.9375,-3.80806829312581e-05,-3.0265233922331574e-05,-6.297908059357594e-05,-4.3942269687953e-05,3.7333,5.7333
3.94140625,-2.880250644388494e-05,-3.4172958426794835e-05,-3.2710230948348204e-05,-3.5155227974364834e-05,3.7333,5.7333
3.9453125,-3.2710230948348204e-05,-4.589613194018463e-05,-2.831137167009994e-05,-2.831137167009994e-05,3.7333,5.7333
3.94921875,-2.831137167009994e-05,-3.710909022659647e-05,-3.75895481574731e-05,-3.4664093200579834e-05,3.7333,5.7333
3.953125,-3.3201365722133204e-05,-2.880250644388494e-05,-3.5635685905241465e-05,-3.3201365722133204e-05,3.7333,5.7333
3.95703125,-4.149727266193636e-05,-2.051727634699015e-05,-3.4172958426794835e-05,-3.3681823653009835e-05,3.7333,5.7333
3.9609375,-3.2710230948348204e-05,-2.733977896543831e-05,-1.9043872025635153e-05,-4.003454518348973e-05,3.7333,5.7333
3.96484375,-3.5635685905241465e-05,-4.003454518348973e-05,-2.880250644388494e-05,-3.1247503469901573e-05,3.7333,5.7333
3.96875,-4.247954220950636e-05,-3.3201365722133204e-05,-4.7358859418631255e-05,-3.2710230948348204e-05,3.7333,5.7333
3.97265625,-3.5155227974364834e-05,-4.003454518348973e-05,-3.80806829312581e-05,-3.5155227974364834e-05,3.7333,5.7333
3.9765625,-3.2710230948348204e-05,-3.710909022659647e-05,-4.7358859418631255e-05,-3.3201365722133204e-05,3.7333,5.7333
3.98046875,-3.3201365722133204e-05,-4.443340446173799e-05,-5.468317365377278e-05,-2.9784775991454943e-05,3.7333,5.7333
3.984375,-3.2219096174563204e-05,-4.589613194018463e-05,-5.322044617532616e-05,-3.0756368696116574e-05,3.7333,5.7333
3.98828125,-3.0756368696116574e-05,-3.6126820679026465e-05,-2.5887728329900047e-05,-3.1727961400778205e-05,3.7333,5.7333
