timestamp,TP9,AF7,AF8,TP10,Valence,Arousal
0.0,2.913696356145588e-06,-0.0001161996579858091,-0.00011522331901579306,5.124247537193867e-05,5.9286,6.9286
0.00390625,-5.842843781185608e-06,-0.00012645121717097733,-0.0001342619289311055,4.7825288976882595e-05,5.9286,6.9286
0.0078125,-5.354674296177598e-06,-0.00014256081017624168,-0.00013523826790112152,5.270698382696271e-05,5.9286,6.9286
0.01171875,-2.9138268711375426e-06,-0.00016404026751659417,-0.00017087464030670634,4.4896272066834534e-05,5.9286,6.9286
0.015625,-3.401996356145554e-06,-0.00017526816567177842,-0.00020702969279011213,4.196725515678646e-05,5.9286,6.9286
0.01953125,-5.842843781185608e-06,-0.00018307887743190658,-0.00019821213146715492,4.5872611036850557e-05,5.9286,6.9286
0.0234375,1.4491879011215552e-06,-0.0002094705402151522,-0.00020849420124513616,4.001457721675442e-05,5.9286,6.9286
0.02734375,8.77173017624172e-06,-0.0002324145060105287,-0.0002524294548958571,4.001457721675442e-05,5.9286,6.9286
0.03125,1.2677086056305808e-05,-0.00024022521777065687,-0.00028367230193636984,4.440810258182652e-05,5.9286,6.9286
0.03515625,1.2677086056305808e-05,-0.00027830243760128173,-0.000288065827301442,4.7337119491874584e-05,5.9286,6.9286
0.0390625,5.842713266193654e-06,-0.00028318413245136185,-0.00030027006442664224,5.417149228198674e-05,5.9286,6.9286
0.04296875,2.913696356145588e-06,-0.00028855399678644997,-0.00028513681039139387,6.10058650720989e-05,5.9286,6.9286
0.046875,1.0236238631265752e-05,-0.00028416047142137784,-0.0002577993192309453,6.198220404211491e-05,5.9286,6.9286
0.05078125,1.9999628331425975e-05,-0.0002670745394460975,-0.00027830243760128173,5.514783125200276e-05,5.9286,6.9286
0.0546875,2.7322170606546137e-05,-0.00025633481077592127,-0.00027439708172121764,4.4896272066834534e-05,5.9286,6.9286
0.05859375,1.6094272451361885e-05,-0.00024754776004577705,-0.0002407133872556649,2.1464136786450005e-05,5.9286,6.9286
0.0625,-1.5320553902477717e-08,-0.0002270446416754406,-0.0002319263365255207,2.7322170606546137e-05,5.9286,6.9286
0.06640625,3.890035326161609e-06,-0.00020751786227512012,-0.00021581674352025632,5.954135661707486e-05,5.9286,6.9286
0.0703125,1.7070611421377907e-05,-0.00019088958919203476,-0.00018600789434195466,5.465966176699475e-05,5.9286,6.9286
0.07421875,2.9274848546578178e-05,-0.00015720589472648203,-0.00017624450464179443,4.245542464179448e-05,5.9286,6.9286
0.078125,3.7085560306706354e-05,-0.00012742755614099334,-0.00015671772524147398,3.0739357001602215e-05,5.9286,6.9286
0.08203125,3.171569597161824e-05,-0.0001210813528358892,-0.0001249867087159533,3.0251187516594204e-05,5.9286,6.9286
0.0859375,2.5369492666514095e-05,-9.667287858548866e-05,-0.0001079007767406729,3.220386545662624e-05,5.9286,6.9286
0.08984375,2.488132318150608e-05,-6.982355691004805e-05,-9.86255565255207e-05,1.1700747086289786e-05,5.9286,6.9286
0.09375,1.951145884641796e-05,-5.563613125200272e-05,-7.470525176012816e-05,5.354543781185643e-06,5.9286,6.9286
0.09765625,1.6094272451361885e-05,-2.634596215152207e-05,-3.073948751659417e-05,2.439315369649807e-05,5.9286,6.9286
0.1015625,1.755878090638592e-05,-2.146426730144196e-05,-6.3310132661936195e-06,3.171569597161824e-05,5.9286,6.9286
0.10546875,1.7070611421377907e-05,-2.9138268711375426e-06,-2.9763148546578148e-05,1.8046950391393927e-05,5.9286,6.9286
0.109375,1.1212577601281776e-05,-1.121270811627373e-05,-2.8298640091554114e-05,1.4629763996337851e-05,5.9286,6.9286
0.11328125,8.77173017624172e-06,-1.44931841611351e-06,7.795391206225697e-06,2.1464136786450005e-05,5.9286,6.9286
0.1171875,-1.5320553902477717e-08,3.220386545662624e-05,2.488132318150608e-05,1.6582441936369896e-05,5.9286,6.9286
0.12109375,-8.283691206225664e-06,4.1479085671778456e-05,3.318020442664227e-05,1.4491879011215552e-06,5.9286,6.9286
0.125,-2.9138268711375426e-06,4.1479085671778456e-05,2.829850957656216e-05,7.307221721217687e-06,5.9286,6.9286
0.12890625,5.354543781185643e-06,4.831345846189061e-05,3.806189927672238e-05,1.6582441936369896e-05,5.9286,6.9286
0.1328125,3.401865841153599e-06,5.2218814341954696e-05,4.831345846189061e-05,1.3165255541313818e-05,5.9286,6.9286
0.13671875,4.866374296177632e-06,6.442305146715498e-05,5.026613640192266e-05,3.401865841153599e-06,5.9286,6.9286
0.140625,1.937357386129566e-06,7.958681609521631e-05,7.665779918516825e-05,-2.9138268711375426e-06,5.9286,6.9286
0.14453125,-8.283691206225664e-06,6.835891794003205e-05,9.081471425040057e-05,2.4255268711375773e-06,5.9286,6.9286
0.1484375,-2.425657386129532e-06,5.612417022201878e-05,7.958681609521631e-05,-1.8535250391393893e-05,5.9286,6.9286
0.15234375,-1.3165386056305774e-05,5.2218814341954696e-05,9.179105322041659e-05,-2.634596215152207e-05,5.9286,6.9286
0.15625,-2.9274979061570133e-05,7.714596867017625e-05,0.00011864037489585719,-3.890165841153565e-06,5.9286,6.9286
0.16015625,-6.819182751201631e-06,9.520823961547266e-05,9.472007013046466e-05,1.4491879011215552e-06,5.9286,6.9286
0.1640625,1.0724408116273763e-05,7.47051212451362e-05,8.495668043030443e-05,1.1700747086289786e-05,5.9286,6.9286
0.16796875,1.7070611421377907e-05,7.861047712520029e-05,6.689440948500802e-05,4.866374296177632e-06,5.9286,6.9286
0.171875,2.2440475756466028e-05,0.00010253078189059284,5.758867867704282e-05,-1.755891142137787e-05,5.9286,6.9286
0.17578125,1.9999628331425975e-05,8.349217197528039e-05,6.640624000000002e-05,-4.3783353261615755e-06,5.9286,6.9286
0.1796875,1.5606102966353874e-05,8.544484991531244e-05,8.349217197528039e-05,1.755878090638592e-05,5.9286,6.9286
0.18359375,8.283560691233709e-06,0.00010936515468070498,9.325556167544062e-05,3.0739357001602215e-05,5.9286,6.9286
0.1875,-4.866504811169587e-06,7.47051212451362e-05,9.569640910048068e-05,3.610922133669034e-05,5.9286,6.9286
0.19140625,-2.9138268711375426e-06,4.538444155184254e-05,7.90986466102083e-05,2.976301803158619e-05,5.9286,6.9286
0.1953125,1.4629763996337851e-05,7.177610433508813e-05,6.539939043717099e-05,1.902328936140995e-05,5.9286,6.9286
0.19921875,2.3416814726482047e-05,9.862542601052873e-05,6.933525691004809e-05,1.3165255541313818e-05,5.9286,6.9286
0.203125,2.0487797816433986e-05,9.179105322041659e-05,6.933525691004809e-05,5.354543781185643e-06,5.9286,6.9286
0.20703125,9.748069146257742e-06,6.344671249713895e-05,7.763413815518427e-05,-2.425657386129532e-06,5.9286,6.9286
0.2109375,1.5606102966353874e-05,5.66123397070268e-05,8.251583300526438e-05,-4.866504811169587e-06,5.9286,6.9286
0.21484375,2.439315369649807e-05,7.128793485008013e-05,5.270698382696271e-05,-8.771860691233675e-06,5.9286,6.9286
0.21875,-4.866504811169587e-06,8.105132455024035e-05,6.149403455710691e-05,-3.890165841153565e-06,5.9286,6.9286
0.22265625,-2.683413163653008e-05,7.958681609521631e-05,6.640624000000002e-05,1.5606102966353874e-05,5.9286,6.9286
0.2265625,-1.4141725026321795e-05,7.90986466102083e-05,5.1730644856946685e-05,2.7810340091554148e-05,5.9286,6.9286
0.23046875,-3.708569082169831e-05,7.128793485008013e-05,6.0029526102082876e-05,9.259899661249731e-06,5.9286,6.9286
0.234375,-2.0487928331425938e-05,6.393488198214696e-05,6.051769558709088e-05,-1.609440296635384e-05,5.9286,6.9286
0.23828125,4.7337119491874584e-05,5.954135661707486e-05,5.417149228198674e-05,2.913696356145588e-06,5.9286,6.9286
0.2421875,5.319515331197072e-05,6.640624000000002e-05,4.001457721675442e-05,2.1952306271458016e-05,5.9286,6.9286
0.24609375,4.391993309681851e-05,4.977796691691464e-05,5.5636000737010774e-05,2.9274848546578178e-05,5.9286,6.9286
0.25,3.952640773174641e-05,1.951145884641796e-05,5.075430588693066e-05,3.5132882366674316e-05,5.9286,6.9286
0.25390625,3.220386545662624e-05,2.3904984211490058e-05,2.829850957656216e-05,2.878667906157017e-05,5.9286,6.9286
0.2578125,3.0251187516594204e-05,4.636078052185856e-05,4.196725515678646e-05,2.5857662151522106e-05,5.9286,6.9286
0.26171875,2.0975967301441994e-05,6.247037352712293e-05,6.393488198214696e-05,2.976301803158619e-05,5.9286,6.9286
0.265625,1.365342502632183e-05,6.0029526102082876e-05,5.66123397070268e-05,1.937357386129566e-06,5.9286,6.9286
0.26953125,9.610184161135442e-07,4.538444155184254e-05,2.878667906157017e-05,-2.097609781643395e-05,5.9286,6.9286
0.2734375,-2.732230112153809e-05,4.245542464179448e-05,3.171569597161824e-05,1.1700747086289786e-05,5.9286,6.9286
0.27734375,-9.61148931105499e-07,6.344671249713895e-05,4.684895000686658e-05,3.659739082169834e-05,5.9286,6.9286
0.28125,3.806189927672238e-05,4.34317636118105e-05,4.9289797431906635e-05,3.5132882366674316e-05,5.9286,6.9286
0.28515625,4.1479085671778456e-05,1.755878090638592e-05,4.294359412680248e-05,3.3668373911650276e-05,5.9286,6.9286
0.2890625,3.7573729791714366e-05,4.1479085671778456e-05,3.1227526486610226e-05,3.269203494163426e-05,5.9286,6.9286
0.29296875,3.4156543396658294e-05,4.7337119491874584e-05,4.636078052185856e-05,1.2677086056305808e-05,5.9286,6.9286
0.296875,3.0251187516594204e-05,3.610922133669034e-05,4.1479085671778456e-05,1.0236238631265752e-05,5.9286,6.9286
0.30078125,2.5857662151522106e-05,5.075430588693066e-05,3.318020442664227e-05,1.6094272451361885e-05,5.9286,6.9286
0.3046875,2.976301803158619e-05,4.050274670176243e-05,3.318020442664227e-05,-4.3783353261615755e-06,5.9286,6.9286
0.30859375,3.269203494163426e-05,2.3904984211490058e-05,3.3668373911650276e-05,1.5117933481345863e-05,5.9286,6.9286
0.3125,2.9274848546578178e-05,2.488132318150608e-05,4.1479085671778456e-05,4.636078052185856e-05,5.9286,6.9286
0.31640625,2.439315369649807e-05,3.318020442664227e-05,4.391993309681851e-05,4.831345846189061e-05,5.9286,6.9286
0.3203125,2.1952306271458016e-05,6.884708742504007e-05,5.368332279697873e-05,3.90382382467384e-05,5.9286,6.9286
0.32421875,2.3904984211490058e-05,5.71005091920348e-05,6.787074845502406e-05,2.3416814726482047e-05,5.9286,6.9286
0.328125,1.5606102966353874e-05,1.4629763996337851e-05,5.319515331197072e-05,1.9999628331425975e-05,5.9286,6.9286
0.33203125,-2.9138268711375426e-06,1.902328936140995e-05,4.4896272066834534e-05,2.6345831636530114e-05,5.9286,6.9286
0.3359375,1.2188916571297797e-05,4.050274670176243e-05,5.66123397070268e-05,2.5857662151522106e-05,5.9286,6.9286
0.33984375,4.245542464179448e-05,4.684895000686658e-05,4.0990916186770444e-05,2.5369492666514095e-05,5.9286,6.9286
0.34375,4.880162794689862e-05,1.5117933481345863e-05,2.5857662151522106e-05,2.3416814726482047e-05,5.9286,6.9286
0.34765625,4.440810258182652e-05,2.5369492666514095e-05,3.220386545662624e-05,1.4629763996337851e-05,5.9286,6.9286
0.3515625,3.806189927672238e-05,3.0251187516594204e-05,2.878667906157017e-05,9.259899661249731e-06,5.9286,6.9286
0.35546875,3.562105185168232e-05,2.9274848546578178e-05,2.5857662151522106e-05,5.354543781185643e-06,5.9286,6.9286
0.359375,3.0251187516594204e-05,5.319515331197072e-05,2.878667906157017e-05,1.365342502632183e-05,5.9286,6.9286
0.36328125,2.6834001121538125e-05,4.977796691691464e-05,1.6582441936369896e-05,1.8535119876401938e-05,5.9286,6.9286
0.3671875,3.269203494163426e-05,2.976301803158619e-05,4.866374296177632e-06,-4.3783353261615755e-06,5.9286,6.9286
0.37109375,2.9274848546578178e-05,2.2440475756466028e-05,2.5369492666514095e-05,-2.5857792666514058e-05,5.9286,6.9286
0.375,1.2188916571297797e-05,2.2440475756466028e-05,5.026613640192266e-05,-1.937487901121521e-06,5.9286,6.9286
0.37890625,4.378204811169621e-06,2.878667906157017e-05,3.269203494163426e-05,1.5117933481345863e-05,5.9286,6.9286
0.3828125,2.292864524147404e-05,4.245542464179448e-05,2.6834001121538125e-05,2.7810340091554148e-05,5.9286,6.9286
0.38671875,4.0990916186770444e-05,3.318020442664227e-05,3.7085560306706354e-05,5.465966176699475e-05,5.9286,6.9286
0.390625,2.976301803158619e-05,2.976301803158619e-05,1.951145884641796e-05,5.954135661707486e-05,5.9286,6.9286
0.39453125,3.0739357001602215e-05,3.562105185168232e-05,4.866374296177632e-06,4.880162794689862e-05,5.9286,6.9286
0.3984375,4.34317636118105e-05,2.2440475756466028e-05,3.0251187516594204e-05,4.34317636118105e-05,5.9286,6.9286
0.40234375,3.7085560306706354e-05,1.1700747086289786e-05,4.001457721675442e-05,1.2677086056305808e-05,5.9286,6.9286
0.40625,3.8550068761730395e-05,6.330882751201665e-06,5.842713266193654e-06,-1.0236369146257707e-05,5.9286,6.9286
0.41015625,2.878667906157017e-05,-1.44931841611351e-06,2.913696356145588e-06,1.902328936140995e-05,5.9286,6.9286
0.4140625,2.439315369649807e-05,9.259899661249731e-06,9.259899661249731e-06,4.196725515678646e-05,5.9286,6.9286
0.41796875,2.829850957656216e-05,3.0251187516594204e-05,1.8046950391393927e-05,3.7573729791714366e-05,5.9286,6.9286
0.421875,9.610184161135442e-07,2.3416814726482047e-05,3.171569597161824e-05,3.7573729791714366e-05,5.9286,6.9286
0.42578125,3.890035326161609e-06,1.3165255541313818e-05,5.8076848162050824e-05,-1.5320553902477717e-08,5.9286,6.9286
0.4296875,5.026613640192266e-05,2.2440475756466028e-05,2.1464136786450005e-05,-4.050287721675439e-05,5.9286,6.9286
0.43359375,5.66123397070268e-05,3.46447128816663e-05,-4.866504811169587e-06,1.365342502632183e-05,5.9286,6.9286
0.4375,4.636078052185856e-05,3.610922133669034e-05,2.1952306271458016e-05,6.051769558709088e-05,5.9286,6.9286
0.44140625,3.220386545662624e-05,2.6345831636530114e-05,1.8535119876401938e-05,6.344671249713895e-05,5.9286,6.9286
0.4453125,-5.354674296177598e-06,1.4629763996337851e-05,2.913696356145588e-06,5.5636000737010774e-05,5.9286,6.9286
0.44921875,4.7284893110553325e-07,1.4629763996337851e-05,-2.9138268711375426e-06,3.46447128816663e-05,5.9286,6.9286
0.453125,3.171569597161824e-05,1.5606102966353874e-05,-5.842843781185608e-06,2.5857662151522106e-05,5.9286,6.9286
0.45703125,3.46447128816663e-05,-1.5320553902477717e-08,5.354543781185643e-06,3.171569597161824e-05,5.9286,6.9286
0.4609375,2.9274848546578178e-05,-5.842843781185608e-06,1.0236238631265752e-05,3.3668373911650276e-05,5.9286,6.9286
0.46484375,4.7284893110553325e-07,-9.748199661249696e-06,4.7284893110553325e-07,4.440810258182652e-05,5.9286,6.9286
0.46875,-2.097609781643395e-05,-1.560623348134583e-05,1.4491879011215552e-06,5.465966176699475e-05,5.9286,6.9286
0.47265625,-4.866504811169587e-06,-1.951158936140992e-05,-7.307352236209642e-06,2.878667906157017e-05,5.9286,6.9286
0.4765625,-6.819182751201631e-06,-2.2440606271457983e-05,-1.44931841611351e-06,6.819052236209676e-06,5.9286,6.9286
0.48046875,-1.560623348134583e-05,-1.170087760128174e-05,7.795391206225697e-06,3.3668373911650276e-05,5.9286,6.9286
0.484375,-4.440823309681848e-05,-1.755891142137787e-05,9.259899661249731e-06,8.83738668253605e-05,5.9286,6.9286
0.48828125,-9.764921755550467e-05,-1.609440296635384e-05,1.2188916571297797e-05,0.00011668769695582514,5.9286,6.9286
0.4921875,-9.42320311604486e-05,-3.366850442664224e-05,9.259899661249731e-06,0.00013035644253604946,5.9286,6.9286
0.49609375,-3.464484339665826e-05,-4.53845720668345e-05,2.1952306271458016e-05,0.00012352206974593728,5.9286,6.9286
0.5,1.4491879011215552e-06,-1.8535250391393893e-05,2.6345831636530114e-05,9.472007013046466e-05,5.9286,6.9286
0.50390625,-6.819182751201631e-06,-1.072453863126572e-05,3.220386545662624e-05,9.667274807049669e-05,5.9286,6.9286
0.5078125,-1.3165386056305774e-05,-9.748199661249696e-06,3.0251187516594204e-05,0.00010399529034561686,5.9286,6.9286
0.51171875,-2.097609781643395e-05,2.913696356145588e-06,2.976301803158619e-05,0.00010204261240558482,5.9286,6.9286
0.515625,-2.7810470606546103e-05,-5.354674296177598e-06,6.933525691004809e-05,0.00010253078189059284,5.9286,6.9286
0.51953125,-3.9526538246738366e-05,-7.307352236209642e-06,5.514783125200276e-05,9.325556167544062e-05,5.9286,6.9286
0.5234375,-5.954148713206682e-05,-1.5320553902477717e-08,6.10058650720989e-05,8.642118888532846e-05,5.9286,6.9286
0.52734375,-6.637585992217897e-05,-1.3653555541313785e-05,7.763413815518427e-05,9.520823961547266e-05,5.9286,6.9286
0.53125,-3.806202979171434e-05,2.4255268711375773e-06,7.275244330510416e-05,9.71609175555047e-05,5.9286,6.9286
0.53515625,-5.354674296177598e-06,3.0739357001602215e-05,6.10058650720989e-05,9.61845785854887e-05,5.9286,6.9286
0.5390625,-1.5320553902477717e-08,1.755878090638592e-05,4.0990916186770444e-05,9.130288373540858e-05,5.9286,6.9286
0.54296875,-5.842843781185608e-06,1.937357386129566e-06,7.568146021515222e-05,8.446851094529643e-05,5.9286,6.9286
0.546875,-1.937487901121521e-06,2.0975967301441994e-05,6.835891794003205e-05,7.714596867017625e-05,5.9286,6.9286
0.55078125,-1.609440296635384e-05,2.829850957656216e-05,3.90382382467384e-05,6.0029526102082876e-05,5.9286,6.9286
0.5546875,-4.050287721675439e-05,3.562105185168232e-05,5.368332279697873e-05,6.982342639505609e-05,5.9286,6.9286
0.55859375,-8.771860691233675e-06,4.34317636118105e-05,5.856501764705884e-05,7.861047712520029e-05,5.9286,6.9286
0.5625,1.951145884641796e-05,4.5872611036850557e-05,5.368332279697873e-05,5.954135661707486e-05,5.9286,6.9286
0.56640625,7.795391206225697e-06,4.245542464179448e-05,3.7085560306706354e-05,3.46447128816663e-05,5.9286,6.9286
0.5703125,-5.842843781185608e-06,1.9999628331425975e-05,2.1952306271458016e-05,2.976301803158619e-05,5.9286,6.9286
0.57421875,-9.61148931105499e-07,1.8535119876401938e-05,4.34317636118105e-05,3.0739357001602215e-05,5.9286,6.9286
0.578125,1.902328936140995e-05,1.9999628331425975e-05,5.417149228198674e-05,5.2218814341954696e-05,5.9286,6.9286
0.58203125,2.292864524147404e-05,2.5369492666514095e-05,4.4896272066834534e-05,9.71609175555047e-05,5.9286,6.9286
0.5859375,2.829850957656216e-05,1.0724408116273763e-05,3.610922133669034e-05,9.61845785854887e-05,5.9286,6.9286
0.58984375,2.976301803158619e-05,-6.3310132661936195e-06,3.269203494163426e-05,7.42169517601282e-05,5.9286,6.9286
0.59375,1.755878090638592e-05,8.77173017624172e-06,3.0739357001602215e-05,7.275244330510416e-05,5.9286,6.9286
0.59765625,2.1952306271458016e-05,2.1464136786450005e-05,4.245542464179448e-05,7.51932907301442e-05,5.9286,6.9286
0.6015625,2.7810340091554148e-05,3.5132882366674316e-05,5.66123397070268e-05,6.884708742504007e-05,5.9286,6.9286
0.60546875,3.0739357001602215e-05,3.90382382467384e-05,5.124247537193867e-05,6.051769558709088e-05,5.9286,6.9286
0.609375,2.976301803158619e-05,4.7825288976882595e-05,4.391993309681851e-05,5.1730644856946685e-05,5.9286,6.9286
0.61328125,1.7070611421377907e-05,3.171569597161824e-05,4.294359412680248e-05,4.7337119491874584e-05,5.9286,6.9286
0.6171875,1.2677086056305808e-05,3.171569597161824e-05,2.976301803158619e-05,4.880162794689862e-05,5.9286,6.9286
0.62109375,2.0487797816433986e-05,4.7825288976882595e-05,2.7322170606546137e-05,5.319515331197072e-05,5.9286,6.9286
0.625,1.5117933481345863e-05,2.1464136786450005e-05,4.7825288976882595e-05,5.368332279697873e-05,5.9286,6.9286
0.62890625,1.7070611421377907e-05,2.5857662151522106e-05,5.5636000737010774e-05,4.196725515678646e-05,5.9286,6.9286
0.6328125,4.294359412680248e-05,3.5132882366674316e-05,5.124247537193867e-05,2.9274848546578178e-05,5.9286,6.9286
0.63671875,4.977796691691464e-05,3.90382382467384e-05,3.0251187516594204e-05,1.8046950391393927e-05,5.9286,6.9286
0.640625,4.7337119491874584e-05,5.954135661707486e-05,3.90382382467384e-05,2.878667906157017e-05,5.9286,6.9286
0.64453125,2.878667906157017e-05,3.171569597161824e-05,3.610922133669034e-05,4.245542464179448e-05,5.9286,6.9286
0.6484375,4.7284893110553325e-07,3.0251187516594204e-05,3.171569597161824e-05,4.880162794689862e-05,5.9286,6.9286
0.65234375,6.330882751201665e-06,3.4156543396658294e-05,4.0990916186770444e-05,4.880162794689862e-05,5.9286,6.9286
0.65625,2.1464136786450005e-05,2.7810340091554148e-05,4.7337119491874584e-05,4.684895000686658e-05,5.9286,6.9286
0.66015625,5.124247537193867e-05,3.7573729791714366e-05,3.3668373911650276e-05,4.050274670176243e-05,5.9286,6.9286
0.6640625,6.5887559922179e-05,4.4896272066834534e-05,3.610922133669034e-05,3.7085560306706354e-05,5.9286,6.9286
0.66796875,7.226427382009615e-05,4.196725515678646e-05,5.5636000737010774e-05,2.6834001121538125e-05,5.9286,6.9286
0.671875,8.495668043030443e-05,2.6834001121538125e-05,3.1227526486610226e-05,1.1212577601281776e-05,5.9286,6.9286
0.67578125,8.007498558022432e-05,2.5857662151522106e-05,1.7070611421377907e-05,1.4491879011215552e-06,5.9286,6.9286
0.6796875,8.153949403524835e-05,4.9289797431906635e-05,2.0487797816433986e-05,-2.7810470606546103e-05,5.9286,6.9286
0.68359375,7.812230764019227e-05,4.294359412680248e-05,2.2440475756466028e-05,-4.2943724641794444e-05,5.9286,6.9286
0.6875,6.787074845502406e-05,3.318020442664227e-05,4.378204811169621e-06,-2.097609781643395e-05,5.9286,6.9286
0.69140625,6.933525691004809e-05,2.9274848546578178e-05,-1.0236369146257707e-05,4.866374296177632e-06,5.9286,6.9286
0.6953125,8.642118888532846e-05,2.3416814726482047e-05,-9.260030176241686e-06,7.307221721217687e-06,5.9286,6.9286
0.69921875,7.51932907301442e-05,6.640624000000002e-05,-4.72979446097488e-07,-5.354674296177598e-06,5.9286,6.9286
0.703125,7.51932907301442e-05,5.66123397070268e-05,-3.401996356145554e-06,-1.999975884641793e-05,5.9286,6.9286
0.70703125,0.00012010488335088121,2.5857662151522106e-05,2.4255268711375773e-06,-4.3431894126802455e-05,5.9286,6.9286
0.7109375,0.0001454896965712978,2.292864524147404e-05,-1.0236369146257707e-05,-5.4171622796978696e-05,5.9286,6.9286
0.71484375,0.00013523813738612958,2.7322170606546137e-05,-8.283691206225664e-06,-5.173077537193864e-05,5.9286,6.9286
0.71875,8.105132455024035e-05,8.007498558022432e-05,1.365342502632183e-05,-5.710063970702676e-05,5.9286,6.9286
0.72265625,9.081471425040057e-05,8.935020579537654e-05,1.6094272451361885e-05,-7.128806536507208e-05,5.9286,6.9286
0.7265625,0.00015378857781643397,7.177610433508813e-05,-1.0236369146257707e-05,-6.247050404211488e-05,5.9286,6.9286
0.73046875,0.00015622942524147403,6.442305146715498e-05,-3.22039959716182e-05,-4.3431894126802455e-05,5.9286,6.9286
0.734375,0.0001274274256260014,4.391993309681851e-05,-1.4141725026321795e-05,-3.806202979171434e-05,5.9286,6.9286
0.73828125,0.00011522318850080111,4.538444155184254e-05,-9.61148931105499e-07,-3.464484339665826e-05,5.9286,6.9286
0.7421875,0.00010594796828564891,4.7825288976882595e-05,1.0724408116273763e-05,-3.65975213366903e-05,5.9286,6.9286
0.74609375,0.00010448345983062488,4.294359412680248e-05,1.8535119876401938e-05,-4.392006361181047e-05,5.9286,6.9286
0.75,0.00011571135798580912,3.0739357001602215e-05,-5.354674296177598e-06,-3.22039959716182e-05,5.9286,6.9286
0.75390625,0.00011278234107576106,3.5132882366674316e-05,-6.819182751201631e-06,-1.951158936140992e-05,5.9286,6.9286
0.7578125,9.520823961547266e-05,7.03115958800641e-05,3.90382382467384e-05,-1.9023419876401904e-05,5.9286,6.9286
0.76171875,9.764908704051272e-05,6.982342639505609e-05,2.3416814726482047e-05,-3.025131803158616e-05,5.9286,6.9286
0.765625,9.71609175555047e-05,2.2440475756466028e-05,3.890035326161609e-06,-3.025131803158616e-05,5.9286,6.9286
0.76953125,9.71609175555047e-05,2.292864524147404e-05,1.0724408116273763e-05,-2.3416945241474e-05,5.9286,6.9286
0.7734375,8.935020579537654e-05,4.196725515678646e-05,-7.795521721217652e-06,-2.4393284211490024e-05,5.9286,6.9286
0.77734375,6.442305146715498e-05,3.90382382467384e-05,-6.3310132661936195e-06,-1.8535250391393893e-05,5.9286,6.9286
0.78125,8.251583300526438e-05,5.905318713206685e-05,1.7070611421377907e-05,-1.121270811627373e-05,5.9286,6.9286
0.78515625,0.00010887698519569697,5.71005091920348e-05,2.9274848546578178e-05,1.4141594511329842e-05,5.9286,6.9286
0.7890625,0.00011131783262073704,3.401865841153599e-06,4.7284893110553325e-07,5.354543781185643e-06,5.9286,6.9286
0.79296875,9.520823961547266e-05,1.5606102966353874e-05,-1.3165386056305774e-05,-1.609440296635384e-05,5.9286,6.9286
0.796875,8.398034146028841e-05,4.0990916186770444e-05,1.4141594511329842e-05,-2.9138268711375426e-06,5.9286,6.9286
0.80078125,8.349217197528039e-05,3.0251187516594204e-05,2.488132318150608e-05,7.307221721217687e-06,5.9286,6.9286
0.8046875,8.446851094529643e-05,3.0251187516594204e-05,8.283560691233709e-06,1.2677086056305808e-05,5.9286,6.9286
0.80859375,7.714596867017625e-05,2.9274848546578178e-05,2.913696356145588e-06,2.0487797816433986e-05,5.9286,6.9286
0.8125,7.372878227512018e-05,2.976301803158619e-05,3.562105185168232e-05,1.5117933481345863e-05,5.9286,6.9286
0.81640625,7.568146021515222e-05,4.7337119491874584e-05,3.8550068761730395e-05,1.1700747086289786e-05,5.9286,6.9286
0.8203125,7.42169517601282e-05,6.539939043717099e-05,1.7070611421377907e-05,2.3416814726482047e-05,5.9286,6.9286
0.82421875,6.787074845502406e-05,5.66123397070268e-05,2.4255268711375773e-06,5.354543781185643e-06,5.9286,6.9286
0.828125,6.787074845502406e-05,3.659739082169834e-05,-1.5118063996337817e-05,-2.4393284211490024e-05,5.9286,6.9286
0.83203125,7.47051212451362e-05,4.245542464179448e-05,-5.842843781185608e-06,9.610184161135442e-07,5.9286,6.9286
0.8359375,7.812230764019227e-05,5.075430588693066e-05,-4.72979446097488e-07,2.5369492666514095e-05,5.9286,6.9286
0.83984375,7.616962970016024e-05,5.71005091920348e-05,4.538444155184254e-05,2.7322170606546137e-05,5.9286,6.9286
0.84375,5.5636000737010774e-05,5.758867867704282e-05,3.7085560306706354e-05,3.0251187516594204e-05,5.9286,6.9286
0.84765625,4.4896272066834534e-05,4.977796691691464e-05,-1.0236369146257707e-05,1.951145884641796e-05,5.9286,6.9286
0.8515625,6.0029526102082876e-05,2.6834001121538125e-05,-2.425657386129532e-06,-3.401996356145554e-06,5.9286,6.9286
0.85546875,7.958681609521631e-05,4.9289797431906635e-05,-9.61148931105499e-07,-1.560623348134583e-05,5.9286,6.9286
0.859375,8.251583300526438e-05,5.368332279697873e-05,-9.61148931105499e-07,6.819052236209676e-06,5.9286,6.9286
0.86328125,6.738257897001604e-05,2.6834001121538125e-05,-1.2189047086289752e-05,8.77173017624172e-06,5.9286,6.9286
0.8671875,6.295854301213094e-05,1.0236238631265752e-05,-3.9526538246738366e-05,-1.0236369146257707e-05,5.9286,6.9286
0.87109375,5.71005091920348e-05,1.5117933481345863e-05,-0.0001030190818905928,1.8535119876401938e-05,5.9286,6.9286
0.875,4.880162794689862e-05,4.294359412680248e-05,-0.00015867040318150605,4.0990916186770444e-05,5.9286,6.9286
0.87890625,6.10058650720989e-05,4.294359412680248e-05,-0.0001435371491462577,4.050274670176243e-05,5.9286,6.9286
0.8828125,7.812230764019227e-05,2.6345831636530114e-05,-0.00010448359034561683,3.610922133669034e-05,5.9286,6.9286
0.88671875,7.763413815518427e-05,1.937357386129566e-06,-6.738270948500799e-05,3.5132882366674316e-05,5.9286,6.9286
0.890625,7.275244330510416e-05,1.2188916571297797e-05,-5.124260588693063e-05,2.878667906157017e-05,5.9286,6.9286
0.89453125,6.295854301213094e-05,4.391993309681851e-05,-4.3431894126802455e-05,1.7070611421377907e-05,5.9286,6.9286
0.8984375,6.491122095216298e-05,5.270698382696271e-05,-9.748199661249696e-06,2.0975967301441994e-05,5.9286,6.9286
0.90234375,7.714596867017625e-05,3.806189927672238e-05,3.401865841153599e-06,2.7322170606546137e-05,5.9286,6.9286
0.90625,6.982342639505609e-05,2.6834001121538125e-05,2.439315369649807e-05,2.6834001121538125e-05,5.9286,6.9286
0.91015625,6.344671249713895e-05,3.0739357001602215e-05,3.7573729791714366e-05,1.8046950391393927e-05,5.9286,6.9286
0.9140625,6.5887559922179e-05,2.7322170606546137e-05,2.0487797816433986e-05,1.6582441936369896e-05,5.9286,6.9286
0.91796875,3.269203494163426e-05,4.977796691691464e-05,4.5872611036850557e-05,-3.890165841153565e-06,5.9286,6.9286
0.921875,8.283560691233709e-06,6.5887559922179e-05,5.026613640192266e-05,-3.122765700160218e-05,5.9286,6.9286
0.92578125,5.71005091920348e-05,5.075430588693066e-05,2.7322170606546137e-05,-8.283691206225664e-06,5.9286,6.9286
0.9296875,7.51932907301442e-05,3.952640773174641e-05,1.6582441936369896e-05,2.7322170606546137e-05,5.9286,6.9286
0.93359375,4.34317636118105e-05,3.171569597161824e-05,2.292864524147404e-05,4.4896272066834534e-05,5.9286,6.9286
0.9375,5.417149228198674e-05,4.440810258182652e-05,3.3668373911650276e-05,4.9289797431906635e-05,5.9286,6.9286
0.94140625,9.325556167544062e-05,4.636078052185856e-05,4.391993309681851e-05,3.806189927672238e-05,5.9286,6.9286
0.9453125,8.544484991531244e-05,2.7322170606546137e-05,4.9289797431906635e-05,3.46447128816663e-05,5.9286,6.9286
0.94921875,5.954135661707486e-05,8.283560691233709e-06,3.1227526486610226e-05,3.659739082169834e-05,5.9286,6.9286
0.953125,7.177610433508813e-05,1.7070611421377907e-05,3.46447128816663e-05,3.1227526486610226e-05,5.9286,6.9286
0.95703125,8.251583300526438e-05,2.7322170606546137e-05,5.856501764705884e-05,9.259899661249731e-06,5.9286,6.9286
0.9609375,6.933525691004809e-05,3.220386545662624e-05,6.491122095216298e-05,-1.7070741936369862e-05,5.9286,6.9286
0.96484375,5.270698382696271e-05,3.46447128816663e-05,6.640624000000002e-05,8.77173017624172e-06,5.9286,6.9286
0.96875,5.856501764705884e-05,3.269203494163426e-05,4.5872611036850557e-05,3.952640773174641e-05,5.9286,6.9286
0.97265625,6.787074845502406e-05,1.902328936140995e-05,3.0739357001602215e-05,4.4896272066834534e-05,5.9286,6.9286
0.9765625,6.344671249713895e-05,1.2677086056305808e-05,3.7085560306706354e-05,3.4156543396658294e-05,5.9286,6.9286
0.98046875,6.149403455710691e-05,2.1464136786450005e-05,4.7337119491874584e-05,1.937357386129566e-06,5.9286,6.9286
0.984375,4.440810258182652e-05,2.0487797816433986e-05,3.0739357001602215e-05,-1.2677216571297761e-05,5.9286,6.9286
0.98828125,-1.5320553902477717e-08,1.8046950391393927e-05,-4.440823309681848e-05,1.5606102966353874e-05,5.9286,6.9286
0.9921875,8.283560691233709e-06,2.976301803158619e-05,-0.00011034162416571295,5.319515331197072e-05,5.9286,6.9286
0.99609375,6.738257897001604e-05,2.878667906157017e-05,-0.00016745745391165024,5.5636000737010774e-05,5.9286,6.9286
1.0,8.398034146028841e-05,4.001457721675442e-05,-0.00021728125197528037,3.610922133669034e-05,5.9286,6.9286
1.00390625,6.491122095216298e-05,4.1479085671778456e-05,-0.00027927877657129776,2.829850957656216e-05,5.9286,6.9286
1.0078125,6.198220404211491e-05,1.951145884641796e-05,-0.0003413068117601281,9.259899661249731e-06,5.9286,6.9286
1.01171875,7.372878227512018e-05,1.8535119876401938e-05,-0.00048778816785534444,9.610184161135442e-07,5.9286,6.9286
1.015625,7.958681609521631e-05,3.610922133669034e-05,-0.0008320086759716182,1.755878090638592e-05,5.9286,6.9286
1.01953125,7.47051212451362e-05,4.34317636118105e-05,-0.0009848362353719385,3.0739357001602215e-05,5.9286,6.9286
1.0234375,6.933525691004809e-05,4.001457721675442e-05,-0.0009570105747264819,2.5369492666514095e-05,5.9286,6.9286
1.02734375,6.247037352712293e-05,2.829850957656216e-05,-0.0009682384728816663,7.795391206225697e-06,5.9286,6.9286
1.03125,4.880162794689862e-05,3.220386545662624e-05,-0.0009687266423666742,6.819052236209676e-06,5.9286,6.9286
1.03515625,4.4896272066834534e-05,3.659739082169834e-05,-0.0009682384728816663,1.1212577601281776e-05,5.9286,6.9286
1.0390625,5.465966176699475e-05,4.196725515678646e-05,-0.0009682384728816663,1.6582441936369896e-05,5.9286,6.9286
1.04296875,6.295854301213094e-05,2.0487797816433986e-05,-0.0009682384728816663,2.976301803158619e-05,5.9286,6.9286
1.046875,4.684895000686658e-05,-1.5320553902477717e-08,-0.0009682384728816663,3.1227526486610226e-05,5.9286,6.9286
1.05078125,2.6345831636530114e-05,1.2188916571297797e-05,-0.0009682384728816663,2.7322170606546137e-05,5.9286,6.9286
1.0546875,4.294359412680248e-05,2.3904984211490058e-05,-0.0009682384728816663,2.5369492666514095e-05,5.9286,6.9286
1.05859375,7.03115958800641e-05,3.7573729791714366e-05,-0.0009682384728816663,2.1464136786450005e-05,5.9286,6.9286
1.0625,7.714596867017625e-05,4.538444155184254e-05,-0.0009682384728816663,1.4141594511329842e-05,5.9286,6.9286
1.06640625,6.689440948500802e-05,4.0990916186770444e-05,-0.0009682384728816663,5.842713266193654e-06,5.9286,6.9286
1.0703125,5.514783125200276e-05,2.3904984211490058e-05,-0.0009682384728816663,4.866374296177632e-06,5.9286,6.9286
1.07421875,6.051769558709088e-05,4.7825288976882595e-05,-0.0009682384728816663,1.365342502632183e-05,5.9286,6.9286
1.078125,7.128793485008013e-05,7.324061279011216e-05,-0.0009682384728816663,1.755878090638592e-05,5.9286,6.9286
1.08203125,6.884708742504007e-05,5.124247537193867e-05,-0.0009682384728816663,-7.307352236209642e-06,5.9286,6.9286
1.0859375,6.539939043717099e-05,3.562105185168232e-05,-0.0009682384728816663,-9.748199661249696e-06,5.9286,6.9286
1.08984375,2.9274848546578178e-05,2.7322170606546137e-05,-0.0009682384728816663,2.878667906157017e-05,5.9286,6.9286
1.09375,2.4255268711375773e-06,8.77173017624172e-06,-0.0009682384728816663,4.001457721675442e-05,5.9286,6.9286
1.09765625,6.330882751201665e-06,6.330882751201665e-06,-0.0009682384728816663,3.610922133669034e-05,5.9286,6.9286
1.1015625,1.951145884641796e-05,6.819052236209676e-06,-0.0009682384728816663,4.001457721675442e-05,5.9286,6.9286
1.10546875,6.344671249713895e-05,5.842713266193654e-06,-0.0009682384728816663,2.6834001121538125e-05,5.9286,6.9286
1.109375,8.446851094529643e-05,3.401865841153599e-06,-0.0009682384728816663,1.5606102966353874e-05,5.9286,6.9286
1.11328125,9.032654476539255e-05,-1.7070741936369862e-05,-0.0009682384728816663,1.755878090638592e-05,5.9286,6.9286
1.1171875,6.689440948500802e-05,1.4491879011215552e-06,-0.0009682384728816663,1.4141594511329842e-05,5.9286,6.9286
1.12109375,4.294359412680248e-05,5.417149228198674e-05,-0.0009682384728816663,-1.44931841611351e-06,5.9286,6.9286
1.125,5.8076848162050824e-05,4.050274670176243e-05,-0.0009682384728816663,-1.121270811627373e-05,5.9286,6.9286
1.12890625,8.398034146028841e-05,4.866374296177632e-06,-0.0009682384728816663,5.354543781185643e-06,5.9286,6.9286
1.1328125,9.276739219043261e-05,4.378204811169621e-06,-0.0009682384728816663,2.0487797816433986e-05,5.9286,6.9286
1.13671875,7.763413815518427e-05,3.401865841153599e-06,-0.0009682384728816663,1.6094272451361885e-05,5.9286,6.9286
1.140625,7.616962970016024e-05,9.259899661249731e-06,-0.0009682384728816663,8.283560691233709e-06,5.9286,6.9286
1.14453125,2.878667906157017e-05,1.365342502632183e-05,-0.0009682384728816663,1.5606102966353874e-05,5.9286,6.9286
1.1484375,-1.804708090638588e-05,-1.5320553902477717e-08,-0.0009682384728816663,2.7810340091554148e-05,5.9286,6.9286
1.15234375,3.659739082169834e-05,-4.3783353261615755e-06,-0.0009682384728816663,2.1952306271458016e-05,5.9286,6.9286
1.15625,8.886203631036852e-05,1.951145884641796e-05,-0.0009682384728816663,-4.72979446097488e-07,5.9286,6.9286
1.16015625,9.472007013046466e-05,2.1952306271458016e-05,-0.0009682384728816663,-1.44931841611351e-06,5.9286,6.9286
1.1640625,8.105132455024035e-05,2.292864524147404e-05,-0.0009682384728816663,1.4141594511329842e-05,5.9286,6.9286
1.16796875,6.738257897001604e-05,3.401865841153599e-06,-0.0009682384728816663,2.1952306271458016e-05,5.9286,6.9286
1.171875,5.2218814341954696e-05,-7.795521721217652e-06,-0.0009682384728816663,2.3416814726482047e-05,5.9286,6.9286
1.17578125,4.5872611036850557e-05,2.4255268711375773e-06,-0.0009682384728816663,1.365342502632183e-05,5.9286,6.9286
1.1796875,5.1730644856946685e-05,1.2677086056305808e-05,-0.0009682384728816663,5.354543781185643e-06,5.9286,6.9286
1.18359375,5.075430588693066e-05,3.171569597161824e-05,-0.0009682384728816663,7.795391206225697e-06,5.9286,6.9286
1.1875,5.075430588693066e-05,2.6345831636530114e-05,-0.0009682384728816663,1.2677086056305808e-05,5.9286,6.9286
1.19140625,5.319515331197072e-05,-4.72979446097488e-07,-0.0009682384728816663,1.8535119876401938e-05,5.9286,6.9286
1.1953125,5.124247537193867e-05,-1.121270811627373e-05,-0.0009682384728816663,2.439315369649807e-05,5.9286,6.9286
1.19921875,4.880162794689862e-05,1.5606102966353874e-05,-0.0009682384728816663,2.0487797816433986e-05,5.9286,6.9286
1.203125,4.0990916186770444e-05,1.7070611421377907e-05,-0.0009682384728816663,1.8046950391393927e-05,5.9286,6.9286
1.20703125,2.3904984211490058e-05,-1.5320553902477717e-08,-0.0009682384728816663,1.951145884641796e-05,5.9286,6.9286
1.2109375,3.7085560306706354e-05,8.283560691233709e-06,-0.0009682384728816663,1.9999628331425975e-05,5.9286,6.9286
1.21484375,6.689440948500802e-05,1.1212577601281776e-05,-0.0009682384728816663,1.755878090638592e-05,5.9286,6.9286
1.21875,6.640624000000002e-05,3.890035326161609e-06,-0.0009682384728816663,1.1700747086289786e-05,5.9286,6.9286
1.22265625,5.417149228198674e-05,1.7070611421377907e-05,-0.0009682384728816663,9.259899661249731e-06,5.9286,6.9286
1.2265625,6.491122095216298e-05,8.283560691233709e-06,-0.0009677503033966582,1.2188916571297797e-05,5.9286,6.9286
1.23046875,4.1479085671778456e-05,2.2440475756466028e-05,-0.0009657976254566262,2.0975967301441994e-05,5.9286,6.9286
1.234375,9.748069146257742e-06,3.0739357001602215e-05,-0.0009721438287617303,2.439315369649807e-05,5.9286,6.9286
1.23828125,4.34317636118105e-05,4.866374296177632e-06,-0.0009286967445960173,2.3904984211490058e-05,5.9286,6.9286
1.2421875,9.667274807049669e-05,-7.795521721217652e-06,-0.0008520236248569466,1.8046950391393927e-05,5.9286,6.9286
1.24609375,0.00010887698519569697,-2.425657386129532e-06,-0.0007968604730510414,1.951145884641796e-05,5.9286,6.9286
1.25,9.325556167544062e-05,8.283560691233709e-06,-0.0007539015583703365,2.3904984211490058e-05,5.9286,6.9286
1.25390625,8.935020579537654e-05,5.354543781185643e-06,-0.0007465790160952162,2.2440475756466028e-05,5.9286,6.9286
1.2578125,8.78856973403525e-05,-2.146426730144196e-05,-0.0007495080330052643,1.755878090638592e-05,5.9286,6.9286
1.26171875,8.78856973403525e-05,-5.4171622796978696e-05,-0.000734374778970016,1.8535119876401938e-05,5.9286,6.9286
1.265625,5.954135661707486e-05,-8.398047197528036e-05,-0.0007270217261020829,2.878667906157017e-05,5.9286,6.9286
1.26953125,5.1730644856946685e-05,-0.00013621460687113752,-0.0007456026771252001,2.3416814726482047e-05,5.9286,6.9286
1.2734375,8.30040024902724e-05,-0.0001611112506065461,-0.0007377919653650721,2.1464136786450005e-05,5.9286,6.9286
1.27734375,0.00010301895137560084,-0.00018259070794689858,-0.0007157938279468985,2.6834001121538125e-05,5.9286,6.9286
1.28125,7.03115958800641e-05,-0.00022655647219043255,-0.0007284862345571068,3.0251187516594204e-05,5.9286,6.9286
1.28515625,3.5132882366674316e-05,-0.00025145311592584114,-0.0007548778973403523,2.829850957656216e-05,5.9286,6.9286
1.2890625,9.71609175555047e-05,-0.000288065827301442,-0.0007563424057953765,1.902328936140995e-05,5.9286,6.9286
1.29296875,0.00013914349326619364,-0.00034228315073014416,-0.0007631767785854887,2.488132318150608e-05,5.9286,6.9286
1.296875,0.00012108122232089725,-0.00033297741992217893,-0.0007758691851956969,2.878667906157017e-05,5.9286,6.9286
1.30078125,0.00011766403592584118,-0.000335448777940032,-0.0007451145076401923,3.318020442664227e-05,5.9286,6.9286
1.3046875,9.374373116044863e-05,-0.00035058203197528033,-0.0007250690481620507,3.46447128816663e-05,5.9286,6.9286
1.30859375,8.007498558022432e-05,-0.0003413068117601281,-0.00073339844,2.3416814726482047e-05,5.9286,6.9286
1.3125,7.51932907301442e-05,-0.00033200108095216295,-0.0007196991838269626,2.5369492666514095e-05,5.9286,6.9286
1.31640625,5.1730644856946685e-05,-0.00030563992876173036,-0.0006557489812909132,4.34317636118105e-05,5.9286,6.9286
1.3203125,4.5872611036850557e-05,-0.00026072833614099335,-0.0005839575564019225,4.4896272066834534e-05,5.9286,6.9286
1.32421875,6.787074845502406e-05,-0.00026121650562600134,-0.0004892526763103684,1.4141594511329842e-05,5.9286,6.9286
1.328125,0.00011668769695582514,-0.00027830243760128173,-0.0003256548776470588,1.1212577601281776e-05,5.9286,6.9286
1.33203125,0.00012693925614099338,-0.00024461874313572895,-0.0002114232181551842,4.001457721675442e-05,5.9286,6.9286
1.3359375,0.00010985332416571298,-0.00020458884536507207,-0.00026756270893110544,4.880162794689862e-05,5.9286,6.9286
1.33984375,9.130288373540858e-05,-0.00019333043661707482,-0.00020361250639505606,3.952640773174641e-05,5.9286,6.9286
1.34375,7.42169517601282e-05,-0.0001840552164019226,0.00013230912047608147,4.001457721675442e-05,5.9286,6.9286
1.34765625,6.295854301213094e-05,-0.0001430489796612497,3.952640773174641e-05,4.001457721675442e-05,5.9286,6.9286
1.3515625,6.10058650720989e-05,-0.00010692443777065688,-0.0003803603705607691,2.7810340091554148e-05,5.9286,6.9286
1.35546875,5.612417022201878e-05,-9.42320311604486e-05,-0.0004916935237354085,2.2440475756466028e-05,5.9286,6.9286
1.359375,4.831345846189061e-05,-9.03266752803845e-05,-0.0004355235223666743,2.0975967301441994e-05,5.9286,6.9286
1.36328125,4.5872611036850557e-05,-6.149416507209886e-05,-0.00038475389592584116,5.354543781185643e-06,5.9286,6.9286
1.3671875,4.294359412680248e-05,-3.855019927672234e-05,-0.0003710851503456168,-1.072453863126572e-05,5.9286,6.9286
1.37109375,3.952640773174641e-05,-3.318033494163422e-05,-0.0003579045742504005,-2.634596215152207e-05,5.9286,6.9286
1.375,4.245542464179448e-05,-1.072453863126572e-05,-0.00031833233537193866,-5.173077537193864e-05,5.9286,6.9286
1.37890625,1.9999628331425975e-05,6.819052236209676e-06,-0.0002577993192309453,-2.4393284211490024e-05,5.9286,6.9286
1.3828125,5.354543781185643e-06,3.46447128816663e-05,-0.00023046182807049667,3.220386545662624e-05,5.9286,6.9286
1.38671875,3.562105185168232e-05,5.8076848162050824e-05,-0.00023631986189059278,5.1730644856946685e-05,5.9286,6.9286
1.390625,4.34317636118105e-05,4.9289797431906635e-05,-0.0002089823707301442,4.538444155184254e-05,5.9286,6.9286
1.39453125,3.8550068761730395e-05,6.835891794003205e-05,-0.0001962594535271229,2.6834001121538125e-05,5.9286,6.9286
1.3984375,4.196725515678646e-05,8.642118888532846e-05,-0.00018844874176699472,1.7070611421377907e-05,5.9286,6.9286
1.40234375,2.6345831636530114e-05,9.960176498054477e-05,-0.00016404026751659417,1.2188916571297797e-05,5.9286,6.9286
1.40625,-1.44931841611351e-06,0.00010204261240558482,-0.0001435371491462577,2.4255268711375773e-06,5.9286,6.9286
1.41015625,2.1464136786450005e-05,7.226427382009615e-05,-0.00012156952232089721,6.819052236209676e-06,5.9286,6.9286
1.4140625,4.4896272066834534e-05,4.7337119491874584e-05,-0.00012303403077592126,9.748069146257742e-06,5.9286,6.9286
1.41796875,3.171569597161824e-05,7.275244330510416e-05,-2.3416945241474e-05,9.259899661249731e-06,5.9286,6.9286
1.421875,2.292864524147404e-05,9.813725652552073e-05,9.520823961547266e-05,1.3165255541313818e-05,5.9286,6.9286
1.42578125,2.6345831636530114e-05,9.423190064545664e-05,2.0487797816433986e-05,1.2677086056305808e-05,5.9286,6.9286
1.4296875,4.0990916186770444e-05,8.105132455024035e-05,-0.00010106640395056076,-1.937487901121521e-06,5.9286,6.9286
1.43359375,3.610922133669034e-05,7.763413815518427e-05,-0.00010545992931563284,-9.748199661249696e-06,5.9286,6.9286
1.4375,3.318020442664227e-05,0.00010985332416571298,-2.195243678644997e-05,-8.283691206225664e-06,5.9286,6.9286
1.44140625,3.8550068761730395e-05,0.000110341493650721,-3.5133012881666264e-05,-9.260030176241686e-06,5.9286,6.9286
1.4453125,4.684895000686658e-05,7.763413815518427e-05,-2.8786809576562122e-05,1.1212577601281776e-05,5.9286,6.9286
1.44921875,5.124247537193867e-05,6.5887559922179e-05,-9.260030176241686e-06,2.976301803158619e-05,5.9286,6.9286
1.453125,4.5872611036850557e-05,6.051769558709088e-05,-7.568159073014417e-05,2.6345831636530114e-05,5.9286,6.9286
1.45703125,4.684895000686658e-05,8.544484991531244e-05,-4.196738567177842e-05,2.1952306271458016e-05,5.9286,6.9286
1.4609375,4.1479085671778456e-05,9.276739219043261e-05,-3.415667391165024e-05,-6.3310132661936195e-06,5.9286,6.9286
1.46484375,3.7085560306706354e-05,9.130288373540858e-05,-6.34468430121309e-05,-2.732230112153809e-05,5.9286,6.9286
1.46875,4.34317636118105e-05,9.130288373540858e-05,-6.393501249713892e-05,4.866374296177632e-06,5.9286,6.9286
1.47265625,4.378204811169621e-06,7.568146021515222e-05,-6.442318198214692e-05,3.0739357001602215e-05,5.9286,6.9286
1.4765625,-2.8298640091554114e-05,7.714596867017625e-05,-5.173077537193864e-05,3.610922133669034e-05,5.9286,6.9286
1.48046875,3.171569597161824e-05,0.00010838881571068896,-3.366850442664224e-05,3.318020442664227e-05,5.9286,6.9286
1.484375,6.835891794003205e-05,0.00010790064622568095,-2.732230112153809e-05,2.7322170606546137e-05,5.9286,6.9286
1.48828125,6.5887559922179e-05,5.026613640192266e-05,-3.415667391165024e-05,1.951145884641796e-05,5.9286,6.9286
1.4921875,6.5887559922179e-05,5.2218814341954696e-05,-5.354674296177598e-06,1.9999628331425975e-05,5.9286,6.9286
1.49609375,5.856501764705884e-05,8.446851094529643e-05,-9.61148931105499e-07,2.439315369649807e-05,5.9286,6.9286
1.5,4.831345846189061e-05,7.324061279011216e-05,-4.9289927946898583e-05,1.902328936140995e-05,5.9286,6.9286
1.50390625,4.7825288976882595e-05,6.442305146715498e-05,-6.149416507209886e-05,2.913696356145588e-06,5.9286,6.9286
1.5078125,4.1479085671778456e-05,5.270698382696271e-05,-3.610935185168229e-05,-6.3310132661936195e-06,5.9286,6.9286
1.51171875,3.562105185168232e-05,4.196725515678646e-05,-2.9763148546578148e-05,8.283560691233709e-06,5.9286,6.9286
1.515625,3.7573729791714366e-05,5.514783125200276e-05,-3.806202979171434e-05,1.9999628331425975e-05,5.9286,6.9286
1.51953125,2.7810340091554148e-05,6.787074845502406e-05,-6.3310132661936195e-06,2.9274848546578178e-05,5.9286,6.9286
1.5234375,1.2677086056305808e-05,9.276739219043261e-05,1.951145884641796e-05,1.8535119876401938e-05,5.9286,6.9286
1.52734375,3.0251187516594204e-05,8.642118888532846e-05,1.0236238631265752e-05,-9.748199661249696e-06,5.9286,6.9286
1.53125,5.758867867704282e-05,6.10058650720989e-05,-3.318033494163422e-05,-4.3783353261615755e-06,5.9286,6.9286
1.53515625,6.539939043717099e-05,6.198220404211491e-05,-4.53845720668345e-05,1.6582441936369896e-05,5.9286,6.9286
1.5390625,7.714596867017625e-05,7.079976536507211e-05,-5.4171622796978696e-05,2.439315369649807e-05,5.9286,6.9286
1.54296875,8.007498558022432e-05,6.640624000000002e-05,-7.031172639505606e-05,1.6094272451361885e-05,5.9286,6.9286
1.546875,7.665779918516825e-05,6.689440948500802e-05,-5.173077537193864e-05,1.937357386129566e-06,5.9286,6.9286
1.55078125,8.105132455024035e-05,4.050274670176243e-05,-7.031172639505606e-05,-1.3653555541313785e-05,5.9286,6.9286
1.5546875,8.007498558022432e-05,4.4896272066834534e-05,-7.22644043350881e-05,-3.401996356145554e-06,5.9286,6.9286
1.55859375,9.032654476539255e-05,6.640624000000002e-05,-6.149416507209886e-05,6.330882751201665e-06,5.9286,6.9286
1.5625,0.00011229417159075305,8.544484991531244e-05,-5.6612470222018745e-05,-6.3310132661936195e-06,5.9286,6.9286
1.56640625,0.00011571135798580912,8.105132455024035e-05,-8.251596352025633e-05,-1.2189047086289752e-05,5.9286,6.9286
1.5703125,0.00011229417159075305,5.71005091920348e-05,-0.00010253091240558478,-1.755891142137787e-05,5.9286,6.9286
1.57421875,0.00011131783262073704,6.442305146715498e-05,-8.007511609521628e-05,-2.0487928331425938e-05,5.9286,6.9286
1.578125,0.00010399529034561686,7.51932907301442e-05,-5.3683453311970684e-05,-1.609440296635384e-05,5.9286,6.9286
1.58203125,9.71609175555047e-05,6.295854301213094e-05,-2.732230112153809e-05,-1.3165386056305774e-05,5.9286,6.9286
1.5859375,0.00010008993446555277,7.03115958800641e-05,-1.804708090638588e-05,-2.5857792666514058e-05,5.9286,6.9286
1.58984375,8.007498558022432e-05,9.032654476539255e-05,-2.2440606271457983e-05,-3.708569082169831e-05,5.9286,6.9286
1.59375,3.610922133669034e-05,7.47051212451362e-05,-2.8298640091554114e-05,-6.819182751201631e-06,5.9286,6.9286
1.59765625,4.440810258182652e-05,6.884708742504007e-05,-3.855019927672234e-05,-1.4141725026321795e-05,5.9286,6.9286
1.6015625,9.667274807049669e-05,7.568146021515222e-05,-3.122765700160218e-05,-2.9274979061570133e-05,5.9286,6.9286
1.60546875,0.00012059305283588923,7.42169517601282e-05,-3.366850442664224e-05,2.4255268711375773e-06,5.9286,6.9286
1.609375,0.00010985332416571298,6.640624000000002e-05,-6.34468430121309e-05,1.2188916571297797e-05,5.9286,6.9286
1.61328125,8.202766352025636e-05,3.5132882366674316e-05,-0.00011717599695582511,1.1212577601281776e-05,5.9286,6.9286
1.6171875,5.71005091920348e-05,5.026613640192266e-05,-7.958694661020826e-05,2.1464136786450005e-05,5.9286,6.9286
1.62109375,7.324061279011216e-05,6.198220404211491e-05,-3.5133012881666264e-05,2.1952306271458016e-05,5.9286,6.9286
1.625,9.911359549553675e-05,5.856501764705884e-05,-5.85651481620508e-05,-3.401996356145554e-06,5.9286,6.9286
1.62890625,0.00010204261240558482,5.026613640192266e-05,-6.637585992217897e-05,-3.9526538246738366e-05,5.9286,6.9286
1.6328125,9.179105322041659e-05,4.684895000686658e-05,-7.812243815518424e-05,-1.999975884641793e-05,5.9286,6.9286
1.63671875,8.886203631036852e-05,6.149403455710691e-05,-6.051782610208284e-05,1.0724408116273763e-05,5.9286,6.9286
1.640625,7.90986466102083e-05,6.0029526102082876e-05,-7.031172639505606e-05,2.2440475756466028e-05,5.9286,6.9286
1.64453125,6.198220404211491e-05,8.056315506523234e-05,-5.6612470222018745e-05,3.90382382467384e-05,5.9286,6.9286
1.6484375,6.738257897001604e-05,6.5887559922179e-05,-5.075443640192262e-05,3.8550068761730395e-05,5.9286,6.9286
1.65234375,7.226427382009615e-05,4.880162794689862e-05,-8.739765837033644e-05,3.220386545662624e-05,5.9286,6.9286
1.65625,5.905318713206685e-05,6.539939043717099e-05,-6.884721794003202e-05,2.7322170606546137e-05,5.9286,6.9286
1.66015625,6.344671249713895e-05,7.079976536507211e-05,-4.733725000686654e-05,1.5606102966353874e-05,5.9286,6.9286
1.6640625,7.51932907301442e-05,4.7825288976882595e-05,-4.636091103685052e-05,9.610184161135442e-07,5.9286,6.9286
1.66796875,5.026613640192266e-05,3.5132882366674316e-05,-4.97780974319066e-05,4.7284893110553325e-07,5.9286,6.9286
1.671875,3.610922133669034e-05,4.7337119491874584e-05,-4.733725000686654e-05,2.1464136786450005e-05,5.9286,6.9286
1.67578125,6.198220404211491e-05,4.34317636118105e-05,-4.2455555156786426e-05,2.878667906157017e-05,5.9286,6.9286
1.6796875,7.372878227512018e-05,3.7573729791714366e-05,-4.001470773174638e-05,2.488132318150608e-05,5.9286,6.9286
1.68359375,7.079976536507211e-05,4.880162794689862e-05,-2.3416945241474e-05,1.951145884641796e-05,5.9286,6.9286
1.6875,6.247037352712293e-05,4.9289797431906635e-05,-3.610935185168229e-05,2.0487797816433986e-05,5.9286,6.9286
1.69140625,5.758867867704282e-05,3.318020442664227e-05,-4.5872741551842505e-05,2.488132318150608e-05,5.9286,6.9286
1.6953125,4.880162794689862e-05,5.1730644856946685e-05,-2.8786809576562122e-05,1.1212577601281776e-05,5.9286,6.9286
1.69921875,3.890035326161609e-06,6.835891794003205e-05,-2.2928775756465994e-05,6.330882751201665e-06,5.9286,6.9286
1.703125,1.365342502632183e-05,4.001457721675442e-05,-2.4393284211490024e-05,2.7322170606546137e-05,5.9286,6.9286
1.70703125,6.835891794003205e-05,2.878667906157017e-05,-4.9289927946898583e-05,3.0251187516594204e-05,5.9286,6.9286
1.7109375,8.105132455024035e-05,1.0724408116273763e-05,-6.0029656617074824e-05,2.7810340091554148e-05,5.9286,6.9286
1.71484375,8.056315506523234e-05,3.171569597161824e-05,-5.4171622796978696e-05,2.6834001121538125e-05,5.9286,6.9286
1.71875,7.47051212451362e-05,5.1730644856946685e-05,-5.758880919203477e-05,2.0487797816433986e-05,5.9286,6.9286
1.72265625,5.905318713206685e-05,4.4896272066834534e-05,-4.5872741551842505e-05,2.292864524147404e-05,5.9286,6.9286
1.7265625,4.636078052185856e-05,5.612417022201878e-05,-1.3653555541313785e-05,3.1227526486610226e-05,5.9286,6.9286
1.73046875,4.977796691691464e-05,3.952640773174641e-05,-2.0487928331425938e-05,3.1227526486610226e-05,5.9286,6.9286
1.734375,5.8076848162050824e-05,3.659739082169834e-05,-2.9763148546578148e-05,2.488132318150608e-05,5.9286,6.9286
1.73828125,5.71005091920348e-05,3.952640773174641e-05,-3.9526538246738366e-05,1.4141594511329842e-05,5.9286,6.9286
1.7421875,5.514783125200276e-05,5.417149228198674e-05,-2.097609781643395e-05,1.5606102966353874e-05,5.9286,6.9286
1.74609375,5.905318713206685e-05,5.1730644856946685e-05,-1.999975884641793e-05,1.902328936140995e-05,5.9286,6.9286
1.75,4.977796691691464e-05,1.2677086056305808e-05,-5.954148713206682e-05,2.292864524147404e-05,5.9286,6.9286
1.75390625,3.269203494163426e-05,2.5369492666514095e-05,-6.539952095216295e-05,3.1227526486610226e-05,5.9286,6.9286
1.7578125,4.7825288976882595e-05,5.5636000737010774e-05,-3.855019927672234e-05,1.902328936140995e-05,5.9286,6.9286
1.76171875,6.344671249713895e-05,5.8076848162050824e-05,-2.634596215152207e-05,1.0724408116273763e-05,5.9286,6.9286
1.765625,6.640624000000002e-05,3.562105185168232e-05,-3.610935185168229e-05,2.292864524147404e-05,5.9286,6.9286
1.76953125,4.7337119491874584e-05,3.1227526486610226e-05,-6.884721794003202e-05,2.5369492666514095e-05,5.9286,6.9286
1.7734375,3.171569597161824e-05,3.7573729791714366e-05,-7.079989588006407e-05,2.829850957656216e-05,5.9286,6.9286
1.77734375,4.440810258182652e-05,3.1227526486610226e-05,-4.489640258182648e-05,1.365342502632183e-05,5.9286,6.9286
1.78125,5.417149228198674e-05,4.391993309681851e-05,-4.636091103685052e-05,-1.999975884641793e-05,5.9286,6.9286
1.78515625,6.344671249713895e-05,4.001457721675442e-05,-3.65975213366903e-05,-2.425657386129532e-06,5.9286,6.9286
1.7890625,6.640624000000002e-05,1.6582441936369896e-05,-2.2440606271457983e-05,3.269203494163426e-05,5.9286,6.9286
1.79296875,5.2218814341954696e-05,1.1700747086289786e-05,-4.9289927946898583e-05,4.391993309681851e-05,5.9286,6.9286
1.796875,4.34317636118105e-05,7.307221721217687e-06,-6.149416507209886e-05,3.952640773174641e-05,5.9286,6.9286
1.80078125,3.269203494163426e-05,2.5369492666514095e-05,-4.684908052185853e-05,3.3668373911650276e-05,5.9286,6.9286
1.8046875,3.0739357001602215e-05,2.7322170606546137e-05,-3.610935185168229e-05,3.0251187516594204e-05,5.9286,6.9286
1.80859375,5.075430588693066e-05,1.0236238631265752e-05,-4.9289927946898583e-05,-3.401996356145554e-06,5.9286,6.9286
1.8125,5.514783125200276e-05,1.5117933481345863e-05,-6.29586735271229e-05,-3.2692165456626215e-05,5.9286,6.9286
1.81640625,2.878667906157017e-05,2.829850957656216e-05,-5.612430073701074e-05,2.4255268711375773e-06,5.9286,6.9286
1.8203125,3.318020442664227e-05,4.440810258182652e-05,-4.001470773174638e-05,4.34317636118105e-05,5.9286,6.9286
1.82421875,5.514783125200276e-05,2.1464136786450005e-05,-5.0266266916914606e-05,5.319515331197072e-05,5.9286,6.9286
1.828125,5.075430588693066e-05,1.1700747086289786e-05,-7.470525176012816e-05,4.440810258182652e-05,5.9286,6.9286
1.83203125,3.659739082169834e-05,3.5132882366674316e-05,-7.079989588006407e-05,3.952640773174641e-05,5.9286,6.9286
1.8359375,2.3416814726482047e-05,1.4141594511329842e-05,-7.177623485008008e-05,2.829850957656216e-05,5.9286,6.9286
1.83984375,3.610922133669034e-05,1.6582441936369896e-05,-5.90533176470588e-05,-6.819182751201631e-06,5.9286,6.9286
1.84375,5.319515331197072e-05,3.0739357001602215e-05,-4.392006361181047e-05,-1.44931841611351e-06,5.9286,6.9286
1.84765625,4.294359412680248e-05,1.6094272451361885e-05,-5.319528382696267e-05,3.7085560306706354e-05,5.9286,6.9286
1.8515625,3.269203494163426e-05,1.0724408116273763e-05,-5.90533176470588e-05,4.7825288976882595e-05,5.9286,6.9286
1.85546875,3.562105185168232e-05,2.7810340091554148e-05,-6.149416507209886e-05,3.806189927672238e-05,5.9286,6.9286
1.859375,4.7337119491874584e-05,2.488132318150608e-05,-4.684908052185853e-05,2.3904984211490058e-05,5.9286,6.9286
1.86328125,3.610922133669034e-05,1.8535119876401938e-05,-7.031172639505606e-05,1.902328936140995e-05,5.9286,6.9286
1.8671875,3.90382382467384e-05,3.3668373911650276e-05,-6.393501249713892e-05,2.3904984211490058e-05,5.9286,6.9286
1.87109375,5.124247537193867e-05,2.5369492666514095e-05,-2.8786809576562122e-05,2.0487797816433986e-05,5.9286,6.9286
1.875,2.0975967301441994e-05,2.9274848546578178e-05,-6.0029656617074824e-05,1.5606102966353874e-05,5.9286,6.9286
1.87890625,3.7573729791714366e-05,2.5369492666514095e-05,-6.7870878970016e-05,1.365342502632183e-05,5.9286,6.9286
1.8828125,4.050274670176243e-05,2.0975967301441994e-05,-4.684908052185853e-05,2.2440475756466028e-05,5.9286,6.9286
1.88671875,8.283560691233709e-06,9.748069146257742e-06,-7.22644043350881e-05,2.6834001121538125e-05,5.9286,6.9286
1.890625,2.1464136786450005e-05,-4.3783353261615755e-06,-8.788582785534446e-05,-1.072453863126572e-05,5.9286,6.9286
1.89453125,2.2440475756466028e-05,-1.3653555541313785e-05,-8.007511609521628e-05,-9.748199661249696e-06,5.9286,6.9286
1.8984375,4.196725515678646e-05,-2.536962318150605e-05,-8.642131940032042e-05,3.90382382467384e-05,5.9286,6.9286
1.90234375,7.665779918516825e-05,-2.2928775756465994e-05,-9.47202006454566e-05,5.954135661707486e-05,5.9286,6.9286
1.90625,8.202766352025636e-05,-1.999975884641793e-05,-8.251596352025633e-05,4.4896272066834534e-05,5.9286,6.9286
1.91015625,6.835891794003205e-05,4.866374296177632e-06,-7.812243815518424e-05,1.1700747086289786e-05,5.9286,6.9286
1.9140625,5.612417022201878e-05,1.0724408116273763e-05,-0.00011034162416571295,8.283560691233709e-06,5.9286,6.9286
1.91796875,4.7825288976882595e-05,1.937357386129566e-06,-0.00011815233592584114,2.7322170606546137e-05,5.9286,6.9286
1.921875,2.7322170606546137e-05,2.1464136786450005e-05,-8.007511609521628e-05,4.1479085671778456e-05,5.9286,6.9286
1.92578125,1.3165255541313818e-05,1.9999628331425975e-05,-6.442318198214692e-05,4.391993309681851e-05,5.9286,6.9286
1.9296875,3.318020442664227e-05,1.4141594511329842e-05,-6.539952095216295e-05,3.610922133669034e-05,5.9286,6.9286
1.93359375,4.294359412680248e-05,2.0975967301441994e-05,-1.5118063996337817e-05,2.488132318150608e-05,5.9286,6.9286
1.9375,3.3668373911650276e-05,-5.354674296177598e-06,-5.8076978677042786e-05,2.2440475756466028e-05,5.9286,6.9286
1.94140625,2.3904984211490058e-05,-4.866504811169587e-06,0.00016257562854657816,3.1227526486610226e-05,5.9286,6.9286
1.9453125,2.1952306271458016e-05,1.0236238631265752e-05,0.0008403074267017623,3.7573729791714366e-05,5.9286,6.9286
1.94921875,3.269203494163426e-05,1.2188916571297797e-05,-0.0009677503033966582,2.0487797816433986e-05,5.9286,6.9286
1.953125,4.1479085671778456e-05,1.9999628331425975e-05,0.0009736082067017624,3.401865841153599e-06,5.9286,6.9286
1.95703125,4.1479085671778456e-05,6.330882751201665e-06,-0.0009970404724971389,2.292864524147404e-05,5.9286,6.9286
1.9609375,3.90382382467384e-05,-9.61148931105499e-07,0.0009995117,3.806189927672238e-05,5.9286,6.9286
1.96484375,1.8046950391393927e-05,-9.61148931105499e-07,0.0009995117,4.245542464179448e-05,5.9286,6.9286
1.96875,8.283560691233709e-06,1.0236238631265752e-05,0.0009995117,4.050274670176243e-05,5.9286,6.9286
1.97265625,1.4629763996337851e-05,1.9999628331425975e-05,0.0009995117,3.220386545662624e-05,5.9286,6.9286
1.9765625,1.8046950391393927e-05,2.0487797816433986e-05,0.0009995117,3.1227526486610226e-05,5.9286,6.9286
1.98046875,4.440810258182652e-05,2.0975967301441994e-05,0.0009995117,3.1227526486610226e-05,5.9286,6.9286
1.984375,6.344671249713895e-05,1.4141594511329842e-05,0.0009995117,2.292864524147404e-05,5.9286,6.9286
1.98828125,6.344671249713895e-05,1.4491879011215552e-06,0.0009995117,1.1700747086289786e-05,5.9286,6.9286
1.9921875,5.856501764705884e-05,1.3165255541313818e-05,0.0009995117,1.8535119876401938e-05,5.9286,6.9286
1.99609375,6.198220404211491e-05,1.0236238631265752e-05,0.0009995117,2.7322170606546137e-05,5.9286,6.9286
2.0,4.636078052185856e-05,1.5117933481345863e-05,0.0009995117,3.0739357001602215e-05,5.9286,6.9286
2.00390625,2.6834001121538125e-05,1.755878090638592e-05,0.0009995117,3.46447128816663e-05,5.9286,6.9286
2.0078125,4.1479085671778456e-05,-1.937487901121521e-06,0.0009995117,3.0251187516594204e-05,5.9286,6.9286
2.01171875,6.051769558709088e-05,-1.3165386056305774e-05,0.0009995117,2.3904984211490058e-05,5.9286,6.9286
2.015625,5.612417022201878e-05,7.307221721217687e-06,0.0009995117,1.6582441936369896e-05,5.9286,6.9286
2.01953125,1.5606102966353874e-05,1.902328936140995e-05,0.0009995117,1.2677086056305808e-05,5.9286,6.9286
2.0234375,-3.401996356145554e-06,9.259899661249731e-06,0.0009995117,1.8535119876401938e-05,5.9286,6.9286
2.02734375,2.7322170606546137e-05,-4.866504811169587e-06,0.0009995117,2.829850957656216e-05,5.9286,6.9286
2.03125,6.295854301213094e-05,-1.5320553902477717e-08,0.0009995117,3.0739357001602215e-05,5.9286,6.9286
2.03515625,7.568146021515222e-05,2.913696356145588e-06,0.0009995117,2.2440475756466028e-05,5.9286,6.9286
2.0390625,6.491122095216298e-05,9.610184161135442e-07,0.0009995117,2.439315369649807e-05,5.9286,6.9286
2.04296875,5.71005091920348e-05,1.755878090638592e-05,0.0009995117,3.171569597161824e-05,5.9286,6.9286
2.046875,5.368332279697873e-05,-4.3783353261615755e-06,0.0009995117,2.878667906157017e-05,5.9286,6.9286
2.05078125,4.9289797431906635e-05,-1.609440296635384e-05,0.0009995117,2.7810340091554148e-05,5.9286,6.9286
2.0546875,4.880162794689862e-05,-9.260030176241686e-06,0.0009995117,2.976301803158619e-05,5.9286,6.9286
2.05859375,3.8550068761730395e-05,-1.5320553902477717e-08,0.0009995117,2.9274848546578178e-05,5.9286,6.9286
2.0625,2.3904984211490058e-05,1.1212577601281776e-05,0.0009995117,3.4156543396658294e-05,5.9286,6.9286
2.06640625,2.5857662151522106e-05,2.0975967301441994e-05,0.0009995117,3.318020442664227e-05,5.9286,6.9286
2.0703125,4.001457721675442e-05,5.842713266193654e-06,0.0009995117,3.1227526486610226e-05,5.9286,6.9286
2.07421875,1.6582441936369896e-05,-1.121270811627373e-05,0.0009995117,3.171569597161824e-05,5.9286,6.9286
2.078125,-2.0487928331425938e-05,6.330882751201665e-06,0.0009995117,2.976301803158619e-05,5.9286,6.9286
2.08203125,2.1952306271458016e-05,9.610184161135442e-07,0.0009995117,3.171569597161824e-05,5.9286,6.9286
2.0859375,8.202766352025636e-05,-2.634596215152207e-05,0.0009995117,2.7810340091554148e-05,5.9286,6.9286
2.08984375,9.667274807049669e-05,-1.951158936140992e-05,0.0009995117,2.0487797816433986e-05,5.9286,6.9286
2.09375,7.812230764019227e-05,-9.748199661249696e-06,0.0009995117,2.1464136786450005e-05,5.9286,6.9286
2.09765625,6.295854301213094e-05,3.401865841153599e-06,0.0009995117,2.3904984211490058e-05,5.9286,6.9286
2.1015625,6.491122095216298e-05,3.0251187516594204e-05,0.0009995117,3.1227526486610226e-05,5.9286,6.9286
2.10546875,7.42169517601282e-05,2.3416814726482047e-05,0.0009995117,3.0739357001602215e-05,5.9286,6.9286
2.109375,8.105132455024035e-05,-1.3653555541313785e-05,0.0009995117,2.0975967301441994e-05,5.9286,6.9286
2.11328125,7.51932907301442e-05,-4.3783353261615755e-06,0.0009995117,3.269203494163426e-05,5.9286,6.9286
2.1171875,6.539939043717099e-05,7.307221721217687e-06,0.0009995117,4.001457721675442e-05,5.9286,6.9286
2.12109375,5.856501764705884e-05,-1.9023419876401904e-05,0.0009995117,3.7085560306706354e-05,5.9286,6.9286
2.125,5.758867867704282e-05,-2.4393284211490024e-05,0.0009995117,3.3668373911650276e-05,5.9286,6.9286
2.12890625,6.247037352712293e-05,-4.5872741551842505e-05,0.0009995117,3.3668373911650276e-05,5.9286,6.9286
2.1328125,7.47051212451362e-05,-6.738270948500799e-05,0.0009995117,2.829850957656216e-05,5.9286,6.9286
2.13671875,8.105132455024035e-05,-7.324074330510412e-05,0.0009995117,3.1227526486610226e-05,5.9286,6.9286
2.140625,7.812230764019227e-05,-0.00011327064107576103,0.0009995117,4.1479085671778456e-05,5.9286,6.9286
2.14453125,7.128793485008013e-05,-0.0001430489796612497,0.0009995117,3.46447128816663e-05,5.9286,6.9286
2.1484375,5.66123397070268e-05,-0.00016013491163653008,0.0009995117,3.171569597161824e-05,5.9286,6.9286
2.15234375,7.372878227512018e-05,-0.00019479494507209887,0.0009995117,3.806189927672238e-05,5.9286,6.9286
2.15625,8.495668043030443e-05,-0.00023387901446555274,0.0009995117,4.294359412680248e-05,5.9286,6.9286
2.16015625,7.079976536507211e-05,-0.0002621928445960174,0.0009995117,5.026613640192266e-05,5.9286,6.9286
2.1640625,4.391993309681851e-05,-0.0002739089122362096,0.0009995117,6.247037352712293e-05,5.9286,6.9286
2.16796875,-8.771860691233675e-06,-0.0002748852512062257,0.0009995117,7.177610433508813e-05,5.9286,6.9286
2.171875,1.2188916571297797e-05,-0.00029831738648661017,0.0009995117,7.177610433508813e-05,5.9286,6.9286
2.17578125,4.7337119491874584e-05,-0.0003144269794918745,0.0009995117,6.933525691004809e-05,5.9286,6.9286
2.1796875,9.813725652552073e-05,-0.0003163796574319066,0.0009995117,6.491122095216298e-05,5.9286,6.9286
2.18359375,0.00011961671386587322,-0.0003129624710368505,0.0009995117,6.051769558709088e-05,5.9286,6.9286
2.1875,5.905318713206685e-05,-0.0002963647085465781,0.0009995117,6.689440948500802e-05,5.9286,6.9286
2.19140625,6.198220404211491e-05,-0.0002680508784161135,0.0009995117,7.275244330510416e-05,5.9286,6.9286
2.1953125,0.0001010662734355688,-0.0002690272173861296,0.0009995117,7.665779918516825e-05,5.9286,6.9286
2.19921875,9.911359549553675e-05,-0.000290018505241474,0.0009995117,8.349217197528039e-05,5.9286,6.9286
2.203125,6.982342639505609e-05,-0.00027927877657129776,0.0009995117,8.105132455024035e-05,5.9286,6.9286
2.20703125,4.7825288976882595e-05,-0.00025682298026092926,0.0009995117,7.763413815518427e-05,5.9286,6.9286
2.2109375,-2.9763148546578148e-05,-0.00021825759094529638,0.0009995117,9.569640910048068e-05,5.9286,6.9286
2.21484375,-6.29586735271229e-05,-0.00020312433691004804,0.0009995117,0.00010643613777065691,5.9286,6.9286
2.21875,2.0975967301441994e-05,-0.00022509196373540852,0.0009995117,9.081471425040057e-05,5.9286,6.9286
2.22265625,2.0487797816433986e-05,-0.00020507701485008008,0.000998016680952163,9.325556167544062e-05,5.9286,6.9286
2.2265625,3.1227526486610226e-05,-0.0002094705402151522,-0.000999481319922179,9.325556167544062e-05,5.9286,6.9286
2.23046875,7.812230764019227e-05,-0.00022216294682536047,0.0009911823081620507,8.007498558022432e-05,5.9286,6.9286
2.234375,7.47051212451362e-05,-0.00017770901309681846,0.000957498613696498,7.665779918516825e-05,5.9286,6.9286
2.23828125,6.491122095216298e-05,-0.00019040141970702676,0.0009365073258411536,8.83738668253605e-05,5.9286,6.9286
2.2421875,4.5872611036850557e-05,-0.00021532857403524833,0.0009267439361409933,8.690935837033648e-05,5.9286,6.9286
2.24609375,3.0251187516594204e-05,-0.00017087464030670634,0.0009037999703456168,8.349217197528039e-05,5.9286,6.9286
2.25,1.8046950391393927e-05,-0.00015378870833142593,0.0008373784097917143,8.78856973403525e-05,5.9286,6.9286
2.25390625,-3.708569082169831e-05,-0.0001664811149416342,0.0008105290881162738,8.544484991531244e-05,5.9286,6.9286
2.2578125,-6.982355691004805e-05,-0.00015720589472648203,0.00014890688296635387,8.886203631036852e-05,5.9286,6.9286
2.26171875,-5.842843781185608e-06,-0.00012645121717097733,-0.0008573934891920347,8.495668043030443e-05,5.9286,6.9286
2.265625,5.368332279697873e-05,-0.00014597799657129775,-0.0009902060997070267,6.982342639505609e-05,5.9286,6.9286
2.26953125,5.319515331197072e-05,-0.00016501660648661018,-0.0009365074563561455,6.247037352712293e-05,5.9286,6.9286
2.2734375,3.90382382467384e-05,-0.0001249867087159533,-0.0009750728456717784,6.5887559922179e-05,5.9286,6.9286
2.27734375,2.1952306271458016e-05,-0.00012059318335088118,-0.0009682384728816663,7.275244330510416e-05,5.9286,6.9286
2.28125,1.2677086056305808e-05,-0.00011571148850080108,-0.0009682384728816663,7.42169517601282e-05,5.9286,6.9286
2.28515625,2.0487797816433986e-05,-9.960189549553672e-05,-0.0009682384728816663,6.884708742504007e-05,5.9286,6.9286
2.2890625,-2.5857792666514058e-05,-9.325569219043258e-05,-0.0009682384728816663,7.03115958800641e-05,5.9286,6.9286
2.29296875,-6.588769043717095e-05,-9.520837013046461e-05,-0.0009682384728816663,8.202766352025636e-05,5.9286,6.9286
2.296875,-9.748199661249696e-06,-9.618470910048064e-05,-0.0009682384728816663,7.714596867017625e-05,5.9286,6.9286
2.30078125,4.050274670176243e-05,-0.000112294302105745,-0.0009682384728816663,5.954135661707486e-05,5.9286,6.9286
2.3046875,5.514783125200276e-05,-0.00012254586129091324,-0.0009682384728816663,5.856501764705884e-05,5.9286,6.9286
2.30859375,2.2440475756466028e-05,-0.00010204274292057677,-0.0009682384728816663,7.03115958800641e-05,5.9286,6.9286
2.3125,-2.097609781643395e-05,-6.29586735271229e-05,-0.0009682384728816663,7.079976536507211e-05,5.9286,6.9286
2.31640625,8.283560691233709e-06,-6.051782610208284e-05,-0.0009682384728816663,5.905318713206685e-05,5.9286,6.9286
2.3203125,4.538444155184254e-05,-8.593314991531242e-05,-0.0009682384728816663,5.71005091920348e-05,5.9286,6.9286
2.32421875,3.952640773174641e-05,-7.763426867017622e-05,-0.0009682384728816663,5.5636000737010774e-05,5.9286,6.9286
2.328125,3.269203494163426e-05,-5.8076978677042786e-05,-0.0009682384728816663,5.417149228198674e-05,5.9286,6.9286
2.33203125,2.1464136786450005e-05,-8.10514550652323e-05,-0.0009682384728816663,6.393488198214696e-05,5.9286,6.9286
2.3359375,-4.866504811169587e-06,-7.22644043350881e-05,-0.0009682384728816663,6.393488198214696e-05,5.9286,6.9286
2.33984375,-6.3310132661936195e-06,-2.7810470606546103e-05,-0.0009682384728816663,6.198220404211491e-05,5.9286,6.9286
2.34375,9.259899661249731e-06,-1.7070741936369862e-05,-0.0009682384728816663,6.198220404211491e-05,5.9286,6.9286
2.34765625,8.77173017624172e-06,-2.146426730144196e-05,-0.0009682384728816663,5.368332279697873e-05,5.9286,6.9286
2.3515625,9.610184161135442e-07,-1.7070741936369862e-05,-0.0009682384728816663,5.124247537193867e-05,5.9286,6.9286
2.35546875,-5.354674296177598e-06,6.330882751201665e-06,-0.0009682384728816663,4.977796691691464e-05,5.9286,6.9286
2.359375,1.3165255541313818e-05,1.4629763996337851e-05,-0.0009682384728816663,4.4896272066834534e-05,5.9286,6.9286
2.36328125,1.1212577601281776e-05,-1.121270811627373e-05,-0.0009682384728816663,4.7825288976882595e-05,5.9286,6.9286
2.3671875,-7.795521721217652e-06,4.378204811169621e-06,-0.0009682384728816663,3.269203494163426e-05,5.9286,6.9286
2.37109375,8.77173017624172e-06,5.026613640192266e-05,-0.0009682384728816663,1.902328936140995e-05,5.9286,6.9286
2.375,2.5857662151522106e-05,5.71005091920348e-05,-0.0009682384728816663,3.7573729791714366e-05,5.9286,6.9286
2.37890625,1.0236238631265752e-05,6.884708742504007e-05,-0.0009682384728816663,4.9289797431906635e-05,5.9286,6.9286
2.3828125,-6.819182751201631e-06,9.032654476539255e-05,-0.0009682384728816663,5.1730644856946685e-05,5.9286,6.9286
2.38671875,2.4255268711375773e-06,8.886203631036852e-05,-0.0009682384728816663,4.391993309681851e-05,5.9286,6.9286
2.390625,-1.121270811627373e-05,0.00011278234107576106,-0.0009682384728816663,3.5132882366674316e-05,5.9286,6.9286
2.39453125,-2.146426730144196e-05,0.00013816715429617763,-0.0009682384728816663,3.46447128816663e-05,5.9286,6.9286
2.3984375,-1.5320553902477717e-08,0.0001508595609063859,-0.0009682384728816663,2.6834001121538125e-05,5.9286,6.9286
2.40234375,1.951145884641796e-05,0.0001410961712062257,-0.0009682384728816663,8.283560691233709e-06,5.9286,6.9286
2.40625,3.318020442664227e-05,0.0001454896965712978,-0.0009682384728816663,-4.72979446097488e-07,5.9286,6.9286
2.41015625,2.2440475756466028e-05,0.00017331535721675442,-0.0009682384728816663,1.2188916571297797e-05,5.9286,6.9286
2.4140625,-1.072453863126572e-05,0.00018405508588693065,-0.0009682384728816663,2.1464136786450005e-05,5.9286,6.9286
2.41796875,-1.999975884641793e-05,0.00020117152845502406,-0.0009682384728816663,1.951145884641796e-05,5.9286,6.9286
2.421875,-1.3653555541313785e-05,0.00021435210455024033,-0.0009682384728816663,-2.9138268711375426e-06,5.9286,6.9286
2.42578125,1.937357386129566e-06,0.00018844861125200276,-0.0009682384728816663,-1.170087760128174e-05,5.9286,6.9286
2.4296875,3.1227526486610226e-05,0.00018747227228198672,-0.0009682384728816663,-1.170087760128174e-05,5.9286,6.9286
2.43359375,2.9274848546578178e-05,0.00021142308764019228,-0.0009682384728816663,-3.9526538246738366e-05,5.9286,6.9286
2.4375,1.755878090638592e-05,0.0002128875960952163,-0.0009682384728816663,-4.09910467017624e-05,5.9286,6.9286
2.44140625,1.6582441936369896e-05,0.00022167464682536052,-0.0009682384728816663,-1.8535250391393893e-05,5.9286,6.9286
2.4453125,1.4141594511329842e-05,0.00021972196888532845,-0.0009682384728816663,-4.72979446097488e-07,5.9286,6.9286
2.44921875,1.6582441936369896e-05,0.00021874562991531246,-0.0009682384728816663,9.259899661249731e-06,5.9286,6.9286
2.453125,1.8046950391393927e-05,0.00022313915528038454,-0.0009682384728816663,3.890035326161609e-06,5.9286,6.9286
2.45703125,1.9999628331425975e-05,0.00021728112146028838,-0.0009662857949416342,4.7284893110553325e-07,5.9286,6.9286
2.4609375,9.610184161135442e-07,0.0002202101383703365,-0.0009716556592767224,9.610184161135442e-07,5.9286,6.9286
2.46484375,-8.283691206225664e-06,0.00021972196888532845,-0.0009457826765712977,-9.748199661249696e-06,5.9286,6.9286
2.46875,1.9999628331425975e-05,0.00021972196888532845,-0.0008920840332204166,-2.634596215152207e-05,5.9286,6.9286
2.47265625,4.050274670176243e-05,0.0002163047824902724,-0.0008451892520668345,-2.3416945241474e-05,5.9286,6.9286
2.4765625,3.46447128816663e-05,0.00021923379940032045,-0.0007958841340810254,-9.260030176241686e-06,5.9286,6.9286
2.48046875,4.7284893110553325e-07,0.00022704451116044863,-0.0007460908466102082,-8.283691206225664e-06,5.9286,6.9286
2.484375,2.4255268711375773e-06,0.00020702956227512017,-0.0007162819974319065,-1.7070741936369862e-05,5.9286,6.9286
2.48828125,4.001457721675442e-05,0.0001860077638269627,-0.0006508672864408331,-1.9023419876401904e-05,5.9286,6.9286
2.4921875,4.4896272066834534e-05,0.00017526803515678646,-0.0005497856924513619,-1.4141725026321795e-05,5.9286,6.9286
2.49609375,4.7825288976882595e-05,0.00019577115352712292,-0.0005361169468711375,-9.748199661249696e-06,5.9286,6.9286
2.5,5.905318713206685e-05,0.000199188339922179,-0.0005244008792309453,-4.866504811169587e-06,5.9286,6.9286
2.50390625,5.71005091920348e-05,0.00017136267927672237,-0.0005019450829205768,-4.866504811169587e-06,5.9286,6.9286
2.5078125,2.1952306271458016e-05,0.0001689218318516823,-0.00047070223588006405,-2.425657386129532e-06,5.9286,6.9286
2.51171875,-9.748199661249696e-06,0.0001669691539116503,-0.00039500545511100935,9.610184161135442e-07,5.9286,6.9286
2.515625,2.829850957656216e-05,0.00017526803515678646,-0.000378895862105745,-1.560623348134583e-05,5.9286,6.9286
2.51953125,6.982342639505609e-05,0.00015671759472648205,-0.00034521216764019227,-2.097609781643395e-05,5.9286,6.9286
2.5234375,8.153949403524835e-05,0.0001191285443808652,-0.00028416047142137784,-9.260030176241686e-06,5.9286,6.9286
2.52734375,6.982342639505609e-05,0.00010594796828564891,-0.00020263616742504002,-9.61148931105499e-07,5.9286,6.9286
2.53125,6.393488198214696e-05,0.00013816715429617763,-0.00014939518296635385,5.354543781185643e-06,5.9286,6.9286
2.53515625,6.442305146715498e-05,0.00016501647597161822,-0.00013670277635614557,1.4491879011215552e-06,5.9286,6.9286
2.5390625,4.538444155184254e-05,0.00014841871348134585,-0.00011522331901579306,2.4255268711375773e-06,5.9286,6.9286
2.54296875,2.7810340091554148e-05,0.00013523813738612958,-0.00011131796313572899,-3.401996356145554e-06,5.9286,6.9286
2.546875,4.9289797431906635e-05,0.0001274274256260014,-0.00011961684438086517,-5.842843781185608e-06,5.9286,6.9286
2.55078125,6.539939043717099e-05,0.00011229417159075305,-0.0001430489796612497,5.842713266193654e-06,5.9286,6.9286
2.5546875,6.10058650720989e-05,0.0001230339002609293,-0.00012840389511100937,-3.890165841153565e-06,5.9286,6.9286
2.55859375,5.1730644856946685e-05,0.00012156939180590525,-9.91137260105287e-05,-5.354674296177598e-06,5.9286,6.9286
2.5625,3.7573729791714366e-05,0.00010204261240558482,-6.198233455710688e-05,1.5117933481345863e-05,5.9286,6.9286
2.56640625,3.220386545662624e-05,9.61845785854887e-05,-4.050287721675439e-05,2.5857662151522106e-05,5.9286,6.9286
2.5703125,4.440810258182652e-05,9.520823961547266e-05,-6.34468430121309e-05,2.5369492666514095e-05,5.9286,6.9286
2.57421875,6.5887559922179e-05,9.960176498054477e-05,-6.29586735271229e-05,6.819052236209676e-06,5.9286,6.9286
2.578125,6.640624000000002e-05,0.00010301895137560084,-6.198233455710688e-05,4.7284893110553325e-07,5.9286,6.9286
2.58203125,3.220386545662624e-05,9.081471425040057e-05,-6.29586735271229e-05,1.8046950391393927e-05,5.9286,6.9286
2.5859375,3.952640773174641e-05,9.667274807049669e-05,-6.491135146715494e-05,2.3904984211490058e-05,5.9286,6.9286
2.58984375,7.42169517601282e-05,6.835891794003205e-05,-5.0266266916914606e-05,-2.488145369649804e-05,5.9286,6.9286
2.59375,8.495668043030443e-05,6.689440948500802e-05,-1.3653555541313785e-05,-0.00010155457343556876,5.9286,6.9286
2.59765625,9.960176498054477e-05,9.911359549553675e-05,-2.4393284211490024e-05,-7.421708227512015e-05,5.9286,6.9286
2.6015625,7.372878227512018e-05,9.813725652552073e-05,-6.588769043717095e-05,3.8550068761730395e-05,5.9286,6.9286
2.60546875,3.659739082169834e-05,9.569640910048068e-05,-9.618470910048064e-05,9.862542601052873e-05,5.9286,6.9286
2.609375,4.880162794689862e-05,5.71005091920348e-05,-0.00011522331901579306,9.813725652552073e-05,5.9286,6.9286
2.61328125,6.393488198214696e-05,1.1700747086289786e-05,-9.325569219043258e-05,8.398034146028841e-05,5.9286,6.9286
2.6171875,4.4896272066834534e-05,3.318020442664227e-05,-4.831358897688256e-05,7.128793485008013e-05,5.9286,6.9286
2.62109375,4.7284893110553325e-07,4.4896272066834534e-05,-4.9289927946898583e-05,5.075430588693066e-05,5.9286,6.9286
2.625,-1.5320553902477717e-08,4.001457721675442e-05,-6.982355691004805e-05,3.269203494163426e-05,5.9286,6.9286
2.62890625,4.684895000686658e-05,9.748069146257742e-06,-8.10514550652323e-05,3.952640773174641e-05,5.9286,6.9286
2.6328125,6.393488198214696e-05,-2.2440606271457983e-05,-0.00013767911532616155,5.71005091920348e-05,5.9286,6.9286
2.63671875,-4.3783353261615755e-06,1.755878090638592e-05,-0.00013523826790112152,6.933525691004809e-05,5.9286,6.9286
2.640625,-2.3905114726482013e-05,4.1479085671778456e-05,-7.714609918516821e-05,6.539939043717099e-05,5.9286,6.9286
2.64453125,5.514783125200276e-05,2.292864524147404e-05,0.00012059305283588923,4.7337119491874584e-05,5.9286,6.9286
2.6484375,8.690935837033648e-05,1.4141594511329842e-05,0.0005034094608606088,4.0990916186770444e-05,5.9286,6.9286
2.65234375,6.344671249713895e-05,-5.842843781185608e-06,0.000867187258970016,4.684895000686658e-05,5.9286,6.9286
2.65625,5.075430588693066e-05,1.1700747086289786e-05,0.0009921586471320668,4.050274670176243e-05,5.9286,6.9286
2.66015625,3.806189927672238e-05,3.562105185168232e-05,-0.0009955759640421149,3.659739082169834e-05,5.9286,6.9286
2.6640625,5.1730644856946685e-05,2.7322170606546137e-05,0.0009306492920210575,4.050274670176243e-05,5.9286,6.9286
2.66796875,7.616962970016024e-05,1.937357386129566e-06,0.0005190308843808653,3.90382382467384e-05,5.9286,6.9286
2.671875,6.884708742504007e-05,-6.819182751201631e-06,0.00033788949485008015,3.806189927672238e-05,5.9286,6.9286
2.67578125,6.10058650720989e-05,9.259899661249731e-06,0.00028562484936140993,3.7085560306706354e-05,5.9286,6.9286
2.6796875,4.7825288976882595e-05,3.0251187516594204e-05,-9.227935322041655e-05,4.050274670176243e-05,5.9286,6.9286
2.68359375,3.659739082169834e-05,2.878667906157017e-05,-0.00044333423412680245,3.5132882366674316e-05,5.9286,6.9286
2.6875,4.9289797431906635e-05,9.748069146257742e-06,-0.0005932327766170748,3.318020442664227e-05,5.9286,6.9286
2.69140625,5.954135661707486e-05,-6.3310132661936195e-06,-0.0006103492191851681,3.3668373911650276e-05,5.9286,6.9286
2.6953125,5.905318713206685e-05,-3.401996356145554e-06,-0.0005883510817669947,3.1227526486610226e-05,5.9286,6.9286
2.69921875,5.66123397070268e-05,1.0724408116273763e-05,-0.0005322115909910733,3.318020442664227e-05,5.9286,6.9286
2.703125,5.514783125200276e-05,2.1952306271458016e-05,-0.0004887645068253605,3.3668373911650276e-05,5.9286,6.9286
2.70703125,4.294359412680248e-05,1.6582441936369896e-05,-0.0004594438271320668,3.220386545662624e-05,5.9286,6.9286
2.7109375,4.880162794689862e-05,1.937357386129566e-06,-0.00044089338670176234,3.3668373911650276e-05,5.9286,6.9286
2.71484375,6.835891794003205e-05,2.976301803158619e-05,-0.0004540739627969787,3.269203494163426e-05,5.9286,6.9286
2.71875,7.616962970016024e-05,2.439315369649807e-05,-0.00047216674433508813,2.9274848546578178e-05,5.9286,6.9286
2.72265625,6.051769558709088e-05,7.795391206225697e-06,-0.0004716785748500801,3.1227526486610226e-05,5.9286,6.9286
2.7265625,5.319515331197072e-05,1.937357386129566e-06,-0.00045651481022201875,3.0251187516594204e-05,5.9286,6.9286
2.73046875,6.738257897001604e-05,-4.866504811169587e-06,-0.00043747620030670635,2.488132318150608e-05,5.9286,6.9286
2.734375,6.738257897001604e-05,9.610184161135442e-07,-0.0004135558955413138,2.7322170606546137e-05,5.9286,6.9286
2.73828125,6.835891794003205e-05,1.6582441936369896e-05,-0.00038475389592584116,3.0251187516594204e-05,5.9286,6.9286
2.7421875,7.079976536507211e-05,2.829850957656216e-05,-0.00034277132021515215,2.488132318150608e-05,5.9286,6.9286
2.74609375,6.933525691004809e-05,-1.2677216571297761e-05,-0.0003080807761867704,2.439315369649807e-05,5.9286,6.9286
2.75,6.491122095216298e-05,-1.0236369146257707e-05,-0.00030368725082169834,2.7322170606546137e-05,5.9286,6.9286
2.75390625,6.442305146715498e-05,1.5117933481345863e-05,-0.00027830243760128173,3.0251187516594204e-05,5.9286,6.9286
2.7578125,7.128793485008013e-05,1.8046950391393927e-05,-0.00026072833614099335,2.6345831636530114e-05,5.9286,6.9286
2.76171875,7.42169517601282e-05,2.1464136786450005e-05,-0.00026853904790112153,2.5369492666514095e-05,5.9286,6.9286
2.765625,7.226427382009615e-05,2.5857662151522106e-05,-0.00024803592953078505,2.5369492666514095e-05,5.9286,6.9286
2.76953125,7.568146021515222e-05,-4.72979446097488e-07,-0.00020995870970016018,3.0739357001602215e-05,5.9286,6.9286
2.7734375,8.349217197528039e-05,-2.9274979061570133e-05,-0.00020800603176012816,4.0990916186770444e-05,5.9286,6.9286
2.77734375,7.763413815518427e-05,-1.2189047086289752e-05,-0.0002714680648111696,3.7085560306706354e-05,5.9286,6.9286
2.78125,7.128793485008013e-05,-1.170087760128174e-05,-0.00034277132021515215,3.4156543396658294e-05,5.9286,6.9286
2.78515625,6.982342639505609e-05,-4.09910467017624e-05,-0.0003642507775555047,4.196725515678646e-05,5.9286,6.9286
2.7890625,5.124247537193867e-05,-6.933538742504003e-05,-0.00028513681039139387,3.8550068761730395e-05,5.9286,6.9286
2.79296875,6.787074845502406e-05,-6.689453999999997e-05,-0.00023924887880064083,3.46447128816663e-05,5.9286,6.9286
2.796875,7.763413815518427e-05,-7.958694661020826e-05,-0.00025682298026092926,4.7337119491874584e-05,5.9286,6.9286
2.80078125,8.202766352025636e-05,-8.593314991531242e-05,-0.0001435371491462577,6.198220404211491e-05,5.9286,6.9286
2.8046875,8.78856973403525e-05,-0.00010350725137560079,-0.00022216294682536047,6.393488198214696e-05,5.9286,6.9286
2.80859375,9.032654476539255e-05,-0.00015378870833142593,-0.0004316181664866102,5.2218814341954696e-05,5.9286,6.9286
2.8125,5.71005091920348e-05,-0.0001664811149416342,-0.0004970633880704967,6.10058650720989e-05,5.9286,6.9286
2.81640625,1.1700747086289786e-05,-0.0001845433858869306,-0.0004648136914671549,7.958681609521631e-05,5.9286,6.9286
2.8203125,4.7825288976882595e-05,-0.00022118660785534443,-0.0004272246411215381,7.958681609521631e-05,5.9286,6.9286
2.82421875,0.00010301895137560084,-0.0002504767769558251,-0.0004335708444266422,6.491122095216298e-05,5.9286,6.9286
2.828125,0.00011278234107576106,-0.0002826959629663538,-0.0004404052172167544,5.1730644856946685e-05,5.9286,6.9286
2.83203125,0.00010936515468070498,-0.00027195623429617763,-0.0004184375903913939,6.10058650720989e-05,5.9286,6.9286
2.8359375,9.569640910048068e-05,-0.00026121650562600134,-0.00041746125142137785,8.105132455024035e-05,5.9286,6.9286
2.83984375,2.976301803158619e-05,-0.00025535847180590523,-0.0004535857933119707,8.73975278553445e-05,5.9286,6.9286
2.84375,1.4629763996337851e-05,-0.0002372962008606088,-0.000509755794680705,8.202766352025636e-05,5.9286,6.9286
2.84765625,8.935020579537654e-05,-0.00023485535343556875,-0.0005195191843808653,7.275244330510416e-05,5.9286,6.9286
2.8515625,7.128793485008013e-05,-0.00019723579249713894,-0.0003447239981551842,8.202766352025636e-05,5.9286,6.9286
2.85546875,-9.260030176241686e-06,-0.0001615994200915541,0.0003271192555870909,8.251583300526438e-05,5.9286,6.9286
2.859375,4.245542464179448e-05,-0.00015769406421149002,0.0009706791897917144,6.247037352712293e-05,5.9286,6.9286
2.86328125,0.00013377362893110555,-0.0001655047759716182,0.000998993019922179,5.71005091920348e-05,5.9286,6.9286
2.8671875,0.00014841871348134585,-0.00018649606382696267,0.0009828834269169147,5.758867867704282e-05,5.9286,6.9286
2.87109375,0.00012352206974593728,-0.0001845433858869306,-0.000996552303012131,4.050274670176243e-05,5.9286,6.9286
2.875,0.0001010662734355688,-0.0001440253186312657,0.0009995117,4.294359412680248e-05,5.9286,6.9286
2.87890625,8.007498558022432e-05,-0.0001210813528358892,0.0009995117,6.442305146715498e-05,5.9286,6.9286
2.8828125,6.933525691004809e-05,-0.00010594809880064086,0.0009995117,6.491122095216298e-05,5.9286,6.9286
2.88671875,6.689440948500802e-05,-0.00010692443777065688,0.0009995117,6.198220404211491e-05,5.9286,6.9286
2.890625,4.440810258182652e-05,-7.031172639505606e-05,0.0009995117,7.275244330510416e-05,5.9286,6.9286
2.89453125,9.259899661249731e-06,-1.951158936140992e-05,0.0009995117,6.539939043717099e-05,5.9286,6.9286
2.8984375,3.659739082169834e-05,-1.9023419876401904e-05,0.0009995117,3.3668373911650276e-05,5.9286,6.9286
2.90234375,5.368332279697873e-05,-1.0236369146257707e-05,0.0009995117,3.7085560306706354e-05,5.9286,6.9286
2.90625,3.1227526486610226e-05,-1.44931841611351e-06,0.0009995117,5.5636000737010774e-05,5.9286,6.9286
2.91015625,6.247037352712293e-05,2.292864524147404e-05,0.0009995117,6.149403455710691e-05,5.9286,6.9286
2.9140625,8.349217197528039e-05,4.977796691691464e-05,0.0009995117,2.9274848546578178e-05,5.9286,6.9286
2.91796875,8.398034146028841e-05,7.275244330510416e-05,0.0009995117,-3.318033494163422e-05,5.9286,6.9286
2.921875,6.5887559922179e-05,7.861047712520029e-05,0.0009995117,-1.9023419876401904e-05,5.9286,6.9286
2.92578125,5.124247537193867e-05,7.47051212451362e-05,0.0009995117,1.9999628331425975e-05,5.9286,6.9286
2.9296875,5.075430588693066e-05,0.00010057810395056078,-0.0009936232861020827,-8.283691206225664e-06,5.9286,6.9286
2.93359375,4.294359412680248e-05,0.0001313327815060655,0.0009301611225360494,-2.488145369649804e-05,5.9286,6.9286
2.9375,4.538444155184254e-05,0.0001240102392309453,-0.0008647160314671549,3.7573729791714366e-05,5.9286,6.9286
2.94140625,4.880162794689862e-05,0.0001367026458411536,0.00036034529116044865,8.056315506523234e-05,5.9286,6.9286
2.9453125,5.8076848162050824e-05,0.00016159928957656217,-0.0009814190489768825,5.8076848162050824e-05,5.9286,6.9286
2.94921875,6.344671249713895e-05,0.000155741255756466,-0.0009765373541268024,3.3668373911650276e-05,5.9286,6.9286
2.953125,6.539939043717099e-05,0.00015720576421149007,-0.0009296730835660333,6.330882751201665e-06,5.9286,6.9286
2.95703125,6.051769558709088e-05,0.00017233901824673838,-0.0009784900320668345,-4.866504811169587e-06,5.9286,6.9286
2.9609375,4.636078052185856e-05,0.0002211864773403525,-0.0009682384728816663,3.401865841153599e-06,5.9286,6.9286
2.96484375,5.417149228198674e-05,0.0002348552229205768,-0.0009682384728816663,-1.999975884641793e-05,5.9286,6.9286
2.96875,6.933525691004809e-05,0.00017868522155184253,-0.0009682384728816663,-3.318033494163422e-05,5.9286,6.9286
2.97265625,6.149403455710691e-05,0.0001689218318516823,-0.0009682384728816663,-8.771860691233675e-06,5.9286,6.9286
2.9765625,1.365342502632183e-05,0.00023290254498054477,-0.0009682384728816663,3.171569597161824e-05,5.9286,6.9286
2.98046875,-2.732230112153809e-05,0.0002504766464408331,-0.0009682384728816663,2.0975967301441994e-05,5.9286,6.9286
2.984375,4.196725515678646e-05,0.00020312420639505608,-0.0009682384728816663,-2.0487928331425938e-05,5.9286,6.9286
2.98828125,0.00011571135798580912,0.000198700170437171,-0.0009682384728816663,-6.3310132661936195e-06,5.9286,6.9286
2.9921875,0.00011619952747081714,0.00021874562991531246,-0.0009682384728816663,1.4141594511329842e-05,5.9286,6.9286
2.99609375,0.00010497162931563287,0.00022558000270542458,-0.0009682384728816663,1.365342502632183e-05,5.9286,6.9286
3.0,9.276739219043261e-05,0.0002128875960952163,-0.0009682384728816663,3.401865841153599e-06,5.9286,6.9286
3.00390625,9.130288373540858e-05,0.00019723566198214695,-0.0009682384728816663,-3.890165841153565e-06,5.9286,6.9286
3.0078125,8.202766352025636e-05,0.00018259057743190662,-0.0009682384728816663,-5.842843781185608e-06,5.9286,6.9286
3.01171875,6.835891794003205e-05,0.00019821200095216298,-0.0009682384728816663,-1.755891142137787e-05,5.9286,6.9286
3.015625,7.763413815518427e-05,0.00022362732476539254,-0.0009682384728816663,-2.0487928331425938e-05,5.9286,6.9286
3.01953125,8.593301940032045e-05,0.0002397369177706569,-0.0009682384728816663,-1.4141725026321795e-05,5.9286,6.9286
3.0234375,7.958681609521631e-05,0.00020995857918516825,-0.0009682384728816663,-9.260030176241686e-06,5.9286,6.9286
3.02734375,8.690935837033648e-05,0.00020068335897001601,-0.0009692148118516823,-7.307352236209642e-06,5.9286,6.9286
3.03125,4.636078052185856e-05,0.00021972196888532845,-0.0009623804390615702,-6.819182751201631e-06,5.9286,6.9286
3.03515625,-1.2677216571297761e-05,0.00018796044176699477,-0.0009760491846417944,1.4491879011215552e-06,5.9286,6.9286
3.0390625,5.465966176699475e-05,0.00017380352670176243,-0.0009340666089311055,-3.401996356145554e-06,5.9286,6.9286
3.04296875,0.00013035644253604946,0.00019970702000000003,-0.0007885615918059052,-2.8786809576562122e-05,5.9286,6.9286
3.046875,0.00012938010356603342,0.0002041005453650721,-0.0007578069142504005,-3.22039959716182e-05,5.9286,6.9286
3.05078125,0.00011668769695582514,0.00016452830648661023,-0.0008095528796612496,-1.2677216571297761e-05,5.9286,6.9286
3.0546875,0.00011180600210574503,0.00019186579764705886,-0.0008061356932661935,8.283560691233709e-06,5.9286,6.9286
3.05859375,0.00010057810395056078,0.00019821200095216298,-0.0007480435245502404,-4.001470773174638e-05,5.9286,6.9286
3.0625,9.764908704051272e-05,0.00017282718773174643,-0.0006899208452414739,-7.519342124513615e-05,5.9286,6.9286
3.06640625,8.593301940032045e-05,0.0001689218318516823,-0.0006728349132661937,-1.44931841611351e-06,5.9286,6.9286
3.0703125,7.226427382009615e-05,0.00014890688296635387,-0.0006591661676859693,4.440810258182652e-05,5.9286,6.9286
3.07421875,8.30040024902724e-05,0.00013426179841611355,-0.0006303641680704967,4.294359412680248e-05,5.9286,6.9286
3.078125,9.081471425040057e-05,0.00012693925614099338,-0.0005815167089768825,2.9274848546578178e-05,5.9286,6.9286
3.08203125,9.374373116044863e-05,0.00012010488335088121,-0.0005366051163561455,2.3904984211490058e-05,5.9286,6.9286
3.0859375,8.544484991531244e-05,0.0001274274256260014,-0.0005161019979858092,2.2440475756466028e-05,5.9286,6.9286
3.08984375,6.835891794003205e-05,0.00012645108665598537,-0.0004931580321904326,9.748069146257742e-06,5.9286,6.9286
3.09375,7.128793485008013e-05,0.00010936515468070498,-0.0004628610135271229,3.401865841153599e-06,5.9286,6.9286
3.09765625,8.349217197528039e-05,0.00010204261240558482,-0.00044089338670176234,1.937357386129566e-06,5.9286,6.9286
3.1015625,0.00010204261240558482,8.73975278553445e-05,-0.0004033043363561455,-1.4141725026321795e-05,5.9286,6.9286
3.10546875,9.960176498054477e-05,8.251583300526438e-05,-0.0003705969808606088,-1.804708090638588e-05,5.9286,6.9286
3.109375,9.081471425040057e-05,7.665779918516825e-05,-0.00035058203197528033,-3.401996356145554e-06,5.9286,6.9286
3.11328125,8.398034146028841e-05,7.079976536507211e-05,-0.00032760755558709087,1.1212577601281776e-05,5.9286,6.9286
3.1171875,7.616962970016024e-05,6.539939043717099e-05,-0.0003007582339116503,2.0975967301441994e-05,5.9286,6.9286
3.12109375,8.007498558022432e-05,7.47051212451362e-05,-0.0002739089122362096,2.2440475756466028e-05,5.9286,6.9286
3.125,4.684895000686658e-05,9.130288373540858e-05,-0.00024461874313572895,2.292864524147404e-05,5.9286,6.9286
3.12890625,3.952640773174641e-05,9.667274807049669e-05,-0.00021532857403524833,2.7322170606546137e-05,5.9286,6.9286
3.1328125,9.61845785854887e-05,7.90986466102083e-05,-0.00021239955712520025,1.3165255541313818e-05,5.9286,6.9286
3.13671875,0.00012010488335088121,5.075430588693066e-05,-0.00021532857403524833,9.610184161135442e-07,5.9286,6.9286
3.140625,0.00010741247674067293,6.5887559922179e-05,-0.0001918659281620508,8.283560691233709e-06,5.9286,6.9286
3.14453125,9.960176498054477e-05,6.295854301213094e-05,-0.00015378870833142593,1.4141594511329842e-05,5.9286,6.9286
3.1484375,9.325556167544062e-05,2.878667906157017e-05,-0.00015378870833142593,1.7070611421377907e-05,5.9286,6.9286
3.15234375,0.00010008993446555277,1.902328936140995e-05,-0.00017087464030670634,1.9999628331425975e-05,5.9286,6.9286
3.15625,9.960176498054477e-05,1.3165255541313818e-05,-0.00017526816567177842,2.1464136786450005e-05,5.9286,6.9286
3.16015625,9.325556167544062e-05,2.5369492666514095e-05,-0.00019577128404211488,1.4141594511329842e-05,5.9286,6.9286
3.1640625,8.642118888532846e-05,3.90382382467384e-05,-0.00021239955712520025,1.5606102966353874e-05,5.9286,6.9286
3.16796875,8.153949403524835e-05,1.951145884641796e-05,-0.00025291762438086517,1.4629763996337851e-05,5.9286,6.9286
3.171875,8.251583300526438e-05,3.46447128816663e-05,-0.00027439708172121764,1.365342502632183e-05,5.9286,6.9286
3.17578125,6.247037352712293e-05,7.03115958800641e-05,-0.00026170467511100933,2.2440475756466028e-05,5.9286,6.9286
3.1796875,3.171569597161824e-05,6.149403455710691e-05,-0.0003129624710368505,2.5369492666514095e-05,5.9286,6.9286
3.18359375,5.124247537193867e-05,3.46447128816663e-05,-0.0003393541338200961,2.0487797816433986e-05,5.9286,6.9286
3.1875,0.00010204261240558482,2.0975967301441994e-05,-0.00033248925043717094,1.2188916571297797e-05,5.9286,6.9286
3.19140625,0.000110341493650721,6.330882751201665e-06,-0.0003295602335271229,1.4629763996337851e-05,5.9286,6.9286
3.1953125,9.423190064545664e-05,1.755878090638592e-05,-0.00030563992876173036,1.6582441936369896e-05,5.9286,6.9286
3.19921875,9.423190064545664e-05,4.001457721675442e-05,-0.00027195623429617763,1.4629763996337851e-05,5.9286,6.9286
3.203125,9.472007013046466e-05,9.259899661249731e-06,-0.00024217789571068894,1.6582441936369896e-05,5.9286,6.9286
3.20703125,8.544484991531244e-05,-1.937487901121521e-06,-0.00024315423468070495,1.8535119876401938e-05,5.9286,6.9286
3.2109375,8.105132455024035e-05,3.1227526486610226e-05,-0.0002621928445960174,1.5606102966353874e-05,5.9286,6.9286
3.21484375,7.958681609521631e-05,2.7810340091554148e-05,-0.0002621928445960174,1.5606102966353874e-05,5.9286,6.9286
3.21875,7.714596867017625e-05,2.1952306271458016e-05,-0.00022509196373540852,2.0487797816433986e-05,5.9286,6.9286
3.22265625,7.51932907301442e-05,3.806189927672238e-05,-0.0001962594535271229,2.0487797816433986e-05,5.9286,6.9286
3.2265625,7.616962970016024e-05,5.319515331197072e-05,-0.00019821213146715492,1.8535119876401938e-05,5.9286,6.9286
3.23046875,7.665779918516825e-05,5.368332279697873e-05,-0.0001967476230121309,1.9999628331425975e-05,5.9286,6.9286
3.234375,7.226427382009615e-05,1.3165255541313818e-05,-0.00019479494507209887,2.0975967301441994e-05,5.9286,6.9286
3.23828125,8.398034146028841e-05,1.5117933481345863e-05,-0.00018063803000686654,1.8535119876401938e-05,5.9286,6.9286
3.2421875,7.763413815518427e-05,4.7284893110553325e-07,-0.0001698983013366903,2.0975967301441994e-05,5.9286,6.9286
3.24609375,6.051769558709088e-05,-1.3165386056305774e-05,-0.00016599294545662622,2.6834001121538125e-05,5.9286,6.9286
3.25,6.933525691004809e-05,9.610184161135442e-07,-0.00017575633515678641,2.5857662151522106e-05,5.9286,6.9286
3.25390625,7.372878227512018e-05,3.401865841153599e-06,-0.00019333043661707482,1.6582441936369896e-05,5.9286,6.9286
3.2578125,8.690935837033648e-05,1.5117933481345863e-05,-0.00017722084361181047,1.1212577601281776e-05,5.9286,6.9286
3.26171875,9.032654476539255e-05,9.748069146257742e-06,-0.00015085969142137788,1.5606102966353874e-05,5.9286,6.9286
3.265625,8.007498558022432e-05,-6.3310132661936195e-06,-0.0001347500984161135,2.0487797816433986e-05,5.9286,6.9286
3.26953125,7.763413815518427e-05,-1.4141725026321795e-05,-0.00015476504730144196,1.8535119876401938e-05,5.9286,6.9286
3.2734375,8.007498558022432e-05,-6.819182751201631e-06,-0.00016013491163653008,2.0975967301441994e-05,5.9286,6.9286
3.27734375,8.398034146028841e-05,9.259899661249731e-06,-0.00014451348811627372,2.6834001121538125e-05,5.9286,6.9286
3.28125,8.007498558022432e-05,3.269203494163426e-05,-0.00012791572562600135,2.292864524147404e-05,5.9286,6.9286
3.28515625,7.616962970016024e-05,1.4629763996337851e-05,-0.00012938023408102538,1.6094272451361885e-05,5.9286,6.9286
3.2890625,7.616962970016024e-05,-1.5118063996337817e-05,-0.00014988335245136184,2.1464136786450005e-05,5.9286,6.9286
3.29296875,5.856501764705884e-05,-3.890165841153565e-06,-0.0001474425050263218,3.0251187516594204e-05,5.9286,6.9286
3.296875,5.465966176699475e-05,1.4491879011215552e-06,-0.00014256081017624168,2.6834001121538125e-05,5.9286,6.9286
3.30078125,7.47051212451362e-05,1.0236238631265752e-05,-0.00015134786090638587,2.0975967301441994e-05,5.9286,6.9286
3.3046875,8.007498558022432e-05,1.5117933481345863e-05,-0.00014988335245136184,1.8535119876401938e-05,5.9286,6.9286
3.30859375,7.42169517601282e-05,2.4255268711375773e-06,-0.0001342619289311055,1.902328936140995e-05,5.9286,6.9286
3.3125,7.079976536507211e-05,9.748069146257742e-06,-0.00014548982708628973,1.951145884641796e-05,5.9286,6.9286
3.31640625,6.835891794003205e-05,2.3904984211490058e-05,-0.0001342619289311055,2.0975967301441994e-05,5.9286,6.9286
3.3203125,6.884708742504007e-05,1.4629763996337851e-05,-0.00011961684438086517,1.6094272451361885e-05,5.9286,6.9286
3.32421875,7.372878227512018e-05,9.610184161135442e-07,-0.00013621460687113752,1.1212577601281776e-05,5.9286,6.9286
3.328125,8.056315506523234e-05,-5.354674296177598e-06,-0.00012742755614099334,1.365342502632183e-05,5.9286,6.9286
3.33203125,8.056315506523234e-05,2.0975967301441994e-05,-0.00011961684438086517,1.5606102966353874e-05,5.9286,6.9286
3.3359375,6.982342639505609e-05,3.8550068761730395e-05,-9.276752270542456e-05,1.6582441936369896e-05,5.9286,6.9286
3.33984375,5.905318713206685e-05,1.0236238631265752e-05,-6.982355691004805e-05,2.0975967301441994e-05,5.9286,6.9286
3.34375,6.149403455710691e-05,5.354543781185643e-06,-6.933538742504003e-05,2.3904984211490058e-05,5.9286,6.9286
3.34765625,6.442305146715498e-05,7.795391206225697e-06,-7.958694661020826e-05,2.5369492666514095e-05,5.9286,6.9286
3.3515625,7.90986466102083e-05,-2.9138268711375426e-06,-0.00011180613262073699,2.6345831636530114e-05,5.9286,6.9286
3.35546875,8.446851094529643e-05,-6.819182751201631e-06,-0.00011034162416571295,1.755878090638592e-05,5.9286,6.9286
3.359375,5.368332279697873e-05,1.902328936140995e-05,-7.958694661020826e-05,1.8046950391393927e-05,5.9286,6.9286
3.36328125,4.538444155184254e-05,1.3165255541313818e-05,-6.0029656617074824e-05,2.3904984211490058e-05,5.9286,6.9286
3.3671875,7.324061279011216e-05,1.8535119876401938e-05,-7.812243815518424e-05,2.0487797816433986e-05,5.9286,6.9286
3.37109375,8.446851094529643e-05,2.913696356145588e-06,-0.00011473514953078506,1.5117933481345863e-05,5.9286,6.9286
3.375,8.642118888532846e-05,-2.4393284211490024e-05,-0.00010399542086060881,1.2188916571297797e-05,5.9286,6.9286
3.37890625,8.398034146028841e-05,-6.3310132661936195e-06,-7.031172639505606e-05,1.2677086056305808e-05,5.9286,6.9286
3.3828125,7.177610433508813e-05,-2.9138268711375426e-06,-8.349230249027235e-05,1.5117933481345863e-05,5.9286,6.9286
3.38671875,6.5887559922179e-05,8.77173017624172e-06,-9.325569219043258e-05,1.6094272451361885e-05,5.9286,6.9286
3.390625,7.616962970016024e-05,4.245542464179448e-05,-8.056328558022428e-05,1.7070611421377907e-05,5.9286,6.9286
3.39453125,8.202766352025636e-05,2.1952306271458016e-05,-8.593314991531242e-05,1.4141594511329842e-05,5.9286,6.9286
3.3984375,7.372878227512018e-05,-2.683413163653008e-05,-6.637585992217897e-05,1.5606102966353874e-05,5.9286,6.9286
3.40234375,6.442305146715498e-05,-4.866504811169587e-06,-3.855019927672234e-05,2.5857662151522106e-05,5.9286,6.9286
3.40625,5.758867867704282e-05,1.8046950391393927e-05,-4.684908052185853e-05,2.6834001121538125e-05,5.9286,6.9286
3.41015625,6.491122095216298e-05,4.866374296177632e-06,-6.0029656617074824e-05,2.292864524147404e-05,5.9286,6.9286
3.4140625,7.03115958800641e-05,7.795391206225697e-06,-7.568159073014417e-05,2.1464136786450005e-05,5.9286,6.9286
3.41796875,6.051769558709088e-05,1.951145884641796e-05,-7.763426867017622e-05,1.755878090638592e-05,5.9286,6.9286
3.421875,6.738257897001604e-05,1.8046950391393927e-05,-4.880175846189058e-05,1.365342502632183e-05,5.9286,6.9286
3.42578125,7.616962970016024e-05,-1.5320553902477717e-08,-4.001470773174638e-05,1.2188916571297797e-05,5.9286,6.9286
3.4296875,7.177610433508813e-05,6.819052236209676e-06,-4.733725000686654e-05,1.6582441936369896e-05,5.9286,6.9286
3.43359375,7.177610433508813e-05,1.902328936140995e-05,-5.954148713206682e-05,1.1212577601281776e-05,5.9286,6.9286
3.4375,6.933525691004809e-05,1.9999628331425975e-05,-2.5857792666514058e-05,1.2188916571297797e-05,5.9286,6.9286
3.44140625,6.539939043717099e-05,2.829850957656216e-05,-8.771860691233675e-06,1.5117933481345863e-05,5.9286,6.9286
3.4453125,6.539939043717099e-05,1.5117933481345863e-05,-5.465979228198671e-05,3.401865841153599e-06,5.9286,6.9286
3.44921875,6.344671249713895e-05,6.330882751201665e-06,-6.247050404211488e-05,6.330882751201665e-06,5.9286,6.9286
3.453125,5.66123397070268e-05,1.5606102966353874e-05,-3.806202979171434e-05,1.365342502632183e-05,5.9286,6.9286
3.45703125,5.5636000737010774e-05,3.659739082169834e-05,-3.366850442664224e-05,1.6582441936369896e-05,5.9286,6.9286
3.4609375,5.954135661707486e-05,3.0739357001602215e-05,-1.9023419876401904e-05,2.0975967301441994e-05,5.9286,6.9286
3.46484375,5.758867867704282e-05,-1.937487901121521e-06,-1.9023419876401904e-05,3.0251187516594204e-05,5.9286,6.9286
3.46875,5.368332279697873e-05,-4.3783353261615755e-06,-2.9274979061570133e-05,3.0251187516594204e-05,5.9286,6.9286
3.47265625,5.1730644856946685e-05,1.365342502632183e-05,-2.732230112153809e-05,2.7810340091554148e-05,5.9286,6.9286
3.4765625,5.075430588693066e-05,3.5132882366674316e-05,-1.170087760128174e-05,3.1227526486610226e-05,5.9286,6.9286
3.48046875,4.7337119491874584e-05,3.8550068761730395e-05,2.1464136786450005e-05,2.0975967301441994e-05,5.9286,6.9286
3.484375,4.5872611036850557e-05,3.46447128816663e-05,1.4629763996337851e-05,1.951145884641796e-05,5.9286,6.9286
3.48828125,3.806189927672238e-05,4.001457721675442e-05,-6.3310132661936195e-06,1.5117933481345863e-05,5.9286,6.9286
3.4921875,3.90382382467384e-05,6.442305146715498e-05,-1.609440296635384e-05,-2.2440606271457983e-05,5.9286,6.9286
3.49609375,3.806189927672238e-05,6.442305146715498e-05,-1.804708090638588e-05,-1.9023419876401904e-05,5.9286,6.9286
3.5,3.46447128816663e-05,3.0251187516594204e-05,-1.5320553902477717e-08,9.748069146257742e-06,5.9286,6.9286
3.50390625,5.368332279697873e-05,2.3904984211490058e-05,5.354543781185643e-06,2.292864524147404e-05,5.9286,6.9286
3.5078125,5.270698382696271e-05,3.7573729791714366e-05,-1.170087760128174e-05,4.831345846189061e-05,5.9286,6.9286
3.51171875,4.34317636118105e-05,2.6345831636530114e-05,-1.2677216571297761e-05,6.5887559922179e-05,5.9286,6.9286
3.515625,4.684895000686658e-05,1.0724408116273763e-05,-2.488145369649804e-05,6.640624000000002e-05,5.9286,6.9286
3.51953125,5.514783125200276e-05,1.4629763996337851e-05,-1.804708090638588e-05,5.612417022201878e-05,5.9286,6.9286
3.5234375,5.026613640192266e-05,2.0975967301441994e-05,-1.9023419876401904e-05,4.5872611036850557e-05,5.9286,6.9286
3.52734375,4.636078052185856e-05,2.2440475756466028e-05,-2.3416945241474e-05,3.7085560306706354e-05,5.9286,6.9286
3.53125,5.66123397070268e-05,1.4629763996337851e-05,-2.0487928331425938e-05,2.878667906157017e-05,5.9286,6.9286
3.53515625,4.0990916186770444e-05,3.890035326161609e-06,-4.09910467017624e-05,3.269203494163426e-05,5.9286,6.9286
3.5390625,5.354543781185643e-06,9.259899661249731e-06,-1.3653555541313785e-05,3.46447128816663e-05,5.9286,6.9286
3.54296875,3.610922133669034e-05,3.46447128816663e-05,-2.9138268711375426e-06,2.6345831636530114e-05,5.9286,6.9286
3.546875,7.42169517601282e-05,2.5369492666514095e-05,-2.8298640091554114e-05,2.5857662151522106e-05,5.9286,6.9286
3.55078125,6.5887559922179e-05,-4.72979446097488e-07,-4.3431894126802455e-05,2.488132318150608e-05,5.9286,6.9286
3.5546875,4.977796691691464e-05,1.9999628331425975e-05,-4.3431894126802455e-05,2.292864524147404e-05,5.9286,6.9286
3.55859375,4.001457721675442e-05,3.562105185168232e-05,-2.146426730144196e-05,2.3904984211490058e-05,5.9286,6.9286
3.5625,4.245542464179448e-05,2.4255268711375773e-06,-3.122765700160218e-05,1.755878090638592e-05,5.9286,6.9286
3.56640625,5.66123397070268e-05,-8.283691206225664e-06,-4.53845720668345e-05,1.755878090638592e-05,5.9286,6.9286
3.5703125,5.905318713206685e-05,1.951145884641796e-05,-4.733725000686654e-05,2.3416814726482047e-05,5.9286,6.9286
3.57421875,2.878667906157017e-05,2.7322170606546137e-05,-1.951158936140992e-05,2.5857662151522106e-05,5.9286,6.9286
3.578125,2.9274848546578178e-05,2.488132318150608e-05,-6.819182751201631e-06,2.829850957656216e-05,5.9286,6.9286
3.58203125,5.5636000737010774e-05,2.878667906157017e-05,-2.5857792666514058e-05,2.5369492666514095e-05,5.9286,6.9286
3.5859375,5.905318713206685e-05,1.5117933481345863e-05,-3.562118236667428e-05,1.9999628331425975e-05,5.9286,6.9286
3.58984375,5.514783125200276e-05,1.9999628331425975e-05,-4.3431894126802455e-05,1.8046950391393927e-05,5.9286,6.9286
3.59375,5.026613640192266e-05,3.5132882366674316e-05,-4.2943724641794444e-05,1.951145884641796e-05,5.9286,6.9286
3.59765625,4.831345846189061e-05,2.976301803158619e-05,-3.1715826486610186e-05,2.1464136786450005e-05,5.9286,6.9286
3.6015625,4.636078052185856e-05,1.6582441936369896e-05,-1.3653555541313785e-05,2.439315369649807e-05,5.9286,6.9286
3.60546875,4.050274670176243e-05,2.913696356145588e-06,-2.5857792666514058e-05,2.2440475756466028e-05,5.9286,6.9286
3.609375,3.7573729791714366e-05,8.283560691233709e-06,-4.53845720668345e-05,2.3416814726482047e-05,5.9286,6.9286
3.61328125,3.806189927672238e-05,1.8046950391393927e-05,-6.051782610208284e-05,2.439315369649807e-05,5.9286,6.9286
3.6171875,4.050274670176243e-05,1.951145884641796e-05,-4.2455555156786426e-05,2.1952306271458016e-05,5.9286,6.9286
3.62109375,3.952640773174641e-05,2.7810340091554148e-05,-2.683413163653008e-05,1.951145884641796e-05,5.9286,6.9286
3.625,3.7085560306706354e-05,1.6094272451361885e-05,-4.489640258182648e-05,1.5606102966353874e-05,5.9286,6.9286
3.62890625,4.245542464179448e-05,2.5369492666514095e-05,-5.0266266916914606e-05,1.6582441936369896e-05,5.9286,6.9286
3.6328125,4.391993309681851e-05,3.90382382467384e-05,-6.247050404211488e-05,1.8535119876401938e-05,5.9286,6.9286
3.63671875,4.245542464179448e-05,1.3165255541313818e-05,-4.489640258182648e-05,1.902328936140995e-05,5.9286,6.9286
3.640625,4.001457721675442e-05,2.878667906157017e-05,-3.073948751659417e-05,2.439315369649807e-05,5.9286,6.9286
3.64453125,4.001457721675442e-05,2.9274848546578178e-05,-2.7810470606546103e-05,2.7810340091554148e-05,5.9286,6.9286
3.6484375,3.610922133669034e-05,-7.307352236209642e-06,-3.366850442664224e-05,2.6834001121538125e-05,5.9286,6.9286
3.65234375,3.0251187516594204e-05,9.748069146257742e-06,-5.124260588693063e-05,2.2440475756466028e-05,5.9286,6.9286
3.65625,3.1227526486610226e-05,1.902328936140995e-05,-2.4393284211490024e-05,2.0975967301441994e-05,5.9286,6.9286
3.66015625,3.0251187516594204e-05,1.6094272451361885e-05,-6.3310132661936195e-06,2.439315369649807e-05,5.9286,6.9286
3.6640625,3.269203494163426e-05,2.3416814726482047e-05,-8.771860691233675e-06,2.1952306271458016e-05,5.9286,6.9286
3.66796875,3.0251187516594204e-05,9.259899661249731e-06,-2.9763148546578148e-05,1.9999628331425975e-05,5.9286,6.9286
3.671875,3.5132882366674316e-05,9.610184161135442e-07,-5.3683453311970684e-05,2.6345831636530114e-05,5.9286,6.9286
3.67578125,4.7825288976882595e-05,1.2188916571297797e-05,-5.319528382696267e-05,2.878667906157017e-05,5.9286,6.9286
3.6796875,4.977796691691464e-05,1.5117933481345863e-05,-3.464484339665826e-05,2.6834001121538125e-05,5.9286,6.9286
3.68359375,4.4896272066834534e-05,-3.890165841153565e-06,-1.951158936140992e-05,2.6345831636530114e-05,5.9286,6.9286
3.6875,3.90382382467384e-05,1.2677086056305808e-05,-3.5133012881666264e-05,1.9999628331425975e-05,5.9286,6.9286
3.69140625,3.7085560306706354e-05,1.7070611421377907e-05,-3.757386030670632e-05,1.4629763996337851e-05,5.9286,6.9286
3.6953125,3.46447128816663e-05,2.3416814726482047e-05,-2.097609781643395e-05,9.748069146257742e-06,5.9286,6.9286
3.69921875,2.7810340091554148e-05,5.075430588693066e-05,-1.8535250391393893e-05,1.4141594511329842e-05,5.9286,6.9286
3.703125,2.7322170606546137e-05,4.1479085671778456e-05,-2.9274979061570133e-05,1.902328936140995e-05,5.9286,6.9286
3.70703125,3.171569597161824e-05,4.196725515678646e-05,-2.683413163653008e-05,1.6582441936369896e-05,5.9286,6.9286
3.7109375,3.5132882366674316e-05,3.0251187516594204e-05,-2.4393284211490024e-05,1.8535119876401938e-05,5.9286,6.9286
3.71484375,3.4156543396658294e-05,1.8535119876401938e-05,-2.9274979061570133e-05,2.439315369649807e-05,5.9286,6.9286
3.71875,3.0251187516594204e-05,1.6094272451361885e-05,-2.683413163653008e-05,2.488132318150608e-05,5.9286,6.9286
3.72265625,2.829850957656216e-05,8.77173017624172e-06,-1.5118063996337817e-05,2.3416814726482047e-05,5.9286,6.9286
3.7265625,1.6094272451361885e-05,-1.44931841611351e-06,-1.2677216571297761e-05,2.6345831636530114e-05,5.9286,6.9286
3.73046875,8.77173017624172e-06,-2.3416945241474e-05,-1.804708090638588e-05,2.6345831636530114e-05,5.9286,6.9286
3.734375,2.3904984211490058e-05,-7.307352236209642e-06,-2.8298640091554114e-05,2.3416814726482047e-05,5.9286,6.9286
3.73828125,3.46447128816663e-05,-2.425657386129532e-06,-1.2677216571297761e-05,2.1464136786450005e-05,5.9286,6.9286
3.7421875,3.3668373911650276e-05,-1.3165386056305774e-05,-4.09910467017624e-05,2.3416814726482047e-05,5.9286,6.9286
3.74609375,3.318020442664227e-05,2.1464136786450005e-05,-5.90533176470588e-05,2.5369492666514095e-05,5.9286,6.9286
3.75,3.220386545662624e-05,3.806189927672238e-05,-4.050287721675439e-05,2.7322170606546137e-05,5.9286,6.9286
3.75390625,2.829850957656216e-05,4.7284893110553325e-07,-4.733725000686654e-05,2.7322170606546137e-05,5.9286,6.9286
3.7578125,2.5857662151522106e-05,1.2188916571297797e-05,-4.050287721675439e-05,2.5369492666514095e-05,5.9286,6.9286
3.76171875,1.5117933481345863e-05,4.5872611036850557e-05,-1.072453863126572e-05,2.9274848546578178e-05,5.9286,6.9286
3.765625,1.0724408116273763e-05,-9.61148931105499e-07,-1.560623348134583e-05,3.220386545662624e-05,5.9286,6.9286
3.76953125,1.0236238631265752e-05,-1.804708090638588e-05,-3.366850442664224e-05,2.9274848546578178e-05,5.9286,6.9286
3.7734375,6.819052236209676e-06,5.354543781185643e-06,-2.9138268711375426e-06,3.3668373911650276e-05,5.9286,6.9286
3.77734375,2.0487797816433986e-05,2.488132318150608e-05,1.902328936140995e-05,3.318020442664227e-05,5.9286,6.9286
3.78125,1.2677086056305808e-05,3.3668373911650276e-05,-2.683413163653008e-05,2.2440475756466028e-05,5.9286,6.9286
3.78515625,4.378204811169621e-06,5.354543781185643e-06,-7.421708227512015e-05,2.292864524147404e-05,5.9286,6.9286
3.7890625,5.124247537193867e-05,-5.173077537193864e-05,-7.519342124513615e-05,1.2677086056305808e-05,5.9286,6.9286
3.79296875,8.642118888532846e-05,-9.520837013046461e-05,-0.0001303565730510414,-5.354674296177598e-06,5.9286,6.9286
3.796875,9.71609175555047e-05,-0.00010399542086060881,-0.00019479494507209887,2.4255268711375773e-06,5.9286,6.9286
3.80078125,8.690935837033648e-05,-0.00015134786090638587,-0.00019577128404211488,1.1700747086289786e-05,5.9286,6.9286
3.8046875,6.884708742504007e-05,-0.00020312433691004804,-0.0002148404045502403,6.819052236209676e-06,5.9286,6.9286
3.80859375,4.538444155184254e-05,-0.00022265111631036846,-0.00024413057365072096,8.77173017624172e-06,5.9286,6.9286
3.8125,3.171569597161824e-05,-0.0002524294548958571,-0.0002817196239963378,-2.2928775756465994e-05,5.9286,6.9286
3.81640625,6.982342639505609e-05,-0.0002768379291462577,-0.00033593694742504,-5.124260588693063e-05,5.9286,6.9286
3.8203125,9.667274807049669e-05,-0.0002695153868711375,-0.00034618850661020825,-6.738270948500799e-05,5.9286,6.9286
3.82421875,0.00012889193408102543,-0.0002768379291462577,-0.00035741640476539253,-7.665792970016021e-05,5.9286,6.9286
3.828125,0.00014304884914625773,-0.0003110097930968185,-0.0004145322345113298,-2.5857792666514058e-05,5.9286,6.9286
3.83203125,0.0001513477303913939,-0.00033248925043717094,-0.0004272246411215381,-3.415667391165024e-05,5.9286,6.9286
3.8359375,0.00013523813738612958,-0.0003110097930968185,-0.0003735259977706569,-4.392006361181047e-05,5.9286,6.9286
3.83984375,0.0001284037645960174,-0.0002973410475165942,-0.0003466766760952163,7.307221721217687e-06,5.9286,6.9286
3.84375,0.00017819705206683454,-0.00031930867434195464,-0.00038231304850080104,2.1464136786450005e-05,5.9286,6.9286
3.84765625,0.00018844861125200276,-0.0003090571151567864,-0.0003881710823208972,-5.842843781185608e-06,5.9286,6.9286
3.8515625,0.00016208745906157016,-0.00028318413245136185,-0.000378895862105745,-2.195243678644997e-05,5.9286,6.9286
3.85546875,0.00014841871348134585,-0.00025291762438086517,-0.00034228315073014416,-4.3783353261615755e-06,5.9286,6.9286
3.859375,0.00014451335760128176,-0.0002270446416754406,-0.0003090571151567864,3.8550068761730395e-05,5.9286,6.9286
3.86328125,0.00013914349326619364,-0.00021093504867017622,-0.000290506674726482,1.9999628331425975e-05,5.9286,6.9286
3.8671875,0.00014646603554131383,-0.00019333043661707482,-0.0002704917258411536,-2.0487928331425938e-05,5.9286,6.9286
3.87109375,0.00014890688296635387,-0.00016794562339665823,-0.00025535847180590523,-9.748199661249696e-06,5.9286,6.9286
3.875,0.00010887698519569697,-0.00012059318335088118,-0.00020263616742504002,1.1212577601281776e-05,5.9286,6.9286
3.87890625,8.495668043030443e-05,-8.495681094529639e-05,-0.0001738036572167544,-2.5857792666514058e-05,5.9286,6.9286
3.8828125,0.0001371908153261616,-9.081484476539251e-05,-0.00018112619949187456,-3.025131803158616e-05,5.9286,6.9286
3.88671875,0.00016941000133669033,-7.714609918516821e-05,-0.00017575633515678641,1.0724408116273763e-05,5.9286,6.9286
3.890625,0.00014744237451132981,-6.835904845502402e-05,-0.00016355209803158615,1.937357386129566e-06,5.9286,6.9286
3.89453125,0.00013767898481116962,-3.5133012881666264e-05,-0.00013670277635614557,-3.073948751659417e-05,5.9286,6.9286
3.8984375,0.00013377362893110555,1.5117933481345863e-05,-0.00011180613262073699,-6.7870878970016e-05,5.9286,6.9286
3.90234375,0.00012352206974593728,3.4156543396658294e-05,-7.22644043350881e-05,-8.056328558022428e-05,5.9286,6.9286
3.90625,0.00012498657820096134,4.050274670176243e-05,-4.440823309681848e-05,1.1700747086289786e-05,5.9286,6.9286
3.91015625,0.00010838881571068896,5.075430588693066e-05,-5.075443640192262e-05,6.640624000000002e-05,5.9286,6.9286
3.9140625,9.520823961547266e-05,6.393488198214696e-05,-4.636091103685052e-05,5.1730644856946685e-05,5.9286,6.9286
3.91796875,9.61845785854887e-05,8.153949403524835e-05,-2.634596215152207e-05,2.5369492666514095e-05,5.9286,6.9286
3.921875,9.667274807049669e-05,9.569640910048068e-05,-1.4141725026321795e-05,6.819052236209676e-06,5.9286,6.9286
3.92578125,8.886203631036852e-05,0.00010790064622568095,1.4141594511329842e-05,-2.425657386129532e-06,5.9286,6.9286
3.9296875,7.616962970016024e-05,0.0001230339002609293,2.5857662151522106e-05,-3.9526538246738366e-05,5.9286,6.9286
3.93359375,6.0029526102082876e-05,0.00010448345983062488,1.0236238631265752e-05,-3.464484339665826e-05,5.9286,6.9286
3.9375,5.954135661707486e-05,0.00012498657820096134,3.562105185168232e-05,1.365342502632183e-05,5.9286,6.9286
3.94140625,6.247037352712293e-05,0.0001513477303913939,6.051769558709088e-05,-1.4629894511329806e-05,5.9286,6.9286
3.9453125,4.636078052185856e-05,0.00012205756129091327,4.245542464179448e-05,-2.683413163653008e-05,5.9286,6.9286
3.94921875,2.7322170606546137e-05,9.227922270542459e-05,3.7573729791714366e-05,3.8550068761730395e-05,5.9286,6.9286
3.953125,3.171569597161824e-05,9.227922270542459e-05,5.026613640192266e-05,7.079976536507211e-05,5.9286,6.9286
3.95703125,7.795391206225697e-06,0.0001284037645960174,4.440810258182652e-05,5.417149228198674e-05,5.9286,6.9286
3.9609375,-2.195243678644997e-05,0.00014011983223620968,5.075430588693066e-05,4.0990916186770444e-05,5.9286,6.9286
3.96484375,1.4491879011215552e-06,0.00011229417159075305,4.440810258182652e-05,4.0990916186770444e-05,5.9286,6.9286
3.96875,2.7322170606546137e-05,9.61845785854887e-05,3.4156543396658294e-05,3.318020442664227e-05,5.9286,6.9286
3.97265625,3.318020442664227e-05,9.374373116044863e-05,3.4156543396658294e-05,2.829850957656216e-05,5.9286,6.9286
3.9765625,2.292864524147404e-05,0.00011668769695582514,5.075430588693066e-05,3.318020442664227e-05,5.9286,6.9286
3.98046875,1.8535119876401938e-05,0.00011619952747081714,4.4896272066834534e-05,3.46447128816663e-05,5.9286,6.9286
3.984375,-6.3310132661936195e-06,0.00011082966313572902,5.270698382696271e-05,2.292864524147404e-05,5.9286,6.9286
3.98828125,-2.536962318150605e-05,0.00011766403592584118,6.295854301213094e-05,1.6582441936369896e-05,5.9286,6.9286
3.9921875,-9.61148931105499e-07,9.520823961547266e-05,1.2188916571297797e-05,2.5369492666514095e-05,5.9286,6.9286
3.99609375,1.0236238631265752e-05,0.00012010488335088121,-6.0029656617074824e-05,2.1952306271458016e-05,5.9286,6.9286
4.0,1.4141594511329842e-05,0.0001410961712062257,-0.0005473448450263218,4.378204811169621e-06,5.9286,6.9286
4.00390625,3.890035326161609e-06,0.00011424684953078509,-0.0009765373541268024,9.748069146257742e-06,5.9286,6.9286
4.0078125,-2.146426730144196e-05,9.179105322041659e-05,-0.000960915930606546,2.7322170606546137e-05,5.9286,6.9286
4.01171875,-2.3905114726482013e-05,0.00011180600210574503,-0.0009594514221515221,3.806189927672238e-05,5.9286,6.9286
4.015625,-8.283691206225664e-06,0.00012205756129091327,-0.0009706793203067063,4.7825288976882595e-05,5.9286,6.9286
4.01953125,1.0724408116273763e-05,8.73975278553445e-05,-0.0009682384728816663,5.856501764705884e-05,5.9286,6.9286
4.0234375,1.2677086056305808e-05,9.569640910048068e-05,-0.0009682384728816663,5.758867867704282e-05,5.9286,6.9286
4.02734375,-1.937487901121521e-06,9.862542601052873e-05,-0.0009682384728816663,5.319515331197072e-05,5.9286,6.9286
4.03125,6.330882751201665e-06,7.90986466102083e-05,-0.0009682384728816663,1.0724408116273763e-05,5.9286,6.9286
4.03515625,2.1464136786450005e-05,0.00010399529034561686,-0.0009682384728816663,-2.8298640091554114e-05,5.9286,6.9286
4.0390625,9.259899661249731e-06,9.862542601052873e-05,-0.0009682384728816663,3.1227526486610226e-05,5.9286,6.9286
4.04296875,-8.283691206225664e-06,9.667274807049669e-05,-0.0009682384728816663,7.372878227512018e-05,5.9286,6.9286
4.046875,-2.2440606271457983e-05,0.00010985332416571298,-0.0009682384728816663,6.738257897001604e-05,5.9286,6.9286
4.05078125,-1.170087760128174e-05,8.983837528038453e-05,-0.0009682384728816663,5.270698382696271e-05,5.9286,6.9286
4.0546875,3.401865841153599e-06,7.372878227512018e-05,-0.0009682384728816663,3.7085560306706354e-05,5.9286,6.9286
4.05859375,-1.2189047086289752e-05,5.514783125200276e-05,-0.0009682384728816663,3.0739357001602215e-05,5.9286,6.9286
4.0625,-1.4141725026321795e-05,5.954135661707486e-05,-0.0009682384728816663,5.465966176699475e-05,5.9286,6.9286
4.06640625,2.9274848546578178e-05,6.198220404211491e-05,-0.0009682384728816663,4.977796691691464e-05,5.9286,6.9286
4.0703125,1.8046950391393927e-05,7.275244330510416e-05,-0.0009682384728816663,1.4629763996337851e-05,5.9286,6.9286
4.07421875,-2.425657386129532e-06,9.325556167544062e-05,-0.0009682384728816663,3.1227526486610226e-05,5.9286,6.9286
4.078125,1.6094272451361885e-05,7.324061279011216e-05,-0.0009682384728816663,4.7825288976882595e-05,5.9286,6.9286
4.08203125,2.3416814726482047e-05,5.1730644856946685e-05,-0.0009682384728816663,5.1730644856946685e-05,5.9286,6.9286
4.0859375,1.365342502632183e-05,4.440810258182652e-05,-0.0009682384728816663,5.368332279697873e-05,5.9286,6.9286
4.08984375,3.401865841153599e-06,4.391993309681851e-05,-0.0009682384728816663,2.3416814726482047e-05,5.9286,6.9286
4.09375,-4.3783353261615755e-06,6.539939043717099e-05,-0.0009682384728816663,1.9999628331425975e-05,5.9286,6.9286
4.09765625,-1.5118063996337817e-05,7.958681609521631e-05,-0.0009682384728816663,5.319515331197072e-05,5.9286,6.9286
4.1015625,-2.097609781643395e-05,6.982342639505609e-05,-0.0009682384728816663,6.247037352712293e-05,5.9286,6.9286
4.10546875,-2.2440606271457983e-05,5.905318713206685e-05,-0.0009682384728816663,5.417149228198674e-05,5.9286,6.9286
4.109375,-7.795521721217652e-06,8.153949403524835e-05,-0.0009682384728816663,5.8076848162050824e-05,5.9286,6.9286
4.11328125,-1.560623348134583e-05,7.861047712520029e-05,-0.0009682384728816663,7.177610433508813e-05,5.9286,6.9286
