timestamp,TP9,AF7,AF8,TP10,Valence,Arousal
0.0,-4.2484250632486474e-05,-1.7582510792706216e-05,-1.563081635767149e-05,-1.4649090542458252e-05,3.7333,5.7333
0.00390625,-4.297217424124515e-05,-1.9534205227740926e-05,-1.513701415121693e-05,-2.0510052445258282e-05,3.7333,5.7333
0.0078125,-4.2484250632486474e-05,-2.4907243521782276e-05,-2.637101434805831e-05,-2.0510052445258282e-05,3.7333,5.7333
0.01171875,-4.785728892652783e-05,-3.2231976250858335e-05,-1.6118739966430168e-05,-1.563081635767149e-05,3.7333,5.7333
0.015625,-5.273652501411462e-05,-2.4419319913023597e-05,-1.513701415121693e-05,-1.8070434401464894e-05,3.7333,5.7333
0.01953125,-4.4435945067521186e-05,-2.1485899662775635e-05,-2.0997976054016957e-05,-2.4419319913023597e-05,3.7333,5.7333
0.0234375,-3.467159429465174e-05,-4.1508403414969124e-05,-2.5883090739299632e-05,-2.929855600061039e-05,3.7333,5.7333
0.02734375,-4.638763950255591e-05,-5.9573334134432e-05,-3.6623288729686445e-05,-3.75991359472038e-05,3.7333,5.7333
0.03125,-5.664579248187993e-05,-3.174405264209966e-05,-5.860586987106146e-06,-3.808705955596248e-05,3.7333,5.7333
0.03515625,-4.932105975280386e-05,-4.88473976958879e-06,-6.836434204623515e-06,-4.19963270237278e-05,3.7333,5.7333
0.0390625,-3.9062906773479836e-05,-1.4161166933699576e-05,-2.0510052445258282e-05,-3.5647441512169096e-05,3.7333,5.7333
0.04296875,-3.515951790341042e-05,-2.7346861565575663e-05,-2.1973823271534313e-05,-1.6118739966430168e-05,3.7333,5.7333
0.046875,-2.832270878309302e-05,-3.5647441512169096e-05,-2.6858937956816985e-05,-2.1485899662775635e-05,3.7333,5.7333
0.05078125,-2.832270878309302e-05,-2.5395167130540954e-05,-1.855835801022357e-05,-2.929855600061039e-05,3.7333,5.7333
0.0546875,-3.6623288729686445e-05,-1.6118739966430168e-05,-1.1233625281147496e-05,-2.7346861565575663e-05,3.7333,5.7333
0.05859375,-3.6623288729686445e-05,-5.860586987106146e-06,-8.30608362859543e-06,-2.3437594097810345e-05,3.7333,5.7333
0.0625,-3.467159429465174e-05,-1.9534205227740926e-05,-1.4649090542458252e-05,-2.3931396304264923e-05,3.7333,5.7333
0.06640625,-3.515951790341042e-05,-1.9534205227740926e-05,-2.832270878309302e-05,-2.4907243521782276e-05,3.7333,5.7333
0.0703125,-3.6135365120927774e-05,-1.1721548889906188e-05,-2.9786479609369064e-05,-2.783478517433434e-05,3.7333,5.7333
0.07421875,-3.9062906773479836e-05,-2.3437594097810345e-05,-2.0997976054016957e-05,-3.2231976250858335e-05,3.7333,5.7333
0.078125,-4.638763950255591e-05,-2.637101434805831e-05,-8.794007237354109e-06,-3.320782346837569e-05,3.7333,5.7333
0.08203125,-4.736348672007327e-05,-2.294967048905167e-05,-2.0510052445258282e-05,-4.004463258869309e-05,3.7333,5.7333
0.0859375,-3.857498316472116e-05,-1.7094587183947538e-05,-2.783478517433434e-05,-4.638763950255591e-05,3.7333,5.7333
0.08984375,-3.9062906773479836e-05,-2.0997976054016957e-05,-1.9046281618982247e-05,-3.174405264209966e-05,3.7333,5.7333
0.09375,-3.7111212338445124e-05,-1.1721548889906188e-05,-6.836434204623515e-06,-1.660666357518886e-05,3.7333,5.7333
0.09765625,-3.75991359472038e-05,-1.2697396107423543e-05,-6.836434204623515e-06,-1.3673243324940898e-05,3.7333,5.7333
0.1015625,-4.394802145876251e-05,-2.3931396304264923e-05,-1.660666357518886e-05,-1.9046281618982247e-05,3.7333,5.7333
0.10546875,-3.6623288729686445e-05,-2.0022128836499604e-05,-3.75991359472038e-05,-3.174405264209966e-05,3.7333,5.7333
0.109375,-4.1508403414969124e-05,-4.1508403414969124e-05,-4.785728892652783e-05,-3.7111212338445124e-05,3.7333,5.7333
0.11328125,-4.785728892652783e-05,-4.883313614404518e-05,-3.1250250435645096e-05,-3.857498316472116e-05,3.7333,5.7333
0.1171875,-4.297217424124515e-05,-3.9062906773479836e-05,-2.832270878309302e-05,-3.808705955596248e-05,3.7333,5.7333
0.12109375,-4.687556311131459e-05,-3.1250250435645096e-05,-1.9046281618982247e-05,-3.467159429465174e-05,3.7333,5.7333
0.125,-3.9550830382238515e-05,-4.4923868676279865e-05,-2.881063239185171e-05,-3.369574707713438e-05,3.7333,5.7333
0.12890625,-4.1020479806210446e-05,-4.9808983361562536e-05,-4.297217424124515e-05,-4.2484250632486474e-05,3.7333,5.7333
0.1328125,-4.736348672007327e-05,-2.0997976054016957e-05,-2.5883090739299632e-05,-4.004463258869309e-05,3.7333,5.7333
0.13671875,-3.75991359472038e-05,-1.4649090542458252e-05,-2.6858937956816985e-05,-3.0762326826886424e-05,3.7333,5.7333
0.140625,-2.5395167130540954e-05,-7.818160019836752e-06,-2.6858937956816985e-05,-3.320782346837569e-05,3.7333,5.7333
0.14453125,-2.832270878309302e-05,-1.855835801022357e-05,-2.3931396304264923e-05,-3.369574707713438e-05,3.7333,5.7333
0.1484375,-3.418367068589306e-05,-2.6858937956816985e-05,-1.9534205227740926e-05,-3.2231976250858335e-05,3.7333,5.7333
0.15234375,-3.174405264209966e-05,-2.0997976054016957e-05,-1.9534205227740926e-05,-2.9786479609369064e-05,3.7333,5.7333
0.15625,-3.0762326826886424e-05,-2.6858937956816985e-05,-2.5395167130540954e-05,-3.0274403218127743e-05,3.7333,5.7333
0.16015625,-3.6135365120927774e-05,-2.7346861565575663e-05,-1.9534205227740926e-05,-3.808705955596248e-05,3.7333,5.7333
0.1640625,-4.1020479806210446e-05,-2.294967048905167e-05,-1.8070434401464894e-05,-3.6135365120927774e-05,3.7333,5.7333
0.16796875,-3.418367068589306e-05,-2.881063239185171e-05,-2.294967048905167e-05,-3.2231976250858335e-05,3.7333,5.7333
0.171875,-3.5647441512169096e-05,-3.6623288729686445e-05,-1.4649090542458252e-05,-3.418367068589306e-05,3.7333,5.7333
0.17578125,-4.19963270237278e-05,-1.855835801022357e-05,-2.0022128836499604e-05,-4.004463258869309e-05,3.7333,5.7333
0.1796875,-3.467159429465174e-05,-2.5395167130540954e-05,-2.637101434805831e-05,-4.19963270237278e-05,3.7333,5.7333
0.18359375,-3.369574707713438e-05,-4.053255619745177e-05,-2.4907243521782276e-05,-2.0997976054016957e-05,3.7333,5.7333
0.1875,-3.320782346837569e-05,-2.4419319913023597e-05,-2.0022128836499604e-05,-1.7582510792706216e-05,3.7333,5.7333
0.19140625,-3.0274403218127743e-05,-1.3185319716182221e-05,-5.372663378347468e-06,-2.246174688029299e-05,3.7333,5.7333
0.1953125,-3.320782346837569e-05,-1.0745701672388818e-05,-1.957198117036725e-06,-2.637101434805831e-05,3.7333,5.7333
0.19921875,-2.9786479609369064e-05,-1.3673243324940898e-05,-8.794007237354109e-06,-3.0274403218127743e-05,3.7333,5.7333
0.203125,-3.2231976250858335e-05,-2.5883090739299632e-05,-1.4649090542458252e-05,-2.7346861565575663e-05,3.7333,5.7333
0.20703125,-4.1020479806210446e-05,-2.832270878309302e-05,-1.7582510792706216e-05,-2.5395167130540954e-05,3.7333,5.7333
0.2109375,-4.4435945067521186e-05,-2.5883090739299632e-05,-9.769854454871463e-06,-2.3437594097810345e-05,3.7333,5.7333
0.21484375,-3.320782346837569e-05,-1.660666357518886e-05,-1.563081635767149e-05,-2.246174688029299e-05,3.7333,5.7333
0.21875,-1.7582510792706216e-05,-3.1250250435645096e-05,-3.174405264209966e-05,-3.1250250435645096e-05,3.7333,5.7333
0.22265625,-1.855835801022357e-05,-4.004463258869309e-05,-2.881063239185171e-05,-2.7346861565575663e-05,3.7333,5.7333
0.2265625,-3.0274403218127743e-05,-3.6135365120927774e-05,-3.9550830382238515e-05,-1.6118739966430168e-05,3.7333,5.7333
0.23046875,-4.004463258869309e-05,-3.9062906773479836e-05,-3.9550830382238515e-05,-1.660666357518886e-05,3.7333,5.7333
0.234375,-3.5647441512169096e-05,-3.9550830382238515e-05,-4.2484250632486474e-05,-2.294967048905167e-05,3.7333,5.7333
0.23828125,-3.7111212338445124e-05,-4.785728892652783e-05,-4.736348672007327e-05,-3.0274403218127743e-05,3.7333,5.7333
0.2421875,-3.6623288729686445e-05,-3.174405264209966e-05,-3.174405264209966e-05,-2.7346861565575663e-05,3.7333,5.7333
0.24609375,-2.4907243521782276e-05,-2.3931396304264923e-05,-3.515951790341042e-05,-2.6858937956816985e-05,3.7333,5.7333
0.25,-2.3437594097810345e-05,-4.346009785000383e-05,-4.4923868676279865e-05,-3.6135365120927774e-05,3.7333,5.7333
0.25390625,-2.832270878309302e-05,-4.1508403414969124e-05,-3.369574707713438e-05,-3.75991359472038e-05,3.7333,5.7333
0.2578125,-3.2231976250858335e-05,-4.4435945067521186e-05,-3.6135365120927774e-05,-3.369574707713438e-05,3.7333,5.7333
0.26171875,-2.881063239185171e-05,-5.4688219449149325e-05,-5.615786887312125e-05,-3.75991359472038e-05,3.7333,5.7333
0.265625,-2.7346861565575663e-05,-5.7133716090638606e-05,-5.5176143057908e-05,-3.9062906773479836e-05,3.7333,5.7333
0.26953125,-3.9550830382238515e-05,-5.615786887312125e-05,-3.857498316472116e-05,-3.271989985961701e-05,3.7333,5.7333
0.2734375,-4.297217424124515e-05,-5.0296906970321214e-05,-2.9786479609369064e-05,-3.0274403218127743e-05,3.7333,5.7333
0.27734375,-2.9786479609369064e-05,-4.1508403414969124e-05,-3.9062906773479836e-05,-3.320782346837569e-05,3.7333,5.7333
0.28125,-3.0762326826886424e-05,-4.2484250632486474e-05,-6.054918135194935e-05,-2.783478517433434e-05,3.7333,5.7333
0.28515625,-3.2231976250858335e-05,-3.75991359472038e-05,-5.9085410525673325e-05,-3.2231976250858335e-05,3.7333,5.7333
0.2890625,-3.271989985961701e-05,-3.75991359472038e-05,-4.2484250632486474e-05,-4.5899715893797234e-05,3.7333,5.7333
0.29296875,-3.515951790341042e-05,-4.5899715893797234e-05,-4.346009785000383e-05,-4.932105975280386e-05,3.7333,5.7333
0.296875,-3.2231976250858335e-05,-2.881063239185171e-05,-4.19963270237278e-05,-5.176067779659726e-05,3.7333,5.7333
0.30078125,-3.0274403218127743e-05,-3.515951790341042e-05,-5.273652501411462e-05,-4.1020479806210446e-05,3.7333,5.7333
0.3046875,-2.3437594097810345e-05,-3.6623288729686445e-05,-6.152502856946672e-05,-2.4907243521782276e-05,3.7333,5.7333
0.30859375,-2.1973823271534313e-05,-3.515951790341042e-05,-4.9808983361562536e-05,-2.246174688029299e-05,3.7333,5.7333
0.3125,-3.1250250435645096e-05,-2.5883090739299632e-05,-3.75991359472038e-05,-2.881063239185171e-05,3.7333,5.7333
0.31640625,-2.246174688029299e-05,-2.9786479609369064e-05,-3.320782346837569e-05,-2.3931396304264923e-05,3.7333,5.7333
0.3203125,-1.7582510792706216e-05,-3.7111212338445124e-05,-3.5647441512169096e-05,-2.3437594097810345e-05,3.7333,5.7333
0.32421875,-2.1973823271534313e-05,-2.7346861565575663e-05,-4.2484250632486474e-05,-3.0762326826886424e-05,3.7333,5.7333
0.328125,-1.2697396107423543e-05,-2.9786479609369064e-05,-3.467159429465174e-05,-2.783478517433434e-05,3.7333,5.7333
0.33203125,-1.7094587183947538e-05,-2.832270878309302e-05,-2.6858937956816985e-05,-2.832270878309302e-05,3.7333,5.7333
0.3359375,-4.053255619745177e-05,-3.0274403218127743e-05,-2.783478517433434e-05,-2.0997976054016957e-05,3.7333,5.7333
0.33984375,-3.5647441512169096e-05,-4.638763950255591e-05,-2.7346861565575663e-05,-2.929855600061039e-05,3.7333,5.7333
0.34375,-1.1233625281147496e-05,-6.250087578698407e-05,-5.0784830579079906e-05,-4.1508403414969124e-05,3.7333,5.7333
0.34765625,-1.8070434401464894e-05,-6.152502856946672e-05,-7.71503412451362e-05,-3.418367068589306e-05,3.7333,5.7333
0.3515625,-2.7346861565575663e-05,-4.932105975280386e-05,-5.810956330815597e-05,-3.6135365120927774e-05,3.7333,5.7333
0.35546875,-2.6858937956816985e-05,-4.004463258869309e-05,-5.615786887312125e-05,-2.881063239185171e-05,3.7333,5.7333
0.359375,-2.832270878309302e-05,-2.9786479609369064e-05,-4.932105975280386e-05,-2.3931396304264923e-05,3.7333,5.7333
0.36328125,-2.1485899662775635e-05,-2.6858937956816985e-05,-3.857498316472116e-05,-2.783478517433434e-05,3.7333,5.7333
0.3671875,-1.4649090542458252e-05,-3.2231976250858335e-05,-4.9808983361562536e-05,-2.832270878309302e-05,3.7333,5.7333
0.37109375,-1.9046281618982247e-05,-3.0274403218127743e-05,-3.857498316472116e-05,-3.0274403218127743e-05,3.7333,5.7333
0.375,-2.3931396304264923e-05,-3.271989985961701e-05,-3.320782346837569e-05,-3.369574707713438e-05,3.7333,5.7333
0.37890625,-2.3931396304264923e-05,-2.881063239185171e-05,-3.5647441512169096e-05,-2.929855600061039e-05,3.7333,5.7333
0.3828125,-3.0274403218127743e-05,-2.5883090739299632e-05,-4.053255619745177e-05,-3.0762326826886424e-05,3.7333,5.7333
0.38671875,-3.0274403218127743e-05,-3.418367068589306e-05,-4.297217424124515e-05,-4.346009785000383e-05,3.7333,5.7333
0.390625,-2.5395167130540954e-05,-4.5899715893797234e-05,-4.9808983361562536e-05,-4.394802145876251e-05,3.7333,5.7333
0.39453125,-2.4907243521782276e-05,-4.883313614404518e-05,-5.0296906970321214e-05,-4.1020479806210446e-05,3.7333,5.7333
0.3984375,-4.1508403414969124e-05,-3.369574707713438e-05,-4.736348672007327e-05,-3.5647441512169096e-05,3.7333,5.7333
0.40234375,-5.273652501411462e-05,-5.0296906970321214e-05,-4.4923868676279865e-05,-2.294967048905167e-05,3.7333,5.7333
0.40625,-3.0274403218127743e-05,-3.2231976250858335e-05,-1.7582510792706216e-05,-3.0274403218127743e-05,3.7333,5.7333
0.41015625,-1.2209472498664865e-05,-1.6118739966430168e-05,-1.513701415121693e-05,-2.832270878309302e-05,3.7333,5.7333
0.4140625,-1.563081635767149e-05,-2.783478517433434e-05,-2.832270878309302e-05,-2.832270878309302e-05,3.7333,5.7333
0.41796875,-1.7094587183947538e-05,-3.1250250435645096e-05,-2.3437594097810345e-05,-3.808705955596248e-05,3.7333,5.7333
0.421875,-2.0022128836499604e-05,-3.418367068589306e-05,-2.6858937956816985e-05,-4.687556311131459e-05,3.7333,5.7333
0.42578125,-2.4419319913023597e-05,-2.7346861565575663e-05,-3.6623288729686445e-05,-4.83452125352865e-05,3.7333,5.7333
0.4296875,-1.8070434401464894e-05,-2.3437594097810345e-05,-3.9550830382238515e-05,-4.1020479806210446e-05,3.7333,5.7333
0.43359375,-1.9046281618982247e-05,-2.881063239185171e-05,-4.4435945067521186e-05,-4.4923868676279865e-05,3.7333,5.7333
0.4375,-2.881063239185171e-05,-3.808705955596248e-05,-3.9062906773479836e-05,-4.346009785000383e-05,3.7333,5.7333
0.44140625,-3.0762326826886424e-05,-3.271989985961701e-05,-3.6135365120927774e-05,-3.75991359472038e-05,3.7333,5.7333
0.4453125,-2.1973823271534313e-05,-4.4435945067521186e-05,-5.32244486228733e-05,-3.1250250435645096e-05,3.7333,5.7333
0.44921875,-2.7346861565575663e-05,-5.9085410525673325e-05,-5.5176143057908e-05,-2.881063239185171e-05,3.7333,5.7333
0.453125,-3.467159429465174e-05,-3.808705955596248e-05,-3.7111212338445124e-05,-2.929855600061039e-05,3.7333,5.7333
0.45703125,-1.9046281618982247e-05,-3.808705955596248e-05,-4.638763950255591e-05,-2.3437594097810345e-05,3.7333,5.7333
0.4609375,-1.2209472498664865e-05,-5.664579248187993e-05,-6.3970525210956e-05,-2.4419319913023597e-05,3.7333,5.7333
0.46484375,-2.246174688029299e-05,-5.9573334134432e-05,-7.178318154879073e-05,-2.5883090739299632e-05,3.7333,5.7333
0.46875,-2.294967048905167e-05,-7.910203568017092e-05,-8.984811226825362e-05,-2.783478517433434e-05,3.7333,5.7333
0.47265625,-2.0022128836499604e-05,-0.00010302792830243383,-0.00010937681381399253,-3.515951790341042e-05,3.7333,5.7333
0.4765625,-2.1973823271534313e-05,-0.00011621362293430992,-0.00012304455345693143,-3.9062906773479836e-05,3.7333,5.7333
0.48046875,-2.246174688029299e-05,-0.00012402040067444877,-0.00014257325500267035,-3.5647441512169096e-05,3.7333,5.7333
0.484375,-2.4419319913023597e-05,-0.00012890551535973144,-0.00014941006412298773,-3.6135365120927774e-05,3.7333,5.7333
0.48828125,-3.0274403218127743e-05,-0.00013036928618600748,-0.0001455066752529183,-4.053255619745177e-05,3.7333,5.7333
0.4921875,-3.271989985961701e-05,-0.00013427267505607693,-0.0001435491022201877,-3.9062906773479836e-05,3.7333,5.7333
0.49609375,-2.929855600061039e-05,-0.00013915778974135957,-0.00013524852227359428,-3.5647441512169096e-05,3.7333,5.7333
0.5,-3.1250250435645096e-05,-0.00013280890422980086,-0.00013524852227359428,-2.881063239185171e-05,3.7333,5.7333
0.50390625,-3.369574707713438e-05,-0.00014453082803540093,-0.00013183305701228352,-3.0762326826886424e-05,3.7333,5.7333
0.5078125,-4.4435945067521186e-05,-0.00016454745318989853,-0.00014697044607919435,-3.467159429465174e-05,3.7333,5.7333
0.51171875,-4.4923868676279865e-05,-0.00012841759175097277,-0.0001479462932967117,-3.174405264209966e-05,3.7333,5.7333
0.515625,-3.2231976250858335e-05,-8.691469201800566e-05,-0.00010400965411764706,-2.9786479609369064e-05,3.7333,5.7333
0.51953125,-3.320782346837569e-05,-0.00010400965411764706,-9.228773031204701e-05,-3.2231976250858335e-05,3.7333,5.7333
0.5234375,-3.467159429465174e-05,-0.00011474985210803388,-0.00010254000469367515,-3.2231976250858335e-05,3.7333,5.7333
0.52734375,-3.1250250435645096e-05,-0.00010107623386739911,-0.00010937681381399253,-2.246174688029299e-05,3.7333,5.7333
0.53125,-3.0762326826886424e-05,-0.00010156415747615778,-0.00010937681381399253,-2.929855600061039e-05,3.7333,5.7333
0.53515625,-2.6858937956816985e-05,-0.00010693719577019913,-0.00010937681381399253,-2.6858937956816985e-05,3.7333,5.7333
0.5390625,-3.7111212338445124e-05,-9.961246304112307e-05,-0.00010107623386739911,-1.3185319716182221e-05,3.7333,5.7333
0.54296875,-3.1250250435645096e-05,-9.961246304112307e-05,-9.91245394323644e-05,-2.246174688029299e-05,3.7333,5.7333
0.546875,-2.6858937956816985e-05,-0.00010254000469367515,-0.00011474985210803388,-1.9046281618982247e-05,3.7333,5.7333
0.55078125,-2.832270878309302e-05,-0.0001054734249439231,-0.00011572569932555124,-1.8070434401464894e-05,3.7333,5.7333
0.5546875,-1.7094587183947538e-05,-9.91245394323644e-05,-0.00010498550133516442,-2.3931396304264923e-05,3.7333,5.7333
0.55859375,-1.4649090542458252e-05,-0.00011132850824902724,-0.00012255662984817273,-1.7094587183947538e-05,3.7333,5.7333
0.5625,-1.513701415121693e-05,-0.00013280890422980086,-0.00015283140798199438,-1.855835801022357e-05,3.7333,5.7333
0.56640625,-1.9534205227740926e-05,-0.00013378475144731823,-0.00015184968216678111,-2.4419319913023597e-05,3.7333,5.7333
0.5703125,-1.563081635767149e-05,-0.00010986473742275122,-0.00011718947015182728,-1.025777806363014e-05,3.7333,5.7333
0.57421875,-9.769854454871463e-06,-0.00010058831025864043,-0.0001123102340642405,-3.4209689433127576e-06,3.7333,5.7333
0.578125,-1.0745701672388818e-05,-0.0001279296681422141,-0.00013720609530632486,-1.1233625281147496e-05,3.7333,5.7333
0.58203125,-7.818160019836752e-06,-0.00013183305701228352,-0.0001411094841763943,-6.348510595864823e-06,3.7333,5.7333
0.5859375,-1.8070434401464894e-05,-0.00014501875164415963,-0.00014159740778515298,-7.324357813382192e-06,3.7333,5.7333
0.58984375,-1.855835801022357e-05,-0.00016552330040741587,-0.00016405952958113986,-1.1233625281147496e-05,3.7333,5.7333
0.59375,-1.4649090542458252e-05,-0.00017773314782177464,-0.00017528765118028536,-1.957198117036725e-06,3.7333,5.7333
0.59765625,-9.769854454871463e-06,-0.00019433430771496148,-0.00017577557478904403,7.807152655832738e-06,3.7333,5.7333
0.6015625,-6.348510595864823e-06,-0.000211423391216907,-0.00020849584956435493,1.07405729060807e-05,3.7333,5.7333
0.60546875,-6.836434204623515e-06,-0.00021386300926070037,-0.00022313943642481116,4.39168739452198e-06,3.7333,5.7333
0.609375,-8.30608362859543e-06,-0.00021923604755474173,-0.00022704870389257648,1.1228496514839378e-05,3.7333,5.7333
0.61328125,-5.372663378347468e-06,-0.00021679642951094835,-0.00021532678008697644,9.276802079804667e-06,3.7333,5.7333
0.6171875,-1.9534205227740926e-05,-0.00021044754399938967,-0.00020165904044403752,1.464145741969915e-06,3.7333,5.7333
0.62109375,-3.0274403218127743e-05,-0.0002045865820965896,-0.00020312281127031357,8.295076264591414e-06,3.7333,5.7333
0.625,-2.7346861565575663e-05,-0.000178708995039292,-0.0001938463841062028,8.295076264591414e-06,3.7333,5.7333
0.62890625,-2.0997976054016957e-05,-0.00015722272046082248,-0.0001723601095277333,-9.281930846112785e-06,3.7333,5.7333
0.6328125,-2.637101434805831e-05,-0.0001679629184512093,-0.00016357160597238118,-1.855835801022357e-05,3.7333,5.7333
0.63671875,-3.6135365120927774e-05,-0.00016405952958113986,-0.0001542951788082704,-2.3437594097810345e-05,3.7333,5.7333
0.640625,-2.4907243521782276e-05,-0.00012548417150072482,-0.00012450832428320745,-2.929855600061039e-05,3.7333,5.7333
0.64453125,-3.6623288729686445e-05,-0.00010498550133516442,-0.00010107623386739911,-1.4649090542458252e-05,3.7333,5.7333
0.6484375,-3.7111212338445124e-05,-0.00010107623386739911,-9.47273483558404e-05,-9.281930846112785e-06,3.7333,5.7333
0.65234375,-2.1973823271534313e-05,-8.349922675669492e-05,-8.936018865949495e-05,-2.0510052445258282e-05,3.7333,5.7333
0.65625,-3.5647441512169096e-05,-7.422279959258412e-05,-8.838434144197758e-05,-2.637101434805831e-05,3.7333,5.7333
0.66015625,-3.9062906773479836e-05,-6.20129521782254e-05,-4.638763950255591e-05,-3.1250250435645096e-05,3.7333,5.7333
0.6640625,-2.1973823271534313e-05,-4.1508403414969124e-05,-1.9046281618982247e-05,-2.7346861565575663e-05,3.7333,5.7333
0.66796875,-1.660666357518886e-05,-1.855835801022357e-05,-3.174405264209966e-05,-3.1250250435645096e-05,3.7333,5.7333
0.671875,-2.9786479609369064e-05,-1.855835801022357e-05,-1.8070434401464894e-05,-4.736348672007327e-05,3.7333,5.7333
0.67578125,-3.7111212338445124e-05,-2.0510052445258282e-05,-1.2697396107423543e-05,-5.5176143057908e-05,3.7333,5.7333
0.6796875,-4.687556311131459e-05,1.0252649297322022e-05,3.415840177004625e-06,-5.32244486228733e-05,3.7333,5.7333
0.68359375,-4.736348672007327e-05,2.6853809190508855e-05,1.3668114558632766e-05,-5.32244486228733e-05,3.7333,5.7333
0.6875,-4.4435945067521186e-05,1.9529076461432792e-05,7.31922904707406e-06,-6.298879939574274e-05,3.7333,5.7333
0.69140625,-4.5899715893797234e-05,1.806530563515676e-05,1.1228496514839378e-05,-6.3970525210956e-05,3.7333,5.7333
0.6953125,-4.2484250632486474e-05,1.7089458417639405e-05,2.43999295948727e-06,-6.298879939574274e-05,3.7333,5.7333
0.69921875,-4.1020479806210446e-05,1.2204343732356733e-05,-7.324357813382192e-06,-6.347672300450143e-05,3.7333,5.7333
0.703125,-4.1020479806210446e-05,1.2204343732356733e-05,1.07405729060807e-05,-5.762163969939729e-05,3.7333,5.7333
0.70703125,-4.4923868676279865e-05,3.903763785763303e-06,1.806530563515676e-05,-5.4688219449149325e-05,3.7333,5.7333
0.7109375,-5.1272754187838584e-05,6.343381829556705e-06,1.464396177615012e-05,-4.9808983361562536e-05,3.7333,5.7333
0.71484375,-4.394802145876251e-05,2.2456618113984858e-05,2.734173279926753e-05,-5.0296906970321214e-05,3.7333,5.7333
0.71875,-4.1020479806210446e-05,2.58779619729915e-05,2.6853809190508855e-05,-5.9085410525673325e-05,3.7333,5.7333
0.72265625,-4.932105975280386e-05,1.9529076461432792e-05,1.1228496514839378e-05,-6.738599047226674e-05,3.7333,5.7333
0.7265625,-4.9808983361562536e-05,2.4902114755474142e-05,2.001700007019147e-05,-6.982560851606014e-05,3.7333,5.7333
0.73046875,-3.6135365120927774e-05,2.7829656408026208e-05,3.564231274586095e-05,-5.9573334134432e-05,3.7333,5.7333
0.734375,-3.808705955596248e-05,3.466646552834359e-05,3.9545701615930395e-05,-5.371237223163197e-05,3.7333,5.7333
0.73828125,-4.883313614404518e-05,3.466646552834359e-05,2.6853809190508855e-05,-5.664579248187993e-05,3.7333,5.7333
0.7421875,-4.638763950255591e-05,2.4902114755474142e-05,1.6601534808880726e-05,-5.4688219449149325e-05,3.7333,5.7333
0.74609375,-4.297217424124515e-05,2.8317580016784886e-05,2.8317580016784886e-05,-4.638763950255591e-05,3.7333,5.7333
0.75,-2.1973823271534313e-05,2.8805503625543564e-05,2.3920388940260893e-05,-4.4923868676279865e-05,3.7333,5.7333
0.75390625,-2.3437594097810345e-05,1.6107732602426152e-05,5.367534612039336e-06,-4.1020479806210446e-05,3.7333,5.7333
0.7578125,-4.053255619745177e-05,1.9529076461432792e-05,2.539003836423282e-05,-3.857498316472116e-05,3.7333,5.7333
0.76171875,-3.515951790341042e-05,4.296704547493704e-05,4.345496908369571e-05,-4.883313614404518e-05,3.7333,5.7333
0.765625,-3.0762326826886424e-05,4.7358357953765136e-05,3.075719806057828e-05,-4.541179228503854e-05,3.7333,5.7333
0.76953125,-3.174405264209966e-05,4.4918739909971745e-05,3.856985439841304e-05,-4.83452125352865e-05,3.7333,5.7333
0.7734375,-3.418367068589306e-05,4.540666351873042e-05,3.856985439841304e-05,-6.152502856946672e-05,3.7333,5.7333
0.77734375,-3.5647441512169096e-05,3.320269470206756e-05,2.8805503625543564e-05,-5.615786887312125e-05,3.7333,5.7333
0.78125,-3.7111212338445124e-05,1.6601534808880726e-05,2.9293427234302243e-05,-4.687556311131459e-05,3.7333,5.7333
0.78515625,-4.5899715893797234e-05,3.271477109330888e-05,2.4408312549019568e-05,-3.9062906773479836e-05,3.7333,5.7333
0.7890625,-3.857498316472116e-05,3.124512166933698e-05,2.050492367895015e-05,-3.808705955596248e-05,3.7333,5.7333
0.79296875,-3.5647441512169096e-05,6.831305438315382e-06,1.3668114558632766e-05,-4.736348672007327e-05,3.7333,5.7333
0.796875,-4.004463258869309e-05,3.903763785763303e-06,1.5131885384908797e-05,-4.5899715893797234e-05,3.7333,5.7333
0.80078125,-3.467159429465174e-05,-5.503682002014897e-09,1.0252649297322022e-05,-4.4923868676279865e-05,3.7333,5.7333
0.8046875,-3.857498316472116e-05,-6.836434204623515e-06,6.831305438315382e-06,-5.566406666666668e-05,3.7333,5.7333
0.80859375,-4.932105975280386e-05,3.415840177004625e-06,1.5619808993667477e-05,-5.762163969939729e-05,3.7333,5.7333
0.8125,-5.420029584039065e-05,2.4408312549019568e-05,7.807152655832738e-06,-5.32244486228733e-05,3.7333,5.7333
0.81640625,-4.394802145876251e-05,3.564231274586095e-05,1.7577382026398083e-05,-4.932105975280386e-05,3.7333,5.7333
0.8203125,-3.6623288729686445e-05,2.050492367895015e-05,4.824199267566627e-07,-4.785728892652783e-05,3.7333,5.7333
0.82421875,-3.515951790341042e-05,7.31922904707406e-06,-7.818160019836752e-06,-5.1272754187838584e-05,3.7333,5.7333
0.828125,-3.174405264209966e-05,1.5131885384908797e-05,7.807152655832738e-06,-5.420029584039065e-05,3.7333,5.7333
0.83203125,-2.929855600061039e-05,8.788878471045989e-06,2.927916568245948e-06,-5.420029584039065e-05,3.7333,5.7333
0.8359375,-3.1250250435645096e-05,4.39168739452198e-06,1.07405729060807e-05,-5.371237223163197e-05,3.7333,5.7333
0.83984375,-3.467159429465174e-05,4.879611003280658e-06,1.0252649297322022e-05,-5.615786887312125e-05,3.7333,5.7333
0.84375,-3.6623288729686445e-05,8.788878471045989e-06,3.903763785763303e-06,-4.541179228503854e-05,3.7333,5.7333
0.84765625,-2.929855600061039e-05,3.415840177004625e-06,-9.281930846112785e-06,-2.7346861565575663e-05,3.7333,5.7333
0.8515625,-3.2231976250858335e-05,-2.9330453345540803e-06,-6.836434204623515e-06,-2.832270878309302e-05,3.7333,5.7333
0.85546875,-3.6623288729686445e-05,9.762221332112375e-07,-7.818160019836752e-06,-3.320782346837569e-05,3.7333,5.7333
0.859375,-3.320782346837569e-05,-3.4209689433127576e-06,-2.0997976054016957e-05,-2.9786479609369064e-05,3.7333,5.7333
0.86328125,-3.369574707713438e-05,-1.2697396107423543e-05,-1.7582510792706216e-05,-2.832270878309302e-05,3.7333,5.7333
0.8671875,-2.9786479609369064e-05,-6.348510595864823e-06,-1.0745701672388818e-05,-2.929855600061039e-05,3.7333,5.7333
0.87109375,-3.271989985961701e-05,-3.908892552071435e-06,-1.3185319716182221e-05,-2.9786479609369064e-05,3.7333,5.7333
0.875,-2.929855600061039e-05,-1.3185319716182221e-05,-7.818160019836752e-06,-3.174405264209966e-05,3.7333,5.7333
0.87890625,-3.7111212338445124e-05,-1.3185319716182221e-05,-5.372663378347468e-06,-3.320782346837569e-05,3.7333,5.7333
0.8828125,-4.1508403414969124e-05,-1.9046281618982247e-05,-1.3673243324940898e-05,-3.6135365120927774e-05,3.7333,5.7333
0.88671875,-3.1250250435645096e-05,-2.3931396304264923e-05,-1.6118739966430168e-05,-3.0762326826886424e-05,3.7333,5.7333
0.890625,-3.0274403218127743e-05,-2.3437594097810345e-05,-1.7582510792706216e-05,-3.320782346837569e-05,3.7333,5.7333
0.89453125,-2.9786479609369064e-05,-2.246174688029299e-05,-2.4419319913023597e-05,-3.9550830382238515e-05,3.7333,5.7333
0.8984375,-3.320782346837569e-05,-3.2231976250858335e-05,-3.515951790341042e-05,-3.5647441512169096e-05,3.7333,5.7333
0.90234375,-2.881063239185171e-05,-3.1250250435645096e-05,-3.1250250435645096e-05,-3.6623288729686445e-05,3.7333,5.7333
0.90625,-2.5883090739299632e-05,-1.1721548889906188e-05,-2.0022128836499604e-05,-3.0762326826886424e-05,3.7333,5.7333
0.91015625,-3.320782346837569e-05,-1.513701415121693e-05,-1.3673243324940898e-05,-2.881063239185171e-05,3.7333,5.7333
0.9140625,-2.832270878309302e-05,-4.1508403414969124e-05,-2.7346861565575663e-05,-3.271989985961701e-05,3.7333,5.7333
0.91796875,-3.0274403218127743e-05,-4.19963270237278e-05,-3.808705955596248e-05,-3.369574707713438e-05,3.7333,5.7333
0.921875,-3.0762326826886424e-05,-2.1973823271534313e-05,-3.320782346837569e-05,-3.0762326826886424e-05,3.7333,5.7333
0.92578125,-2.637101434805831e-05,-2.0022128836499604e-05,-3.6135365120927774e-05,-3.2231976250858335e-05,3.7333,5.7333
0.9296875,-2.7346861565575663e-05,-2.4419319913023597e-05,-3.467159429465174e-05,-3.6623288729686445e-05,3.7333,5.7333
0.93359375,-3.0274403218127743e-05,-3.515951790341042e-05,-4.4923868676279865e-05,-3.271989985961701e-05,3.7333,5.7333
0.9375,-3.174405264209966e-05,-2.7346861565575663e-05,-4.1508403414969124e-05,-2.7346861565575663e-05,3.7333,5.7333
0.94140625,-2.5883090739299632e-05,-2.5395167130540954e-05,-4.541179228503854e-05,-3.0274403218127743e-05,3.7333,5.7333
0.9453125,-2.5883090739299632e-05,-4.1020479806210446e-05,-5.9573334134432e-05,-3.0762326826886424e-05,3.7333,5.7333
0.94921875,-2.294967048905167e-05,-3.515951790341042e-05,-4.1508403414969124e-05,-2.5883090739299632e-05,3.7333,5.7333
0.953125,-1.2697396107423543e-05,-3.515951790341042e-05,-4.541179228503854e-05,-3.0762326826886424e-05,3.7333,5.7333
0.95703125,-2.1973823271534313e-05,-3.0274403218127743e-05,-3.9062906773479836e-05,-5.273652501411462e-05,3.7333,5.7333
0.9609375,-3.5647441512169096e-05,-1.9534205227740926e-05,-2.0997976054016957e-05,-6.3970525210956e-05,3.7333,5.7333
0.96484375,-2.929855600061039e-05,-4.4435945067521186e-05,-4.4923868676279865e-05,-4.053255619745177e-05,3.7333,5.7333
0.96875,-3.857498316472116e-05,-5.664579248187993e-05,-6.250087578698407e-05,-1.9534205227740926e-05,3.7333,5.7333
0.97265625,-4.736348672007327e-05,-4.19963270237278e-05,-4.932105975280386e-05,-2.294967048905167e-05,3.7333,5.7333
0.9765625,-4.736348672007327e-05,-4.1020479806210446e-05,-3.75991359472038e-05,-3.0274403218127743e-05,3.7333,5.7333
0.98046875,-5.9573334134432e-05,-4.638763950255591e-05,-3.5647441512169096e-05,-2.246174688029299e-05,3.7333,5.7333
0.984375,-5.9573334134432e-05,-4.4923868676279865e-05,-3.2231976250858335e-05,-1.513701415121693e-05,3.7333,5.7333
0.98828125,-5.7133716090638606e-05,-2.294967048905167e-05,-2.5395167130540954e-05,-1.8070434401464894e-05,3.7333,5.7333
0.9921875,-5.810956330815597e-05,-1.2697396107423543e-05,-2.246174688029299e-05,-1.660666357518886e-05,3.7333,5.7333
0.99609375,-5.5176143057908e-05,-2.6858937956816985e-05,-1.1721548889906188e-05,-1.4649090542458252e-05,3.7333,5.7333
1.0,-6.3970525210956e-05,-3.1250250435645096e-05,3.903763785763303e-06,-1.2697396107423543e-05,3.7333,5.7333
1.00390625,-7.471072320134281e-05,-3.2231976250858335e-05,-1.6118739966430168e-05,-4.88473976958879e-06,3.7333,5.7333
1.0078125,-7.861411207141225e-05,-2.6858937956816985e-05,-1.4161166933699576e-05,-7.324357813382192e-06,3.7333,5.7333
1.01171875,-7.617449402761884e-05,-3.320782346837569e-05,-1.3185319716182221e-05,-1.7094587183947538e-05,3.7333,5.7333
1.015625,-7.080145573357749e-05,-3.6135365120927774e-05,-1.025777806363014e-05,-2.3931396304264923e-05,3.7333,5.7333
1.01953125,-7.275902876630809e-05,-1.4161166933699576e-05,2.927916568245948e-06,-2.0022128836499604e-05,3.7333,5.7333
1.0234375,-6.592221964599071e-05,-2.4451217257954025e-06,-3.4209689433127576e-06,-1.6118739966430168e-05,3.7333,5.7333
1.02734375,-6.494637242847335e-05,-1.563081635767149e-05,-4.88473976958879e-06,-1.9534205227740926e-05,3.7333,5.7333
1.03125,-7.031353212481882e-05,-1.9534205227740926e-05,-9.769854454871463e-06,-2.294967048905167e-05,3.7333,5.7333
1.03515625,-6.689806686350807e-05,-1.563081635767149e-05,-1.4161166933699576e-05,-1.660666357518886e-05,3.7333,5.7333
1.0390625,-6.054918135194935e-05,-1.6118739966430168e-05,-2.4451217257954025e-06,-1.3185319716182221e-05,3.7333,5.7333
1.04296875,-5.0296906970321214e-05,-8.30608362859543e-06,-6.348510595864823e-06,-1.4161166933699576e-05,3.7333,5.7333
1.046875,-4.541179228503854e-05,-4.88473976958879e-06,-7.324357813382192e-06,-1.7094587183947538e-05,3.7333,5.7333
1.05078125,-4.297217424124515e-05,-5.372663378347468e-06,6.343381829556705e-06,-1.9534205227740926e-05,3.7333,5.7333
1.0546875,-4.053255619745177e-05,-3.4209689433127576e-06,7.31922904707406e-06,-1.855835801022357e-05,3.7333,5.7333
1.05859375,-3.5647441512169096e-05,-8.794007237354109e-06,-7.324357813382192e-06,-1.7582510792706216e-05,3.7333,5.7333
1.0625,-3.6135365120927774e-05,-2.294967048905167e-05,-1.4692745082780476e-06,-1.855835801022357e-05,3.7333,5.7333
1.06640625,-4.1508403414969124e-05,-3.174405264209966e-05,-1.025777806363014e-05,-1.9046281618982247e-05,3.7333,5.7333
1.0703125,-4.4435945067521186e-05,-3.857498316472116e-05,-1.8070434401464894e-05,-2.294967048905167e-05,3.7333,5.7333
1.07421875,-4.638763950255591e-05,-2.881063239185171e-05,-2.9330453345540803e-06,-2.5883090739299632e-05,3.7333,5.7333
1.078125,-4.83452125352865e-05,-2.5883090739299632e-05,-9.769854454871463e-06,-2.1973823271534313e-05,3.7333,5.7333
1.08203125,-5.176067779659726e-05,-3.2231976250858335e-05,-1.2697396107423543e-05,-2.881063239185171e-05,3.7333,5.7333
1.0859375,-4.932105975280386e-05,-3.6135365120927774e-05,-2.1485899662775635e-05,-4.053255619745177e-05,3.7333,5.7333
1.08984375,-4.1508403414969124e-05,-2.881063239185171e-05,-3.369574707713438e-05,-3.320782346837569e-05,3.7333,5.7333
1.09375,-4.736348672007327e-05,-3.1250250435645096e-05,-4.053255619745177e-05,-2.9786479609369064e-05,3.7333,5.7333
1.09765625,-5.224860140535594e-05,-3.9550830382238515e-05,-3.75991359472038e-05,-2.9786479609369064e-05,3.7333,5.7333
1.1015625,-4.736348672007327e-05,-4.004463258869309e-05,-2.929855600061039e-05,-2.5395167130540954e-05,3.7333,5.7333
1.10546875,-4.053255619745177e-05,-2.9786479609369064e-05,-3.6623288729686445e-05,-3.174405264209966e-05,3.7333,5.7333
1.109375,-3.75991359472038e-05,-2.929855600061039e-05,-4.2484250632486474e-05,-3.515951790341042e-05,3.7333,5.7333
1.11328125,-3.5647441512169096e-05,-3.75991359472038e-05,-2.3931396304264923e-05,-2.881063239185171e-05,3.7333,5.7333
1.1171875,-3.369574707713438e-05,-2.1973823271534313e-05,-1.025777806363014e-05,-3.808705955596248e-05,3.7333,5.7333
1.12109375,-3.75991359472038e-05,-1.8070434401464894e-05,-1.660666357518886e-05,-5.1272754187838584e-05,3.7333,5.7333
1.125,-3.6623288729686445e-05,-2.0510052445258282e-05,-1.0745701672388818e-05,-3.9062906773479836e-05,3.7333,5.7333
1.12890625,-3.320782346837569e-05,-1.8070434401464894e-05,-1.9534205227740926e-05,-3.174405264209966e-05,3.7333,5.7333
1.1328125,-2.637101434805831e-05,-1.7094587183947538e-05,-2.3437594097810345e-05,-2.7346861565575663e-05,3.7333,5.7333
1.13671875,-2.7346861565575663e-05,-4.934272907606925e-07,-1.1721548889906188e-05,-2.783478517433434e-05,3.7333,5.7333
1.140625,-3.857498316472116e-05,4.879611003280658e-06,-3.908892552071435e-06,-4.346009785000383e-05,3.7333,5.7333
1.14453125,-3.75991359472038e-05,-1.9046281618982247e-05,-9.281930846112785e-06,-3.808705955596248e-05,3.7333,5.7333
1.1484375,-3.6623288729686445e-05,-3.467159429465174e-05,-2.9786479609369064e-05,-1.8070434401464894e-05,3.7333,5.7333
1.15234375,-4.541179228503854e-05,-3.1250250435645096e-05,-3.9550830382238515e-05,-1.8070434401464894e-05,3.7333,5.7333
1.15625,-5.7133716090638606e-05,-3.418367068589306e-05,-2.5395167130540954e-05,-2.6858937956816985e-05,3.7333,5.7333
1.16015625,-5.566406666666668e-05,-4.638763950255591e-05,-4.1508403414969124e-05,-2.0022128836499604e-05,3.7333,5.7333
1.1640625,-6.103710496070804e-05,-7.568657041886017e-05,-5.4688219449149325e-05,-1.513701415121693e-05,3.7333,5.7333
1.16796875,-8.545092119172963e-05,-9.27756539208057e-05,-4.687556311131459e-05,-2.9330453345540803e-06,3.7333,5.7333
1.171875,-7.568657041886017e-05,-5.273652501411462e-05,-1.7582510792706216e-05,5.367534612039336e-06,3.7333,5.7333
1.17578125,-7.275902876630809e-05,-4.19963270237278e-05,-1.1233625281147496e-05,-2.4451217257954025e-06,3.7333,5.7333
1.1796875,-7.861411207141225e-05,-5.0784830579079906e-05,-3.467159429465174e-05,-9.8135089951937e-07,3.7333,5.7333
1.18359375,-7.471072320134281e-05,-4.9808983361562536e-05,-2.5883090739299632e-05,-6.348510595864823e-06,3.7333,5.7333
1.1875,-7.568657041886017e-05,-4.4923868676279865e-05,-1.513701415121693e-05,-1.025777806363014e-05,3.7333,5.7333
1.19140625,-7.178318154879073e-05,-3.418367068589306e-05,-1.9534205227740926e-05,-8.30608362859543e-06,3.7333,5.7333
1.1953125,-6.592221964599071e-05,-2.9786479609369064e-05,-1.7094587183947538e-05,-1.3673243324940898e-05,3.7333,5.7333
1.19921875,-6.152502856946672e-05,-2.0022128836499604e-05,-7.818160019836752e-06,-1.513701415121693e-05,3.7333,5.7333
1.203125,-6.0061257743190675e-05,-2.4419319913023597e-05,-1.0745701672388818e-05,-1.1721548889906188e-05,3.7333,5.7333
1.20703125,-6.250087578698407e-05,-3.271989985961701e-05,-3.320782346837569e-05,-1.7582510792706216e-05,3.7333,5.7333
1.2109375,-6.298879939574274e-05,-3.320782346837569e-05,-3.320782346837569e-05,-2.4907243521782276e-05,3.7333,5.7333
1.21484375,-6.884976129854277e-05,-4.053255619745177e-05,-2.1485899662775635e-05,-2.3931396304264923e-05,3.7333,5.7333
1.21875,-6.689806686350807e-05,-3.418367068589306e-05,-3.857498316472116e-05,-2.4907243521782276e-05,3.7333,5.7333
1.22265625,-5.420029584039065e-05,-7.324357813382192e-06,-3.418367068589306e-05,-2.3931396304264923e-05,3.7333,5.7333
1.2265625,-5.615786887312125e-05,-2.4419319913023597e-05,-3.174405264209966e-05,-2.0510052445258282e-05,3.7333,5.7333
1.23046875,-6.054918135194935e-05,-4.2484250632486474e-05,-3.7111212338445124e-05,-2.4907243521782276e-05,3.7333,5.7333
1.234375,-5.32244486228733e-05,-2.7346861565575663e-05,-2.929855600061039e-05,-3.0762326826886424e-05,3.7333,5.7333
1.23828125,-5.762163969939729e-05,-2.6858937956816985e-05,-2.7346861565575663e-05,-3.271989985961701e-05,3.7333,5.7333
1.2421875,-5.810956330815597e-05,-2.929855600061039e-05,-2.0022128836499604e-05,-3.320782346837569e-05,3.7333,5.7333
1.24609375,-5.4688219449149325e-05,-3.2231976250858335e-05,-1.0745701672388818e-05,-2.4907243521782276e-05,3.7333,5.7333
1.25,-5.420029584039065e-05,-3.467159429465174e-05,-1.3673243324940898e-05,-2.3437594097810345e-05,3.7333,5.7333
1.25390625,-5.32244486228733e-05,-3.0762326826886424e-05,-1.3673243324940898e-05,-2.929855600061039e-05,3.7333,5.7333
1.2578125,-5.224860140535594e-05,-2.881063239185171e-05,-1.8070434401464894e-05,-3.5647441512169096e-05,3.7333,5.7333
1.26171875,-4.4435945067521186e-05,-3.0274403218127743e-05,-2.832270878309302e-05,-3.9550830382238515e-05,3.7333,5.7333
1.265625,-4.053255619745177e-05,-3.9550830382238515e-05,-3.418367068589306e-05,-3.5647441512169096e-05,3.7333,5.7333
1.26953125,-5.176067779659726e-05,-3.9550830382238515e-05,-2.3931396304264923e-05,-3.320782346837569e-05,3.7333,5.7333
1.2734375,-4.638763950255591e-05,-3.9062906773479836e-05,-2.0510052445258282e-05,-3.9550830382238515e-05,3.7333,5.7333
1.27734375,-4.785728892652783e-05,-4.2484250632486474e-05,-3.6623288729686445e-05,-4.4435945067521186e-05,3.7333,5.7333
1.28125,-5.0296906970321214e-05,-3.6135365120927774e-05,-4.053255619745177e-05,-4.638763950255591e-05,3.7333,5.7333
1.28515625,-4.4435945067521186e-05,-2.832270878309302e-05,-3.2231976250858335e-05,-4.541179228503854e-05,3.7333,5.7333
1.2890625,-4.883313614404518e-05,-3.2231976250858335e-05,-2.929855600061039e-05,-4.297217424124515e-05,3.7333,5.7333
1.29296875,-4.346009785000383e-05,-2.294967048905167e-05,-3.0762326826886424e-05,-4.297217424124515e-05,3.7333,5.7333
1.296875,-3.271989985961701e-05,-2.0510052445258282e-05,-2.6858937956816985e-05,-4.1020479806210446e-05,3.7333,5.7333
1.30078125,-3.5647441512169096e-05,-2.832270878309302e-05,-2.637101434805831e-05,-4.1508403414969124e-05,3.7333,5.7333
1.3046875,-3.6135365120927774e-05,-2.1973823271534313e-05,-3.271989985961701e-05,-4.053255619745177e-05,3.7333,5.7333
1.30859375,-3.2231976250858335e-05,-4.88473976958879e-06,-2.783478517433434e-05,-2.929855600061039e-05,3.7333,5.7333
1.3125,-3.0274403218127743e-05,-1.563081635767149e-05,-3.174405264209966e-05,-2.5883090739299632e-05,3.7333,5.7333
1.31640625,-4.053255619745177e-05,-2.6858937956816985e-05,-3.418367068589306e-05,-2.929855600061039e-05,3.7333,5.7333
1.3203125,-4.4923868676279865e-05,-1.855835801022357e-05,-3.174405264209966e-05,-2.9786479609369064e-05,3.7333,5.7333
1.32421875,-4.053255619745177e-05,-2.5395167130540954e-05,-3.515951790341042e-05,-3.418367068589306e-05,3.7333,5.7333
1.328125,-4.1508403414969124e-05,-3.515951790341042e-05,-4.5899715893797234e-05,-3.9550830382238515e-05,3.7333,5.7333
1.33203125,-3.857498316472116e-05,-4.297217424124515e-05,-4.785728892652783e-05,-3.6135365120927774e-05,3.7333,5.7333
1.3359375,-3.9062906773479836e-05,-4.004463258869309e-05,-2.4419319913023597e-05,-4.053255619745177e-05,3.7333,5.7333
1.33984375,-3.808705955596248e-05,-2.4907243521782276e-05,-1.1233625281147496e-05,-4.883313614404518e-05,3.7333,5.7333
1.34375,-3.418367068589306e-05,-2.1485899662775635e-05,-3.0274403218127743e-05,-4.19963270237278e-05,3.7333,5.7333
1.34765625,-3.271989985961701e-05,-3.467159429465174e-05,-3.5647441512169096e-05,-3.418367068589306e-05,3.7333,5.7333
1.3515625,-3.75991359472038e-05,-4.346009785000383e-05,-3.857498316472116e-05,-2.9786479609369064e-05,3.7333,5.7333
1.35546875,-4.1020479806210446e-05,-3.857498316472116e-05,-4.4923868676279865e-05,-2.832270878309302e-05,3.7333,5.7333
1.359375,-4.19963270237278e-05,-3.174405264209966e-05,-3.174405264209966e-05,-3.418367068589306e-05,3.7333,5.7333
1.36328125,-4.1508403414969124e-05,-2.637101434805831e-05,-2.1973823271534313e-05,-3.418367068589306e-05,3.7333,5.7333
1.3671875,-3.75991359472038e-05,-2.3931396304264923e-05,-2.5395167130540954e-05,-3.2231976250858335e-05,3.7333,5.7333
1.37109375,-3.7111212338445124e-05,-1.8070434401464894e-05,-2.0022128836499604e-05,-3.467159429465174e-05,3.7333,5.7333
1.375,-3.1250250435645096e-05,-2.3931396304264923e-05,-2.0997976054016957e-05,-3.1250250435645096e-05,3.7333,5.7333
1.37890625,-3.515951790341042e-05,-2.881063239185171e-05,-3.320782346837569e-05,-2.9786479609369064e-05,3.7333,5.7333
1.3828125,-4.1020479806210446e-05,-2.7346861565575663e-05,-3.418367068589306e-05,-3.0274403218127743e-05,3.7333,5.7333
1.38671875,-3.75991359472038e-05,-2.637101434805831e-05,-3.1250250435645096e-05,-3.271989985961701e-05,3.7333,5.7333
1.390625,-2.929855600061039e-05,-3.0762326826886424e-05,-3.2231976250858335e-05,-3.271989985961701e-05,3.7333,5.7333
1.39453125,-2.5883090739299632e-05,-2.3931396304264923e-05,-2.5395167130540954e-05,-3.418367068589306e-05,3.7333,5.7333
1.3984375,-2.929855600061039e-05,-2.4419319913023597e-05,-3.808705955596248e-05,-3.271989985961701e-05,3.7333,5.7333
1.40234375,-2.9786479609369064e-05,-3.6135365120927774e-05,-4.785728892652783e-05,-3.467159429465174e-05,3.7333,5.7333
1.40625,-3.857498316472116e-05,-3.271989985961701e-05,-4.932105975280386e-05,-4.83452125352865e-05,3.7333,5.7333
1.41015625,-4.1020479806210446e-05,-2.6858937956816985e-05,-4.687556311131459e-05,-4.9808983361562536e-05,3.7333,5.7333
1.4140625,-3.467159429465174e-05,-3.369574707713438e-05,-4.346009785000383e-05,-4.1020479806210446e-05,3.7333,5.7333
1.41796875,-3.271989985961701e-05,-4.1508403414969124e-05,-4.638763950255591e-05,-3.75991359472038e-05,3.7333,5.7333
1.421875,-2.6858937956816985e-05,-2.929855600061039e-05,-3.174405264209966e-05,-3.9550830382238515e-05,3.7333,5.7333
1.42578125,-2.637101434805831e-05,-2.783478517433434e-05,-2.881063239185171e-05,-3.808705955596248e-05,3.7333,5.7333
1.4296875,-3.0762326826886424e-05,-3.174405264209966e-05,-3.0274403218127743e-05,-3.0274403218127743e-05,3.7333,5.7333
1.43359375,-2.832270878309302e-05,-3.2231976250858335e-05,-1.2209472498664865e-05,-2.4907243521782276e-05,3.7333,5.7333
1.4375,-2.4907243521782276e-05,-3.369574707713438e-05,-1.6118739966430168e-05,-2.3931396304264923e-05,3.7333,5.7333
1.44140625,-2.1485899662775635e-05,-3.2231976250858335e-05,-6.836434204623515e-06,-2.832270878309302e-05,3.7333,5.7333
1.4453125,-2.0510052445258282e-05,-3.174405264209966e-05,-7.818160019836752e-06,-2.7346861565575663e-05,3.7333,5.7333
1.44921875,-2.4907243521782276e-05,-2.929855600061039e-05,-2.4907243521782276e-05,-3.0762326826886424e-05,3.7333,5.7333
1.453125,-3.0274403218127743e-05,-2.783478517433434e-05,-3.369574707713438e-05,-3.808705955596248e-05,3.7333,5.7333
1.45703125,-2.9786479609369064e-05,-3.1250250435645096e-05,-3.9062906773479836e-05,-3.2231976250858335e-05,3.7333,5.7333
1.4609375,-3.174405264209966e-05,-3.271989985961701e-05,-3.271989985961701e-05,-2.929855600061039e-05,3.7333,5.7333
1.46484375,-3.1250250435645096e-05,-3.174405264209966e-05,-3.808705955596248e-05,-3.320782346837569e-05,3.7333,5.7333
1.46875,-3.320782346837569e-05,-3.467159429465174e-05,-4.932105975280386e-05,-3.7111212338445124e-05,3.7333,5.7333
1.47265625,-4.053255619745177e-05,-3.857498316472116e-05,-4.297217424124515e-05,-3.75991359472038e-05,3.7333,5.7333
1.4765625,-3.857498316472116e-05,-4.004463258869309e-05,-4.5899715893797234e-05,-3.6623288729686445e-05,3.7333,5.7333
1.48046875,-4.004463258869309e-05,-3.7111212338445124e-05,-4.004463258869309e-05,-3.6623288729686445e-05,3.7333,5.7333
1.484375,-4.346009785000383e-05,-2.832270878309302e-05,-3.0762326826886424e-05,-3.6623288729686445e-05,3.7333,5.7333
1.48828125,-3.75991359472038e-05,-2.7346861565575663e-05,-3.0274403218127743e-05,-3.6623288729686445e-05,3.7333,5.7333
1.4921875,-3.808705955596248e-05,-3.0274403218127743e-05,-2.5883090739299632e-05,-3.320782346837569e-05,3.7333,5.7333
1.49609375,-3.9062906773479836e-05,-3.1250250435645096e-05,-2.1973823271534313e-05,-3.174405264209966e-05,3.7333,5.7333
1.5,-3.75991359472038e-05,-3.271989985961701e-05,-2.4907243521782276e-05,-3.5647441512169096e-05,3.7333,5.7333
1.50390625,-3.6135365120927774e-05,-3.0274403218127743e-05,-2.246174688029299e-05,-3.271989985961701e-05,3.7333,5.7333
1.5078125,-3.174405264209966e-05,-2.294967048905167e-05,-1.4649090542458252e-05,-2.7346861565575663e-05,3.7333,5.7333
1.51171875,-3.5647441512169096e-05,-2.0022128836499604e-05,-8.30608362859543e-06,-2.5883090739299632e-05,3.7333,5.7333
1.515625,-3.857498316472116e-05,-3.1250250435645096e-05,-8.30608362859543e-06,-3.0762326826886424e-05,3.7333,5.7333
1.51953125,-3.5647441512169096e-05,-4.053255619745177e-05,-1.513701415121693e-05,-3.5647441512169096e-05,3.7333,5.7333
1.5234375,-3.7111212338445124e-05,-2.929855600061039e-05,-2.1485899662775635e-05,-3.6135365120927774e-05,3.7333,5.7333
1.52734375,-3.808705955596248e-05,-3.2231976250858335e-05,-2.0510052445258282e-05,-3.418367068589306e-05,3.7333,5.7333
1.53125,-3.6623288729686445e-05,-3.9062906773479836e-05,-2.4907243521782276e-05,-3.6135365120927774e-05,3.7333,5.7333
1.53515625,-3.174405264209966e-05,-3.6135365120927774e-05,-2.9786479609369064e-05,-4.053255619745177e-05,3.7333,5.7333
1.5390625,-3.0762326826886424e-05,-3.515951790341042e-05,-2.783478517433434e-05,-3.857498316472116e-05,3.7333,5.7333
1.54296875,-3.1250250435645096e-05,-3.174405264209966e-05,-3.320782346837569e-05,-2.637101434805831e-05,3.7333,5.7333
1.546875,-3.75991359472038e-05,-3.9550830382238515e-05,-3.0762326826886424e-05,-2.6858937956816985e-05,3.7333,5.7333
1.55078125,-5.32244486228733e-05,-4.19963270237278e-05,-1.2209472498664865e-05,-1.8070434401464894e-05,3.7333,5.7333
1.5546875,-5.176067779659726e-05,-3.271989985961701e-05,-1.1721548889906188e-05,-1.3673243324940898e-05,3.7333,5.7333
1.55859375,-3.0274403218127743e-05,-4.1020479806210446e-05,-3.6135365120927774e-05,-3.5647441512169096e-05,3.7333,5.7333
1.5625,-1.4649090542458252e-05,-5.7133716090638606e-05,-5.9573334134432e-05,-4.4435945067521186e-05,3.7333,5.7333
1.56640625,-1.2209472498664865e-05,-6.982560851606014e-05,-8.496299758297096e-05,-3.75991359472038e-05,3.7333,5.7333
1.5703125,-1.513701415121693e-05,-6.884976129854277e-05,-9.47273483558404e-05,-4.394802145876251e-05,3.7333,5.7333
1.57421875,-1.0745701672388818e-05,-7.471072320134281e-05,-9.91245394323644e-05,-4.932105975280386e-05,3.7333,5.7333
1.578125,-4.88473976958879e-06,-9.47273483558404e-05,-0.00010498550133516442,-4.687556311131459e-05,3.7333,5.7333
1.58203125,1.9520693507285927e-06,-9.961246304112307e-05,-0.00012206870623941406,-4.19963270237278e-05,3.7333,5.7333
1.5859375,-2.9330453345540803e-06,-0.00010498550133516442,-0.00013329682783855954,-4.2484250632486474e-05,3.7333,5.7333
1.58984375,2.927916568245948e-06,-0.00011718947015182728,-0.00014159740778515298,-4.687556311131459e-05,3.7333,5.7333
1.59375,2.001700007019147e-05,-0.00012060493541313803,-0.00015087383494926377,-5.810956330815597e-05,3.7333,5.7333
1.59765625,1.855322924391544e-05,-0.00011718947015182728,-0.00015819856767833982,-6.298879939574274e-05,3.7333,5.7333
1.6015625,2.001700007019147e-05,-0.00011572569932555124,-0.0001586864912870985,-6.641014325474938e-05,3.7333,5.7333
1.60546875,2.2944541722743536e-05,-0.00011523777571679257,-0.00015184968216678111,-6.641014325474938e-05,3.7333,5.7333
1.609375,2.2944541722743536e-05,-0.00010205208108491646,-0.00015478310241702907,-6.0061257743190675e-05,3.7333,5.7333
1.61328125,2.3920388940260893e-05,-0.00010156415747615778,-0.00015917441489585716,-6.347672300450143e-05,3.7333,5.7333
1.6171875,3.0269274451819596e-05,-0.00011572569932555124,-0.00015917441489585716,-6.738599047226674e-05,3.7333,5.7333
1.62109375,3.3690618310826236e-05,-0.00011523777571679257,-0.00015234348437323568,-6.738599047226674e-05,3.7333,5.7333
1.625,2.9293427234302243e-05,-0.00010644927216144046,-0.00014159740778515298,-7.324695237506677e-05,3.7333,5.7333
1.62890625,2.4408312549019568e-05,-8.447507397421227e-05,-0.00013134513340352482,-7.227110515754942e-05,3.7333,5.7333
1.6328125,2.3920388940260893e-05,-6.738599047226674e-05,-0.000119141164586862,-6.3970525210956e-05,3.7333,5.7333
1.63671875,2.050492367895015e-05,-5.9085410525673325e-05,-9.961246304112307e-05,-6.445844881971467e-05,3.7333,5.7333
1.640625,1.07405729060807e-05,-5.420029584039065e-05,-8.496299758297096e-05,-6.250087578698407e-05,3.7333,5.7333
1.64453125,3.903763785763303e-06,-4.785728892652783e-05,-8.936018865949495e-05,-6.641014325474938e-05,3.7333,5.7333
1.6484375,-5.372663378347468e-06,-4.19963270237278e-05,-9.131188309452965e-05,-7.324695237506677e-05,3.7333,5.7333
1.65234375,-7.818160019836752e-06,-5.176067779659726e-05,-7.324695237506677e-05,-7.178318154879073e-05,3.7333,5.7333
1.65625,-2.9330453345540803e-06,-5.224860140535594e-05,-6.738599047226674e-05,-6.592221964599071e-05,3.7333,5.7333
1.66015625,-4.934272907606925e-07,-4.785728892652783e-05,-7.71503412451362e-05,-5.9085410525673325e-05,3.7333,5.7333
1.6640625,2.927916568245948e-06,-3.174405264209966e-05,-5.224860140535594e-05,-6.3970525210956e-05,3.7333,5.7333
1.66796875,-4.88473976958879e-06,-2.5395167130540954e-05,-3.467159429465174e-05,-5.7133716090638606e-05,3.7333,5.7333
1.671875,-6.836434204623515e-06,-2.246174688029299e-05,-4.638763950255591e-05,-4.687556311131459e-05,3.7333,5.7333
1.67578125,-4.396816160830113e-06,-3.0274403218127743e-05,-4.83452125352865e-05,-4.687556311131459e-05,3.7333,5.7333
1.6796875,-9.769854454871463e-06,-3.9550830382238515e-05,-4.5899715893797234e-05,-5.0784830579079906e-05,3.7333,5.7333
1.68359375,-1.1233625281147496e-05,-2.783478517433434e-05,-3.6135365120927774e-05,-5.859748691691465e-05,3.7333,5.7333
1.6875,-1.563081635767149e-05,-1.8070434401464894e-05,-3.9062906773479836e-05,-5.615786887312125e-05,3.7333,5.7333
1.69140625,-1.7582510792706216e-05,-1.660666357518886e-05,-3.9062906773479836e-05,-5.0784830579079906e-05,3.7333,5.7333
1.6953125,-1.4649090542458252e-05,-2.7346861565575663e-05,-3.75991359472038e-05,-4.541179228503854e-05,3.7333,5.7333
1.69921875,-2.1973823271534313e-05,-2.294967048905167e-05,-2.832270878309302e-05,-4.297217424124515e-05,3.7333,5.7333
1.703125,-3.418367068589306e-05,-1.4649090542458252e-05,-3.0274403218127743e-05,-5.0296906970321214e-05,3.7333,5.7333
1.70703125,-2.881063239185171e-05,-1.7582510792706216e-05,-3.6623288729686445e-05,-4.932105975280386e-05,3.7333,5.7333
1.7109375,-2.5883090739299632e-05,-1.513701415121693e-05,-2.246174688029299e-05,-4.9808983361562536e-05,3.7333,5.7333
1.71484375,-3.0274403218127743e-05,-9.8135089951937e-07,-1.9046281618982247e-05,-5.420029584039065e-05,3.7333,5.7333
1.71875,-2.881063239185171e-05,-3.4209689433127576e-06,-3.2231976250858335e-05,-5.1272754187838584e-05,3.7333,5.7333
1.72265625,-2.246174688029299e-05,-1.855835801022357e-05,-3.174405264209966e-05,-4.1508403414969124e-05,3.7333,5.7333
1.7265625,-1.1721548889906188e-05,-1.513701415121693e-05,-1.7582510792706216e-05,-3.6623288729686445e-05,3.7333,5.7333
1.73046875,-2.0997976054016957e-05,-1.660666357518886e-05,-1.4161166933699576e-05,-3.2231976250858335e-05,3.7333,5.7333
1.734375,-3.1250250435645096e-05,-1.3673243324940898e-05,-4.396816160830113e-06,-2.6858937956816985e-05,3.7333,5.7333
1.73828125,-2.0022128836499604e-05,-8.30608362859543e-06,-3.908892552071435e-06,-2.832270878309302e-05,3.7333,5.7333
1.7421875,-1.855835801022357e-05,-1.6118739966430168e-05,-1.7094587183947538e-05,-3.0274403218127743e-05,3.7333,5.7333
1.74609375,-2.5883090739299632e-05,-2.0997976054016957e-05,-2.4419319913023597e-05,-3.369574707713438e-05,3.7333,5.7333
1.75,-2.1973823271534313e-05,-1.513701415121693e-05,-2.1485899662775635e-05,-3.369574707713438e-05,3.7333,5.7333
1.75390625,-2.1485899662775635e-05,-2.0022128836499604e-05,-1.0745701672388818e-05,-3.369574707713438e-05,3.7333,5.7333
1.7578125,-3.2231976250858335e-05,-2.881063239185171e-05,-2.783478517433434e-05,-3.174405264209966e-05,3.7333,5.7333
1.76171875,-3.271989985961701e-05,-1.563081635767149e-05,-3.1250250435645096e-05,-2.9786479609369064e-05,3.7333,5.7333
1.765625,-3.6623288729686445e-05,-2.0022128836499604e-05,-2.5395167130540954e-05,-3.2231976250858335e-05,3.7333,5.7333
1.76953125,-3.9550830382238515e-05,-2.7346861565575663e-05,-2.637101434805831e-05,-3.467159429465174e-05,3.7333,5.7333
1.7734375,-3.515951790341042e-05,-2.294967048905167e-05,-2.7346861565575663e-05,-3.6623288729686445e-05,3.7333,5.7333
1.77734375,-2.9786479609369064e-05,-2.4907243521782276e-05,-3.271989985961701e-05,-3.6135365120927774e-05,3.7333,5.7333
1.78125,-2.881063239185171e-05,-1.855835801022357e-05,-3.2231976250858335e-05,-3.2231976250858335e-05,3.7333,5.7333
1.78515625,-2.881063239185171e-05,-2.9330453345540803e-06,-3.808705955596248e-05,-3.0274403218127743e-05,3.7333,5.7333
1.7890625,-2.6858937956816985e-05,-2.5883090739299632e-05,-3.857498316472116e-05,-3.5647441512169096e-05,3.7333,5.7333
1.79296875,-2.4907243521782276e-05,-2.6858937956816985e-05,-3.174405264209966e-05,-4.4923868676279865e-05,3.7333,5.7333
1.796875,-2.5883090739299632e-05,-1.7094587183947538e-05,-2.6858937956816985e-05,-3.9550830382238515e-05,3.7333,5.7333
1.80078125,-2.3931396304264923e-05,-2.881063239185171e-05,-3.0762326826886424e-05,-2.881063239185171e-05,3.7333,5.7333
1.8046875,-2.4419319913023597e-05,-2.3931396304264923e-05,-2.832270878309302e-05,-3.0274403218127743e-05,3.7333,5.7333
1.80859375,-2.5883090739299632e-05,-2.0997976054016957e-05,-3.271989985961701e-05,-3.369574707713438e-05,3.7333,5.7333
1.8125,-3.1250250435645096e-05,-2.1973823271534313e-05,-3.320782346837569e-05,-3.320782346837569e-05,3.7333,5.7333
1.81640625,-3.9550830382238515e-05,-2.3437594097810345e-05,-2.5883090739299632e-05,-2.9786479609369064e-05,3.7333,5.7333
1.8203125,-4.346009785000383e-05,-2.832270878309302e-05,-3.0274403218127743e-05,-3.369574707713438e-05,3.7333,5.7333
1.82421875,-4.83452125352865e-05,-3.6135365120927774e-05,-4.1020479806210446e-05,-4.1020479806210446e-05,3.7333,5.7333
1.828125,-5.1272754187838584e-05,-3.6623288729686445e-05,-3.808705955596248e-05,-3.5647441512169096e-05,3.7333,5.7333
1.83203125,-4.883313614404518e-05,-3.515951790341042e-05,-2.4419319913023597e-05,-3.7111212338445124e-05,3.7333,5.7333
1.8359375,-4.004463258869309e-05,-3.808705955596248e-05,-3.369574707713438e-05,-4.1508403414969124e-05,3.7333,5.7333
1.83984375,-3.5647441512169096e-05,-3.418367068589306e-05,-3.7111212338445124e-05,-3.808705955596248e-05,3.7333,5.7333
1.84375,-3.808705955596248e-05,-3.320782346837569e-05,-2.929855600061039e-05,-3.6135365120927774e-05,3.7333,5.7333
1.84765625,-3.467159429465174e-05,-2.881063239185171e-05,-4.1508403414969124e-05,-3.6623288729686445e-05,3.7333,5.7333
1.8515625,-3.467159429465174e-05,-2.783478517433434e-05,-5.0296906970321214e-05,-3.5647441512169096e-05,3.7333,5.7333
1.85546875,-3.5647441512169096e-05,-2.881063239185171e-05,-4.1508403414969124e-05,-3.369574707713438e-05,3.7333,5.7333
1.859375,-3.857498316472116e-05,-3.369574707713438e-05,-4.736348672007327e-05,-3.320782346837569e-05,3.7333,5.7333
1.86328125,-4.394802145876251e-05,-4.053255619745177e-05,-4.883313614404518e-05,-3.0274403218127743e-05,3.7333,5.7333
1.8671875,-4.346009785000383e-05,-3.515951790341042e-05,-4.2484250632486474e-05,-3.418367068589306e-05,3.7333,5.7333
1.87109375,-4.4923868676279865e-05,-3.808705955596248e-05,-3.9550830382238515e-05,-4.1020479806210446e-05,3.7333,5.7333
1.875,-4.2484250632486474e-05,-3.467159429465174e-05,-2.929855600061039e-05,-3.5647441512169096e-05,3.7333,5.7333
1.87890625,-3.75991359472038e-05,-3.369574707713438e-05,-3.271989985961701e-05,-3.320782346837569e-05,3.7333,5.7333
1.8828125,-3.5647441512169096e-05,-3.320782346837569e-05,-3.6623288729686445e-05,-3.515951790341042e-05,3.7333,5.7333
1.88671875,-3.5647441512169096e-05,-3.174405264209966e-05,-2.881063239185171e-05,-3.7111212338445124e-05,3.7333,5.7333
1.890625,-3.320782346837569e-05,-3.369574707713438e-05,-2.783478517433434e-05,-4.1508403414969124e-05,3.7333,5.7333
1.89453125,-3.808705955596248e-05,-3.467159429465174e-05,-2.881063239185171e-05,-3.6135365120927774e-05,3.7333,5.7333
1.8984375,-4.1020479806210446e-05,-3.320782346837569e-05,-3.271989985961701e-05,-2.929855600061039e-05,3.7333,5.7333
1.90234375,-3.418367068589306e-05,-2.783478517433434e-05,-3.0762326826886424e-05,-2.637101434805831e-05,3.7333,5.7333
1.90625,-4.004463258869309e-05,-2.4907243521782276e-05,-2.5883090739299632e-05,-2.3437594097810345e-05,3.7333,5.7333
1.91015625,-3.9062906773479836e-05,-3.0762326826886424e-05,-3.0762326826886424e-05,-2.832270878309302e-05,3.7333,5.7333
1.9140625,-3.369574707713438e-05,-3.857498316472116e-05,-2.1485899662775635e-05,-3.418367068589306e-05,3.7333,5.7333
1.91796875,-4.004463258869309e-05,-3.75991359472038e-05,-2.7346861565575663e-05,-3.369574707713438e-05,3.7333,5.7333
1.921875,-3.9550830382238515e-05,-3.9550830382238515e-05,-4.1020479806210446e-05,-2.7346861565575663e-05,3.7333,5.7333
1.92578125,-3.0762326826886424e-05,-4.004463258869309e-05,-3.808705955596248e-05,-2.881063239185171e-05,3.7333,5.7333
1.9296875,-3.2231976250858335e-05,-4.297217424124515e-05,-4.346009785000383e-05,-2.9786479609369064e-05,3.7333,5.7333
1.93359375,-4.541179228503854e-05,-4.2484250632486474e-05,-3.9062906773479836e-05,-2.3931396304264923e-05,3.7333,5.7333
1.9375,-4.19963270237278e-05,-3.6623288729686445e-05,-3.418367068589306e-05,-2.246174688029299e-05,3.7333,5.7333
1.94140625,-3.9062906773479836e-05,-3.2231976250858335e-05,-5.0296906970321214e-05,-2.6858937956816985e-05,3.7333,5.7333
1.9453125,-3.5647441512169096e-05,-3.174405264209966e-05,-4.4435945067521186e-05,-2.783478517433434e-05,3.7333,5.7333
1.94921875,-3.174405264209966e-05,-3.5647441512169096e-05,-2.881063239185171e-05,-2.929855600061039e-05,3.7333,5.7333
1.953125,-3.9062906773479836e-05,-3.6623288729686445e-05,-3.5647441512169096e-05,-3.174405264209966e-05,3.7333,5.7333
1.95703125,-3.75991359472038e-05,-3.369574707713438e-05,-3.808705955596248e-05,-3.515951790341042e-05,3.7333,5.7333
1.9609375,-4.053255619745177e-05,-2.3437594097810345e-05,-2.6858937956816985e-05,-3.5647441512169096e-05,3.7333,5.7333
1.96484375,-3.6135365120927774e-05,-2.246174688029299e-05,-3.369574707713438e-05,-2.9786479609369064e-05,3.7333,5.7333
1.96875,-2.6858937956816985e-05,-4.297217424124515e-05,-4.883313614404518e-05,-3.6135365120927774e-05,3.7333,5.7333
1.97265625,-3.467159429465174e-05,-3.9550830382238515e-05,-4.5899715893797234e-05,-4.394802145876251e-05,3.7333,5.7333
1.9765625,-4.1020479806210446e-05,-2.881063239185171e-05,-4.297217424124515e-05,-4.394802145876251e-05,3.7333,5.7333
1.98046875,-3.7111212338445124e-05,-2.9786479609369064e-05,-3.75991359472038e-05,-4.19963270237278e-05,3.7333,5.7333
1.984375,-3.6623288729686445e-05,-3.174405264209966e-05,-2.881063239185171e-05,-3.7111212338445124e-05,3.7333,5.7333
1.98828125,-4.4923868676279865e-05,-2.929855600061039e-05,-2.881063239185171e-05,-2.9786479609369064e-05,3.7333,5.7333
1.9921875,-4.4435945067521186e-05,-1.7094587183947538e-05,-2.783478517433434e-05,-2.6858937956816985e-05,3.7333,5.7333
1.99609375,-3.6623288729686445e-05,-1.4649090542458252e-05,-1.2209472498664865e-05,-2.9786479609369064e-05,3.7333,5.7333
2.0,-3.0274403218127743e-05,-2.1485899662775635e-05,-2.1485899662775635e-05,-3.271989985961701e-05,3.7333,5.7333
2.00390625,-3.0762326826886424e-05,-2.246174688029299e-05,-3.7111212338445124e-05,-3.369574707713438e-05,3.7333,5.7333
2.0078125,-3.271989985961701e-05,-1.855835801022357e-05,-1.660666357518886e-05,-3.174405264209966e-05,3.7333,5.7333
2.01171875,-3.2231976250858335e-05,-1.9534205227740926e-05,-1.0745701672388818e-05,-2.5395167130540954e-05,3.7333,5.7333
2.015625,-3.174405264209966e-05,-2.0997976054016957e-05,-1.1721548889906188e-05,-2.4419319913023597e-05,3.7333,5.7333
2.01953125,-3.418367068589306e-05,-2.0022128836499604e-05,-1.7582510792706216e-05,-2.832270878309302e-05,3.7333,5.7333
2.0234375,-3.271989985961701e-05,-2.0997976054016957e-05,-3.320782346837569e-05,-2.832270878309302e-05,3.7333,5.7333
2.02734375,-3.1250250435645096e-05,-1.855835801022357e-05,-3.174405264209966e-05,-2.6858937956816985e-05,3.7333,5.7333
2.03125,-3.369574707713438e-05,-1.563081635767149e-05,-2.6858937956816985e-05,-2.3437594097810345e-05,3.7333,5.7333
2.03515625,-3.857498316472116e-05,-2.246174688029299e-05,-3.320782346837569e-05,-2.4419319913023597e-05,3.7333,5.7333
2.0390625,-4.346009785000383e-05,-2.832270878309302e-05,-3.369574707713438e-05,-2.783478517433434e-05,3.7333,5.7333
2.04296875,-4.4923868676279865e-05,-2.929855600061039e-05,-2.637101434805831e-05,-2.6858937956816985e-05,3.7333,5.7333
2.046875,-3.174405264209966e-05,-2.637101434805831e-05,-2.9786479609369064e-05,-2.4907243521782276e-05,3.7333,5.7333
2.05078125,-2.637101434805831e-05,-3.515951790341042e-05,-2.929855600061039e-05,-3.6623288729686445e-05,3.7333,5.7333
2.0546875,-3.320782346837569e-05,-4.1020479806210446e-05,-3.0762326826886424e-05,-5.5176143057908e-05,3.7333,5.7333
2.05859375,-3.174405264209966e-05,-3.9550830382238515e-05,-3.1250250435645096e-05,-3.9062906773479836e-05,3.7333,5.7333
2.0625,-3.9062906773479836e-05,-4.394802145876251e-05,-3.369574707713438e-05,-1.9534205227740926e-05,3.7333,5.7333
2.06640625,-4.297217424124515e-05,-4.297217424124515e-05,-4.785728892652783e-05,-2.5395167130540954e-05,3.7333,5.7333
2.0703125,-3.6623288729686445e-05,-2.783478517433434e-05,-3.320782346837569e-05,-3.1250250435645096e-05,3.7333,5.7333
2.07421875,-3.369574707713438e-05,-2.4419319913023597e-05,-2.1485899662775635e-05,-2.929855600061039e-05,3.7333,5.7333
2.078125,-3.0274403218127743e-05,-3.0274403218127743e-05,-3.5647441512169096e-05,-2.637101434805831e-05,3.7333,5.7333
2.08203125,-3.0274403218127743e-05,-1.9046281618982247e-05,-2.6858937956816985e-05,-2.929855600061039e-05,3.7333,5.7333
2.0859375,-3.1250250435645096e-05,-2.637101434805831e-05,-8.30608362859543e-06,-2.929855600061039e-05,3.7333,5.7333
2.08984375,-3.0762326826886424e-05,-4.19963270237278e-05,-1.6118739966430168e-05,-2.246174688029299e-05,3.7333,5.7333
2.09375,-3.9550830382238515e-05,-3.9062906773479836e-05,-1.660666357518886e-05,-2.4419319913023597e-05,3.7333,5.7333
2.09765625,-5.5176143057908e-05,-3.1250250435645096e-05,3.415840177004625e-06,-3.0762326826886424e-05,3.7333,5.7333
2.1015625,-6.103710496070804e-05,-2.3437594097810345e-05,-1.1721548889906188e-05,-2.294967048905167e-05,3.7333,5.7333
2.10546875,-5.420029584039065e-05,-4.4435945067521186e-05,-3.9550830382238515e-05,-2.4419319913023597e-05,3.7333,5.7333
2.109375,-3.271989985961701e-05,-5.7133716090638606e-05,-4.053255619745177e-05,-4.5899715893797234e-05,3.7333,5.7333
2.11328125,-2.4419319913023597e-05,-3.857498316472116e-05,-3.271989985961701e-05,-5.273652501411462e-05,3.7333,5.7333
2.1171875,-3.2231976250858335e-05,-3.320782346837569e-05,-3.808705955596248e-05,-5.176067779659726e-05,3.7333,5.7333
2.12109375,-2.929855600061039e-05,-3.369574707713438e-05,-3.418367068589306e-05,-4.638763950255591e-05,3.7333,5.7333
2.125,-2.9786479609369064e-05,-2.6858937956816985e-05,-2.4907243521782276e-05,-3.9062906773479836e-05,3.7333,5.7333
2.12890625,-4.004463258869309e-05,-2.5883090739299632e-05,-2.0510052445258282e-05,-3.6135365120927774e-05,3.7333,5.7333
2.1328125,-3.6135365120927774e-05,-2.3931396304264923e-05,-1.1233625281147496e-05,-3.418367068589306e-05,3.7333,5.7333
2.13671875,-3.369574707713438e-05,-3.0274403218127743e-05,-1.7582510792706216e-05,-3.7111212338445124e-05,3.7333,5.7333
2.140625,-3.857498316472116e-05,-2.3931396304264923e-05,-2.6858937956816985e-05,-3.5647441512169096e-05,3.7333,5.7333
2.14453125,-3.75991359472038e-05,-1.563081635767149e-05,-2.0022128836499604e-05,-3.174405264209966e-05,3.7333,5.7333
2.1484375,-3.7111212338445124e-05,-2.0022128836499604e-05,-7.818160019836752e-06,-3.1250250435645096e-05,3.7333,5.7333
2.15234375,-3.6623288729686445e-05,-2.246174688029299e-05,-1.4161166933699576e-05,-3.418367068589306e-05,3.7333,5.7333
2.15625,-3.9550830382238515e-05,-2.0510052445258282e-05,-1.6118739966430168e-05,-3.418367068589306e-05,3.7333,5.7333
2.16015625,-3.75991359472038e-05,-1.563081635767149e-05,-1.660666357518886e-05,-2.929855600061039e-05,3.7333,5.7333
2.1640625,-3.0762326826886424e-05,-1.1233625281147496e-05,-1.4161166933699576e-05,-3.174405264209966e-05,3.7333,5.7333
2.16796875,-3.1250250435645096e-05,-1.2209472498664865e-05,-8.30608362859543e-06,-3.0762326826886424e-05,3.7333,5.7333
2.171875,-2.783478517433434e-05,-1.4649090542458252e-05,-5.860586987106146e-06,-2.881063239185171e-05,3.7333,5.7333
2.17578125,-2.637101434805831e-05,-1.2697396107423543e-05,-5.372663378347468e-06,-2.9786479609369064e-05,3.7333,5.7333
2.1796875,-2.637101434805831e-05,-4.396816160830113e-06,-1.4161166933699576e-05,-2.294967048905167e-05,3.7333,5.7333
2.18359375,-2.5883090739299632e-05,-1.660666357518886e-05,-2.246174688029299e-05,-1.9534205227740926e-05,3.7333,5.7333
2.1875,-2.783478517433434e-05,-2.832270878309302e-05,-1.855835801022357e-05,-2.7346861565575663e-05,3.7333,5.7333
2.19140625,-3.808705955596248e-05,-2.294967048905167e-05,-1.6118739966430168e-05,-2.832270878309302e-05,3.7333,5.7333
2.1953125,-3.857498316472116e-05,-2.294967048905167e-05,-1.8070434401464894e-05,-2.4419319913023597e-05,3.7333,5.7333
2.19921875,-3.320782346837569e-05,-2.4419319913023597e-05,-2.3931396304264923e-05,-2.5395167130540954e-05,3.7333,5.7333
2.203125,-4.004463258869309e-05,-2.832270878309302e-05,-2.4907243521782276e-05,-3.0762326826886424e-05,3.7333,5.7333
2.20703125,-3.9062906773479836e-05,-2.832270878309302e-05,-2.5395167130540954e-05,-3.5647441512169096e-05,3.7333,5.7333
2.2109375,-4.4435945067521186e-05,-1.9046281618982247e-05,-2.3931396304264923e-05,-3.320782346837569e-05,3.7333,5.7333
2.21484375,-5.176067779659726e-05,-2.294967048905167e-05,-1.855835801022357e-05,-3.2231976250858335e-05,3.7333,5.7333
2.21875,-3.7111212338445124e-05,-3.1250250435645096e-05,-3.2231976250858335e-05,-2.783478517433434e-05,3.7333,5.7333
2.22265625,-2.832270878309302e-05,-2.783478517433434e-05,-3.320782346837569e-05,-2.832270878309302e-05,3.7333,5.7333
2.2265625,-3.467159429465174e-05,-3.2231976250858335e-05,-2.637101434805831e-05,-3.271989985961701e-05,3.7333,5.7333
2.23046875,-3.6135365120927774e-05,-3.418367068589306e-05,-2.4907243521782276e-05,-3.5647441512169096e-05,3.7333,5.7333
2.234375,-3.515951790341042e-05,-2.3437594097810345e-05,-2.3931396304264923e-05,-3.515951790341042e-05,3.7333,5.7333
2.23828125,-2.832270878309302e-05,-2.9786479609369064e-05,-1.563081635767149e-05,-3.174405264209966e-05,3.7333,5.7333
2.2421875,-3.174405264209966e-05,-3.271989985961701e-05,-1.3673243324940898e-05,-3.174405264209966e-05,3.7333,5.7333
2.24609375,-3.467159429465174e-05,-2.881063239185171e-05,-2.246174688029299e-05,-3.320782346837569e-05,3.7333,5.7333
2.25,-3.174405264209966e-05,-3.174405264209966e-05,-3.418367068589306e-05,-3.857498316472116e-05,3.7333,5.7333
2.25390625,-4.19963270237278e-05,-3.1250250435645096e-05,-3.6623288729686445e-05,-3.9550830382238515e-05,3.7333,5.7333
2.2578125,-4.83452125352865e-05,-2.881063239185171e-05,-3.320782346837569e-05,-3.857498316472116e-05,3.7333,5.7333
2.26171875,-4.297217424124515e-05,-2.0997976054016957e-05,-3.9062906773479836e-05,-3.174405264209966e-05,3.7333,5.7333
2.265625,-3.6135365120927774e-05,-2.929855600061039e-05,-3.320782346837569e-05,-1.9534205227740926e-05,3.7333,5.7333
2.26953125,-4.004463258869309e-05,-2.7346861565575663e-05,-2.7346861565575663e-05,-2.783478517433434e-05,3.7333,5.7333
2.2734375,-4.1508403414969124e-05,-2.5883090739299632e-05,-3.6623288729686445e-05,-3.2231976250858335e-05,3.7333,5.7333
2.27734375,-4.394802145876251e-05,-3.467159429465174e-05,-4.5899715893797234e-05,-3.0762326826886424e-05,3.7333,5.7333
2.28125,-4.1508403414969124e-05,-3.320782346837569e-05,-4.004463258869309e-05,-3.2231976250858335e-05,3.7333,5.7333
2.28515625,-3.2231976250858335e-05,-2.637101434805831e-05,-2.929855600061039e-05,-2.929855600061039e-05,3.7333,5.7333
2.2890625,-3.6135365120927774e-05,-2.929855600061039e-05,-2.832270878309302e-05,-3.0762326826886424e-05,3.7333,5.7333
2.29296875,-4.1020479806210446e-05,-3.467159429465174e-05,-5.859748691691465e-05,-3.1250250435645096e-05,3.7333,5.7333
2.296875,-4.2484250632486474e-05,-3.467159429465174e-05,-5.0296906970321214e-05,-2.1973823271534313e-05,3.7333,5.7333
2.30078125,-4.346009785000383e-05,-3.515951790341042e-05,-1.4161166933699576e-05,-1.7094587183947538e-05,3.7333,5.7333
2.3046875,-3.857498316472116e-05,-3.6623288729686445e-05,-1.855835801022357e-05,-2.294967048905167e-05,3.7333,5.7333
2.30859375,-3.9550830382238515e-05,-2.881063239185171e-05,-2.637101434805831e-05,-2.0997976054016957e-05,3.7333,5.7333
2.3125,-4.1020479806210446e-05,-1.9534205227740926e-05,-2.3931396304264923e-05,-1.0745701672388818e-05,3.7333,5.7333
2.31640625,-3.467159429465174e-05,-2.0510052445258282e-05,-2.9786479609369064e-05,-1.2697396107423543e-05,3.7333,5.7333
2.3203125,-2.7346861565575663e-05,-2.294967048905167e-05,-2.832270878309302e-05,-2.5883090739299632e-05,3.7333,5.7333
2.32421875,-2.294967048905167e-05,-1.9534205227740926e-05,-3.369574707713438e-05,-3.75991359472038e-05,3.7333,5.7333
2.328125,-2.4419319913023597e-05,-1.4649090542458252e-05,-1.2209472498664865e-05,-3.9062906773479836e-05,3.7333,5.7333
2.33203125,-2.246174688029299e-05,-2.246174688029299e-05,-1.513701415121693e-05,-2.9786479609369064e-05,3.7333,5.7333
2.3359375,-2.832270878309302e-05,-3.515951790341042e-05,-3.9062906773479836e-05,-2.3437594097810345e-05,3.7333,5.7333
2.33984375,-4.1020479806210446e-05,-4.004463258869309e-05,-3.467159429465174e-05,-2.3931396304264923e-05,3.7333,5.7333
2.34375,-3.808705955596248e-05,-4.736348672007327e-05,-5.0784830579079906e-05,-2.832270878309302e-05,3.7333,5.7333
2.34765625,-4.1020479806210446e-05,-5.615786887312125e-05,-7.031353212481882e-05,-3.515951790341042e-05,3.7333,5.7333
2.3515625,-4.19963270237278e-05,-4.687556311131459e-05,-4.394802145876251e-05,-4.346009785000383e-05,3.7333,5.7333
2.35546875,-3.5647441512169096e-05,-3.2231976250858335e-05,-2.929855600061039e-05,-4.2484250632486474e-05,3.7333,5.7333
2.359375,-3.6623288729686445e-05,-3.7111212338445124e-05,-2.4907243521782276e-05,-3.467159429465174e-05,3.7333,5.7333
2.36328125,-3.7111212338445124e-05,-4.1020479806210446e-05,-2.783478517433434e-05,-3.1250250435645096e-05,3.7333,5.7333
2.3671875,-3.857498316472116e-05,-3.75991359472038e-05,-4.5899715893797234e-05,-2.881063239185171e-05,3.7333,5.7333
2.37109375,-3.5647441512169096e-05,-4.297217424124515e-05,-2.832270878309302e-05,-2.881063239185171e-05,3.7333,5.7333
2.375,-3.467159429465174e-05,-4.346009785000383e-05,-2.5395167130540954e-05,-3.271989985961701e-05,3.7333,5.7333
2.37890625,-4.004463258869309e-05,-3.7111212338445124e-05,-2.881063239185171e-05,-3.467159429465174e-05,3.7333,5.7333
2.3828125,-4.19963270237278e-05,-4.004463258869309e-05,-3.320782346837569e-05,-3.369574707713438e-05,3.7333,5.7333
2.38671875,-4.346009785000383e-05,-4.638763950255591e-05,-5.420029584039065e-05,-3.0274403218127743e-05,3.7333,5.7333
2.390625,-4.4435945067521186e-05,-4.19963270237278e-05,-3.808705955596248e-05,-3.271989985961701e-05,3.7333,5.7333
2.39453125,-4.83452125352865e-05,-3.6623288729686445e-05,-1.9046281618982247e-05,-4.004463258869309e-05,3.7333,5.7333
2.3984375,-4.2484250632486474e-05,-4.2484250632486474e-05,-3.271989985961701e-05,-4.1020479806210446e-05,3.7333,5.7333
2.40234375,-4.394802145876251e-05,-4.346009785000383e-05,-4.2484250632486474e-05,-4.346009785000383e-05,3.7333,5.7333
2.40625,-4.736348672007327e-05,-3.515951790341042e-05,-6.250087578698407e-05,-4.2484250632486474e-05,3.7333,5.7333
2.41015625,-3.369574707713438e-05,-3.0274403218127743e-05,-5.1272754187838584e-05,-3.5647441512169096e-05,3.7333,5.7333
2.4140625,-2.9786479609369064e-05,-3.7111212338445124e-05,-2.1973823271534313e-05,-3.0274403218127743e-05,3.7333,5.7333
2.41796875,-3.5647441512169096e-05,-4.19963270237278e-05,-2.783478517433434e-05,-3.467159429465174e-05,3.7333,5.7333
2.421875,-3.6623288729686445e-05,-3.75991359472038e-05,-4.638763950255591e-05,-4.785728892652783e-05,3.7333,5.7333
2.42578125,-3.418367068589306e-05,-2.5395167130540954e-05,-3.0762326826886424e-05,-3.2231976250858335e-05,3.7333,5.7333
2.4296875,-3.6623288729686445e-05,-1.660666357518886e-05,-2.4907243521782276e-05,-1.4649090542458252e-05,3.7333,5.7333
2.43359375,-3.515951790341042e-05,-2.637101434805831e-05,-5.615786887312125e-05,-2.294967048905167e-05,3.7333,5.7333
2.4375,-2.3437594097810345e-05,-2.6858937956816985e-05,-4.004463258869309e-05,-2.3931396304264923e-05,3.7333,5.7333
2.44140625,-1.9534205227740926e-05,-3.6623288729686445e-05,-3.271989985961701e-05,-1.9046281618982247e-05,3.7333,5.7333
2.4453125,-2.3931396304264923e-05,-4.736348672007327e-05,-3.857498316472116e-05,-2.0022128836499604e-05,3.7333,5.7333
2.44921875,-3.467159429465174e-05,-4.4435945067521186e-05,-3.369574707713438e-05,-1.9046281618982247e-05,3.7333,5.7333
2.453125,-3.857498316472116e-05,-4.2484250632486474e-05,-1.9534205227740926e-05,-1.9534205227740926e-05,3.7333,5.7333
2.45703125,-4.004463258869309e-05,-4.19963270237278e-05,-2.881063239185171e-05,-2.7346861565575663e-05,3.7333,5.7333
2.4609375,-4.346009785000383e-05,-4.2484250632486474e-05,-3.467159429465174e-05,-2.832270878309302e-05,3.7333,5.7333
2.46484375,-3.467159429465174e-05,-4.19963270237278e-05,-2.0022128836499604e-05,-2.881063239185171e-05,3.7333,5.7333
2.46875,-3.0274403218127743e-05,-3.857498316472116e-05,-3.9550830382238515e-05,-3.271989985961701e-05,3.7333,5.7333
2.47265625,-4.1020479806210446e-05,-3.271989985961701e-05,-7.178318154879073e-05,-3.515951790341042e-05,3.7333,5.7333
2.4765625,-4.19963270237278e-05,-3.320782346837569e-05,-7.080145573357749e-05,-4.2484250632486474e-05,3.7333,5.7333
2.48046875,-4.19963270237278e-05,-5.0784830579079906e-05,-2.4907243521782276e-05,-3.808705955596248e-05,3.7333,5.7333
2.484375,-4.1508403414969124e-05,-5.32244486228733e-05,-2.0997976054016957e-05,-2.9786479609369064e-05,3.7333,5.7333
2.48828125,-4.004463258869309e-05,-3.418367068589306e-05,-6.982560851606014e-05,-3.174405264209966e-05,3.7333,5.7333
2.4921875,-4.4435945067521186e-05,-3.1250250435645096e-05,-3.857498316472116e-05,-3.6135365120927774e-05,3.7333,5.7333
2.49609375,-4.4923868676279865e-05,-3.1250250435645096e-05,-1.3185319716182221e-05,-3.515951790341042e-05,3.7333,5.7333
2.5,-4.2484250632486474e-05,-3.174405264209966e-05,-6.787391408102541e-05,-3.2231976250858335e-05,3.7333,5.7333
2.50390625,-4.297217424124515e-05,-4.053255619745177e-05,-9.131188309452965e-05,-4.932105975280386e-05,3.7333,5.7333
2.5078125,-5.1272754187838584e-05,-2.5883090739299632e-05,-3.418367068589306e-05,-4.9808983361562536e-05,3.7333,5.7333
2.51171875,-4.4435945067521186e-05,-2.637101434805831e-05,-1.563081635767149e-05,-3.467159429465174e-05,3.7333,5.7333
2.515625,-3.6623288729686445e-05,-4.1508403414969124e-05,-8.203545593041888e-05,-4.297217424124515e-05,3.7333,5.7333
2.51953125,-4.004463258869309e-05,-4.83452125352865e-05,-5.32244486228733e-05,-4.346009785000383e-05,3.7333,5.7333
2.5234375,-4.1508403414969124e-05,-4.883313614404518e-05,-5.9573334134432e-05,-4.1020479806210446e-05,3.7333,5.7333
2.52734375,-3.9550830382238515e-05,-4.1508403414969124e-05,-5.9085410525673325e-05,-3.6135365120927774e-05,3.7333,5.7333
2.53125,-3.857498316472116e-05,-3.418367068589306e-05,-1.3673243324940898e-05,-3.75991359472038e-05,3.7333,5.7333
2.53515625,-4.053255619745177e-05,-4.1020479806210446e-05,-1.4649090542458252e-05,-5.273652501411462e-05,3.7333,5.7333
2.5390625,-3.467159429465174e-05,-4.053255619745177e-05,-2.4419319913023597e-05,-5.5176143057908e-05,3.7333,5.7333
2.54296875,-3.369574707713438e-05,-4.638763950255591e-05,-1.660666357518886e-05,-3.808705955596248e-05,3.7333,5.7333
2.546875,-3.418367068589306e-05,-4.19963270237278e-05,-2.0022128836499604e-05,-2.5883090739299632e-05,3.7333,5.7333
2.55078125,-2.7346861565575663e-05,-3.271989985961701e-05,-2.637101434805831e-05,-2.0997976054016957e-05,3.7333,5.7333
2.5546875,-2.4419319913023597e-05,-3.1250250435645096e-05,-3.6623288729686445e-05,-1.9534205227740926e-05,3.7333,5.7333
2.55859375,-3.369574707713438e-05,-3.271989985961701e-05,-7.080145573357749e-05,-2.881063239185171e-05,3.7333,5.7333
2.5625,-3.5647441512169096e-05,-1.9046281618982247e-05,-4.638763950255591e-05,-3.467159429465174e-05,3.7333,5.7333
2.56640625,-2.6858937956816985e-05,-1.7094587183947538e-05,-4.736348672007327e-05,-3.7111212338445124e-05,3.7333,5.7333
2.5703125,-2.832270878309302e-05,-3.418367068589306e-05,-5.615786887312125e-05,-3.1250250435645096e-05,3.7333,5.7333
2.57421875,-3.467159429465174e-05,-3.467159429465174e-05,-4.932105975280386e-05,-3.0762326826886424e-05,3.7333,5.7333
2.578125,-3.808705955596248e-05,-3.320782346837569e-05,-3.6135365120927774e-05,-2.9786479609369064e-05,3.7333,5.7333
2.58203125,-3.271989985961701e-05,-4.2484250632486474e-05,-4.297217424124515e-05,-2.929855600061039e-05,3.7333,5.7333
2.5859375,-3.174405264209966e-05,-2.0510052445258282e-05,-3.5647441512169096e-05,-4.19963270237278e-05,3.7333,5.7333
2.58984375,-3.5647441512169096e-05,-1.9046281618982247e-05,-3.2231976250858335e-05,-3.0762326826886424e-05,3.7333,5.7333
2.59375,-3.5647441512169096e-05,-3.174405264209966e-05,-2.5883090739299632e-05,-1.2697396107423543e-05,3.7333,5.7333
2.59765625,-2.637101434805831e-05,-2.4419319913023597e-05,2.43999295948727e-06,-2.0510052445258282e-05,3.7333,5.7333
2.6015625,-1.8070434401464894e-05,-3.75991359472038e-05,-4.396816160830113e-06,-2.4907243521782276e-05,3.7333,5.7333
2.60546875,-3.75991359472038e-05,-3.75991359472038e-05,-2.637101434805831e-05,-1.4649090542458252e-05,3.7333,5.7333
2.609375,-4.83452125352865e-05,-4.004463258869309e-05,-5.762163969939729e-05,-1.563081635767149e-05,3.7333,5.7333
2.61328125,-3.369574707713438e-05,-3.857498316472116e-05,-6.738599047226674e-05,-3.320782346837569e-05,3.7333,5.7333
2.6171875,-3.271989985961701e-05,-3.0274403218127743e-05,-1.8070434401464894e-05,-3.174405264209966e-05,3.7333,5.7333
2.62109375,-2.832270878309302e-05,-2.4419319913023597e-05,-2.4451217257954025e-06,-2.5883090739299632e-05,3.7333,5.7333
2.625,-2.3931396304264923e-05,-3.5647441512169096e-05,-7.812618846265357e-05,-2.5883090739299632e-05,3.7333,5.7333
2.62890625,-2.5395167130540954e-05,-2.929855600061039e-05,-5.371237223163197e-05,-8.30608362859543e-06,3.7333,5.7333
2.6328125,-3.0274403218127743e-05,-3.271989985961701e-05,1.3668114558632766e-05,3.415840177004625e-06,3.7333,5.7333
2.63671875,-4.19963270237278e-05,-4.638763950255591e-05,-3.418367068589306e-05,-1.7582510792706216e-05,3.7333,5.7333
2.640625,-3.75991359472038e-05,-4.932105975280386e-05,-2.637101434805831e-05,-3.1250250435645096e-05,3.7333,5.7333
2.64453125,-3.9550830382238515e-05,-3.467159429465174e-05,-2.7346861565575663e-05,-2.929855600061039e-05,3.7333,5.7333
2.6484375,-4.541179228503854e-05,-2.3437594097810345e-05,-3.5647441512169096e-05,-2.929855600061039e-05,3.7333,5.7333
2.65234375,-4.053255619745177e-05,-3.5647441512169096e-05,4.39168739452198e-06,-1.9534205227740926e-05,3.7333,5.7333
2.65625,-4.004463258869309e-05,-4.736348672007327e-05,-5.860586987106146e-06,-1.9046281618982247e-05,3.7333,5.7333
2.66015625,-4.4923868676279865e-05,-5.5176143057908e-05,-3.467159429465174e-05,-1.9534205227740926e-05,3.7333,5.7333
2.6640625,-3.9062906773479836e-05,-5.762163969939729e-05,-8.78964178332189e-05,-2.637101434805831e-05,3.7333,5.7333
2.66796875,-3.174405264209966e-05,-5.9085410525673325e-05,-8.301130314793625e-05,-3.174405264209966e-05,3.7333,5.7333
2.671875,-2.6858937956816985e-05,-4.4923868676279865e-05,-6.152502856946672e-05,-2.0510052445258282e-05,3.7333,5.7333
2.67578125,-3.320782346837569e-05,-2.9786479609369064e-05,-5.0296906970321214e-05,-2.3437594097810345e-05,3.7333,5.7333
2.6796875,-2.929855600061039e-05,-2.637101434805831e-05,-5.32244486228733e-05,-3.0274403218127743e-05,3.7333,5.7333
2.68359375,-2.4419319913023597e-05,-2.246174688029299e-05,-3.808705955596248e-05,-3.0274403218127743e-05,3.7333,5.7333
2.6875,-2.5883090739299632e-05,-2.3931396304264923e-05,1.269226734111541e-05,-2.5395167130540954e-05,3.7333,5.7333
2.69140625,-3.418367068589306e-05,-3.418367068589306e-05,1.464145741969915e-06,-1.4649090542458252e-05,3.7333,5.7333
2.6953125,-4.2484250632486474e-05,-5.176067779659726e-05,-4.83452125352865e-05,-1.660666357518886e-05,3.7333,5.7333
2.69921875,-3.6623288729686445e-05,-6.298879939574274e-05,-6.641014325474938e-05,-3.320782346837569e-05,3.7333,5.7333
2.703125,-2.4907243521782276e-05,-6.250087578698407e-05,-6.689806686350807e-05,-1.2209472498664865e-05,3.7333,5.7333
2.70703125,-1.8070434401464894e-05,-6.445844881971467e-05,-8.740261562676434e-05,-1.1721548889906188e-05,3.7333,5.7333
2.7109375,-2.783478517433434e-05,-9.375150113832305e-05,-0.00010205208108491646,-1.3185319716182221e-05,3.7333,5.7333
2.71484375,-4.541179228503854e-05,-0.00013427267505607693,-0.00013623024808880752,3.415840177004625e-06,3.7333,5.7333
2.71875,-4.2484250632486474e-05,-0.00013623024808880752,-0.0001167015465430686,-2.1485899662775635e-05,3.7333,5.7333
2.72265625,-1.6118739966430168e-05,-0.00012646001871824219,-0.00013623024808880752,-2.5883090739299632e-05,3.7333,5.7333
2.7265625,-1.855835801022357e-05,-0.00014062156056763564,-0.0001542951788082704,7.807152655832738e-06,3.7333,5.7333
2.73046875,-3.6135365120927774e-05,-0.00017431180396276801,-0.00012450832428320745,1.1228496514839378e-05,3.7333,5.7333
2.734375,-4.297217424124515e-05,-0.00019238261327992676,-0.00020409865848783096,-7.324357813382192e-06,3.7333,5.7333
2.73828125,-4.1508403414969124e-05,-0.00019774977297627223,-0.00020068319322652018,-2.4451217257954025e-06,3.7333,5.7333
2.7421875,-3.6135365120927774e-05,-0.00021435093286945907,-0.00020361073487907224,2.9781350843060917e-05,3.7333,5.7333
2.74609375,-3.1250250435645096e-05,-0.00021581470369573508,-0.0002592751764614328,-5.372663378347468e-06,3.7333,5.7333
2.75,-3.320782346837569e-05,-0.00022216358920729382,-0.00023486136023041123,-2.3437594097810345e-05,3.7333,5.7333
2.75390625,-4.297217424124515e-05,-0.0002416981693507286,-0.00019872562019378957,2.1480770896467502e-05,3.7333,5.7333
2.7578125,-3.320782346837569e-05,-0.00024413778739452202,-0.0002226515128160525,2.001700007019147e-05,3.7333,5.7333
2.76171875,-3.2231976250858335e-05,-0.00025829932924391547,-0.0002656240619729915,1.9529076461432792e-05,3.7333,5.7333
2.765625,-3.9550830382238515e-05,-0.000279779725224689,-0.0002817372982574197,4.1503274648661004e-05,3.7333,5.7333
2.76953125,-3.418367068589306e-05,-0.00028271314547493703,-0.00027441256552834364,-1.0745701672388818e-05,3.7333,5.7333
2.7734375,-4.297217424124515e-05,-0.00028320106908369576,-0.00027831595439841306,-1.563081635767149e-05,3.7333,5.7333
2.77734375,-4.346009785000383e-05,-0.0002578114056351568,-0.00027734010718089567,1.6601534808880726e-05,3.7333,5.7333
2.78125,-3.0274403218127743e-05,-0.00022558493306630044,-0.0002612268708964675,3.564231274586095e-05,3.7333,5.7333
2.78515625,-4.394802145876251e-05,-0.00024121024574196993,-0.00025683555841763946,6.054405258564122e-05,3.7333,5.7333
2.7890625,-2.783478517433434e-05,-0.00022509700945754177,-0.00024218609295948728,2.2456618113984858e-05,3.7333,5.7333
2.79296875,-1.1233625281147496e-05,-0.00020117111683527885,-0.00019287053688868543,1.3180190949874088e-05,3.7333,5.7333
2.796875,-4.004463258869309e-05,-0.0001933584604974441,-0.00015331933159075305,2.58779619729915e-05,3.7333,5.7333
2.80078125,-6.689806686350807e-05,-0.00019140088746471352,-0.00017089633870145723,3.515438913710227e-05,3.7333,5.7333
2.8046875,-4.83452125352865e-05,-0.00015673479685206378,-0.00014062156056763564,2.927916568245948e-06,3.7333,5.7333
2.80859375,-4.4923868676279865e-05,-0.00015527102602578776,-0.00015038591134050507,6.831305438315382e-06,3.7333,5.7333
2.8125,-5.7133716090638606e-05,-0.00016552330040741587,-0.00020751412374914166,9.276802079804667e-06,3.7333,5.7333
2.81640625,-3.7111212338445124e-05,-0.00011377400489051652,-0.00011474985210803388,-2.1485899662775635e-05,3.7333,5.7333
2.8203125,-4.83452125352865e-05,-8.496299758297096e-05,-4.9808983361562536e-05,-1.0745701672388818e-05,3.7333,5.7333
2.82421875,-6.3970525210956e-05,-8.936018865949495e-05,-0.00011474985210803388,-1.563081635767149e-05,3.7333,5.7333
2.828125,-3.9062906773479836e-05,-8.301130314793625e-05,-0.00010156415747615778,-4.541179228503854e-05,3.7333,5.7333
2.83203125,-5.0784830579079906e-05,-5.0784830579079906e-05,-9.281930846112785e-06,-5.176067779659726e-05,3.7333,5.7333
2.8359375,-6.494637242847335e-05,-2.881063239185171e-05,-2.9786479609369064e-05,-4.1020479806210446e-05,3.7333,5.7333
2.83984375,-5.859748691691465e-05,-3.0762326826886424e-05,-3.9550830382238515e-05,-3.7111212338445124e-05,3.7333,5.7333
2.84375,-5.0784830579079906e-05,-1.7094587183947538e-05,6.831305438315382e-06,-3.808705955596248e-05,3.7333,5.7333
2.84765625,-5.5176143057908e-05,-1.563081635767149e-05,-2.832270878309302e-05,-4.4435945067521186e-05,3.7333,5.7333
2.8515625,-4.9808983361562536e-05,-1.9046281618982247e-05,-2.4419319913023597e-05,-5.371237223163197e-05,3.7333,5.7333
2.85546875,-3.7111212338445124e-05,1.806530563515676e-05,1.464396177615012e-05,-6.298879939574274e-05,3.7333,5.7333
2.859375,-5.9085410525673325e-05,1.6601534808880726e-05,5.367534612039336e-06,-6.054918135194935e-05,3.7333,5.7333
2.86328125,-4.053255619745177e-05,1.5131885384908797e-05,2.8805503625543564e-05,-7.031353212481882e-05,3.7333,5.7333
2.8671875,-2.246174688029299e-05,4.345496908369571e-05,2.6365885581750177e-05,-5.664579248187993e-05,3.7333,5.7333
2.87109375,-4.053255619745177e-05,3.3690618310826236e-05,8.295076264591414e-06,-5.566406666666668e-05,3.7333,5.7333
2.875,-3.75991359472038e-05,2.6365885581750177e-05,3.075719806057828e-05,-7.471072320134281e-05,3.7333,5.7333
2.87890625,-2.9786479609369064e-05,3.661815996337833e-05,2.001700007019147e-05,-7.71503412451362e-05,3.7333,5.7333
2.8828125,-4.297217424124515e-05,7.31922904707406e-06,-1.660666357518886e-05,-4.83452125352865e-05,3.7333,5.7333
2.88671875,-6.152502856946672e-05,4.39168739452198e-06,-4.88473976958879e-06,-2.832270878309302e-05,3.7333,5.7333
2.890625,-4.297217424124515e-05,3.075719806057828e-05,4.882800737773707e-05,-6.250087578698407e-05,3.7333,5.7333
2.89453125,-2.832270878309302e-05,4.003362522468907e-05,4.687043434500646e-05,-9.228773031204701e-05,3.7333,5.7333
2.8984375,-3.174405264209966e-05,3.759400718089569e-05,3.759400718089569e-05,-7.617449402761884e-05,3.7333,5.7333
2.90234375,-3.7111212338445124e-05,1.855322924391544e-05,2.539003836423282e-05,-4.883313614404518e-05,3.7333,5.7333
2.90625,-4.2484250632486474e-05,3.320269470206756e-05,3.415840177004625e-06,-6.152502856946672e-05,3.7333,5.7333
2.91015625,-4.932105975280386e-05,3.320269470206756e-05,4.58945871274891e-05,-7.031353212481882e-05,3.7333,5.7333
2.9140625,-4.297217424124515e-05,1.6601534808880726e-05,2.734173279926753e-05,-5.0296906970321214e-05,3.7333,5.7333
2.91796875,-3.418367068589306e-05,3.6130236354619654e-05,5.126762542153045e-05,-5.5176143057908e-05,3.7333,5.7333
2.921875,-1.4649090542458252e-05,3.271477109330888e-05,7.275389999999995e-05,-4.1508403414969124e-05,3.7333,5.7333
2.92578125,-1.7582510792706216e-05,2.4408312549019568e-05,4.879611003280658e-06,-4.394802145876251e-05,3.7333,5.7333
2.9296875,-5.4688219449149325e-05,1.9041152852674114e-05,-1.025777806363014e-05,-6.3970525210956e-05,3.7333,5.7333
2.93359375,-4.053255619745177e-05,2.001700007019147e-05,2.7829656408026208e-05,-6.152502856946672e-05,3.7333,5.7333
2.9375,-2.3931396304264923e-05,3.4178541919584914e-05,5.419516707408252e-05,-7.471072320134281e-05,3.7333,5.7333
2.94140625,-4.5899715893797234e-05,2.0992847287708827e-05,6.884463253223463e-05,-5.810956330815597e-05,3.7333,5.7333
2.9453125,-4.346009785000383e-05,6.343381829556705e-06,4.833420517128249e-05,-4.1508403414969124e-05,3.7333,5.7333
2.94921875,-2.832270878309302e-05,1.855322924391544e-05,3.710608357213701e-05,-7.422279959258412e-05,3.7333,5.7333
2.953125,-4.004463258869309e-05,2.2944541722743536e-05,3.759400718089569e-05,-4.638763950255591e-05,3.7333,5.7333
2.95703125,-4.5899715893797234e-05,1.3180190949874088e-05,-5.372663378347468e-06,-3.0762326826886424e-05,3.7333,5.7333
2.9609375,-2.783478517433434e-05,7.31922904707406e-06,-1.855835801022357e-05,-5.176067779659726e-05,3.7333,5.7333
2.96484375,-1.8070434401464894e-05,-9.281930846112785e-06,2.43999295948727e-06,-1.4649090542458252e-05,3.7333,5.7333
2.96875,-3.0274403218127743e-05,3.415840177004625e-06,1.9041152852674114e-05,-4.19963270237278e-05,3.7333,5.7333
2.97265625,-3.0762326826886424e-05,3.271477109330888e-05,4.247912186617836e-05,-6.3970525210956e-05,3.7333,5.7333
2.9765625,-1.855835801022357e-05,3.173304527809566e-05,5.419516707408252e-05,-4.394802145876251e-05,3.7333,5.7333
2.98046875,-2.0997976054016957e-05,2.050492367895015e-05,5.712858732433048e-05,-4.736348672007327e-05,3.7333,5.7333
2.984375,-3.369574707713438e-05,1.0252649297322022e-05,-6.348510595864823e-06,-2.1973823271534313e-05,3.7333,5.7333
2.98828125,-1.660666357518886e-05,1.855322924391544e-05,-3.4209689433127576e-06,-5.273652501411462e-05,3.7333,5.7333
2.9921875,-3.1250250435645096e-05,1.9041152852674114e-05,4.9803854595254416e-05,-5.762163969939729e-05,3.7333,5.7333
2.99609375,-4.1020479806210446e-05,5.855458220798028e-06,5.367534612039336e-06,-4.5899715893797234e-05,3.7333,5.7333
3.0,-2.637101434805831e-05,2.43999295948727e-06,-4.541179228503854e-05,-6.347672300450143e-05,3.7333,5.7333
3.00390625,-2.832270878309302e-05,1.464145741969915e-06,-2.5395167130540954e-05,-3.0274403218127743e-05,3.7333,5.7333
3.0078125,-4.4923868676279865e-05,1.6107732602426152e-05,4.7846281562523814e-05,-3.0274403218127743e-05,3.7333,5.7333
3.01171875,-3.1250250435645096e-05,1.269226734111541e-05,4.1503274648661004e-05,-4.5899715893797234e-05,3.7333,5.7333
3.015625,-1.7582510792706216e-05,-4.934272907606925e-07,-3.369574707713438e-05,-4.1508403414969124e-05,3.7333,5.7333
3.01953125,-5.371237223163197e-05,1.855322924391544e-05,9.276802079804667e-06,-1.9046281618982247e-05,3.7333,5.7333
3.0234375,-3.5647441512169096e-05,1.855322924391544e-05,3.710608357213701e-05,-4.9808983361562536e-05,3.7333,5.7333
3.02734375,-1.7582510792706216e-05,-1.0745701672388818e-05,1.464145741969915e-06,-5.615786887312125e-05,3.7333,5.7333
3.03125,-3.174405264209966e-05,-1.1233625281147496e-05,2.001700007019147e-05,-4.1508403414969124e-05,3.7333,5.7333
3.03515625,-3.320782346837569e-05,1.1716420123598055e-05,5.3219319856565164e-05,-2.783478517433434e-05,3.7333,5.7333
3.0390625,-2.881063239185171e-05,2.050492367895015e-05,5.761651093308916e-05,-3.857498316472116e-05,3.7333,5.7333
3.04296875,-2.3931396304264923e-05,6.343381829556705e-06,7.31922904707406e-06,-5.762163969939729e-05,3.7333,5.7333
3.046875,-1.6118739966430168e-05,-2.4907243521782276e-05,-6.103710496070804e-05,-5.7133716090638606e-05,3.7333,5.7333
3.05078125,-3.6623288729686445e-05,-3.271989985961701e-05,-5.9085410525673325e-05,-5.371237223163197e-05,3.7333,5.7333
3.0546875,-4.932105975280386e-05,-2.6858937956816985e-05,-1.1233625281147496e-05,-3.1250250435645096e-05,3.7333,5.7333
3.05859375,-5.810956330815597e-05,-1.1233625281147496e-05,1.269226734111541e-05,-4.541179228503854e-05,3.7333,5.7333
3.0625,-6.738599047226674e-05,3.903763785763303e-06,5.367534612039336e-06,-4.883313614404518e-05,3.7333,5.7333
3.06640625,-2.1973823271534313e-05,-3.908892552071435e-06,2.43999295948727e-06,-3.271989985961701e-05,3.7333,5.7333
3.0703125,-3.418367068589306e-05,-1.4649090542458252e-05,-4.934272907606925e-07,-2.4451217257954025e-06,3.7333,5.7333
3.07421875,-4.297217424124515e-05,4.824199267566627e-07,-9.281930846112785e-06,-3.320782346837569e-05,3.7333,5.7333
3.078125,-2.0997976054016957e-05,4.39168739452198e-06,1.6601534808880726e-05,-4.687556311131459e-05,3.7333,5.7333
3.08203125,-2.1485899662775635e-05,-6.348510595864823e-06,1.0252649297322022e-05,-2.246174688029299e-05,3.7333,5.7333
3.0859375,-2.5883090739299632e-05,-1.8070434401464894e-05,-1.9046281618982247e-05,-1.660666357518886e-05,3.7333,5.7333
3.08984375,-2.0022128836499604e-05,-2.246174688029299e-05,-4.5899715893797234e-05,-3.9062906773479836e-05,3.7333,5.7333
3.09375,-2.832270878309302e-05,-3.908892552071435e-06,-3.6623288729686445e-05,-6.0061257743190675e-05,3.7333,5.7333
3.09765625,-3.4209689433127576e-06,-2.0510052445258282e-05,7.31922904707406e-06,-4.687556311131459e-05,3.7333,5.7333
3.1015625,-2.6858937956816985e-05,-3.9062906773479836e-05,3.415840177004625e-06,-2.881063239185171e-05,3.7333,5.7333
3.10546875,-6.20129521782254e-05,-1.3673243324940898e-05,-1.1721548889906188e-05,-2.5395167130540954e-05,3.7333,5.7333
3.109375,-5.224860140535594e-05,-2.1973823271534313e-05,-4.83452125352865e-05,-4.004463258869309e-05,3.7333,5.7333
3.11328125,-2.929855600061039e-05,-4.2484250632486474e-05,-2.4419319913023597e-05,-3.271989985961701e-05,3.7333,5.7333
3.1171875,-3.857498316472116e-05,-1.9046281618982247e-05,1.6601534808880726e-05,-2.6858937956816985e-05,3.7333,5.7333
3.12109375,-5.32244486228733e-05,-1.4649090542458252e-05,9.276802079804667e-06,-3.9062906773479836e-05,3.7333,5.7333
3.125,-5.0296906970321214e-05,-2.6858937956816985e-05,-4.83452125352865e-05,-5.7133716090638606e-05,3.7333,5.7333
3.12890625,-6.054918135194935e-05,-4.932105975280386e-05,-6.250087578698407e-05,-6.054918135194935e-05,3.7333,5.7333
3.1328125,-4.053255619745177e-05,-4.053255619745177e-05,-1.513701415121693e-05,-6.0061257743190675e-05,3.7333,5.7333
3.13671875,-6.348510595864823e-06,-2.0997976054016957e-05,1.07405729060807e-05,-6.0061257743190675e-05,3.7333,5.7333
3.140625,-1.025777806363014e-05,-5.566406666666668e-05,-4.88473976958879e-06,-2.4907243521782276e-05,3.7333,5.7333
3.14453125,-3.174405264209966e-05,-5.420029584039065e-05,-4.19963270237278e-05,2.4902114755474142e-05,3.7333,5.7333
3.1484375,-2.6858937956816985e-05,-4.5899715893797234e-05,-5.224860140535594e-05,-1.1721548889906188e-05,3.7333,5.7333
3.15234375,-3.6135365120927774e-05,-2.637101434805831e-05,6.343381829556705e-06,-2.0997976054016957e-05,3.7333,5.7333
3.15625,-4.394802145876251e-05,-3.6623288729686445e-05,-2.3437594097810345e-05,-1.3673243324940898e-05,3.7333,5.7333
3.16015625,-5.859748691691465e-05,-5.32244486228733e-05,-7.910203568017092e-05,-3.6623288729686445e-05,3.7333,5.7333
3.1640625,-5.664579248187993e-05,-2.881063239185171e-05,-3.808705955596248e-05,-3.9550830382238515e-05,3.7333,5.7333
3.16796875,-3.320782346837569e-05,-2.832270878309302e-05,-1.7582510792706216e-05,-4.004463258869309e-05,3.7333,5.7333
3.171875,-2.3437594097810345e-05,-2.881063239185171e-05,-4.9808983361562536e-05,-2.832270878309302e-05,3.7333,5.7333
3.17578125,-3.7111212338445124e-05,-2.0510052445258282e-05,-3.5647441512169096e-05,-7.818160019836752e-06,3.7333,5.7333
3.1796875,-2.7346861565575663e-05,-1.2209472498664865e-05,8.788878471045989e-06,-2.929855600061039e-05,3.7333,5.7333
3.18359375,-1.0745701672388818e-05,-2.6858937956816985e-05,-7.818160019836752e-06,-5.566406666666668e-05,3.7333,5.7333
3.1875,-2.246174688029299e-05,-3.5647441512169096e-05,-3.857498316472116e-05,-2.0997976054016957e-05,3.7333,5.7333
3.19140625,-3.320782346837569e-05,-2.7346861565575663e-05,-1.0745701672388818e-05,-1.563081635767149e-05,3.7333,5.7333
3.1953125,-6.689806686350807e-05,-2.3931396304264923e-05,-1.7094587183947538e-05,-4.687556311131459e-05,3.7333,5.7333
3.19921875,-4.5899715893797234e-05,-1.563081635767149e-05,-3.0274403218127743e-05,-3.75991359472038e-05,3.7333,5.7333
3.203125,1.0252649297322022e-05,-4.19963270237278e-05,-4.1020479806210446e-05,-3.320782346837569e-05,3.7333,5.7333
3.20703125,-4.5899715893797234e-05,-6.445844881971467e-05,-7.666241763637753e-05,3.415840177004625e-06,3.7333,5.7333
3.2109375,-5.224860140535594e-05,-2.5395167130540954e-05,-2.5395167130540954e-05,-2.929855600061039e-05,3.7333,5.7333
3.21484375,-3.320782346837569e-05,-2.3931396304264923e-05,1.269226734111541e-05,-4.004463258869309e-05,3.7333,5.7333
3.21875,-1.1233625281147496e-05,-4.4435945067521186e-05,-2.5883090739299632e-05,-2.637101434805831e-05,3.7333,5.7333
3.22265625,-3.6623288729686445e-05,-1.4649090542458252e-05,-1.8070434401464894e-05,-6.152502856946672e-05,3.7333,5.7333
3.2265625,-5.5176143057908e-05,-1.660666357518886e-05,5.855458220798028e-06,-3.7111212338445124e-05,3.7333,5.7333
3.23046875,-3.9062906773479836e-05,-4.83452125352865e-05,-4.346009785000383e-05,-2.294967048905167e-05,3.7333,5.7333
3.234375,-2.929855600061039e-05,-4.687556311131459e-05,-6.347672300450143e-05,-3.9550830382238515e-05,3.7333,5.7333
3.23828125,-2.5883090739299632e-05,-1.4161166933699576e-05,-1.7094587183947538e-05,-3.9062906773479836e-05,3.7333,5.7333
3.2421875,-3.6623288729686445e-05,-1.0745701672388818e-05,-9.769854454871463e-06,-2.3931396304264923e-05,3.7333,5.7333
3.24609375,-3.6623288729686445e-05,-1.855835801022357e-05,4.824199267566627e-07,-2.294967048905167e-05,3.7333,5.7333
3.25,-3.2231976250858335e-05,-2.1485899662775635e-05,-5.503682002014897e-09,-2.832270878309302e-05,3.7333,5.7333
3.25390625,-2.3437594097810345e-05,-3.320782346837569e-05,-4.4923868676279865e-05,-3.320782346837569e-05,3.7333,5.7333
3.2578125,-3.9062906773479836e-05,-1.8070434401464894e-05,-4.4923868676279865e-05,-2.3437594097810345e-05,3.7333,5.7333
3.26171875,-2.637101434805831e-05,-1.3673243324940898e-05,-1.660666357518886e-05,-2.294967048905167e-05,3.7333,5.7333
3.265625,-2.1485899662775635e-05,-2.5883090739299632e-05,-1.4161166933699576e-05,-2.0997976054016957e-05,3.7333,5.7333
3.26953125,-4.053255619745177e-05,-1.0745701672388818e-05,-2.4451217257954025e-06,-1.660666357518886e-05,3.7333,5.7333
3.2734375,-4.83452125352865e-05,-2.3931396304264923e-05,-1.1721548889906188e-05,-9.8135089951937e-07,3.7333,5.7333
3.27734375,-4.4923868676279865e-05,-4.687556311131459e-05,-4.9808983361562536e-05,-3.174405264209966e-05,3.7333,5.7333
3.28125,-5.0784830579079906e-05,-3.1250250435645096e-05,-4.346009785000383e-05,-5.0296906970321214e-05,3.7333,5.7333
3.28515625,-5.566406666666668e-05,-2.7346861565575663e-05,-2.246174688029299e-05,-1.7094587183947538e-05,3.7333,5.7333
3.2890625,-4.1020479806210446e-05,-2.1485899662775635e-05,-1.4161166933699576e-05,-4.785728892652783e-05,3.7333,5.7333
3.29296875,-3.7111212338445124e-05,-1.0745701672388818e-05,-1.2697396107423543e-05,-5.859748691691465e-05,3.7333,5.7333
3.296875,-4.4923868676279865e-05,-1.9534205227740926e-05,-1.7582510792706216e-05,-2.637101434805831e-05,3.7333,5.7333
3.30078125,-4.785728892652783e-05,-3.857498316472116e-05,-1.9534205227740926e-05,-2.294967048905167e-05,3.7333,5.7333
3.3046875,-5.566406666666668e-05,-5.224860140535594e-05,-3.5647441512169096e-05,-2.5395167130540954e-05,3.7333,5.7333
3.30859375,-4.394802145876251e-05,-4.19963270237278e-05,-3.467159429465174e-05,-2.929855600061039e-05,3.7333,5.7333
3.3125,-3.9550830382238515e-05,-4.394802145876251e-05,-3.6623288729686445e-05,-1.1233625281147496e-05,3.7333,5.7333
3.31640625,-4.4435945067521186e-05,-5.176067779659726e-05,-6.347672300450143e-05,-3.515951790341042e-05,3.7333,5.7333
3.3203125,1.9520693507285927e-06,-5.566406666666668e-05,-5.9085410525673325e-05,-6.0061257743190675e-05,3.7333,5.7333
3.32421875,-2.5883090739299632e-05,-3.6623288729686445e-05,-2.929855600061039e-05,-3.0762326826886424e-05,3.7333,5.7333
3.328125,-6.738599047226674e-05,-4.2484250632486474e-05,-3.418367068589306e-05,-2.9786479609369064e-05,3.7333,5.7333
3.33203125,-4.19963270237278e-05,-5.224860140535594e-05,-2.9786479609369064e-05,-3.1250250435645096e-05,3.7333,5.7333
3.3359375,-3.808705955596248e-05,-4.053255619745177e-05,-3.418367068589306e-05,-1.513701415121693e-05,3.7333,5.7333
3.33984375,-4.2484250632486474e-05,-4.394802145876251e-05,-5.1272754187838584e-05,-1.4649090542458252e-05,3.7333,5.7333
3.34375,-3.0762326826886424e-05,-5.273652501411462e-05,-5.4688219449149325e-05,-3.369574707713438e-05,3.7333,5.7333
3.34765625,-1.2209472498664865e-05,-3.369574707713438e-05,-5.4688219449149325e-05,-5.5176143057908e-05,3.7333,5.7333
3.3515625,9.762221332112375e-07,-4.638763950255591e-05,-7.812618846265357e-05,-5.1272754187838584e-05,3.7333,5.7333
3.35546875,4.824199267566627e-07,-4.883313614404518e-05,-8.008376149538416e-05,-4.638763950255591e-05,3.7333,5.7333
3.359375,-1.2697396107423543e-05,-3.0274403218127743e-05,-6.103710496070804e-05,-5.1272754187838584e-05,3.7333,5.7333
3.36328125,-1.513701415121693e-05,-4.4923868676279865e-05,-6.592221964599071e-05,-5.224860140535594e-05,3.7333,5.7333
3.3671875,2.4408312549019568e-05,-4.053255619745177e-05,-8.252337953917755e-05,-5.420029584039065e-05,3.7333,5.7333
3.37109375,2.1480770896467502e-05,-3.9062906773479836e-05,-8.887226505073627e-05,-6.152502856946672e-05,3.7333,5.7333
3.375,7.807152655832738e-06,-2.9786479609369064e-05,-8.057168510414284e-05,-6.83618376897841e-05,3.7333,5.7333
3.37890625,1.9529076461432792e-05,-4.346009785000383e-05,-9.717284499732969e-05,-7.519864681010149e-05,3.7333,5.7333
3.3828125,8.788878471045989e-06,-5.176067779659726e-05,-9.033603587701231e-05,-6.0061257743190675e-05,3.7333,5.7333
3.38671875,1.1716420123598055e-05,-3.467159429465174e-05,-8.154753232166019e-05,-6.054918135194935e-05,3.7333,5.7333
3.390625,3.124512166933698e-05,-2.294967048905167e-05,-7.080145573357749e-05,-7.95899592889296e-05,3.7333,5.7333
3.39453125,3.3690618310826236e-05,-3.908892552071435e-06,-3.9550830382238515e-05,-7.861411207141225e-05,3.7333,5.7333
3.3984375,2.539003836423282e-05,-1.8070434401464894e-05,-6.103710496070804e-05,-7.080145573357749e-05,3.7333,5.7333
3.40234375,1.6601534808880726e-05,-3.515951790341042e-05,-7.910203568017092e-05,-8.154753232166019e-05,3.7333,5.7333
3.40625,2.196869450522618e-05,-1.9046281618982247e-05,-5.32244486228733e-05,-9.570319557335776e-05,3.7333,5.7333
3.41015625,1.806530563515676e-05,4.824199267566627e-07,-3.271989985961701e-05,-9.619699777981233e-05,3.7333,5.7333
3.4140625,7.807152655832738e-06,-1.3673243324940898e-05,-5.176067779659726e-05,-7.227110515754942e-05,3.7333,5.7333
3.41796875,1.7089458417639405e-05,-2.3437594097810345e-05,-6.982560851606014e-05,-6.298879939574274e-05,3.7333,5.7333
3.421875,2.2456618113984858e-05,-1.2697396107423543e-05,-3.0274403218127743e-05,-4.5899715893797234e-05,3.7333,5.7333
3.42578125,2.4408312549019568e-05,-2.832270878309302e-05,-4.4435945067521186e-05,-3.369574707713438e-05,3.7333,5.7333
3.4296875,2.3432465331502215e-05,-3.369574707713438e-05,-7.422279959258412e-05,-4.687556311131459e-05,3.7333,5.7333
3.43359375,1.0252649297322022e-05,-1.9534205227740926e-05,-3.515951790341042e-05,-5.420029584039065e-05,3.7333,5.7333
3.4375,4.824199267566627e-07,-8.30608362859543e-06,-2.7346861565575663e-05,-4.883313614404518e-05,3.7333,5.7333
3.44140625,-4.396816160830113e-06,-7.818160019836752e-06,-2.3437594097810345e-05,-6.152502856946672e-05,3.7333,5.7333
3.4453125,-1.660666357518886e-05,3.415840177004625e-06,-1.2209472498664865e-05,-5.664579248187993e-05,3.7333,5.7333
3.44921875,-2.5395167130540954e-05,3.903763785763303e-06,-1.4161166933699576e-05,-4.19963270237278e-05,3.7333,5.7333
3.453125,-2.4419319913023597e-05,-1.2697396107423543e-05,-1.513701415121693e-05,-4.2484250632486474e-05,3.7333,5.7333
3.45703125,-1.1721548889906188e-05,-2.0022128836499604e-05,-2.9786479609369064e-05,-4.004463258869309e-05,3.7333,5.7333
3.4609375,-1.4692745082780476e-06,-1.9534205227740926e-05,-2.4419319913023597e-05,-4.053255619745177e-05,3.7333,5.7333
3.46484375,1.464145741969915e-06,-4.88473976958879e-06,-1.513701415121693e-05,-6.152502856946672e-05,3.7333,5.7333
3.46875,-7.324357813382192e-06,-1.8070434401464894e-05,-2.294967048905167e-05,-6.933768490730146e-05,3.7333,5.7333
3.47265625,-2.3437594097810345e-05,-2.3437594097810345e-05,-2.0022128836499604e-05,-4.1508403414969124e-05,3.7333,5.7333
3.4765625,-2.9786479609369064e-05,-2.246174688029299e-05,-1.9534205227740926e-05,-1.563081635767149e-05,3.7333,5.7333
3.48046875,-3.0762326826886424e-05,-3.369574707713438e-05,-2.4907243521782276e-05,-1.1233625281147496e-05,3.7333,5.7333
3.484375,-3.467159429465174e-05,-3.271989985961701e-05,-1.9534205227740926e-05,-2.0510052445258282e-05,3.7333,5.7333
3.48828125,-4.4923868676279865e-05,-1.9046281618982247e-05,-6.836434204623515e-06,-3.418367068589306e-05,3.7333,5.7333
3.4921875,-5.4688219449149325e-05,-9.281930846112785e-06,-4.88473976958879e-06,-4.4435945067521186e-05,3.7333,5.7333
3.49609375,-4.297217424124515e-05,-1.855835801022357e-05,-1.7094587183947538e-05,-4.4923868676279865e-05,3.7333,5.7333
3.5,-4.88473976958879e-06,-2.7346861565575663e-05,-2.5395167130540954e-05,-4.1020479806210446e-05,3.7333,5.7333
3.50390625,-1.2209472498664865e-05,-1.7582510792706216e-05,-1.9534205227740926e-05,-4.4923868676279865e-05,3.7333,5.7333
3.5078125,-3.808705955596248e-05,-2.294967048905167e-05,-3.174405264209966e-05,-4.1508403414969124e-05,3.7333,5.7333
3.51171875,-3.5647441512169096e-05,-2.4419319913023597e-05,-3.1250250435645096e-05,-4.932105975280386e-05,3.7333,5.7333
3.515625,-3.0762326826886424e-05,-1.7094587183947538e-05,-1.7582510792706216e-05,-5.810956330815597e-05,3.7333,5.7333
3.51953125,-2.783478517433434e-05,-1.9534205227740926e-05,-3.271989985961701e-05,-4.1508403414969124e-05,3.7333,5.7333
3.5234375,-2.5395167130540954e-05,-2.3437594097810345e-05,-3.7111212338445124e-05,-2.832270878309302e-05,3.7333,5.7333
3.52734375,-2.6858937956816985e-05,-8.794007237354109e-06,-7.818160019836752e-06,-2.9786479609369064e-05,3.7333,5.7333
3.53125,-3.0762326826886424e-05,-2.3931396304264923e-05,-1.3673243324940898e-05,-2.783478517433434e-05,3.7333,5.7333
3.53515625,-2.881063239185171e-05,-2.783478517433434e-05,-3.7111212338445124e-05,-3.369574707713438e-05,3.7333,5.7333
3.5390625,-2.929855600061039e-05,-1.9046281618982247e-05,-4.1020479806210446e-05,-4.19963270237278e-05,3.7333,5.7333
3.54296875,-3.320782346837569e-05,-2.9786479609369064e-05,-3.0762326826886424e-05,-3.515951790341042e-05,3.7333,5.7333
3.546875,-4.541179228503854e-05,-2.5883090739299632e-05,-1.7582510792706216e-05,-3.2231976250858335e-05,3.7333,5.7333
3.55078125,-5.32244486228733e-05,-5.503682002014897e-09,1.9520693507285927e-06,-2.6858937956816985e-05,3.7333,5.7333
3.5546875,-4.1020479806210446e-05,6.343381829556705e-06,1.2204343732356733e-05,-2.6858937956816985e-05,3.7333,5.7333
3.55859375,-2.783478517433434e-05,-1.9046281618982247e-05,-4.934272907606925e-07,-3.515951790341042e-05,3.7333,5.7333
3.5625,-2.3931396304264923e-05,-2.4419319913023597e-05,-1.8070434401464894e-05,-3.857498316472116e-05,3.7333,5.7333
3.56640625,-1.8070434401464894e-05,-1.3185319716182221e-05,-2.0510052445258282e-05,-4.687556311131459e-05,3.7333,5.7333
3.5703125,-1.513701415121693e-05,-2.5395167130540954e-05,-2.5395167130540954e-05,-4.9808983361562536e-05,3.7333,5.7333
3.57421875,-9.281930846112785e-06,-2.6858937956816985e-05,-2.6858937956816985e-05,-4.4923868676279865e-05,3.7333,5.7333
3.578125,-1.4692745082780476e-06,-9.769854454871463e-06,-2.4907243521782276e-05,-4.736348672007327e-05,3.7333,5.7333
3.58203125,8.295076264591414e-06,-1.7094587183947538e-05,-3.369574707713438e-05,-4.932105975280386e-05,3.7333,5.7333
3.5859375,1.1228496514839378e-05,-2.832270878309302e-05,-3.9550830382238515e-05,-4.785728892652783e-05,3.7333,5.7333
3.58984375,1.855322924391544e-05,-1.4161166933699576e-05,-3.467159429465174e-05,-4.346009785000383e-05,3.7333,5.7333
3.59375,1.7089458417639405e-05,-1.2209472498664865e-05,-3.857498316472116e-05,-4.394802145876251e-05,3.7333,5.7333
3.59765625,3.415840177004625e-06,-1.6118739966430168e-05,-4.4923868676279865e-05,-4.346009785000383e-05,3.7333,5.7333
3.6015625,6.831305438315382e-06,-1.7094587183947538e-05,-4.2484250632486474e-05,-5.0296906970321214e-05,3.7333,5.7333
3.60546875,7.807152655832738e-06,-2.294967048905167e-05,-3.9062906773479836e-05,-5.0784830579079906e-05,3.7333,5.7333
3.609375,-4.396816160830113e-06,-1.9046281618982247e-05,-3.467159429465174e-05,-4.638763950255591e-05,3.7333,5.7333
3.61328125,-9.281930846112785e-06,-1.660666357518886e-05,-3.418367068589306e-05,-3.9550830382238515e-05,3.7333,5.7333
3.6171875,-1.7582510792706216e-05,-1.2697396107423543e-05,-2.0510052445258282e-05,-3.808705955596248e-05,3.7333,5.7333
3.62109375,-1.1233625281147496e-05,-5.860586987106146e-06,-1.4649090542458252e-05,-3.75991359472038e-05,3.7333,5.7333
3.625,1.9520693507285927e-06,-1.025777806363014e-05,-2.3931396304264923e-05,-2.881063239185171e-05,3.7333,5.7333
3.62890625,-4.396816160830113e-06,-1.4649090542458252e-05,-2.1973823271534313e-05,-3.515951790341042e-05,3.7333,5.7333
3.6328125,-1.957198117036725e-06,-1.6118739966430168e-05,-2.0022128836499604e-05,-4.5899715893797234e-05,3.7333,5.7333
3.63671875,4.824199267566627e-07,-2.246174688029299e-05,-2.294967048905167e-05,-5.4688219449149325e-05,3.7333,5.7333
3.640625,-1.513701415121693e-05,-2.881063239185171e-05,-3.271989985961701e-05,-4.2484250632486474e-05,3.7333,5.7333
3.64453125,-2.0997976054016957e-05,-3.271989985961701e-05,-3.6135365120927774e-05,-2.783478517433434e-05,3.7333,5.7333
3.6484375,-2.1485899662775635e-05,-3.75991359472038e-05,-4.1508403414969124e-05,-2.3931396304264923e-05,3.7333,5.7333
3.65234375,-3.271989985961701e-05,-2.3931396304264923e-05,-2.1973823271534313e-05,-2.3437594097810345e-05,3.7333,5.7333
3.65625,-2.881063239185171e-05,-2.832270878309302e-05,-2.4419319913023597e-05,-3.369574707713438e-05,3.7333,5.7333
3.66015625,-2.4907243521782276e-05,-3.5647441512169096e-05,-3.808705955596248e-05,-3.9550830382238515e-05,3.7333,5.7333
3.6640625,-3.5647441512169096e-05,-2.783478517433434e-05,-2.783478517433434e-05,-3.271989985961701e-05,3.7333,5.7333
3.66796875,-3.75991359472038e-05,-2.832270878309302e-05,-3.2231976250858335e-05,-3.0274403218127743e-05,3.7333,5.7333
3.671875,-2.832270878309302e-05,-3.0274403218127743e-05,-2.7346861565575663e-05,-3.174405264209966e-05,3.7333,5.7333
3.67578125,-1.9046281618982247e-05,-3.369574707713438e-05,-2.637101434805831e-05,-3.320782346837569e-05,3.7333,5.7333
3.6796875,-2.1973823271534313e-05,-3.857498316472116e-05,-3.174405264209966e-05,-4.004463258869309e-05,3.7333,5.7333
3.68359375,-3.418367068589306e-05,-4.004463258869309e-05,-3.418367068589306e-05,-3.9062906773479836e-05,3.7333,5.7333
3.6875,-3.75991359472038e-05,-3.75991359472038e-05,-3.418367068589306e-05,-3.5647441512169096e-05,3.7333,5.7333
3.69140625,-3.0274403218127743e-05,-3.1250250435645096e-05,-3.467159429465174e-05,-3.369574707713438e-05,3.7333,5.7333
3.6953125,-2.783478517433434e-05,-3.174405264209966e-05,-3.418367068589306e-05,-2.832270878309302e-05,3.7333,5.7333
3.69921875,-3.0274403218127743e-05,-3.6135365120927774e-05,-2.929855600061039e-05,-3.271989985961701e-05,3.7333,5.7333
3.703125,-3.174405264209966e-05,-4.004463258869309e-05,-3.467159429465174e-05,-3.467159429465174e-05,3.7333,5.7333
3.70703125,-3.5647441512169096e-05,-3.9062906773479836e-05,-3.0274403218127743e-05,-3.0762326826886424e-05,3.7333,5.7333
3.7109375,-4.2484250632486474e-05,-3.320782346837569e-05,-2.832270878309302e-05,-4.004463258869309e-05,3.7333,5.7333
3.71484375,-4.4923868676279865e-05,-3.2231976250858335e-05,-2.9786479609369064e-05,-3.808705955596248e-05,3.7333,5.7333
3.71875,-3.271989985961701e-05,-3.9062906773479836e-05,-3.808705955596248e-05,-2.3437594097810345e-05,3.7333,5.7333
3.72265625,-2.5395167130540954e-05,-3.369574707713438e-05,-3.320782346837569e-05,-2.0510052445258282e-05,3.7333,5.7333
3.7265625,-3.6135365120927774e-05,-1.9046281618982247e-05,-1.855835801022357e-05,-2.0022128836499604e-05,3.7333,5.7333
3.73046875,-4.541179228503854e-05,-3.174405264209966e-05,-3.808705955596248e-05,-2.246174688029299e-05,3.7333,5.7333
3.734375,-4.1020479806210446e-05,-4.1020479806210446e-05,-4.541179228503854e-05,-3.0762326826886424e-05,3.7333,5.7333
3.73828125,-4.394802145876251e-05,-3.369574707713438e-05,-3.6135365120927774e-05,-3.6623288729686445e-05,3.7333,5.7333
3.7421875,-4.394802145876251e-05,-3.75991359472038e-05,-4.5899715893797234e-05,-3.271989985961701e-05,3.7333,5.7333
3.74609375,-5.371237223163197e-05,-4.1508403414969124e-05,-4.736348672007327e-05,-2.1973823271534313e-05,3.7333,5.7333
3.75,-6.592221964599071e-05,-3.0274403218127743e-05,-3.0762326826886424e-05,-2.294967048905167e-05,3.7333,5.7333
3.75390625,-5.9573334134432e-05,-2.6858937956816985e-05,-3.0762326826886424e-05,-2.637101434805831e-05,3.7333,5.7333
3.7578125,-5.1272754187838584e-05,-4.541179228503854e-05,-4.5899715893797234e-05,-2.5883090739299632e-05,3.7333,5.7333
3.76171875,-3.6623288729686445e-05,-4.2484250632486474e-05,-4.541179228503854e-05,-2.832270878309302e-05,3.7333,5.7333
3.765625,-2.929855600061039e-05,-3.6135365120927774e-05,-4.1508403414969124e-05,-3.9062906773479836e-05,3.7333,5.7333
3.76953125,-3.75991359472038e-05,-4.053255619745177e-05,-4.1508403414969124e-05,-4.394802145876251e-05,3.7333,5.7333
3.7734375,-3.808705955596248e-05,-4.394802145876251e-05,-3.515951790341042e-05,-3.808705955596248e-05,3.7333,5.7333
3.77734375,-3.515951790341042e-05,-4.346009785000383e-05,-3.9550830382238515e-05,-3.0274403218127743e-05,3.7333,5.7333
3.78125,-4.541179228503854e-05,-4.4435945067521186e-05,-4.053255619745177e-05,-2.6858937956816985e-05,3.7333,5.7333
3.78515625,-4.004463258869309e-05,-3.515951790341042e-05,-3.6135365120927774e-05,-2.5395167130540954e-05,3.7333,5.7333
3.7890625,-3.174405264209966e-05,-3.369574707713438e-05,-4.346009785000383e-05,-2.1973823271534313e-05,3.7333,5.7333
3.79296875,-3.2231976250858335e-05,-3.6623288729686445e-05,-5.371237223163197e-05,-2.4907243521782276e-05,3.7333,5.7333
3.796875,-3.857498316472116e-05,-1.8070434401464894e-05,-4.883313614404518e-05,-2.9786479609369064e-05,3.7333,5.7333
3.80078125,-4.883313614404518e-05,-1.1721548889906188e-05,-4.1020479806210446e-05,-2.9786479609369064e-05,3.7333,5.7333
3.8046875,-4.9808983361562536e-05,-3.0762326826886424e-05,-4.638763950255591e-05,-3.320782346837569e-05,3.7333,5.7333
3.80859375,-4.1508403414969124e-05,-3.320782346837569e-05,-4.2484250632486474e-05,-3.418367068589306e-05,3.7333,5.7333
3.8125,-4.19963270237278e-05,-3.6135365120927774e-05,-4.346009785000383e-05,-3.515951790341042e-05,3.7333,5.7333
3.81640625,-4.053255619745177e-05,-4.9808983361562536e-05,-5.224860140535594e-05,-3.5647441512169096e-05,3.7333,5.7333
3.8203125,-3.9550830382238515e-05,-5.615786887312125e-05,-5.0784830579079906e-05,-3.2231976250858335e-05,3.7333,5.7333
3.82421875,-5.32244486228733e-05,-5.762163969939729e-05,-4.394802145876251e-05,-3.6623288729686445e-05,3.7333,5.7333
3.828125,-5.371237223163197e-05,-5.5176143057908e-05,-3.467159429465174e-05,-4.687556311131459e-05,3.7333,5.7333
3.83203125,-5.224860140535594e-05,-4.785728892652783e-05,-3.808705955596248e-05,-3.9550830382238515e-05,3.7333,5.7333
3.8359375,-5.4688219449149325e-05,-4.541179228503854e-05,-3.9550830382238515e-05,-3.320782346837569e-05,3.7333,5.7333
3.83984375,-5.0784830579079906e-05,-4.4923868676279865e-05,-4.4435945067521186e-05,-3.808705955596248e-05,3.7333,5.7333
3.84375,-4.1508403414969124e-05,-4.053255619745177e-05,-4.9808983361562536e-05,-4.297217424124515e-05,3.7333,5.7333
3.84765625,-4.1020479806210446e-05,-3.9062906773479836e-05,-3.808705955596248e-05,-3.808705955596248e-05,3.7333,5.7333
3.8515625,-3.9062906773479836e-05,-4.19963270237278e-05,-3.7111212338445124e-05,-2.783478517433434e-05,3.7333,5.7333
3.85546875,-3.7111212338445124e-05,-4.785728892652783e-05,-5.615786887312125e-05,-3.1250250435645096e-05,3.7333,5.7333
3.859375,-4.004463258869309e-05,-4.883313614404518e-05,-5.566406666666668e-05,-4.053255619745177e-05,3.7333,5.7333
3.86328125,-3.7111212338445124e-05,-4.1020479806210446e-05,-4.19963270237278e-05,-3.320782346837569e-05,3.7333,5.7333
3.8671875,-4.19963270237278e-05,-4.346009785000383e-05,-3.9550830382238515e-05,-3.418367068589306e-05,3.7333,5.7333
3.87109375,-4.83452125352865e-05,-4.1020479806210446e-05,-2.929855600061039e-05,-4.638763950255591e-05,3.7333,5.7333
3.875,-4.5899715893797234e-05,-4.004463258869309e-05,-3.9062906773479836e-05,-4.1020479806210446e-05,3.7333,5.7333
3.87890625,-4.83452125352865e-05,-4.4435945067521186e-05,-4.541179228503854e-05,-3.7111212338445124e-05,3.7333,5.7333
3.8828125,-5.224860140535594e-05,-3.418367068589306e-05,-3.320782346837569e-05,-3.369574707713438e-05,3.7333,5.7333
3.88671875,-3.857498316472116e-05,-3.2231976250858335e-05,-2.4419319913023597e-05,-3.174405264209966e-05,3.7333,5.7333
3.890625,-2.5395167130540954e-05,-3.369574707713438e-05,-3.7111212338445124e-05,-3.174405264209966e-05,3.7333,5.7333
3.89453125,-3.0762326826886424e-05,-3.418367068589306e-05,-5.176067779659726e-05,-3.6623288729686445e-05,3.7333,5.7333
3.8984375,-3.0762326826886424e-05,-3.857498316472116e-05,-4.541179228503854e-05,-3.6623288729686445e-05,3.7333,5.7333
3.90234375,-3.0762326826886424e-05,-3.174405264209966e-05,-4.053255619745177e-05,-2.246174688029299e-05,3.7333,5.7333
3.90625,-3.515951790341042e-05,-2.783478517433434e-05,-4.1508403414969124e-05,-2.0510052445258282e-05,3.7333,5.7333
3.91015625,-2.9786479609369064e-05,-2.5883090739299632e-05,-3.9062906773479836e-05,-2.881063239185171e-05,3.7333,5.7333
3.9140625,-3.467159429465174e-05,-2.6858937956816985e-05,-3.271989985961701e-05,-3.5647441512169096e-05,3.7333,5.7333
3.91796875,-3.271989985961701e-05,-4.297217424124515e-05,-3.515951790341042e-05,-4.004463258869309e-05,3.7333,5.7333
3.921875,-4.053255619745177e-05,-4.638763950255591e-05,-4.687556311131459e-05,-4.638763950255591e-05,3.7333,5.7333
3.92578125,-5.0784830579079906e-05,-4.053255619745177e-05,-3.9062906773479836e-05,-4.004463258869309e-05,3.7333,5.7333
3.9296875,-4.004463258869309e-05,-4.297217424124515e-05,-3.9062906773479836e-05,-2.637101434805831e-05,3.7333,5.7333
3.93359375,-4.1020479806210446e-05,-4.004463258869309e-05,-4.297217424124515e-05,-2.7346861565575663e-05,3.7333,5.7333
3.9375,-4.19963270237278e-05,-4.1508403414969124e-05,-4.2484250632486474e-05,-3.1250250435645096e-05,3.7333,5.7333
3.94140625,-3.0274403218127743e-05,-5.0296906970321214e-05,-4.297217424124515e-05,-3.6135365120927774e-05,3.7333,5.7333
3.9453125,-2.5883090739299632e-05,-4.883313614404518e-05,-5.32244486228733e-05,-3.320782346837569e-05,3.7333,5.7333
3.94921875,-3.0274403218127743e-05,-3.808705955596248e-05,-5.762163969939729e-05,-2.3437594097810345e-05,3.7333,5.7333
3.953125,-3.857498316472116e-05,-3.808705955596248e-05,-4.932105975280386e-05,-2.0997976054016957e-05,3.7333,5.7333
3.95703125,-4.394802145876251e-05,-4.053255619745177e-05,-4.053255619745177e-05,-2.4419319913023597e-05,3.7333,5.7333
3.9609375,-5.420029584039065e-05,-3.467159429465174e-05,-2.3437594097810345e-05,-3.271989985961701e-05,3.7333,5.7333
3.96484375,-4.4435945067521186e-05,-3.0762326826886424e-05,-2.7346861565575663e-05,-3.6623288729686445e-05,3.7333,5.7333
3.96875,-3.418367068589306e-05,-3.271989985961701e-05,-3.6623288729686445e-05,-3.174405264209966e-05,3.7333,5.7333
3.97265625,-3.467159429465174e-05,-3.320782346837569e-05,-2.7346861565575663e-05,-2.3437594097810345e-05,3.7333,5.7333
3.9765625,-3.6135365120927774e-05,-2.5395167130540954e-05,-2.294967048905167e-05,-2.5883090739299632e-05,3.7333,5.7333
3.98046875,-4.638763950255591e-05,-2.637101434805831e-05,-3.0762326826886424e-05,-3.5647441512169096e-05,3.7333,5.7333
3.984375,-5.371237223163197e-05,-3.467159429465174e-05,-4.2484250632486474e-05,-3.515951790341042e-05,3.7333,5.7333
