timestamp,TP9,AF7,AF8,TP10,Valence,Arousal
0.0,9.272705442893083e-06,8.294876752880114e-06,2.3436841614404497e-05,3.8082702214084046e-05,4.2,3.0
0.00390625,1.2695105857938486e-05,2.245901292439153e-05,2.8318795147631006e-05,3.075617695582511e-05,4.2,3.0
0.0078125,1.903661250934613e-05,3.368966302586402e-05,1.2206191512931994e-05,3.222291999084456e-05,4.2,3.0
0.01171875,2.3925755959410978e-05,4.394248443732354e-05,9.755414114595027e-07,3.857161655909054e-05,4.2,3.0
0.015625,2.977834826581214e-05,3.466749171587699e-05,1.7088145046158515e-05,3.612704483405811e-05,4.2,3.0
0.01953125,2.9296623837643976e-05,2.1970098579385037e-05,3.612704483405811e-05,2.3925755959410978e-05,4.2,3.0
0.0234375,2.1970098579385037e-05,1.6110316356145544e-05,4.003835959410999e-05,8.294876752880114e-06,4.2,3.0
0.02734375,2.8318795147631006e-05,5.857494944686024e-06,3.906053090409702e-05,2.1970098579385037e-05,4.2,3.0
0.03125,2.7340966457618035e-05,8.783791097886606e-06,2.5874223422598588e-05,5.126900969558248e-05,4.2,3.0
0.03515625,1.3176830286106636e-05,2.0014441199359096e-05,1.3176830286106636e-05,5.419530584878306e-05,4.2,3.0
0.0390625,1.2206191512931994e-05,1.5621402011139067e-05,2.3436841614404497e-05,4.784660928053709e-05,4.2,3.0
0.04296875,1.3665744631113128e-05,1.3665744631113128e-05,4.296465574731057e-05,4.686878059052412e-05,4.2,3.0
0.046875,1.1717277167925516e-05,1.6599230701152038e-05,3.368966302586402e-05,4.4431398782330036e-05,4.2,3.0
0.05078125,1.5132487666132575e-05,9.761619787899577e-06,1.2695105857938486e-05,4.492031312733651e-05,4.2,3.0
0.0546875,1.3176830286106636e-05,1.4643573321126097e-05,5.368580599679539e-06,3.9549445249103514e-05,4.2,3.0
0.05859375,9.761619787899577e-06,1.2206191512931994e-05,1.0250534132906053e-05,3.222291999084456e-05,4.2,3.0
0.0625,1.5621402011139067e-05,-2.446859003585892e-06,2.4407480387579127e-05,1.9525526854352605e-05,4.2,3.0
0.06640625,2.1970098579385037e-05,-3.906412121767019e-06,2.4407480387579127e-05,1.5132487666132575e-05,4.2,3.0
0.0703125,2.8318795147631006e-05,8.294876752880114e-06,2.0992269889372066e-05,3.9549445249103514e-05,4.2,3.0
0.07421875,1.903661250934613e-05,8.294876752880114e-06,1.903661250934613e-05,4.686878059052412e-05,4.2,3.0
0.078125,1.0739448477912545e-05,1.8547698164339635e-05,2.685205211261156e-05,3.466749171587699e-05,4.2,3.0
0.08203125,1.5621402011139067e-05,2.5874223422598588e-05,3.9549445249103514e-05,3.8082702214084046e-05,4.2,3.0
0.0859375,2.1970098579385037e-05,3.271183433585105e-05,2.1970098579385037e-05,3.514921614404514e-05,4.2,3.0
0.08984375,2.685205211261156e-05,4.394248443732354e-05,9.761619787899577e-06,2.4407480387579127e-05,4.2,3.0
0.09375,2.685205211261156e-05,2.977834826581214e-05,1.2695105857938486e-05,2.7340966457618035e-05,4.2,3.0
0.09765625,2.4407480387579127e-05,1.7088145046158515e-05,2.3925755959410978e-05,3.026726261081862e-05,4.2,3.0
0.1015625,2.0503355544365576e-05,2.3925755959410978e-05,2.4896394732585618e-05,3.466749171587699e-05,4.2,3.0
0.10546875,2.6363137767605065e-05,1.6599230701152038e-05,1.6110316356145544e-05,4.492031312733651e-05,4.2,3.0
0.109375,3.124509130083159e-05,8.294876752880114e-06,1.7088145046158515e-05,4.492031312733651e-05,4.2,3.0
0.11328125,2.0992269889372066e-05,1.6110316356145544e-05,2.0992269889372066e-05,3.857161655909054e-05,4.2,3.0
0.1171875,1.4154658976119605e-05,2.1970098579385037e-05,2.685205211261156e-05,3.563813048905163e-05,4.2,3.0
0.12109375,1.4643573321126097e-05,3.124509130083159e-05,4.052727393911648e-05,3.026726261081862e-05,4.2,3.0
0.125,1.5621402011139067e-05,3.612704483405811e-05,4.003835959410999e-05,2.977834826581214e-05,4.2,3.0
0.12890625,1.8547698164339635e-05,2.6363137767605065e-05,2.1481184234378546e-05,3.466749171587699e-05,4.2,3.0
0.1328125,2.7340966457618035e-05,1.2695105857938486e-05,2.4407480387579127e-05,3.710487352407108e-05,4.2,3.0
0.13671875,2.685205211261156e-05,1.1228362822919024e-05,3.075617695582511e-05,2.685205211261156e-05,4.2,3.0
0.140625,2.0503355544365576e-05,2.1970098579385037e-05,2.9296623837643976e-05,9.761619787899577e-06,4.2,3.0
0.14453125,2.0014441199359096e-05,2.0014441199359096e-05,3.710487352407108e-05,1.4643573321126097e-05,4.2,3.0
0.1484375,1.6599230701152038e-05,-2.287278553467331e-09,2.0992269889372066e-05,3.41785773708705e-05,4.2,3.0
0.15234375,1.6110316356145544e-05,1.4644557564659877e-06,7.805962407873636e-06,4.5409227472343e-05,4.2,3.0
0.15625,1.3665744631113128e-05,1.6110316356145544e-05,1.8065973736171485e-05,4.003835959410999e-05,4.2,3.0
0.16015625,1.2695105857938486e-05,2.1481184234378546e-05,4.052727393911648e-05,4.5409227472343e-05,4.2,3.0
0.1640625,1.8547698164339635e-05,3.222291999084456e-05,3.612704483405811e-05,5.566204888380253e-05,4.2,3.0
0.16796875,1.4154658976119605e-05,3.563813048905163e-05,3.124509130083159e-05,4.784660928053709e-05,4.2,3.0
0.171875,6.34640928969251e-06,2.5385309077592098e-05,2.3436841614404497e-05,3.466749171587699e-05,4.2,3.0
0.17578125,5.368580599679539e-06,1.9525526854352605e-05,1.6110316356145544e-05,2.88077094926375e-05,4.2,3.0
0.1796875,1.5132487666132575e-05,2.0014441199359096e-05,2.0014441199359096e-05,1.7088145046158515e-05,4.2,3.0
0.18359375,2.3436841614404497e-05,2.4896394732585618e-05,1.6599230701152038e-05,1.7088145046158515e-05,4.2,3.0
0.1875,2.685205211261156e-05,1.8065973736171485e-05,1.6110316356145544e-05,2.5385309077592098e-05,4.2,3.0
0.19140625,2.5385309077592098e-05,1.946180184634144e-06,5.857494944686024e-06,2.7340966457618035e-05,4.2,3.0
0.1953125,1.757705939116501e-05,2.924008874647114e-06,1.5132487666132575e-05,2.6363137767605065e-05,4.2,3.0
0.19921875,2.1970098579385037e-05,1.903661250934613e-05,2.88077094926375e-05,3.173400564583808e-05,4.2,3.0
0.203125,2.4407480387579127e-05,2.4896394732585618e-05,2.3436841614404497e-05,2.7340966457618035e-05,4.2,3.0
0.20703125,1.6110316356145544e-05,1.757705939116501e-05,1.9525526854352605e-05,2.245901292439153e-05,4.2,3.0
0.2109375,1.3665744631113128e-05,1.757705939116501e-05,6.835323634698994e-06,3.612704483405811e-05,4.2,3.0
0.21484375,1.2206191512931994e-05,1.6110316356145544e-05,2.4350945296406294e-06,4.931335231555654e-05,4.2,3.0
0.21875,1.1228362822919024e-05,1.0739448477912545e-05,2.3436841614404497e-05,4.931335231555654e-05,4.2,3.0
0.22265625,1.7088145046158515e-05,1.0250534132906053e-05,2.4896394732585618e-05,4.149791271229112e-05,4.2,3.0
0.2265625,3.026726261081862e-05,1.1717277167925516e-05,2.88077094926375e-05,4.1008998367284634e-05,4.2,3.0
0.23046875,2.5874223422598588e-05,1.0250534132906053e-05,4.4431398782330036e-05,4.589814181734948e-05,4.2,3.0
0.234375,1.757705939116501e-05,2.8318795147631006e-05,3.9549445249103514e-05,4.003835959410999e-05,4.2,3.0
0.23828125,3.124509130083159e-05,5.7610516346990134e-05,4.1008998367284634e-05,3.466749171587699e-05,4.2,3.0
0.2421875,3.9549445249103514e-05,3.222291999084456e-05,3.759378786907757e-05,3.710487352407108e-05,4.2,3.0
0.24609375,4.1008998367284634e-05,-2.3930330516517912e-05,-1.269968041504542e-05,3.124509130083159e-05,4.2,3.0
0.25,4.492031312733651e-05,-6.445270181734953e-05,-5.517770909590297e-05,2.5874223422598588e-05,4.2,3.0
0.25390625,5.517313453879603e-05,-7.568335191882202e-05,-7.714290503700315e-05,2.8318795147631006e-05,4.2,3.0
0.2578125,6.249965979705499e-05,-7.763181938200963e-05,-9.521116605172809e-05,2.7340966457618035e-05,4.2,3.0
0.26171875,7.373030989852748e-05,-9.862637654993517e-05,-0.00011327942706645305,2.5385309077592098e-05,4.2,3.0
0.265625,8.251638827496754e-05,-0.00013329615554436562,-0.00016063940928053713,1.8547698164339635e-05,4.2,3.0
0.26953125,8.447204565499347e-05,-0.00013964485211261158,-0.00018798266301670862,9.272705442893083e-06,4.2,3.0
0.2734375,9.618442018463414e-05,-0.0001669881058487831,-0.00020214679918822005,4.3907519096665695e-06,4.2,3.0
0.27734375,0.0001083928989761196,-0.00021337744928969253,-0.00022997896726939805,-4.912016235599523e-07,4.2,3.0
0.28125,0.00010741507028610663,-0.00022704548119935913,-0.00024218025614404517,-7.328812536812414e-06,4.2,3.0
0.28515625,0.000111815299391165,-0.0002197261458579385,-0.00023241634907759213,-1.2210766070038936e-05,4.2,3.0
0.2890625,0.00012206812080262452,-0.00020897722018463417,-0.00023534983514763105,-2.6856626669718493e-05,4.2,3.0
0.29296875,0.00012597224564583808,-0.00018456745251850158,-0.00024413591352407112,-3.613880930800338e-05,4.2,3.0
0.296875,0.0001284168173708705,-0.0001787076702952621,-0.00023192743473258564,-2.5885987896543856e-05,4.2,3.0
0.30078125,0.00012987637048905162,-0.00018163396644846265,-0.00020702875272144656,-1.7581633948271936e-05,4.2,3.0
0.3046875,0.00013769181009231707,-0.00016259506666056308,-0.00019335353089494165,-2.3441416171511425e-05,4.2,3.0
0.30859375,0.000149411374538796,-0.0001557574557473106,-0.0001953091882749676,-2.636771232471201e-05,4.2,3.0
0.3125,0.00016210876767528798,-0.00012988094504615854,-0.00016601027715877013,-3.271640889295798e-05,4.2,3.0
0.31640625,0.00016650180686350802,-9.521116605172809e-05,-0.0001386670234225986,-4.5413802029449934e-05,4.2,3.0
0.3203125,0.000149411374538796,-7.421660888380256e-05,-0.00012059876240787368,-4.345814464942399e-05,4.2,3.0
0.32421875,0.00013476551393911649,-5.3229241632715364e-05,-0.00010155986261997408,-3.8087276771190984e-05,4.2,3.0
0.328125,0.00013134311352407108,-3.7598362426184504e-05,-8.349160160524913e-05,-4.1509677186236386e-05,4.2,3.0
0.33203125,0.00013183202786907756,-2.3930330516517912e-05,-5.566662344090946e-05,-5.0784669907682936e-05,4.2,3.0
0.3359375,0.0001308541991790646,-1.3188594760051906e-05,-3.2227494547951495e-05,-6.151921574731062e-05,4.2,3.0
0.33984375,0.00012597224564583808,1.4644557564659877e-06,-2.7834455359731463e-05,-5.274032728770888e-05,4.2,3.0
0.34375,0.00012060137776760507,2.977834826581214e-05,-1.0255108690012996e-05,-4.1998591531242866e-05,4.2,3.0
0.34765625,0.00011767508161440449,4.345357009231706e-05,1.6599230701152038e-05,-4.248750587624935e-05,4.2,3.0
0.3515625,0.00011230421373617148,6.054400241702905e-05,3.368966302586402e-05,-3.906510546120395e-05,4.2,3.0
0.35546875,9.911790625467304e-05,8.153855958495458e-05,3.66159591790646e-05,-3.8087276771190984e-05,4.2,3.0
0.359375,9.033182787823298e-05,9.374703837644006e-05,4.2475741402304095e-05,-3.271640889295798e-05,4.2,3.0
0.36328125,7.81233490867475e-05,9.472486706645302e-05,7.128573817349505e-05,-1.8559462638284906e-05,4.2,3.0
0.3671875,6.835225210345614e-05,8.398313130998701e-05,7.373030989852748e-05,-9.284469916838355e-06,4.2,3.0
0.37109375,7.81233490867475e-05,8.739834180819406e-05,6.93300807934691e-05,-3.906412121767019e-06,4.2,3.0
0.375,7.8612263431754e-05,0.00010888181332112608,8.202747392996108e-05,4.866270664530176e-07,4.2,3.0
0.37890625,6.44481272602426e-05,0.00010204420240787363,7.27524812085145e-05,-6.350983846799444e-06,4.2,3.0
0.3828125,4.980226666056303e-05,9.228029534142058e-05,7.665660605172806e-05,-1.6603805258258965e-05,4.2,3.0
0.38671875,4.5409227472343e-05,0.00010741507028610663,8.447204565499347e-05,-2.197467313649197e-05,4.2,3.0
0.390625,4.637986624551763e-05,0.0001137637668543526,7.616769170672157e-05,-1.513706222323951e-05,4.2,3.0
0.39453125,4.5409227472343e-05,0.00011230421373617148,7.8612263431754e-05,-4.395326466773504e-06,4.2,3.0
0.3984375,3.906053090409702e-05,9.765116321965359e-05,9.179138099641408e-05,2.4350945296406294e-06,4.2,3.0
0.40234375,3.368966302586402e-05,9.52137814114595e-05,9.960682059967954e-05,9.761619787899577e-06,4.2,3.0
0.40625,2.7340966457618035e-05,8.886508484321353e-05,9.374703837644006e-05,5.368580599679539e-06,4.2,3.0
0.41015625,3.124509130083159e-05,7.616769170672157e-05,9.618442018463414e-05,-5.3731551567864735e-06,4.2,3.0
0.4140625,3.026726261081862e-05,8.788725615320055e-05,0.000106444431512932,3.901837564660084e-06,4.2,3.0
0.41796875,2.245901292439153e-05,8.739834180819406e-05,0.00010107356363469899,1.5132487666132575e-05,4.2,3.0
0.421875,2.1481184234378546e-05,8.544268442816811e-05,9.960682059967954e-05,1.9525526854352605e-05,4.2,3.0
0.42578125,1.6110316356145544e-05,9.130246665140762e-05,9.862899190966655e-05,2.88077094926375e-05,4.2,3.0
0.4296875,1.8065973736171485e-05,8.398313130998701e-05,9.423595272144652e-05,2.6363137767605065e-05,4.2,3.0
0.43359375,1.4643573321126097e-05,8.496095999999997e-05,8.788725615320055e-05,2.5385309077592098e-05,4.2,3.0
0.4375,1.2206191512931994e-05,8.98429135332265e-05,9.179138099641408e-05,2.7340966457618035e-05,4.2,3.0
0.44140625,1.3176830286106636e-05,9.179138099641408e-05,9.66733345296406e-05,2.88077094926375e-05,4.2,3.0
0.4453125,1.6599230701152038e-05,9.862899190966655e-05,9.911790625467304e-05,3.368966302586402e-05,4.2,3.0
0.44921875,2.1481184234378546e-05,8.251638827496754e-05,9.570269575646599e-05,2.9296623837643976e-05,4.2,3.0
0.453125,6.835323634698994e-06,7.910117777676049e-05,7.665660605172806e-05,1.8547698164339635e-05,4.2,3.0
0.45703125,6.34640928969251e-06,9.374703837644006e-05,7.616769170672157e-05,2.685205211261156e-05,4.2,3.0
0.4609375,2.9296623837643976e-05,9.618442018463414e-05,9.66733345296406e-05,2.6363137767605065e-05,4.2,3.0
0.46484375,2.6363137767605065e-05,9.228029534142058e-05,8.398313130998701e-05,-5.3731551567864735e-06,4.2,3.0
0.46875,1.8547698164339635e-05,8.886508484321353e-05,6.884116644846263e-05,-2.287278553467331e-09,4.2,3.0
0.47265625,2.0503355544365576e-05,8.104964523994809e-05,8.544268442816811e-05,4.19868270572976e-05,4.2,3.0
0.4765625,1.4643573321126097e-05,5.126900969558248e-05,7.27524812085145e-05,5.566204888380253e-05,4.2,3.0
0.48046875,1.2206191512931994e-05,5.7128791918821974e-05,5.029118100556951e-05,4.73576949355306e-05,4.2,3.0
0.484375,9.761619787899577e-06,6.39592129152361e-05,6.103291676203552e-05,4.589814181734948e-05,4.2,3.0
0.48828125,7.805962407873636e-06,2.8318795147631006e-05,7.079682382848857e-05,4.2475741402304095e-05,4.2,3.0
0.4921875,4.879666254673054e-06,1.0739448477912545e-05,7.324139555352098e-05,4.589814181734948e-05,4.2,3.0
0.49609375,7.324237979705479e-06,2.7340966457618035e-05,7.518986301670861e-05,4.637986624551763e-05,4.2,3.0
0.5,1.5132487666132575e-05,4.19868270572976e-05,7.665660605172806e-05,3.9549445249103514e-05,4.2,3.0
0.50390625,1.7088145046158515e-05,3.9549445249103514e-05,7.421203432669562e-05,2.977834826581214e-05,4.2,3.0
0.5078125,1.5132487666132575e-05,3.759378786907757e-05,6.39592129152361e-05,3.41785773708705e-05,4.2,3.0
0.51171875,1.6599230701152038e-05,2.3436841614404497e-05,4.4431398782330036e-05,4.637986624551763e-05,4.2,3.0
0.515625,2.3436841614404497e-05,1.1228362822919024e-05,3.9549445249103514e-05,4.5409227472343e-05,4.2,3.0
0.51953125,2.4407480387579127e-05,8.783791097886606e-06,3.759378786907757e-05,5.029118100556951e-05,4.2,3.0
0.5234375,2.4407480387579127e-05,-2.446859003585892e-06,2.4896394732585618e-05,4.73576949355306e-05,4.2,3.0
0.52734375,2.6363137767605065e-05,-1.709271960326545e-05,-4.912016235599523e-07,4.394248443732354e-05,4.2,3.0
0.53125,3.320074868085753e-05,-2.3930330516517912e-05,-2.0507930101472517e-05,5.029118100556951e-05,4.2,3.0
0.53515625,3.8082702214084046e-05,-4.053184849622342e-05,-4.1509677186236386e-05,3.8082702214084046e-05,4.2,3.0
0.5390625,3.9549445249103514e-05,-5.9081833939116526e-05,-6.982356969558254e-05,2.685205211261156e-05,4.2,3.0
0.54296875,3.173400564583808e-05,-8.202485857022967e-05,-6.298595878233007e-05,3.41785773708705e-05,4.2,3.0
0.546875,3.320074868085753e-05,-8.39805159502556e-05,-6.445270181734953e-05,4.394248443732354e-05,4.2,3.0
0.55078125,4.394248443732354e-05,-0.00010058203392996112,-9.276659432669567e-05,1.8547698164339635e-05,4.2,3.0
0.5546875,3.612704483405811e-05,-0.00014062268080262459,-0.00011425725575646603,-6.839898191805929e-06,4.2,3.0
0.55859375,3.271183433585105e-05,-0.0001557574557473106,-0.00011962812363469904,3.710487352407108e-05,4.2,3.0
0.5625,3.124509130083159e-05,-0.0001674770201937896,-0.00013231832685435267,8.788725615320055e-05,4.2,3.0
0.56640625,2.4896394732585618e-05,-0.00018017441333028153,-0.00015869094181734955,0.00010497768847791255,4.2,3.0
0.5703125,-2.446859003585892e-06,-0.00017626309857022966,-0.00015380179836728468,0.00010399985978789956,4.2,3.0
0.57421875,-2.8323369704737947e-05,-0.00015673528443732357,-0.00016161723797055008,9.618442018463414e-05,4.2,3.0
0.578125,-1.611489091325248e-05,-0.00018114505210345617,-0.00017968549898527504,8.886508484321353e-05,4.2,3.0
0.58203125,-5.862069501792959e-06,-0.0002114217919096666,-0.00017089223069199664,9.618442018463414e-05,4.2,3.0
0.5859375,-1.904837698329139e-05,-0.00020751766706645307,-0.00014403789130083163,0.00012109029211261156,4.2,3.0
0.58984375,-2.8812284049744434e-05,-0.00020360635230640118,-0.00013329615554436562,0.00010693334585793848,4.2,3.0
0.59375,-3.56498949629969e-05,-0.0001718700593820096,-0.0001284142020111391,7.128573817349505e-05,4.2,3.0
0.59765625,-5.371096606088352e-05,-0.00012596963028610667,-0.00010155986261997408,8.98429135332265e-05,4.2,3.0
0.6015625,-7.274986584878311e-05,-9.765573777676053e-05,-6.982356969558254e-05,0.00012890573171587698,4.2,3.0
0.60546875,-7.81207337270161e-05,-7.86096480720226e-05,-3.418315192797743e-05,0.00015331549938200957,4.2,3.0
0.609375,-7.714290503700315e-05,-7.470552322880906e-05,-1.3188594760051906e-05,0.00015527115676203552,4.2,3.0
0.61328125,-8.251377291523615e-05,-7.568335191882202e-05,-5.862069501792959e-06,0.00014550724969558248,4.2,3.0
0.6171875,-9.032921251850157e-05,-5.176249859769591e-05,1.8065973736171485e-05,0.00012743898868085752,4.2,3.0
0.62109375,-8.739572644846268e-05,-1.6603805258258965e-05,4.296465574731057e-05,0.00014110702059052412,4.2,3.0
0.625,-8.495834464026858e-05,-2.446859003585892e-06,6.591487029526205e-05,0.00013671398140230407,4.2,3.0
0.62890625,-8.837355513847564e-05,2.245901292439153e-05,9.033182787823298e-05,0.00010693334585793848,4.2,3.0
0.6328125,-8.837355513847564e-05,4.931335231555654e-05,0.00010399985978789956,0.00010497768847791255,4.2,3.0
0.63671875,-8.349160160524913e-05,6.640378464026854e-05,0.00013524723836728464,8.447204565499347e-05,4.2,3.0
0.640625,-7.81207337270161e-05,8.739834180819406e-05,0.00014843354584878306,6.44481272602426e-05,4.2,3.0
0.64453125,-7.86096480720226e-05,9.66733345296406e-05,0.00014598897412375063,0.000111815299391165,4.2,3.0
0.6484375,-8.837355513847564e-05,0.00010448877413290606,0.00014843354584878306,0.000139647467472343,4.2,3.0
0.65234375,-8.056530545204854e-05,0.00013769181009231707,0.00014404050666056304,0.00010302203109788661,4.2,3.0
0.65625,-5.810400524910356e-05,0.00015331549938200957,0.00016454614948348208,9.570269575646599e-05,4.2,3.0
0.66015625,-5.9081833939116526e-05,0.00012597224564583808,0.00017138376039673453,9.814007756466009e-05,4.2,3.0
0.6640625,-6.005247271229116e-05,0.00012157920645761802,0.00015331549938200957,8.739834180819406e-05,4.2,3.0
0.66796875,-4.931792687266348e-05,0.0001230459494926375,0.00015721962422522313,7.373030989852748e-05,4.2,3.0
0.671875,-5.468879475089649e-05,0.00012646115999084454,0.0001684502743266956,5.419530584878306e-05,4.2,3.0
0.67578125,-4.345814464942399e-05,0.00012597224564583808,0.00016454614948348208,3.857161655909054e-05,4.2,3.0
0.6796875,-2.8812284049744434e-05,0.00013183202786907756,0.00016356832079346913,4.492031312733651e-05,4.2,3.0
0.68359375,-2.3441416171511425e-05,0.00014794463150377658,0.00016356832079346913,3.857161655909054e-05,4.2,3.0
0.6875,-1.513706222323951e-05,0.000133298770904097,0.00015429332807202255,2.977834826581214e-05,4.2,3.0
0.69140625,-1.074402303501948e-05,0.00011278593816433964,0.00015624898545204847,4.5409227472343e-05,4.2,3.0
0.6953125,-9.284469916838355e-06,0.00012011246342259857,0.0001581974529152361,6.0055088072022555e-05,4.2,3.0
0.69921875,-1.5625976568245995e-05,0.00014404050666056304,0.0001508781175738155,6.44481272602426e-05,4.2,3.0
0.703125,-1.0255108690012996e-05,0.00017089484605172805,0.000150389203228809,5.2239648468757125e-05,4.2,3.0
0.70703125,-5.3731551567864735e-06,0.00015721962422522313,0.0001303652848340581,3.368966302586402e-05,4.2,3.0
0.7109375,-6.839898191805929e-06,9.472486706645302e-05,0.00011816399595941097,2.88077094926375e-05,4.2,3.0
0.71484375,2.4350945296406294e-06,6.493704160524908e-05,0.00012353486383764395,2.1970098579385037e-05,4.2,3.0
0.71875,7.805962407873636e-06,7.177465251850153e-05,0.00012792790302586403,2.3925755959410978e-05,4.2,3.0
0.72265625,5.368580599679539e-06,8.447204565499347e-05,0.00012597224564583808,3.759378786907757e-05,4.2,3.0
0.7265625,9.761619787899577e-06,0.00010302203109788661,0.00012060137776760507,4.2475741402304095e-05,4.2,3.0
0.73046875,1.4643573321126097e-05,0.00010693334585793848,0.000106444431512932,3.466749171587699e-05,4.2,3.0
0.734375,8.783791097886606e-06,9.814007756466009e-05,0.00010448877413290606,1.6110316356145544e-05,4.2,3.0
0.73828125,3.901837564660084e-06,9.033182787823298e-05,0.00011864572038757913,1.4154658976119605e-05,4.2,3.0
0.7421875,1.0250534132906053e-05,9.618442018463414e-05,0.00011669725292439152,3.368966302586402e-05,4.2,3.0
0.74609375,1.8547698164339635e-05,8.935399918822e-05,0.00010790398463111313,4.394248443732354e-05,4.2,3.0
0.75,2.0503355544365576e-05,9.765116321965359e-05,9.570269575646599e-05,3.8082702214084046e-05,4.2,3.0
0.75390625,1.9525526854352605e-05,0.00010497768847791255,9.033182787823298e-05,3.66159591790646e-05,4.2,3.0
0.7578125,1.8065973736171485e-05,0.00010399985978789956,0.00010595551716792551,3.271183433585105e-05,4.2,3.0
0.76171875,2.0014441199359096e-05,0.00011083747070115203,0.00010399985978789956,2.3436841614404497e-05,4.2,3.0
0.765625,2.0992269889372066e-05,9.033182787823298e-05,9.570269575646599e-05,3.222291999084456e-05,4.2,3.0
0.76953125,2.0992269889372066e-05,7.324139555352098e-05,9.179138099641408e-05,3.710487352407108e-05,4.2,3.0
0.7734375,1.7088145046158515e-05,8.398313130998701e-05,9.081355230640113e-05,3.759378786907757e-05,4.2,3.0
0.77734375,1.2695105857938486e-05,8.007181654993513e-05,8.935399918822e-05,3.759378786907757e-05,4.2,3.0
0.78125,1.3176830286106636e-05,6.103291676203552e-05,9.814007756466009e-05,3.271183433585105e-05,4.2,3.0
0.78515625,1.8065973736171485e-05,5.468422019378955e-05,0.00010790398463111313,3.026726261081862e-05,4.2,3.0
0.7890625,2.685205211261156e-05,6.542595595025556e-05,7.470094867170212e-05,2.0014441199359096e-05,4.2,3.0
0.79296875,2.4896394732585618e-05,6.0055088072022555e-05,5.0780095350576005e-05,1.6110316356145544e-05,4.2,3.0
0.796875,1.8065973736171485e-05,6.0055088072022555e-05,6.835225210345614e-05,3.271183433585105e-05,4.2,3.0
0.80078125,2.685205211261156e-05,7.079682382848857e-05,8.300530261997402e-05,3.759378786907757e-05,4.2,3.0
0.8046875,2.3436841614404497e-05,6.201074545204849e-05,7.27524812085145e-05,2.245901292439153e-05,4.2,3.0
0.80859375,1.2206191512931994e-05,5.6150963228809e-05,5.907725938200958e-05,2.3436841614404497e-05,4.2,3.0
0.8125,1.6110316356145544e-05,6.298138422522313e-05,5.321747715877009e-05,2.977834826581214e-05,4.2,3.0
0.81640625,1.5621402011139067e-05,7.177465251850153e-05,5.517313453879603e-05,3.66159591790646e-05,4.2,3.0
0.8203125,1.1717277167925516e-05,7.714552039673456e-05,7.616769170672157e-05,5.029118100556951e-05,4.2,3.0
0.82421875,2.8318795147631006e-05,8.788725615320055e-05,9.276920968642707e-05,5.029118100556951e-05,4.2,3.0
0.828125,4.637986624551763e-05,8.837617049820705e-05,6.152183110704202e-05,1.757705939116501e-05,4.2,3.0
0.83203125,4.1008998367284634e-05,5.566204888380253e-05,4.149791271229112e-05,-9.801159685664372e-07,4.2,3.0
0.8359375,4.784660928053709e-05,5.029118100556951e-05,6.835225210345614e-05,7.324237979705479e-06,4.2,3.0
0.83984375,4.980226666056303e-05,6.44481272602426e-05,8.056073089494159e-05,1.3176830286106636e-05,4.2,3.0
0.84375,4.4431398782330036e-05,5.517313453879603e-05,6.347029857022963e-05,2.3436841614404497e-05,4.2,3.0
0.84765625,5.468422019378955e-05,4.833552362554357e-05,5.8099430691996614e-05,1.7088145046158515e-05,4.2,3.0
0.8515625,6.054400241702905e-05,5.2239648468757125e-05,6.98189951384756e-05,1.0250534132906053e-05,4.2,3.0
0.85546875,4.5409227472343e-05,5.1750734123750645e-05,6.640378464026854e-05,2.2947927269398007e-05,4.2,3.0
0.859375,3.66159591790646e-05,5.468422019378955e-05,6.39592129152361e-05,1.6110316356145544e-05,4.2,3.0
0.86328125,4.149791271229112e-05,6.0055088072022555e-05,6.542595595025556e-05,1.0739448477912545e-05,4.2,3.0
0.8671875,3.759378786907757e-05,4.5409227472343e-05,5.2239648468757125e-05,3.026726261081862e-05,4.2,3.0
0.87109375,3.466749171587699e-05,3.906053090409702e-05,3.612704483405811e-05,4.149791271229112e-05,4.2,3.0
0.875,2.4896394732585618e-05,4.003835959410999e-05,3.41785773708705e-05,4.1008998367284634e-05,4.2,3.0
0.87890625,2.4896394732585618e-05,4.1008998367284634e-05,4.8824437970550064e-05,2.5874223422598588e-05,4.2,3.0
0.8828125,4.052727393911648e-05,4.8824437970550064e-05,5.7610516346990134e-05,-1.9579446585794073e-06,4.2,3.0
0.88671875,4.149791271229112e-05,3.906053090409702e-05,4.589814181734948e-05,-2.287278553467331e-09,4.2,3.0
0.890625,4.003835959410999e-05,3.271183433585105e-05,2.3436841614404497e-05,2.2947927269398007e-05,4.2,3.0
0.89453125,4.492031312733651e-05,2.88077094926375e-05,1.5132487666132575e-05,2.6363137767605065e-05,4.2,3.0
0.8984375,5.0780095350576005e-05,3.320074868085753e-05,3.173400564583808e-05,2.4896394732585618e-05,4.2,3.0
0.90234375,4.4431398782330036e-05,3.612704483405811e-05,4.5409227472343e-05,2.8318795147631006e-05,4.2,3.0
0.90625,4.492031312733651e-05,3.173400564583808e-05,3.563813048905163e-05,2.4896394732585618e-05,4.2,3.0
0.91015625,4.4431398782330036e-05,2.8318795147631006e-05,2.685205211261156e-05,1.8065973736171485e-05,4.2,3.0
0.9140625,3.563813048905163e-05,2.1481184234378546e-05,3.026726261081862e-05,4.3907519096665695e-06,4.2,3.0
0.91796875,3.514921614404514e-05,3.514921614404514e-05,3.466749171587699e-05,1.3176830286106636e-05,4.2,3.0
0.921875,3.66159591790646e-05,3.612704483405811e-05,4.149791271229112e-05,3.368966302586402e-05,4.2,3.0
0.92578125,3.759378786907757e-05,2.8318795147631006e-05,4.296465574731057e-05,4.149791271229112e-05,4.2,3.0
0.9296875,3.124509130083159e-05,3.514921614404514e-05,4.19868270572976e-05,4.492031312733651e-05,4.2,3.0
0.93359375,2.9296623837643976e-05,4.4431398782330036e-05,4.492031312733651e-05,3.8082702214084046e-05,4.2,3.0
0.9375,4.149791271229112e-05,5.419530584878306e-05,4.052727393911648e-05,3.41785773708705e-05,4.2,3.0
0.94140625,3.9549445249103514e-05,4.2475741402304095e-05,3.8082702214084046e-05,3.173400564583808e-05,4.2,3.0
0.9453125,2.977834826581214e-05,2.977834826581214e-05,3.906053090409702e-05,2.3925755959410978e-05,4.2,3.0
0.94921875,3.320074868085753e-05,2.88077094926375e-05,3.271183433585105e-05,1.8547698164339635e-05,4.2,3.0
0.953125,4.003835959410999e-05,3.173400564583808e-05,1.6599230701152038e-05,1.8065973736171485e-05,4.2,3.0
0.95703125,3.759378786907757e-05,4.492031312733651e-05,2.5385309077592098e-05,1.9525526854352605e-05,4.2,3.0
0.9609375,3.026726261081862e-05,3.271183433585105e-05,2.245901292439153e-05,3.368966302586402e-05,4.2,3.0
0.96484375,3.124509130083159e-05,1.7088145046158515e-05,1.0739448477912545e-05,4.2475741402304095e-05,4.2,3.0
0.96875,2.88077094926375e-05,1.5621402011139067e-05,1.3665744631113128e-05,4.2475741402304095e-05,4.2,3.0
0.97265625,2.1481184234378546e-05,1.9525526854352605e-05,1.5621402011139067e-05,3.41785773708705e-05,4.2,3.0
0.9765625,2.5385309077592098e-05,2.5385309077592098e-05,2.2947927269398007e-05,3.124509130083159e-05,4.2,3.0
0.98046875,2.88077094926375e-05,2.4407480387579127e-05,3.8082702214084046e-05,3.124509130083159e-05,4.2,3.0
0.984375,3.563813048905163e-05,3.857161655909054e-05,4.4431398782330036e-05,3.075617695582511e-05,4.2,3.0
0.98828125,4.394248443732354e-05,3.8082702214084046e-05,3.857161655909054e-05,3.563813048905163e-05,4.2,3.0
0.9921875,3.612704483405811e-05,2.245901292439153e-05,3.124509130083159e-05,3.271183433585105e-05,4.2,3.0
0.99609375,3.173400564583808e-05,2.977834826581214e-05,4.1008998367284634e-05,4.052727393911648e-05,4.2,3.0
1.0,3.563813048905163e-05,3.612704483405811e-05,3.514921614404514e-05,4.003835959410999e-05,4.2,3.0
1.00390625,3.563813048905163e-05,3.563813048905163e-05,1.9525526854352605e-05,3.271183433585105e-05,4.2,3.0
1.0078125,3.026726261081862e-05,2.88077094926375e-05,2.5385309077592098e-05,3.075617695582511e-05,4.2,3.0
1.01171875,2.4407480387579127e-05,2.3925755959410978e-05,2.7340966457618035e-05,2.2947927269398007e-05,4.2,3.0
1.015625,2.8318795147631006e-05,2.0992269889372066e-05,2.977834826581214e-05,1.9525526854352605e-05,4.2,3.0
1.01953125,2.5874223422598588e-05,2.245901292439153e-05,4.19868270572976e-05,2.977834826581214e-05,4.2,3.0
1.0234375,2.5385309077592098e-05,3.075617695582511e-05,5.1750734123750645e-05,3.9549445249103514e-05,4.2,3.0
1.02734375,2.4407480387579127e-05,3.173400564583808e-05,4.5409227472343e-05,3.612704483405811e-05,4.2,3.0
1.03125,2.0992269889372066e-05,2.88077094926375e-05,2.9296623837643976e-05,2.685205211261156e-05,4.2,3.0
1.03515625,3.41785773708705e-05,2.4407480387579127e-05,3.466749171587699e-05,2.685205211261156e-05,4.2,3.0
1.0390625,4.8824437970550064e-05,3.514921614404514e-05,4.1008998367284634e-05,2.0014441199359096e-05,4.2,3.0
1.04296875,3.514921614404514e-05,3.514921614404514e-05,3.173400564583808e-05,5.857494944686024e-06,4.2,3.0
1.046875,2.782988080262453e-05,3.563813048905163e-05,3.075617695582511e-05,2.7340966457618035e-05,4.2,3.0
1.05078125,3.41785773708705e-05,4.149791271229112e-05,3.368966302586402e-05,3.612704483405811e-05,4.2,3.0
1.0546875,3.222291999084456e-05,3.026726261081862e-05,3.026726261081862e-05,2.2947927269398007e-05,4.2,3.0
1.05859375,4.149791271229112e-05,2.4896394732585618e-05,3.759378786907757e-05,3.368966302586402e-05,4.2,3.0
1.0625,4.394248443732354e-05,3.320074868085753e-05,5.566204888380253e-05,4.686878059052412e-05,4.2,3.0
1.06640625,2.88077094926375e-05,2.9296623837643976e-05,3.66159591790646e-05,3.368966302586402e-05,4.2,3.0
1.0703125,1.8547698164339635e-05,1.5621402011139067e-05,2.4896394732585618e-05,2.1970098579385037e-05,4.2,3.0
1.07421875,2.4407480387579127e-05,9.761619787899577e-06,2.9296623837643976e-05,3.222291999084456e-05,4.2,3.0
1.078125,3.66159591790646e-05,2.4407480387579127e-05,2.5874223422598588e-05,4.003835959410999e-05,4.2,3.0
1.08203125,3.514921614404514e-05,4.19868270572976e-05,3.41785773708705e-05,2.88077094926375e-05,4.2,3.0
1.0859375,2.88077094926375e-05,2.9296623837643976e-05,2.977834826581214e-05,2.4896394732585618e-05,4.2,3.0
1.08984375,3.466749171587699e-05,1.903661250934613e-05,2.977834826581214e-05,3.612704483405811e-05,4.2,3.0
1.09375,4.19868270572976e-05,2.88077094926375e-05,3.320074868085753e-05,3.9549445249103514e-05,4.2,3.0
1.09765625,3.759378786907757e-05,2.5874223422598588e-05,2.685205211261156e-05,3.514921614404514e-05,4.2,3.0
1.1015625,3.466749171587699e-05,2.5874223422598588e-05,2.2947927269398007e-05,2.3925755959410978e-05,4.2,3.0
1.10546875,3.759378786907757e-05,3.466749171587699e-05,2.5874223422598588e-05,1.5621402011139067e-05,4.2,3.0
1.109375,2.7340966457618035e-05,3.026726261081862e-05,2.4896394732585618e-05,2.4896394732585618e-05,4.2,3.0
1.11328125,2.0992269889372066e-05,2.4407480387579127e-05,3.66159591790646e-05,1.8547698164339635e-05,4.2,3.0
1.1171875,3.222291999084456e-05,2.977834826581214e-05,3.514921614404514e-05,2.1970098579385037e-05,4.2,3.0
1.12109375,2.9296623837643976e-05,2.88077094926375e-05,1.903661250934613e-05,3.368966302586402e-05,4.2,3.0
1.125,2.9296623837643976e-05,2.1970098579385037e-05,2.88077094926375e-05,3.271183433585105e-05,4.2,3.0
1.12890625,3.41785773708705e-05,1.757705939116501e-05,3.563813048905163e-05,4.149791271229112e-05,4.2,3.0
1.1328125,3.271183433585105e-05,1.903661250934613e-05,2.685205211261156e-05,4.2475741402304095e-05,4.2,3.0
1.13671875,1.8065973736171485e-05,1.9525526854352605e-05,2.685205211261156e-05,3.710487352407108e-05,4.2,3.0
1.140625,2.4350945296406294e-06,2.0503355544365576e-05,3.026726261081862e-05,3.124509130083159e-05,4.2,3.0
1.14453125,1.8547698164339635e-05,3.026726261081862e-05,4.052727393911648e-05,1.3176830286106636e-05,4.2,3.0
1.1484375,3.026726261081862e-05,1.903661250934613e-05,3.857161655909054e-05,9.755414114595027e-07,4.2,3.0
1.15234375,3.66159591790646e-05,1.1717277167925516e-05,1.757705939116501e-05,2.3436841614404497e-05,4.2,3.0
1.15625,4.73576949355306e-05,3.173400564583808e-05,7.324237979705479e-06,4.492031312733651e-05,4.2,3.0
1.16015625,4.931335231555654e-05,4.003835959410999e-05,5.368580599679539e-06,5.2239648468757125e-05,4.2,3.0
1.1640625,3.271183433585105e-05,2.1970098579385037e-05,6.835323634698994e-06,5.6150963228809e-05,4.2,3.0
1.16796875,2.685205211261156e-05,3.901837564660084e-06,9.755414114595027e-07,4.833552362554357e-05,4.2,3.0
1.171875,3.368966302586402e-05,1.0250534132906053e-05,-6.350983846799444e-06,2.8318795147631006e-05,4.2,3.0
1.17578125,3.368966302586402e-05,1.903661250934613e-05,5.857494944686024e-06,1.5621402011139067e-05,4.2,3.0
1.1796875,2.782988080262453e-05,2.8318795147631006e-05,2.3436841614404497e-05,2.3925755959410978e-05,4.2,3.0
1.18359375,2.3925755959410978e-05,4.003835959410999e-05,2.685205211261156e-05,1.6110316356145544e-05,4.2,3.0
1.1875,2.5874223422598588e-05,3.271183433585105e-05,4.1008998367284634e-05,7.805962407873636e-06,4.2,3.0
1.19140625,3.026726261081862e-05,1.0739448477912545e-05,2.782988080262453e-05,4.4431398782330036e-05,4.2,3.0
1.1953125,3.710487352407108e-05,9.272705442893083e-06,1.5132487666132575e-05,6.738161333028151e-05,4.2,3.0
1.19921875,4.149791271229112e-05,1.757705939116501e-05,2.782988080262453e-05,5.858834503700311e-05,4.2,3.0
1.203125,3.66159591790646e-05,7.324237979705479e-06,2.3436841614404497e-05,5.3706391503776586e-05,4.2,3.0
1.20703125,2.9296623837643976e-05,1.5132487666132575e-05,4.637986624551763e-05,5.2239648468757125e-05,4.2,3.0
1.2109375,3.41785773708705e-05,4.1008998367284634e-05,5.3706391503776586e-05,4.19868270572976e-05,4.2,3.0
1.21484375,4.4431398782330036e-05,3.612704483405811e-05,2.2947927269398007e-05,1.2206191512931994e-05,4.2,3.0
1.21875,5.1750734123750645e-05,1.8547698164339635e-05,8.294876752880114e-06,-4.884240811779989e-06,4.2,3.0
1.22265625,4.931335231555654e-05,1.757705939116501e-05,1.3665744631113128e-05,-3.424687693598862e-06,4.2,3.0
1.2265625,4.345357009231706e-05,2.924008874647114e-06,-3.424687693598862e-06,-8.79555557183187e-06,4.2,3.0
1.23046875,6.054400241702905e-05,-1.9579446585794073e-06,-2.9790112739757404e-05,-1.6603805258258965e-05,4.2,3.0
1.234375,7.958290220492864e-05,-1.172185172503245e-05,-4.053184849622342e-05,-5.3731551567864735e-06,4.2,3.0
1.23828125,7.128573817349505e-05,-2.0507930101472517e-05,-4.053184849622342e-05,4.879666254673054e-06,4.2,3.0
1.2421875,7.763443474174102e-05,-2.197467313649197e-05,-5.274032728770888e-05,-2.9357733485923774e-06,4.2,3.0
1.24609375,8.544268442816811e-05,-3.467206627298392e-05,-5.7126176559090585e-05,-2.9357733485923774e-06,4.2,3.0
1.25,7.81233490867475e-05,-3.906510546120395e-05,-6.298595878233007e-05,-1.4166423450064875e-05,4.2,3.0
1.25390625,9.423595272144652e-05,-4.248750587624935e-05,-8.202485857022967e-05,-2.8812284049744434e-05,4.2,3.0
1.2578125,0.00010937072766613258,-3.0767941429770375e-05,-7.568335191882202e-05,-4.1998591531242866e-05,4.2,3.0
1.26171875,0.00011913463473258563,-2.636771232471201e-05,-7.323878019378961e-05,-5.3229241632715364e-05,4.2,3.0
1.265625,0.00012206812080262452,-3.3694237582970956e-05,-7.909856241702908e-05,-6.542334059052415e-05,4.2,3.0
1.26953125,0.00012206812080262452,-3.857619111619748e-05,-8.593617333028155e-05,-8.935138382848862e-05,4.2,3.0
1.2734375,0.00011767508161440449,-4.0042934151216925e-05,-8.251377291523615e-05,-6.005247271229116e-05,4.2,3.0
1.27734375,0.00010448877413290606,-2.295250182650494e-05,-5.9081833939116526e-05,-2.4419244861524395e-05,4.2,3.0
1.28125,9.765116321965359e-05,-1.367750910505839e-05,-3.9554019806210445e-05,-2.002620567330436e-05,4.2,3.0
1.28515625,0.00010058464928969248,-4.395326466773504e-06,-3.8087276771190984e-05,-4.1998591531242866e-05,4.2,3.0
1.2890625,0.00010790398463111313,1.3665744631113128e-05,-3.857619111619748e-05,-3.857619111619748e-05,4.2,3.0
1.29296875,8.69094274631876e-05,1.0250534132906053e-05,-3.418315192797743e-05,-5.3731551567864735e-06,4.2,3.0
1.296875,8.153855958495458e-05,1.0250534132906053e-05,-3.3694237582970956e-05,-7.328812536812414e-06,4.2,3.0
1.30078125,9.228029534142058e-05,9.761619787899577e-06,-1.8559462638284906e-05,-1.709271960326545e-05,4.2,3.0
1.3046875,8.056073089494159e-05,9.761619787899577e-06,7.324237979705479e-06,-8.79555557183187e-06,4.2,3.0
1.30859375,8.788725615320055e-05,1.3176830286106636e-05,-8.306641226825384e-06,-3.424687693598862e-06,4.2,3.0
1.3125,9.276920968642707e-05,1.6599230701152038e-05,-1.3188594760051906e-05,-3.2227494547951495e-05,4.2,3.0
1.31640625,8.007181654993513e-05,1.903661250934613e-05,1.4644557564659877e-06,-3.613880930800338e-05,4.2,3.0
1.3203125,6.689269898527501e-05,2.6363137767605065e-05,7.805962407873636e-06,7.805962407873636e-06,4.2,3.0
1.32421875,6.44481272602426e-05,3.368966302586402e-05,2.0014441199359096e-05,2.6363137767605065e-05,4.2,3.0
1.328125,6.44481272602426e-05,2.977834826581214e-05,1.1717277167925516e-05,2.0503355544365576e-05,4.2,3.0
1.33203125,6.347029857022963e-05,3.026726261081862e-05,7.805962407873636e-06,1.0250534132906053e-05,4.2,3.0
1.3359375,6.689269898527501e-05,3.124509130083159e-05,3.124509130083159e-05,9.272705442893083e-06,4.2,3.0
1.33984375,6.39592129152361e-05,3.8082702214084046e-05,3.906053090409702e-05,1.946180184634144e-06,4.2,3.0
1.34375,5.2239648468757125e-05,4.980226666056303e-05,3.075617695582511e-05,-4.395326466773504e-06,4.2,3.0
1.34765625,4.345357009231706e-05,4.589814181734948e-05,3.222291999084456e-05,3.901837564660084e-06,4.2,3.0
1.3515625,4.5409227472343e-05,3.612704483405811e-05,3.026726261081862e-05,1.8065973736171485e-05,4.2,3.0
1.35546875,5.272856281376361e-05,3.320074868085753e-05,3.41785773708705e-05,8.294876752880114e-06,4.2,3.0
1.359375,5.566204888380253e-05,3.368966302586402e-05,4.8824437970550064e-05,1.4644557564659877e-06,4.2,3.0
1.36328125,4.492031312733651e-05,3.563813048905163e-05,5.907725938200958e-05,2.1970098579385037e-05,4.2,3.0
1.3671875,4.003835959410999e-05,3.759378786907757e-05,4.5409227472343e-05,3.173400564583808e-05,4.2,3.0
1.37109375,5.321747715877009e-05,3.857161655909054e-05,3.466749171587699e-05,3.906053090409702e-05,4.2,3.0
1.375,5.8099430691996614e-05,3.857161655909054e-05,3.906053090409702e-05,3.514921614404514e-05,4.2,3.0
1.37890625,5.566204888380253e-05,4.931335231555654e-05,5.8099430691996614e-05,2.4407480387579127e-05,4.2,3.0
1.3828125,5.0780095350576005e-05,5.7128791918821974e-05,6.103291676203552e-05,1.7088145046158515e-05,4.2,3.0
1.38671875,4.980226666056303e-05,5.468422019378955e-05,4.492031312733651e-05,2.6363137767605065e-05,4.2,3.0
1.390625,4.980226666056303e-05,4.980226666056303e-05,3.906053090409702e-05,2.8318795147631006e-05,4.2,3.0
1.39453125,4.833552362554357e-05,3.857161655909054e-05,3.906053090409702e-05,1.4643573321126097e-05,4.2,3.0
1.3984375,4.1008998367284634e-05,4.296465574731057e-05,3.8082702214084046e-05,1.8547698164339635e-05,4.2,3.0
1.40234375,3.66159591790646e-05,5.2239648468757125e-05,3.41785773708705e-05,2.6363137767605065e-05,4.2,3.0
1.40625,3.710487352407108e-05,4.4431398782330036e-05,2.7340966457618035e-05,1.4154658976119605e-05,4.2,3.0
1.41015625,3.320074868085753e-05,4.1008998367284634e-05,3.075617695582511e-05,7.324237979705479e-06,4.2,3.0
1.4140625,2.88077094926375e-05,4.5409227472343e-05,3.710487352407108e-05,2.3925755959410978e-05,4.2,3.0
1.41796875,2.6363137767605065e-05,4.394248443732354e-05,2.9296623837643976e-05,4.149791271229112e-05,4.2,3.0
1.421875,3.320074868085753e-05,3.124509130083159e-05,3.759378786907757e-05,3.075617695582511e-05,4.2,3.0
1.42578125,4.296465574731057e-05,3.075617695582511e-05,4.5409227472343e-05,1.6599230701152038e-05,4.2,3.0
1.4296875,4.4431398782330036e-05,4.2475741402304095e-05,2.9296623837643976e-05,2.5385309077592098e-05,4.2,3.0
1.43359375,4.4431398782330036e-05,4.345357009231706e-05,2.7340966457618035e-05,2.5874223422598588e-05,4.2,3.0
1.4375,3.612704483405811e-05,4.980226666056303e-05,4.345357009231706e-05,3.8082702214084046e-05,4.2,3.0
1.44140625,2.4896394732585618e-05,5.0780095350576005e-05,5.126900969558248e-05,4.296465574731057e-05,4.2,3.0
1.4453125,2.782988080262453e-05,3.320074868085753e-05,3.759378786907757e-05,-5.862069501792959e-06,4.2,3.0
1.44921875,3.026726261081862e-05,2.1970098579385037e-05,3.514921614404514e-05,-1.269968041504542e-05,4.2,3.0
1.453125,3.41785773708705e-05,2.5874223422598588e-05,4.394248443732354e-05,3.612704483405811e-05,4.2,3.0
1.45703125,3.514921614404514e-05,3.026726261081862e-05,3.759378786907757e-05,5.7610516346990134e-05,4.2,3.0
1.4609375,3.075617695582511e-05,2.9296623837643976e-05,2.245901292439153e-05,5.6150963228809e-05,4.2,3.0
1.46484375,2.2947927269398007e-05,2.9296623837643976e-05,2.1481184234378546e-05,4.980226666056303e-05,4.2,3.0
1.46875,1.1228362822919024e-05,2.88077094926375e-05,1.6599230701152038e-05,4.345357009231706e-05,4.2,3.0
1.47265625,1.1717277167925516e-05,2.4407480387579127e-05,1.3176830286106636e-05,3.368966302586402e-05,4.2,3.0
1.4765625,3.466749171587699e-05,3.222291999084456e-05,2.4407480387579127e-05,2.4896394732585618e-05,4.2,3.0
1.48046875,3.906053090409702e-05,4.394248443732354e-05,4.2475741402304095e-05,4.879666254673054e-06,4.2,3.0
1.484375,2.88077094926375e-05,4.19868270572976e-05,5.0780095350576005e-05,1.4154658976119605e-05,4.2,3.0
1.48828125,3.320074868085753e-05,2.88077094926375e-05,3.612704483405811e-05,4.345357009231706e-05,4.2,3.0
1.4921875,3.612704483405811e-05,1.6599230701152038e-05,1.8547698164339635e-05,2.3436841614404497e-05,4.2,3.0
1.49609375,2.6363137767605065e-05,2.5385309077592098e-05,2.0992269889372066e-05,2.6363137767605065e-05,4.2,3.0
1.5,1.2695105857938486e-05,3.857161655909054e-05,2.782988080262453e-05,5.7610516346990134e-05,4.2,3.0
1.50390625,2.2947927269398007e-05,3.320074868085753e-05,3.271183433585105e-05,4.8824437970550064e-05,4.2,3.0
1.5078125,3.368966302586402e-05,2.1970098579385037e-05,2.0503355544365576e-05,3.368966302586402e-05,4.2,3.0
1.51171875,3.514921614404514e-05,1.0739448477912545e-05,1.4154658976119605e-05,3.271183433585105e-05,4.2,3.0
1.515625,2.8318795147631006e-05,5.857494944686024e-06,2.4896394732585618e-05,3.222291999084456e-05,4.2,3.0
1.51953125,2.6363137767605065e-05,1.7088145046158515e-05,4.19868270572976e-05,3.4129232196535994e-06,4.2,3.0
1.5234375,3.41785773708705e-05,2.3925755959410978e-05,4.003835959410999e-05,-9.766194345006511e-06,4.2,3.0
1.52734375,2.3925755959410978e-05,2.0014441199359096e-05,3.173400564583808e-05,2.4407480387579127e-05,4.2,3.0
1.53125,3.320074868085753e-05,3.173400564583808e-05,2.782988080262453e-05,5.029118100556951e-05,4.2,3.0
1.53515625,4.589814181734948e-05,3.222291999084456e-05,1.9525526854352605e-05,4.833552362554357e-05,4.2,3.0
1.5390625,2.9296623837643976e-05,2.245901292439153e-05,2.245901292439153e-05,3.563813048905163e-05,4.2,3.0
1.54296875,2.7340966457618035e-05,2.5385309077592098e-05,3.320074868085753e-05,4.19868270572976e-05,4.2,3.0
1.546875,2.4407480387579127e-05,2.245901292439153e-05,3.075617695582511e-05,4.492031312733651e-05,4.2,3.0
1.55078125,2.0503355544365576e-05,1.6110316356145544e-05,2.1481184234378546e-05,3.320074868085753e-05,4.2,3.0
1.5546875,1.6599230701152038e-05,2.0014441199359096e-05,2.4407480387579127e-05,1.8065973736171485e-05,4.2,3.0
1.55859375,4.3907519096665695e-06,3.41785773708705e-05,4.19868270572976e-05,1.2206191512931994e-05,4.2,3.0
1.5625,2.1481184234378546e-05,4.003835959410999e-05,4.2475741402304095e-05,1.9525526854352605e-05,4.2,3.0
1.56640625,3.9549445249103514e-05,4.003835959410999e-05,4.2475741402304095e-05,3.124509130083159e-05,4.2,3.0
1.5703125,3.906053090409702e-05,3.320074868085753e-05,3.9549445249103514e-05,4.296465574731057e-05,4.2,3.0
1.57421875,4.003835959410999e-05,2.8318795147631006e-05,1.9525526854352605e-05,3.8082702214084046e-05,4.2,3.0
1.578125,3.9549445249103514e-05,3.66159591790646e-05,3.710487352407108e-05,2.7340966457618035e-05,4.2,3.0
1.58203125,4.2475741402304095e-05,3.759378786907757e-05,4.8824437970550064e-05,2.245901292439153e-05,4.2,3.0
1.5859375,4.296465574731057e-05,3.466749171587699e-05,3.8082702214084046e-05,1.6599230701152038e-05,4.2,3.0
1.58984375,3.271183433585105e-05,2.7340966457618035e-05,3.124509130083159e-05,2.6363137767605065e-05,4.2,3.0
1.59375,3.222291999084456e-05,2.1481184234378546e-05,3.075617695582511e-05,4.052727393911648e-05,4.2,3.0
1.59765625,3.710487352407108e-05,3.026726261081862e-05,3.906053090409702e-05,3.514921614404514e-05,4.2,3.0
1.6015625,3.222291999084456e-05,4.5409227472343e-05,5.6639877573815494e-05,2.4407480387579127e-05,4.2,3.0
1.60546875,2.5385309077592098e-05,5.6150963228809e-05,6.152183110704202e-05,2.8318795147631006e-05,4.2,3.0
1.609375,2.1481184234378546e-05,3.563813048905163e-05,4.637986624551763e-05,3.124509130083159e-05,4.2,3.0
1.61328125,3.075617695582511e-05,2.9296623837643976e-05,4.980226666056303e-05,2.4407480387579127e-05,4.2,3.0
1.6171875,4.19868270572976e-05,3.710487352407108e-05,5.3706391503776586e-05,1.757705939116501e-05,4.2,3.0
1.62109375,3.368966302586402e-05,3.075617695582511e-05,5.0780095350576005e-05,1.4154658976119605e-05,4.2,3.0
1.625,2.5874223422598588e-05,2.782988080262453e-05,6.591487029526205e-05,2.3925755959410978e-05,4.2,3.0
1.62890625,3.66159591790646e-05,2.8318795147631006e-05,5.7610516346990134e-05,2.7340966457618035e-05,4.2,3.0
1.6328125,4.19868270572976e-05,3.222291999084456e-05,4.980226666056303e-05,2.4896394732585618e-05,4.2,3.0
1.63671875,3.41785773708705e-05,2.6363137767605065e-05,5.3706391503776586e-05,3.368966302586402e-05,4.2,3.0
1.640625,2.685205211261156e-05,3.514921614404514e-05,5.6639877573815494e-05,2.8318795147631006e-05,4.2,3.0
1.64453125,3.173400564583808e-05,4.931335231555654e-05,7.421203432669562e-05,3.4129232196535994e-06,4.2,3.0
1.6484375,3.124509130083159e-05,3.222291999084456e-05,6.44481272602426e-05,1.0739448477912545e-05,4.2,3.0
1.65234375,2.4407480387579127e-05,2.0992269889372066e-05,4.345357009231706e-05,4.637986624551763e-05,4.2,3.0
1.65625,3.271183433585105e-05,1.757705939116501e-05,3.857161655909054e-05,6.103291676203552e-05,4.2,3.0
1.66015625,4.149791271229112e-05,2.3925755959410978e-05,4.833552362554357e-05,5.858834503700311e-05,4.2,3.0
1.6640625,3.466749171587699e-05,3.075617695582511e-05,5.2239648468757125e-05,5.419530584878306e-05,4.2,3.0
1.66796875,3.026726261081862e-05,2.88077094926375e-05,4.492031312733651e-05,2.9296623837643976e-05,4.2,3.0
1.671875,3.320074868085753e-05,2.7340966457618035e-05,4.637986624551763e-05,4.3907519096665695e-06,4.2,3.0
1.67578125,3.320074868085753e-05,3.368966302586402e-05,4.19868270572976e-05,2.7340966457618035e-05,4.2,3.0
1.6796875,4.052727393911648e-05,4.492031312733651e-05,4.589814181734948e-05,3.857161655909054e-05,4.2,3.0
1.68359375,3.124509130083159e-05,4.149791271229112e-05,4.589814181734948e-05,2.4407480387579127e-05,4.2,3.0
1.6875,1.8065973736171485e-05,2.5385309077592098e-05,3.222291999084456e-05,3.759378786907757e-05,4.2,3.0
1.69140625,2.5874223422598588e-05,1.1228362822919024e-05,2.7340966457618035e-05,4.345357009231706e-05,4.2,3.0
1.6953125,3.368966302586402e-05,-1.9579446585794073e-06,2.7340966457618035e-05,3.320074868085753e-05,4.2,3.0
1.69921875,4.637986624551763e-05,8.783791097886606e-06,3.612704483405811e-05,2.7340966457618035e-05,4.2,3.0
1.703125,5.3706391503776586e-05,2.4896394732585618e-05,4.052727393911648e-05,3.368966302586402e-05,4.2,3.0
1.70703125,3.8082702214084046e-05,2.245901292439153e-05,2.88077094926375e-05,3.466749171587699e-05,4.2,3.0
1.7109375,2.7340966457618035e-05,1.5621402011139067e-05,2.4896394732585618e-05,3.026726261081862e-05,4.2,3.0
1.71484375,1.8547698164339635e-05,1.6599230701152038e-05,2.245901292439153e-05,1.1717277167925516e-05,4.2,3.0
1.71875,2.1481184234378546e-05,2.685205211261156e-05,2.9296623837643976e-05,4.866270664530176e-07,4.2,3.0
1.72265625,3.8082702214084046e-05,2.6363137767605065e-05,3.906053090409702e-05,2.5385309077592098e-05,4.2,3.0
1.7265625,3.271183433585105e-05,2.685205211261156e-05,2.5385309077592098e-05,4.2475741402304095e-05,4.2,3.0
1.73046875,2.9296623837643976e-05,2.245901292439153e-05,2.924008874647114e-06,4.296465574731057e-05,4.2,3.0
1.734375,3.612704483405811e-05,2.245901292439153e-05,1.7088145046158515e-05,2.9296623837643976e-05,4.2,3.0
1.73828125,3.612704483405811e-05,2.7340966457618035e-05,2.3925755959410978e-05,1.3176830286106636e-05,4.2,3.0
1.7421875,3.857161655909054e-05,2.3436841614404497e-05,2.6363137767605065e-05,1.1717277167925516e-05,4.2,3.0
1.74609375,3.759378786907757e-05,2.3925755959410978e-05,3.368966302586402e-05,2.0992269889372066e-05,4.2,3.0
1.75,2.977834826581214e-05,1.3665744631113128e-05,1.1228362822919024e-05,3.759378786907757e-05,4.2,3.0
1.75390625,3.466749171587699e-05,9.761619787899577e-06,1.3665744631113128e-05,4.003835959410999e-05,4.2,3.0
1.7578125,3.66159591790646e-05,1.9525526854352605e-05,2.8318795147631006e-05,1.5132487666132575e-05,4.2,3.0
1.76171875,3.173400564583808e-05,2.4896394732585618e-05,3.173400564583808e-05,1.5132487666132575e-05,4.2,3.0
1.765625,2.4407480387579127e-05,2.5385309077592098e-05,2.7340966457618035e-05,4.1008998367284634e-05,4.2,3.0
1.76953125,2.3436841614404497e-05,2.0992269889372066e-05,1.7088145046158515e-05,5.1750734123750645e-05,4.2,3.0
1.7734375,3.173400564583808e-05,3.41785773708705e-05,2.0992269889372066e-05,4.4431398782330036e-05,4.2,3.0
1.77734375,3.320074868085753e-05,4.589814181734948e-05,3.320074868085753e-05,2.782988080262453e-05,4.2,3.0
1.78125,2.0992269889372066e-05,3.906053090409702e-05,3.222291999084456e-05,1.2695105857938486e-05,4.2,3.0
1.78515625,2.0503355544365576e-05,2.9296623837643976e-05,3.026726261081862e-05,1.2206191512931994e-05,4.2,3.0
1.7890625,2.3925755959410978e-05,2.7340966457618035e-05,2.0992269889372066e-05,2.8318795147631006e-05,4.2,3.0
1.79296875,2.4896394732585618e-05,2.88077094926375e-05,3.026726261081862e-05,3.759378786907757e-05,4.2,3.0
1.796875,3.612704483405811e-05,3.906053090409702e-05,4.149791271229112e-05,2.3436841614404497e-05,4.2,3.0
1.80078125,3.759378786907757e-05,5.419530584878306e-05,3.026726261081862e-05,2.3925755959410978e-05,4.2,3.0
1.8046875,2.5874223422598588e-05,5.1750734123750645e-05,3.124509130083159e-05,3.271183433585105e-05,4.2,3.0
1.80859375,1.8547698164339635e-05,2.977834826581214e-05,2.0503355544365576e-05,3.368966302586402e-05,4.2,3.0
1.8125,2.977834826581214e-05,2.3436841614404497e-05,1.1717277167925516e-05,2.685205211261156e-05,4.2,3.0
1.81640625,4.003835959410999e-05,3.466749171587699e-05,2.782988080262453e-05,2.8318795147631006e-05,4.2,3.0
1.8203125,4.8824437970550064e-05,4.003835959410999e-05,2.977834826581214e-05,2.685205211261156e-05,4.2,3.0
1.82421875,3.9549445249103514e-05,3.563813048905163e-05,1.9525526854352605e-05,2.1970098579385037e-05,4.2,3.0
1.828125,2.1970098579385037e-05,3.66159591790646e-05,1.8065973736171485e-05,2.4407480387579127e-05,4.2,3.0
1.83203125,2.685205211261156e-05,2.977834826581214e-05,7.805962407873636e-06,2.88077094926375e-05,4.2,3.0
1.8359375,3.710487352407108e-05,2.1481184234378546e-05,9.272705442893083e-06,4.833552362554357e-05,4.2,3.0
1.83984375,4.149791271229112e-05,2.4407480387579127e-05,1.3665744631113128e-05,4.4431398782330036e-05,4.2,3.0
1.84375,4.2475741402304095e-05,2.1970098579385037e-05,2.1970098579385037e-05,2.5385309077592098e-05,4.2,3.0
1.84765625,3.9549445249103514e-05,1.6110316356145544e-05,2.1481184234378546e-05,2.0503355544365576e-05,4.2,3.0
1.8515625,3.8082702214084046e-05,2.5385309077592098e-05,1.4643573321126097e-05,2.3436841614404497e-05,4.2,3.0
1.85546875,4.394248443732354e-05,3.368966302586402e-05,2.4407480387579127e-05,3.906053090409702e-05,4.2,3.0
1.859375,4.492031312733651e-05,3.906053090409702e-05,2.5385309077592098e-05,5.2239648468757125e-05,4.2,3.0
1.86328125,4.394248443732354e-05,3.906053090409702e-05,2.782988080262453e-05,5.1750734123750645e-05,4.2,3.0
1.8671875,4.19868270572976e-05,2.2947927269398007e-05,1.7088145046158515e-05,3.66159591790646e-05,4.2,3.0
1.87109375,3.222291999084456e-05,1.5621402011139067e-05,1.6599230701152038e-05,2.8318795147631006e-05,4.2,3.0
1.875,3.612704483405811e-05,2.6363137767605065e-05,2.4407480387579127e-05,2.8318795147631006e-05,4.2,3.0
1.87890625,4.003835959410999e-05,2.4350945296406294e-06,-1.074402303501948e-05,2.88077094926375e-05,4.2,3.0
1.8828125,5.2239648468757125e-05,-2.197467313649197e-05,-1.8559462638284906e-05,3.8082702214084046e-05,4.2,3.0
1.88671875,6.39592129152361e-05,-3.6627723653009864e-05,-2.4419244861524395e-05,4.8824437970550064e-05,4.2,3.0
1.890625,5.6150963228809e-05,-7.274986584878311e-05,-8.153594422522318e-05,4.589814181734948e-05,4.2,3.0
1.89453125,4.980226666056303e-05,-0.00011473898018463418,-0.00011620572321965363,3.906053090409702e-05,4.2,3.0
1.8984375,6.93300807934691e-05,-0.00013476289857938508,-0.00012939203070115205,4.296465574731057e-05,4.2,3.0
1.90234375,7.324139555352098e-05,-0.0001557574557473106,-0.00017577418422522317,3.9549445249103514e-05,4.2,3.0
1.90625,6.249965979705499e-05,-0.00018993832039673457,-0.00021386636363469904,4.003835959410999e-05,4.2,3.0
1.91015625,6.44481272602426e-05,-0.00021044396321965363,-0.0002338830921126116,5.321747715877009e-05,4.2,3.0
1.9140625,6.201074545204849e-05,-0.00023729830261081866,-0.0002504846100923171,5.9566173727016075e-05,4.2,3.0
1.91796875,6.103291676203552e-05,-0.00025487764928053714,-0.0002626930888838026,5.6639877573815494e-05,4.2,3.0
1.921875,6.152183110704202e-05,-0.00026073743150377665,-0.00026513047069199664,5.858834503700311e-05,4.2,3.0
1.92578125,5.7610516346990134e-05,-0.0002626930888838026,-0.00027441265333028156,6.054400241702905e-05,4.2,3.0
1.9296875,5.907725938200958e-05,-0.0002622041745387961,-0.0002773389494834821,5.7610516346990134e-05,4.2,3.0
1.93359375,6.201074545204849e-05,-0.00025487764928053714,-0.000257811135350576,5.321747715877009e-05,4.2,3.0
1.9375,5.6150963228809e-05,-0.00024023178868085759,-0.00024364699917906463,5.566204888380253e-05,4.2,3.0
1.94140625,5.321747715877009e-05,-0.0002285122242343786,-0.0002358387494926375,5.1750734123750645e-05,4.2,3.0
1.9453125,6.738161333028151e-05,-0.00022606765250934616,-0.00022704548119935913,5.126900969558248e-05,4.2,3.0
1.94921875,6.738161333028151e-05,-0.0002167926597878996,-0.0002280233098893721,5.6639877573815494e-05,4.2,3.0
1.953125,5.907725938200958e-05,-0.00019921331311818113,-0.0002114217919096666,5.6150963228809e-05,4.2,3.0
1.95703125,5.566204888380253e-05,-0.00017626309857022966,-0.00018554528120851455,5.029118100556951e-05,4.2,3.0
1.9609375,5.6150963228809e-05,-0.00014257114826581217,-0.00015234224524910352,4.686878059052412e-05,4.2,3.0
1.96484375,6.98189951384756e-05,-0.00011522789452964067,-0.00012255441978789962,4.4431398782330036e-05,4.2,3.0
1.96875,6.640378464026854e-05,-0.00010253769130998705,-0.00011425725575646603,3.612704483405811e-05,4.2,3.0
1.97265625,4.784660928053709e-05,-8.544725898527506e-05,-0.00010204877696498056,3.8082702214084046e-05,4.2,3.0
1.9765625,5.419530584878306e-05,-6.298595878233007e-05,-8.105421979705503e-05,4.394248443732354e-05,4.2,3.0
1.98046875,5.6639877573815494e-05,-3.906510546120395e-05,-5.810400524910356e-05,4.052727393911648e-05,4.2,3.0
1.984375,4.2475741402304095e-05,-2.4419244861524395e-05,-3.6627723653009864e-05,3.320074868085753e-05,4.2,3.0
1.98828125,3.514921614404514e-05,-1.2210766070038936e-05,-3.418315192797743e-05,2.245901292439153e-05,4.2,3.0
1.9921875,4.73576949355306e-05,9.272705442893083e-06,-2.3930330516517912e-05,1.2695105857938486e-05,4.2,3.0
1.99609375,6.103291676203552e-05,2.0503355544365576e-05,-2.287278553467331e-09,5.368580599679539e-06,4.2,3.0
2.0,5.419530584878306e-05,3.271183433585105e-05,1.7088145046158515e-05,-4.912016235599523e-07,4.2,3.0
2.00390625,4.296465574731057e-05,4.296465574731057e-05,2.782988080262453e-05,2.4350945296406294e-06,4.2,3.0
2.0078125,4.003835959410999e-05,4.73576949355306e-05,3.906053090409702e-05,1.3176830286106636e-05,4.2,3.0
2.01171875,3.222291999084456e-05,5.6639877573815494e-05,4.5409227472343e-05,1.1228362822919024e-05,4.2,3.0
2.015625,3.563813048905163e-05,7.470094867170212e-05,5.419530584878306e-05,1.1717277167925516e-05,4.2,3.0
2.01953125,3.41785773708705e-05,8.398313130998701e-05,8.398313130998701e-05,1.6110316356145544e-05,4.2,3.0
2.0234375,1.903661250934613e-05,8.935399918822e-05,9.765116321965359e-05,1.1228362822919024e-05,4.2,3.0
2.02734375,9.272705442893083e-06,9.033182787823298e-05,8.739834180819406e-05,8.783791097886606e-06,4.2,3.0
2.03125,5.368580599679539e-06,9.52137814114595e-05,8.98429135332265e-05,1.0739448477912545e-05,4.2,3.0
2.03515625,2.5385309077592098e-05,0.000105466602822919,9.325812403143357e-05,8.294876752880114e-06,4.2,3.0
2.0390625,3.906053090409702e-05,0.00011278593816433964,9.911790625467304e-05,-3.424687693598862e-06,4.2,3.0
2.04296875,3.710487352407108e-05,0.00012743898868085752,0.00011034855635614553,-2.9357733485923774e-06,4.2,3.0
2.046875,4.052727393911648e-05,0.0001308541991790646,0.00010595551716792551,-1.5625976568245995e-05,4.2,3.0
2.05078125,3.368966302586402e-05,0.0001245055026108186,0.00010058464928969248,-2.636771232471201e-05,4.2,3.0
2.0546875,2.245901292439153e-05,0.00012890573171587698,0.00011083747070115203,1.0250534132906053e-05,4.2,3.0
2.05859375,3.368966302586402e-05,0.00012987637048905162,0.00011474159554436559,1.903661250934613e-05,4.2,3.0
2.0625,3.075617695582511e-05,0.00012206812080262452,0.0001137637668543526,1.1717277167925516e-05,4.2,3.0
2.06640625,2.0503355544365576e-05,0.000106444431512932,0.00012938745614404513,1.9525526854352605e-05,4.2,3.0
2.0703125,2.245901292439153e-05,9.814007756466009e-05,0.00011571942423437855,1.8547698164339635e-05,4.2,3.0
2.07421875,2.0014441199359096e-05,0.00010253311675288011,0.0001083928989761196,1.7088145046158515e-05,4.2,3.0
2.078125,2.3436841614404497e-05,0.0001142526811993591,0.00011913463473258563,9.272705442893083e-06,4.2,3.0
2.08203125,2.4407480387579127e-05,0.00012206812080262452,0.0001137637668543526,-1.4690303135729223e-06,4.2,3.0
2.0859375,1.2695105857938486e-05,0.0001230459494926375,0.00012743898868085752,6.34640928969251e-06,4.2,3.0
2.08984375,1.757705939116501e-05,0.00012060137776760507,0.00012792790302586403,1.2206191512931994e-05,4.2,3.0
2.09375,3.320074868085753e-05,0.00011327485250934612,0.00011278593816433964,3.4129232196535994e-06,4.2,3.0
2.09765625,3.173400564583808e-05,0.0001083928989761196,0.000111815299391165,6.835323634698994e-06,4.2,3.0
2.1015625,2.7340966457618035e-05,0.00010790398463111313,0.0001230459494926375,1.0250534132906053e-05,4.2,3.0
2.10546875,3.41785773708705e-05,0.00010448877413290606,0.00012060137776760507,9.272705442893083e-06,4.2,3.0
2.109375,2.4407480387579127e-05,9.960682059967954e-05,0.00011278593816433964,1.1717277167925516e-05,4.2,3.0
2.11328125,1.903661250934613e-05,0.0001083928989761196,0.00011083747070115203,2.0014441199359096e-05,4.2,3.0
2.1171875,1.757705939116501e-05,0.000105466602822919,0.00010497768847791255,1.8547698164339635e-05,4.2,3.0
2.12109375,1.6599230701152038e-05,0.00010741507028610663,0.00011474159554436559,4.879666254673054e-06,4.2,3.0
2.125,4.394248443732354e-05,0.0001254833313008316,0.00011816399595941097,-1.5625976568245995e-05,4.2,3.0
2.12890625,4.589814181734948e-05,0.00011620833857938504,0.00010253311675288011,-4.884240811779989e-06,4.2,3.0
2.1328125,2.7340966457618035e-05,0.000106444431512932,9.472486706645302e-05,2.6363137767605065e-05,4.2,3.0
2.13671875,2.0992269889372066e-05,0.0001137637668543526,9.179138099641408e-05,3.271183433585105e-05,4.2,3.0
2.140625,2.4896394732585618e-05,0.00012109029211261156,9.228029534142058e-05,3.271183433585105e-05,4.2,3.0
2.14453125,2.685205211261156e-05,0.0001137637668543526,0.00010302203109788661,2.9296623837643976e-05,4.2,3.0
2.1484375,2.5874223422598588e-05,9.814007756466009e-05,9.52137814114595e-05,2.2947927269398007e-05,4.2,3.0
2.15234375,2.7340966457618035e-05,8.837617049820705e-05,8.544268442816811e-05,2.1481184234378546e-05,4.2,3.0
2.15625,1.6599230701152038e-05,9.325812403143357e-05,9.179138099641408e-05,1.757705939116501e-05,4.2,3.0
2.16015625,1.4643573321126097e-05,9.52137814114595e-05,0.00010009573494468602,1.5132487666132575e-05,4.2,3.0
2.1640625,1.7088145046158515e-05,9.423595272144652e-05,0.00010693334585793848,4.879666254673054e-06,4.2,3.0
2.16796875,2.0014441199359096e-05,9.033182787823298e-05,9.960682059967954e-05,3.4129232196535994e-06,4.2,3.0
2.171875,3.075617695582511e-05,7.714552039673456e-05,8.056073089494159e-05,2.0992269889372066e-05,4.2,3.0
2.17578125,3.466749171587699e-05,8.593159877317461e-05,8.300530261997402e-05,2.5874223422598588e-05,4.2,3.0
2.1796875,3.368966302586402e-05,9.130246665140762e-05,9.179138099641408e-05,3.9549445249103514e-05,4.2,3.0
2.18359375,2.9296623837643976e-05,7.27524812085145e-05,8.202747392996108e-05,4.8824437970550064e-05,4.2,3.0
2.1875,2.5874223422598588e-05,5.907725938200958e-05,6.835225210345614e-05,4.2475741402304095e-05,4.2,3.0
2.19140625,2.8318795147631006e-05,5.6150963228809e-05,5.8099430691996614e-05,3.514921614404514e-05,4.2,3.0
2.1953125,3.075617695582511e-05,6.39592129152361e-05,5.907725938200958e-05,2.245901292439153e-05,4.2,3.0
2.19921875,1.1717277167925516e-05,7.27524812085145e-05,8.447204565499347e-05,1.5621402011139067e-05,4.2,3.0
2.203125,1.2206191512931994e-05,8.007181654993513e-05,9.325812403143357e-05,1.0250534132906053e-05,4.2,3.0
2.20703125,3.66159591790646e-05,7.373030989852748e-05,6.103291676203552e-05,3.901837564660084e-06,4.2,3.0
2.2109375,3.8082702214084046e-05,6.152183110704202e-05,4.931335231555654e-05,7.805962407873636e-06,4.2,3.0
2.21484375,3.612704483405811e-05,6.298138422522313e-05,5.029118100556951e-05,1.757705939116501e-05,4.2,3.0
2.21875,3.563813048905163e-05,6.347029857022963e-05,5.8099430691996614e-05,2.4407480387579127e-05,4.2,3.0
2.22265625,3.222291999084456e-05,7.470094867170212e-05,6.884116644846263e-05,3.222291999084456e-05,4.2,3.0
2.2265625,2.782988080262453e-05,7.373030989852748e-05,6.884116644846263e-05,4.492031312733651e-05,4.2,3.0
2.23046875,2.4896394732585618e-05,6.054400241702905e-05,5.9566173727016075e-05,4.149791271229112e-05,4.2,3.0
2.234375,2.7340966457618035e-05,6.201074545204849e-05,5.858834503700311e-05,3.906053090409702e-05,4.2,3.0
2.23828125,3.759378786907757e-05,7.567877736171507e-05,7.177465251850153e-05,2.5385309077592098e-05,4.2,3.0
2.2421875,4.003835959410999e-05,7.373030989852748e-05,7.421203432669562e-05,-4.395326466773504e-06,4.2,3.0
2.24609375,3.563813048905163e-05,5.6639877573815494e-05,6.542595595025556e-05,2.924008874647114e-06,4.2,3.0
2.25,3.368966302586402e-05,4.931335231555654e-05,5.272856281376361e-05,3.466749171587699e-05,4.2,3.0
2.25390625,3.124509130083159e-05,3.906053090409702e-05,4.8824437970550064e-05,5.2239648468757125e-05,4.2,3.0
2.2578125,1.6599230701152038e-05,4.149791271229112e-05,5.321747715877009e-05,5.2239648468757125e-05,4.2,3.0
2.26171875,2.4407480387579127e-05,5.126900969558248e-05,5.517313453879603e-05,3.466749171587699e-05,4.2,3.0
2.265625,4.2475741402304095e-05,4.394248443732354e-05,5.6639877573815494e-05,2.0503355544365576e-05,4.2,3.0
2.26953125,4.149791271229112e-05,4.345357009231706e-05,5.321747715877009e-05,2.245901292439153e-05,4.2,3.0
2.2734375,3.466749171587699e-05,5.1750734123750645e-05,5.029118100556951e-05,2.782988080262453e-05,4.2,3.0
2.27734375,3.026726261081862e-05,5.468422019378955e-05,5.029118100556951e-05,3.514921614404514e-05,4.2,3.0
2.28125,2.685205211261156e-05,4.686878059052412e-05,4.394248443732354e-05,3.612704483405811e-05,4.2,3.0
2.28515625,2.0503355544365576e-05,5.2239648468757125e-05,4.784660928053709e-05,2.9296623837643976e-05,4.2,3.0
2.2890625,2.88077094926375e-05,5.419530584878306e-05,4.980226666056303e-05,2.88077094926375e-05,4.2,3.0
2.29296875,3.124509130083159e-05,4.1008998367284634e-05,4.5409227472343e-05,2.4896394732585618e-05,4.2,3.0
2.296875,3.9549445249103514e-05,3.710487352407108e-05,5.468422019378955e-05,1.9525526854352605e-05,4.2,3.0
2.30078125,4.833552362554357e-05,3.320074868085753e-05,5.6639877573815494e-05,3.173400564583808e-05,4.2,3.0
2.3046875,3.906053090409702e-05,2.4896394732585618e-05,4.833552362554357e-05,1.2206191512931994e-05,4.2,3.0
2.30859375,2.685205211261156e-05,2.782988080262453e-05,4.1008998367284634e-05,6.34640928969251e-06,4.2,3.0
2.3125,2.5874223422598588e-05,4.296465574731057e-05,4.19868270572976e-05,2.88077094926375e-05,4.2,3.0
2.31640625,3.222291999084456e-05,5.6639877573815494e-05,4.833552362554357e-05,3.320074868085753e-05,4.2,3.0
2.3203125,3.9549445249103514e-05,6.44481272602426e-05,6.591487029526205e-05,4.003835959410999e-05,4.2,3.0
2.32421875,4.73576949355306e-05,5.272856281376361e-05,6.152183110704202e-05,4.296465574731057e-05,4.2,3.0
2.328125,4.2475741402304095e-05,3.759378786907757e-05,4.394248443732354e-05,3.759378786907757e-05,4.2,3.0
2.33203125,2.685205211261156e-05,2.245901292439153e-05,3.075617695582511e-05,2.8318795147631006e-05,4.2,3.0
2.3359375,2.88077094926375e-05,2.3436841614404497e-05,3.320074868085753e-05,2.7340966457618035e-05,4.2,3.0
2.33984375,3.66159591790646e-05,3.906053090409702e-05,5.517313453879603e-05,1.757705939116501e-05,4.2,3.0
2.34375,3.563813048905163e-05,4.149791271229112e-05,5.907725938200958e-05,-5.862069501792959e-06,4.2,3.0
2.34765625,2.6363137767605065e-05,3.66159591790646e-05,4.5409227472343e-05,8.294876752880114e-06,4.2,3.0
2.3515625,2.2947927269398007e-05,3.173400564583808e-05,4.394248443732354e-05,3.41785773708705e-05,4.2,3.0
2.35546875,3.710487352407108e-05,3.8082702214084046e-05,5.1750734123750645e-05,3.514921614404514e-05,4.2,3.0
2.359375,3.222291999084456e-05,3.8082702214084046e-05,4.5409227472343e-05,2.4407480387579127e-05,4.2,3.0
2.36328125,1.757705939116501e-05,4.4431398782330036e-05,5.566204888380253e-05,1.8547698164339635e-05,4.2,3.0
2.3671875,1.5132487666132575e-05,4.686878059052412e-05,5.029118100556951e-05,3.368966302586402e-05,4.2,3.0
2.37109375,4.19868270572976e-05,2.977834826581214e-05,3.124509130083159e-05,4.19868270572976e-05,4.2,3.0
2.375,6.347029857022963e-05,3.026726261081862e-05,3.41785773708705e-05,3.271183433585105e-05,4.2,3.0
2.37890625,4.8824437970550064e-05,3.514921614404514e-05,4.394248443732354e-05,3.466749171587699e-05,4.2,3.0
2.3828125,3.759378786907757e-05,3.514921614404514e-05,5.517313453879603e-05,1.757705939116501e-05,4.2,3.0
2.38671875,3.66159591790646e-05,3.075617695582511e-05,5.029118100556951e-05,-3.906412121767019e-06,4.2,3.0
2.390625,3.222291999084456e-05,3.514921614404514e-05,3.759378786907757e-05,1.3176830286106636e-05,4.2,3.0
2.39453125,2.782988080262453e-05,4.1008998367284634e-05,3.271183433585105e-05,3.320074868085753e-05,4.2,3.0
2.3984375,2.977834826581214e-05,5.126900969558248e-05,3.514921614404514e-05,4.589814181734948e-05,4.2,3.0
2.40234375,3.906053090409702e-05,6.054400241702905e-05,6.44481272602426e-05,4.637986624551763e-05,4.2,3.0
2.40625,3.8082702214084046e-05,4.19868270572976e-05,5.907725938200958e-05,4.149791271229112e-05,4.2,3.0
2.41015625,3.271183433585105e-05,2.3436841614404497e-05,2.0014441199359096e-05,2.88077094926375e-05,4.2,3.0
2.4140625,3.66159591790646e-05,2.685205211261156e-05,2.88077094926375e-05,8.783791097886606e-06,4.2,3.0
2.41796875,3.173400564583808e-05,3.66159591790646e-05,3.857161655909054e-05,1.4154658976119605e-05,4.2,3.0
2.421875,2.1970098579385037e-05,4.052727393911648e-05,4.1008998367284634e-05,3.514921614404514e-05,4.2,3.0
2.42578125,1.4154658976119605e-05,3.222291999084456e-05,3.857161655909054e-05,5.126900969558248e-05,4.2,3.0
2.4296875,1.2695105857938486e-05,2.1970098579385037e-05,3.857161655909054e-05,5.2239648468757125e-05,4.2,3.0
2.43359375,6.34640928969251e-06,1.757705939116501e-05,3.710487352407108e-05,3.9549445249103514e-05,4.2,3.0
2.4375,2.4350945296406294e-06,3.075617695582511e-05,4.345357009231706e-05,2.977834826581214e-05,4.2,3.0
2.44140625,-2.446859003585892e-06,3.514921614404514e-05,5.468422019378955e-05,2.4407480387579127e-05,4.2,3.0
2.4453125,-3.906412121767019e-06,4.003835959410999e-05,7.128573817349505e-05,9.761619787899577e-06,4.2,3.0
2.44921875,8.294876752880114e-06,4.2475741402304095e-05,6.201074545204849e-05,3.901837564660084e-06,4.2,3.0
2.453125,1.4643573321126097e-05,3.466749171587699e-05,4.73576949355306e-05,3.612704483405811e-05,4.2,3.0
2.45703125,2.245901292439153e-05,3.563813048905163e-05,5.566204888380253e-05,6.542595595025556e-05,4.2,3.0
2.4609375,1.4154658976119605e-05,3.222291999084456e-05,5.1750734123750645e-05,6.591487029526205e-05,4.2,3.0
2.46484375,6.835323634698994e-06,4.1008998367284634e-05,6.249965979705499e-05,5.3706391503776586e-05,4.2,3.0
2.46875,8.294876752880114e-06,4.5409227472343e-05,6.0055088072022555e-05,4.149791271229112e-05,4.2,3.0
2.47265625,9.761619787899577e-06,5.029118100556951e-05,6.054400241702905e-05,4.686878059052412e-05,4.2,3.0
2.4765625,1.4643573321126097e-05,4.931335231555654e-05,7.030790948348207e-05,4.003835959410999e-05,4.2,3.0
2.48046875,2.5385309077592098e-05,4.784660928053709e-05,7.910117777676049e-05,1.7088145046158515e-05,4.2,3.0
2.484375,2.977834826581214e-05,5.517313453879603e-05,8.544268442816811e-05,2.3925755959410978e-05,4.2,3.0
2.48828125,5.368580599679539e-06,5.517313453879603e-05,8.251638827496754e-05,3.514921614404514e-05,4.2,3.0
2.4921875,-8.79555557183187e-06,4.296465574731057e-05,6.884116644846263e-05,4.1008998367284634e-05,4.2,3.0
2.49609375,1.4154658976119605e-05,3.368966302586402e-05,6.152183110704202e-05,5.3706391503776586e-05,4.2,3.0
2.5,3.759378786907757e-05,3.320074868085753e-05,6.103291676203552e-05,4.73576949355306e-05,4.2,3.0
2.50390625,3.906053090409702e-05,3.514921614404514e-05,6.835225210345614e-05,4.149791271229112e-05,4.2,3.0
2.5078125,2.4896394732585618e-05,3.612704483405811e-05,6.98189951384756e-05,3.857161655909054e-05,4.2,3.0
2.51171875,2.2947927269398007e-05,2.3925755959410978e-05,5.517313453879603e-05,3.8082702214084046e-05,4.2,3.0
2.515625,3.906053090409702e-05,3.612704483405811e-05,5.1750734123750645e-05,3.320074868085753e-05,4.2,3.0
2.51953125,2.7340966457618035e-05,4.19868270572976e-05,5.419530584878306e-05,2.0014441199359096e-05,4.2,3.0
2.5234375,1.1228362822919024e-05,3.271183433585105e-05,6.689269898527501e-05,3.710487352407108e-05,4.2,3.0
2.52734375,2.685205211261156e-05,2.88077094926375e-05,5.7610516346990134e-05,3.075617695582511e-05,4.2,3.0
2.53125,3.612704483405811e-05,2.3925755959410978e-05,4.1008998367284634e-05,2.782988080262453e-05,4.2,3.0
2.53515625,3.710487352407108e-05,2.977834826581214e-05,4.589814181734948e-05,4.8824437970550064e-05,4.2,3.0
2.5390625,3.466749171587699e-05,3.075617695582511e-05,5.029118100556951e-05,4.492031312733651e-05,4.2,3.0
2.54296875,2.1970098579385037e-05,3.124509130083159e-05,5.272856281376361e-05,3.271183433585105e-05,4.2,3.0
2.546875,3.41785773708705e-05,3.173400564583808e-05,5.029118100556951e-05,2.9296623837643976e-05,4.2,3.0
2.55078125,4.5409227472343e-05,2.9296623837643976e-05,4.19868270572976e-05,3.857161655909054e-05,4.2,3.0
2.5546875,2.88077094926375e-05,2.977834826581214e-05,5.126900969558248e-05,5.272856281376361e-05,4.2,3.0
2.55859375,2.4896394732585618e-05,3.466749171587699e-05,3.66159591790646e-05,4.052727393911648e-05,4.2,3.0
2.5625,1.9525526854352605e-05,3.9549445249103514e-05,2.5385309077592098e-05,2.3436841614404497e-05,4.2,3.0
2.56640625,1.757705939116501e-05,3.612704483405811e-05,3.857161655909054e-05,2.4896394732585618e-05,4.2,3.0
2.5703125,4.19868270572976e-05,3.563813048905163e-05,3.66159591790646e-05,3.173400564583808e-05,4.2,3.0
2.57421875,4.5409227472343e-05,3.66159591790646e-05,3.612704483405811e-05,3.173400564583808e-05,4.2,3.0
2.578125,2.782988080262453e-05,3.906053090409702e-05,3.320074868085753e-05,3.514921614404514e-05,4.2,3.0
2.58203125,2.2947927269398007e-05,3.124509130083159e-05,3.271183433585105e-05,4.637986624551763e-05,4.2,3.0
2.5859375,1.5132487666132575e-05,2.2947927269398007e-05,3.710487352407108e-05,4.589814181734948e-05,4.2,3.0
2.58984375,2.7340966457618035e-05,2.977834826581214e-05,4.052727393911648e-05,4.345357009231706e-05,4.2,3.0
2.59375,2.88077094926375e-05,2.88077094926375e-05,3.759378786907757e-05,4.003835959410999e-05,4.2,3.0
2.59765625,2.3925755959410978e-05,3.271183433585105e-05,2.0992269889372066e-05,3.41785773708705e-05,4.2,3.0
2.6015625,4.345357009231706e-05,4.492031312733651e-05,3.563813048905163e-05,2.977834826581214e-05,4.2,3.0
2.60546875,5.2239648468757125e-05,4.492031312733651e-05,4.2475741402304095e-05,2.88077094926375e-05,4.2,3.0
2.609375,4.296465574731057e-05,3.710487352407108e-05,2.0992269889372066e-05,3.514921614404514e-05,4.2,3.0
2.61328125,4.345357009231706e-05,3.514921614404514e-05,1.4154658976119605e-05,3.612704483405811e-05,4.2,3.0
2.6171875,4.19868270572976e-05,2.88077094926375e-05,1.9525526854352605e-05,3.8082702214084046e-05,4.2,3.0
2.62109375,3.563813048905163e-05,2.1970098579385037e-05,2.3436841614404497e-05,3.710487352407108e-05,4.2,3.0
2.625,3.075617695582511e-05,2.0014441199359096e-05,2.0503355544365576e-05,3.466749171587699e-05,4.2,3.0
2.62890625,3.514921614404514e-05,2.4896394732585618e-05,2.1970098579385037e-05,3.710487352407108e-05,4.2,3.0
2.6328125,3.9549445249103514e-05,1.3176830286106636e-05,1.757705939116501e-05,3.710487352407108e-05,4.2,3.0
2.63671875,3.271183433585105e-05,-6.350983846799444e-06,1.1228362822919024e-05,3.368966302586402e-05,4.2,3.0
2.640625,3.66159591790646e-05,-2.446859003585892e-06,1.903661250934613e-05,4.003835959410999e-05,4.2,3.0
2.64453125,3.759378786907757e-05,-8.306641226825384e-06,1.4644557564659877e-06,4.492031312733651e-05,4.2,3.0
2.6484375,4.394248443732354e-05,-1.6603805258258965e-05,-2.636771232471201e-05,3.9549445249103514e-05,4.2,3.0
2.65234375,4.980226666056303e-05,-3.710944808117802e-05,-2.5885987896543856e-05,4.686878059052412e-05,4.2,3.0
2.65625,4.052727393911648e-05,-6.835682666056309e-05,-4.8829012527656995e-05,4.73576949355306e-05,4.2,3.0
2.66015625,3.906053090409702e-05,-7.128312281376365e-05,-7.128312281376365e-05,4.052727393911648e-05,4.2,3.0
2.6640625,3.759378786907757e-05,-7.128312281376365e-05,-7.519443757381555e-05,4.784660928053709e-05,4.2,3.0
2.66796875,3.857161655909054e-05,-0.00010985702665140766,-0.00010741964484321357,5.468422019378955e-05,4.2,3.0
2.671875,4.4431398782330036e-05,-0.00014648246302586407,-0.00014452680564583812,5.6150963228809e-05,4.2,3.0
2.67578125,4.052727393911648e-05,-0.00015673528443732357,-0.00015869094181734955,6.689269898527501e-05,4.2,3.0
2.6796875,2.6363137767605065e-05,-0.00014940875917906463,-0.00016063940928053713,7.470094867170212e-05,4.2,3.0
2.68359375,1.1228362822919024e-05,-0.0001557574557473106,-0.00017089223069199664,6.835225210345614e-05,4.2,3.0
2.6875,2.0014441199359096e-05,-0.00018456745251850158,-0.00017919658464026858,7.910117777676049e-05,4.2,3.0
2.69140625,3.466749171587699e-05,-0.00019140506343175406,-0.0001840785381734951,9.130246665140762e-05,4.2,3.0
2.6953125,1.903661250934613e-05,-0.0001948202739299611,-0.00016943267757381554,8.593159877317461e-05,4.2,3.0
2.69921875,-1.513706222323951e-05,-0.0001943313595849546,-0.00016259506666056308,0.00010009573494468602,4.2,3.0
2.703125,-2.197467313649197e-05,-0.00017968549898527504,-0.00015526854140230414,0.0001137637668543526,4.2,3.0
2.70703125,-1.074402303501948e-05,-0.0001669881058487831,-0.00013329615554436562,0.0001230459494926375,4.2,3.0
2.7109375,-1.074402303501948e-05,-0.00014989767352407114,-0.00011962812363469904,0.00011230421373617148,4.2,3.0
2.71484375,-1.904837698329139e-05,-0.00013476289857938508,-9.374442301670865e-05,8.447204565499347e-05,4.2,3.0
2.71875,-1.465533779507136e-05,-0.00010936811230640117,-6.249704443732358e-05,9.71622488746471e-05,4.2,3.0
2.72265625,-2.1485758791485487e-05,-8.44694302952621e-05,-5.274032728770888e-05,0.000117186167269398,4.2,3.0
2.7265625,-2.7834455359731463e-05,-6.151921574731062e-05,-3.906510546120395e-05,0.00011913463473258563,4.2,3.0
2.73046875,-2.002620567330436e-05,-5.274032728770888e-05,-3.320532323796446e-05,0.00010448877413290606,4.2,3.0
2.734375,-1.367750910505839e-05,-4.394705899443047e-05,-4.884240811779989e-06,7.910117777676049e-05,4.2,3.0
2.73828125,-4.884240811779989e-06,-1.4166423450064875e-05,1.6599230701152038e-05,7.910117777676049e-05,4.2,3.0
2.7421875,-4.912016235599523e-07,7.805962407873636e-06,2.1481184234378546e-05,8.447204565499347e-05,4.2,3.0
2.74609375,-4.395326466773504e-06,1.3665744631113128e-05,3.124509130083159e-05,5.7610516346990134e-05,4.2,3.0
2.75,-5.3731551567864735e-06,2.3436841614404497e-05,3.514921614404514e-05,3.759378786907757e-05,4.2,3.0
2.75390625,9.755414114595027e-07,4.149791271229112e-05,4.2475741402304095e-05,4.492031312733651e-05,4.2,3.0
2.7578125,2.4350945296406294e-06,4.686878059052412e-05,5.6150963228809e-05,5.6150963228809e-05,4.2,3.0
2.76171875,-1.4690303135729223e-06,5.6639877573815494e-05,7.226356686350803e-05,5.272856281376361e-05,4.2,3.0
2.765625,9.272705442893083e-06,6.39592129152361e-05,6.884116644846263e-05,4.931335231555654e-05,4.2,3.0
2.76953125,1.3176830286106636e-05,6.689269898527501e-05,7.470094867170212e-05,5.7128791918821974e-05,4.2,3.0
2.7734375,8.783791097886606e-06,7.373030989852748e-05,7.8612263431754e-05,6.249965979705499e-05,4.2,3.0
2.77734375,1.2695105857938486e-05,8.104964523994809e-05,8.056073089494159e-05,5.126900969558248e-05,4.2,3.0
2.78125,9.272705442893083e-06,7.27524812085145e-05,8.98429135332265e-05,3.320074868085753e-05,4.2,3.0
2.78515625,1.0739448477912545e-05,7.470094867170212e-05,9.374703837644006e-05,3.222291999084456e-05,4.2,3.0
2.7890625,4.866270664530176e-07,8.104964523994809e-05,9.911790625467304e-05,3.320074868085753e-05,4.2,3.0
2.79296875,2.924008874647114e-06,7.714552039673456e-05,9.960682059967954e-05,3.271183433585105e-05,4.2,3.0
2.796875,2.0014441199359096e-05,8.104964523994809e-05,0.00010009573494468602,1.5132487666132575e-05,4.2,3.0
2.80078125,2.0503355544365576e-05,8.593159877317461e-05,9.71622488746471e-05,5.368580599679539e-06,4.2,3.0
2.8046875,2.0014441199359096e-05,8.544268442816811e-05,9.66733345296406e-05,1.0250534132906053e-05,4.2,3.0
2.80859375,1.5132487666132575e-05,8.153855958495458e-05,9.325812403143357e-05,1.5621402011139067e-05,4.2,3.0
2.8125,1.5621402011139067e-05,8.202747392996108e-05,8.837617049820705e-05,2.245901292439153e-05,4.2,3.0
2.81640625,1.903661250934613e-05,8.349421696498052e-05,9.081355230640113e-05,2.3436841614404497e-05,4.2,3.0
2.8203125,2.2947927269398007e-05,8.447204565499347e-05,0.00010253311675288011,2.5874223422598588e-05,4.2,3.0
2.82421875,2.0014441199359096e-05,9.033182787823298e-05,0.00010399985978789956,2.0014441199359096e-05,4.2,3.0
2.828125,9.272705442893083e-06,8.98429135332265e-05,9.423595272144652e-05,1.8065973736171485e-05,4.2,3.0
2.83203125,1.4643573321126097e-05,8.593159877317461e-05,8.398313130998701e-05,1.7088145046158515e-05,4.2,3.0
2.8359375,3.222291999084456e-05,8.886508484321353e-05,8.251638827496754e-05,9.761619787899577e-06,4.2,3.0
2.83984375,4.2475741402304095e-05,8.69094274631876e-05,9.325812403143357e-05,1.6110316356145544e-05,4.2,3.0
2.84375,3.124509130083159e-05,8.544268442816811e-05,0.00010253311675288011,2.6363137767605065e-05,4.2,3.0
2.84765625,2.7340966457618035e-05,8.300530261997402e-05,9.52137814114595e-05,2.6363137767605065e-05,4.2,3.0
2.8515625,2.6363137767605065e-05,8.007181654993513e-05,8.300530261997402e-05,1.2206191512931994e-05,4.2,3.0
2.85546875,2.1970098579385037e-05,8.593159877317461e-05,9.228029534142058e-05,9.272705442893083e-06,4.2,3.0
2.859375,2.977834826581214e-05,9.423595272144652e-05,0.00010302203109788661,2.1970098579385037e-05,4.2,3.0
2.86328125,2.4407480387579127e-05,9.228029534142058e-05,0.00010595551716792551,1.2695105857938486e-05,4.2,3.0
2.8671875,1.2206191512931994e-05,7.616769170672157e-05,0.00010693334585793848,1.0250534132906053e-05,4.2,3.0
2.87109375,1.5621402011139067e-05,6.884116644846263e-05,8.64205131181811e-05,2.7340966457618035e-05,4.2,3.0
2.875,2.5874223422598588e-05,7.226356686350803e-05,8.007181654993513e-05,3.222291999084456e-05,4.2,3.0
2.87890625,2.4407480387579127e-05,8.007181654993513e-05,8.544268442816811e-05,2.6363137767605065e-05,4.2,3.0
2.8828125,2.6363137767605065e-05,8.349421696498052e-05,8.202747392996108e-05,2.3436841614404497e-05,4.2,3.0
2.88671875,2.9296623837643976e-05,8.544268442816811e-05,8.837617049820705e-05,2.0503355544365576e-05,4.2,3.0
2.890625,2.782988080262453e-05,8.202747392996108e-05,8.007181654993513e-05,2.3925755959410978e-05,4.2,3.0
2.89453125,3.271183433585105e-05,6.93300807934691e-05,6.98189951384756e-05,7.324237979705479e-06,4.2,3.0
2.8984375,3.368966302586402e-05,7.324139555352098e-05,7.616769170672157e-05,5.857494944686024e-06,4.2,3.0
2.90234375,3.466749171587699e-05,7.518986301670861e-05,8.056073089494159e-05,2.1481184234378546e-05,4.2,3.0
2.90625,3.710487352407108e-05,7.567877736171507e-05,8.349421696498052e-05,8.294876752880114e-06,4.2,3.0
2.91015625,2.8318795147631006e-05,6.98189951384756e-05,7.958290220492864e-05,2.2947927269398007e-05,4.2,3.0
2.9140625,1.2695105857938486e-05,6.542595595025556e-05,6.640378464026854e-05,4.296465574731057e-05,4.2,3.0
2.91796875,1.1717277167925516e-05,7.079682382848857e-05,7.226356686350803e-05,3.710487352407108e-05,4.2,3.0
2.921875,2.5874223422598588e-05,7.27524812085145e-05,8.788725615320055e-05,3.66159591790646e-05,4.2,3.0
2.92578125,4.003835959410999e-05,7.324139555352098e-05,8.153855958495458e-05,1.6110316356145544e-05,4.2,3.0
2.9296875,4.73576949355306e-05,7.910117777676049e-05,7.373030989852748e-05,-7.817726881818899e-06,4.2,3.0
2.93359375,4.8824437970550064e-05,8.935399918822e-05,7.8612263431754e-05,1.6599230701152038e-05,4.2,3.0
2.9375,4.2475741402304095e-05,7.910117777676049e-05,7.079682382848857e-05,3.612704483405811e-05,4.2,3.0
2.94140625,2.6363137767605065e-05,6.93300807934691e-05,6.93300807934691e-05,3.41785773708705e-05,4.2,3.0
2.9453125,1.903661250934613e-05,6.347029857022963e-05,7.518986301670861e-05,2.3436841614404497e-05,4.2,3.0
2.94921875,2.88077094926375e-05,6.249965979705499e-05,7.8612263431754e-05,2.977834826581214e-05,4.2,3.0
2.953125,3.466749171587699e-05,6.152183110704202e-05,6.884116644846263e-05,2.6363137767605065e-05,4.2,3.0
2.95703125,3.075617695582511e-05,5.9566173727016075e-05,6.542595595025556e-05,6.835323634698994e-06,4.2,3.0
2.9609375,2.782988080262453e-05,6.542595595025556e-05,7.763443474174102e-05,1.9525526854352605e-05,4.2,3.0
2.96484375,3.124509130083159e-05,6.152183110704202e-05,6.591487029526205e-05,2.5385309077592098e-05,4.2,3.0
2.96875,3.41785773708705e-05,3.9549445249103514e-05,5.2239648468757125e-05,2.7340966457618035e-05,4.2,3.0
2.97265625,3.124509130083159e-05,3.026726261081862e-05,5.517313453879603e-05,3.8082702214084046e-05,4.2,3.0
2.9765625,3.563813048905163e-05,4.4431398782330036e-05,6.054400241702905e-05,4.345357009231706e-05,4.2,3.0
2.98046875,4.149791271229112e-05,5.566204888380253e-05,5.8099430691996614e-05,3.66159591790646e-05,4.2,3.0
2.984375,3.906053090409702e-05,4.8824437970550064e-05,7.079682382848857e-05,1.9525526854352605e-05,4.2,3.0
2.98828125,2.2947927269398007e-05,4.73576949355306e-05,6.884116644846263e-05,-1.4690303135729223e-06,4.2,3.0
2.9921875,1.9525526854352605e-05,5.272856281376361e-05,5.517313453879603e-05,1.946180184634144e-06,4.2,3.0
2.99609375,1.903661250934613e-05,5.1750734123750645e-05,5.858834503700311e-05,2.1481184234378546e-05,4.2,3.0
3.0,1.4154658976119605e-05,5.8099430691996614e-05,6.298138422522313e-05,3.466749171587699e-05,4.2,3.0
3.00390625,4.19868270572976e-05,6.152183110704202e-05,5.2239648468757125e-05,4.345357009231706e-05,4.2,3.0
3.0078125,5.0780095350576005e-05,4.492031312733651e-05,4.149791271229112e-05,3.124509130083159e-05,4.2,3.0
3.01171875,4.296465574731057e-05,3.66159591790646e-05,3.906053090409702e-05,2.1970098579385037e-05,4.2,3.0
3.015625,4.4431398782330036e-05,4.73576949355306e-05,4.296465574731057e-05,1.6599230701152038e-05,4.2,3.0
3.01953125,4.2475741402304095e-05,4.686878059052412e-05,4.345357009231706e-05,1.7088145046158515e-05,4.2,3.0
3.0234375,3.906053090409702e-05,3.710487352407108e-05,3.514921614404514e-05,2.977834826581214e-05,4.2,3.0
3.02734375,3.710487352407108e-05,3.563813048905163e-05,4.637986624551763e-05,3.759378786907757e-05,4.2,3.0
3.03125,4.394248443732354e-05,4.589814181734948e-05,4.345357009231706e-05,2.9296623837643976e-05,4.2,3.0
3.03515625,3.66159591790646e-05,4.589814181734948e-05,3.563813048905163e-05,6.34640928969251e-06,4.2,3.0
3.0390625,2.0992269889372066e-05,4.686878059052412e-05,4.345357009231706e-05,1.0739448477912545e-05,4.2,3.0
3.04296875,2.5874223422598588e-05,4.833552362554357e-05,5.468422019378955e-05,3.514921614404514e-05,4.2,3.0
3.046875,4.052727393911648e-05,4.345357009231706e-05,6.44481272602426e-05,4.686878059052412e-05,4.2,3.0
3.05078125,3.857161655909054e-05,3.320074868085753e-05,5.858834503700311e-05,3.759378786907757e-05,4.2,3.0
3.0546875,3.514921614404514e-05,2.5874223422598588e-05,3.66159591790646e-05,2.2947927269398007e-05,4.2,3.0
3.05859375,3.026726261081862e-05,5.029118100556951e-05,3.710487352407108e-05,2.245901292439153e-05,4.2,3.0
3.0625,3.173400564583808e-05,5.6150963228809e-05,5.419530584878306e-05,4.879666254673054e-06,4.2,3.0
3.06640625,3.906053090409702e-05,3.8082702214084046e-05,4.931335231555654e-05,7.324237979705479e-06,4.2,3.0
3.0703125,2.9296623837643976e-05,2.8318795147631006e-05,3.857161655909054e-05,3.710487352407108e-05,4.2,3.0
3.07421875,2.4896394732585618e-05,2.7340966457618035e-05,3.173400564583808e-05,3.710487352407108e-05,4.2,3.0
3.078125,2.7340966457618035e-05,3.222291999084456e-05,3.66159591790646e-05,3.563813048905163e-05,4.2,3.0
3.08203125,3.514921614404514e-05,3.857161655909054e-05,4.4431398782330036e-05,3.66159591790646e-05,4.2,3.0
3.0859375,3.66159591790646e-05,4.1008998367284634e-05,4.149791271229112e-05,3.41785773708705e-05,4.2,3.0
3.08984375,2.5874223422598588e-05,3.124509130083159e-05,2.9296623837643976e-05,2.1481184234378546e-05,4.2,3.0
3.09375,3.075617695582511e-05,3.271183433585105e-05,2.8318795147631006e-05,2.4407480387579127e-05,4.2,3.0
3.09765625,4.19868270572976e-05,3.563813048905163e-05,3.759378786907757e-05,4.052727393911648e-05,4.2,3.0
3.1015625,3.368966302586402e-05,3.41785773708705e-05,3.759378786907757e-05,3.026726261081862e-05,4.2,3.0
3.10546875,3.9549445249103514e-05,3.9549445249103514e-05,4.980226666056303e-05,2.685205211261156e-05,4.2,3.0
3.109375,4.931335231555654e-05,3.563813048905163e-05,4.784660928053709e-05,3.222291999084456e-05,4.2,3.0
3.11328125,2.1970098579385037e-05,2.977834826581214e-05,3.563813048905163e-05,3.026726261081862e-05,4.2,3.0
3.1171875,9.272705442893083e-06,3.173400564583808e-05,2.9296623837643976e-05,3.271183433585105e-05,4.2,3.0
3.12109375,3.124509130083159e-05,3.759378786907757e-05,3.41785773708705e-05,3.320074868085753e-05,4.2,3.0
3.125,4.73576949355306e-05,4.19868270572976e-05,3.857161655909054e-05,2.4896394732585618e-05,4.2,3.0
3.12890625,5.321747715877009e-05,3.466749171587699e-05,3.026726261081862e-05,2.9296623837643976e-05,4.2,3.0
3.1328125,5.321747715877009e-05,3.173400564583808e-05,2.9296623837643976e-05,2.977834826581214e-05,4.2,3.0
3.13671875,4.8824437970550064e-05,3.075617695582511e-05,4.149791271229112e-05,2.1481184234378546e-05,4.2,3.0
3.140625,4.784660928053709e-05,3.222291999084456e-05,3.9549445249103514e-05,2.2947927269398007e-05,4.2,3.0
3.14453125,4.4431398782330036e-05,3.563813048905163e-05,4.345357009231706e-05,2.6363137767605065e-05,4.2,3.0
3.1484375,4.345357009231706e-05,3.563813048905163e-05,4.5409227472343e-05,2.0014441199359096e-05,4.2,3.0
3.15234375,4.296465574731057e-05,4.296465574731057e-05,2.5874223422598588e-05,2.0992269889372066e-05,4.2,3.0
3.15625,3.075617695582511e-05,4.1008998367284634e-05,2.3436841614404497e-05,2.5874223422598588e-05,4.2,3.0
3.16015625,2.3925755959410978e-05,3.222291999084456e-05,3.906053090409702e-05,3.271183433585105e-05,4.2,3.0
3.1640625,3.320074868085753e-05,3.906053090409702e-05,4.345357009231706e-05,3.612704483405811e-05,4.2,3.0
3.16796875,3.222291999084456e-05,3.66159591790646e-05,2.6363137767605065e-05,2.685205211261156e-05,4.2,3.0
3.171875,2.88077094926375e-05,1.9525526854352605e-05,2.2947927269398007e-05,2.0503355544365576e-05,4.2,3.0
3.17578125,2.8318795147631006e-05,1.5621402011139067e-05,2.5874223422598588e-05,1.8547698164339635e-05,4.2,3.0
3.1796875,2.6363137767605065e-05,2.2947927269398007e-05,3.124509130083159e-05,1.903661250934613e-05,4.2,3.0
3.18359375,3.466749171587699e-05,2.88077094926375e-05,3.41785773708705e-05,1.757705939116501e-05,4.2,3.0
3.1875,3.466749171587699e-05,3.026726261081862e-05,3.857161655909054e-05,1.5132487666132575e-05,4.2,3.0
3.19140625,4.345357009231706e-05,2.88077094926375e-05,3.368966302586402e-05,2.1970098579385037e-05,4.2,3.0
3.1953125,4.052727393911648e-05,2.5874223422598588e-05,2.7340966457618035e-05,3.8082702214084046e-05,4.2,3.0
3.19921875,2.6363137767605065e-05,2.5385309077592098e-05,3.173400564583808e-05,4.19868270572976e-05,4.2,3.0
3.203125,2.88077094926375e-05,2.7340966457618035e-05,4.149791271229112e-05,3.026726261081862e-05,4.2,3.0
3.20703125,3.66159591790646e-05,2.7340966457618035e-05,3.222291999084456e-05,2.3925755959410978e-05,4.2,3.0
3.2109375,4.296465574731057e-05,2.3436841614404497e-05,2.1970098579385037e-05,2.88077094926375e-05,4.2,3.0
3.21484375,3.906053090409702e-05,1.8547698164339635e-05,2.9296623837643976e-05,2.3436841614404497e-05,4.2,3.0
3.21875,3.857161655909054e-05,2.6363137767605065e-05,2.9296623837643976e-05,1.3176830286106636e-05,4.2,3.0
3.22265625,3.8082702214084046e-05,3.271183433585105e-05,3.906053090409702e-05,2.88077094926375e-05,4.2,3.0
3.2265625,3.026726261081862e-05,3.075617695582511e-05,3.41785773708705e-05,2.88077094926375e-05,4.2,3.0
3.23046875,2.1481184234378546e-05,2.4407480387579127e-05,1.757705939116501e-05,2.2947927269398007e-05,4.2,3.0
3.234375,1.8065973736171485e-05,4.052727393911648e-05,3.9549445249103514e-05,4.296465574731057e-05,4.2,3.0
3.23828125,4.1008998367284634e-05,6.738161333028151e-05,5.517313453879603e-05,4.784660928053709e-05,4.2,3.0
3.2421875,5.7128791918821974e-05,5.126900969558248e-05,3.368966302586402e-05,3.222291999084456e-05,4.2,3.0
3.24609375,4.833552362554357e-05,2.3436841614404497e-05,1.903661250934613e-05,1.7088145046158515e-05,4.2,3.0
3.25,5.7610516346990134e-05,2.1481184234378546e-05,2.3925755959410978e-05,3.4129232196535994e-06,4.2,3.0
3.25390625,7.421203432669562e-05,1.8065973736171485e-05,3.901837564660084e-06,1.1717277167925516e-05,4.2,3.0
3.2578125,7.177465251850153e-05,5.857494944686024e-06,-1.172185172503245e-05,1.0250534132906053e-05,4.2,3.0
3.26171875,8.056073089494159e-05,1.1717277167925516e-05,-1.4690303135729223e-06,-2.636771232471201e-05,4.2,3.0
3.265625,9.423595272144652e-05,1.757705939116501e-05,-2.9357733485923774e-06,-3.320532323796446e-05,4.2,3.0
3.26953125,9.52137814114595e-05,1.5132487666132575e-05,-1.367750910505839e-05,-8.79555557183187e-06,4.2,3.0
3.2734375,9.814007756466009e-05,2.0014441199359096e-05,-1.6603805258258965e-05,-4.395326466773504e-06,4.2,3.0
3.27734375,9.814007756466009e-05,2.7340966457618035e-05,-2.9357733485923774e-06,-1.269968041504542e-05,4.2,3.0
3.28125,9.618442018463414e-05,3.759378786907757e-05,-3.906412121767019e-06,-1.6603805258258965e-05,4.2,3.0
3.28515625,9.52137814114595e-05,2.7340966457618035e-05,-1.7581633948271936e-05,-2.4908159206530882e-05,4.2,3.0
3.2890625,9.618442018463414e-05,8.294876752880114e-06,-3.710944808117802e-05,-2.3930330516517912e-05,4.2,3.0
3.29296875,0.00010937072766613258,1.3176830286106636e-05,-4.053184849622342e-05,-2.636771232471201e-05,4.2,3.0
3.296875,0.000117186167269398,3.271183433585105e-05,-9.766194345006511e-06,-3.516098061799041e-05,4.2,3.0
3.30078125,0.00010595551716792551,3.710487352407108e-05,2.924008874647114e-06,-4.0042934151216925e-05,4.2,3.0
3.3046875,9.71622488746471e-05,2.5874223422598588e-05,2.4350945296406294e-06,-4.053184849622342e-05,4.2,3.0
3.30859375,9.570269575646599e-05,3.173400564583808e-05,9.272705442893083e-06,-2.9301198394750917e-05,4.2,3.0
3.3125,9.765116321965359e-05,4.003835959410999e-05,8.783791097886606e-06,-1.4166423450064875e-05,4.2,3.0
3.31640625,8.837617049820705e-05,2.782988080262453e-05,8.294876752880114e-06,1.0250534132906053e-05,4.2,3.0
3.3203125,7.567877736171507e-05,3.222291999084456e-05,1.8547698164339635e-05,2.5385309077592098e-05,4.2,3.0
3.32421875,8.153855958495458e-05,4.296465574731057e-05,2.1970098579385037e-05,4.879666254673054e-06,4.2,3.0
3.328125,7.177465251850153e-05,3.222291999084456e-05,7.805962407873636e-06,-8.79555557183187e-06,4.2,3.0
3.33203125,6.493704160524908e-05,2.4896394732585618e-05,6.34640928969251e-06,-1.269968041504542e-05,4.2,3.0
3.3359375,8.104964523994809e-05,3.271183433585105e-05,1.1717277167925516e-05,-1.6603805258258965e-05,4.2,3.0
3.33984375,8.496095999999997e-05,4.345357009231706e-05,1.7088145046158515e-05,1.2695105857938486e-05,4.2,3.0
3.34375,7.324139555352098e-05,4.833552362554357e-05,2.5874223422598588e-05,2.7340966457618035e-05,4.2,3.0
3.34765625,7.177465251850153e-05,5.1750734123750645e-05,2.8318795147631006e-05,2.5385309077592098e-05,4.2,3.0
3.3515625,7.226356686350803e-05,5.2239648468757125e-05,2.685205211261156e-05,4.879666254673054e-06,4.2,3.0
3.35546875,6.201074545204849e-05,4.686878059052412e-05,3.612704483405811e-05,-1.367750910505839e-05,4.2,3.0
3.359375,5.3706391503776586e-05,3.9549445249103514e-05,3.857161655909054e-05,7.324237979705479e-06,4.2,3.0
3.36328125,5.7128791918821974e-05,4.394248443732354e-05,3.271183433585105e-05,2.0503355544365576e-05,4.2,3.0
3.3671875,6.201074545204849e-05,4.4431398782330036e-05,3.612704483405811e-05,2.1481184234378546e-05,4.2,3.0
3.37109375,5.7128791918821974e-05,3.9549445249103514e-05,3.41785773708705e-05,2.245901292439153e-05,4.2,3.0
3.375,5.566204888380253e-05,4.003835959410999e-05,2.6363137767605065e-05,2.2947927269398007e-05,4.2,3.0
3.37890625,5.7128791918821974e-05,4.345357009231706e-05,3.612704483405811e-05,6.835323634698994e-06,4.2,3.0
3.3828125,5.6639877573815494e-05,4.4431398782330036e-05,4.686878059052412e-05,-1.709271960326545e-05,4.2,3.0
3.38671875,5.517313453879603e-05,5.566204888380253e-05,4.5409227472343e-05,6.34640928969251e-06,4.2,3.0
3.390625,4.052727393911648e-05,5.272856281376361e-05,4.19868270572976e-05,2.782988080262453e-05,4.2,3.0
3.39453125,4.5409227472343e-05,4.149791271229112e-05,3.124509130083159e-05,2.1970098579385037e-05,4.2,3.0
3.3984375,5.6639877573815494e-05,4.345357009231706e-05,3.173400564583808e-05,1.1717277167925516e-05,4.2,3.0
3.40234375,6.054400241702905e-05,4.8824437970550064e-05,5.6639877573815494e-05,4.879666254673054e-06,4.2,3.0
3.40625,5.907725938200958e-05,5.419530584878306e-05,4.833552362554357e-05,1.903661250934613e-05,4.2,3.0
3.41015625,4.980226666056303e-05,5.1750734123750645e-05,2.88077094926375e-05,3.320074868085753e-05,4.2,3.0
3.4140625,4.4431398782330036e-05,4.8824437970550064e-05,3.320074868085753e-05,3.514921614404514e-05,4.2,3.0
3.41796875,4.003835959410999e-05,5.0780095350576005e-05,3.710487352407108e-05,2.2947927269398007e-05,4.2,3.0
3.421875,4.589814181734948e-05,5.272856281376361e-05,2.88077094926375e-05,-4.912016235599523e-07,4.2,3.0
3.42578125,4.784660928053709e-05,4.394248443732354e-05,3.514921614404514e-05,8.783791097886606e-06,4.2,3.0
3.4296875,4.2475741402304095e-05,3.612704483405811e-05,4.589814181734948e-05,2.782988080262453e-05,4.2,3.0
3.43359375,4.394248443732354e-05,3.8082702214084046e-05,3.8082702214084046e-05,3.222291999084456e-05,4.2,3.0
3.4375,4.686878059052412e-05,3.8082702214084046e-05,2.977834826581214e-05,3.66159591790646e-05,4.2,3.0
3.44140625,4.345357009231706e-05,3.514921614404514e-05,3.8082702214084046e-05,2.782988080262453e-05,4.2,3.0
3.4453125,3.8082702214084046e-05,3.710487352407108e-05,4.589814181734948e-05,2.4896394732585618e-05,4.2,3.0
3.44921875,2.0503355544365576e-05,3.320074868085753e-05,4.296465574731057e-05,2.5385309077592098e-05,4.2,3.0
3.453125,1.4154658976119605e-05,3.368966302586402e-05,4.394248443732354e-05,1.6110316356145544e-05,4.2,3.0
3.45703125,4.784660928053709e-05,4.1008998367284634e-05,4.492031312733651e-05,2.6363137767605065e-05,4.2,3.0
3.4609375,6.39592129152361e-05,3.759378786907757e-05,4.8824437970550064e-05,2.1481184234378546e-05,4.2,3.0
3.46484375,5.7610516346990134e-05,3.026726261081862e-05,4.589814181734948e-05,1.4643573321126097e-05,4.2,3.0
3.46875,5.2239648468757125e-05,2.8318795147631006e-05,4.1008998367284634e-05,3.075617695582511e-05,4.2,3.0
3.47265625,4.345357009231706e-05,2.3925755959410978e-05,3.857161655909054e-05,3.759378786907757e-05,4.2,3.0
3.4765625,3.41785773708705e-05,2.685205211261156e-05,3.173400564583808e-05,3.222291999084456e-05,4.2,3.0
3.48046875,4.394248443732354e-05,4.1008998367284634e-05,4.833552362554357e-05,3.563813048905163e-05,4.2,3.0
3.484375,4.394248443732354e-05,4.345357009231706e-05,5.272856281376361e-05,3.075617695582511e-05,4.2,3.0
3.48828125,2.8318795147631006e-05,3.368966302586402e-05,2.8318795147631006e-05,2.0992269889372066e-05,4.2,3.0
3.4921875,3.66159591790646e-05,3.124509130083159e-05,3.320074868085753e-05,2.7340966457618035e-05,4.2,3.0
3.49609375,5.126900969558248e-05,3.271183433585105e-05,3.41785773708705e-05,1.7088145046158515e-05,4.2,3.0
3.5,3.8082702214084046e-05,4.296465574731057e-05,3.320074868085753e-05,8.783791097886606e-06,4.2,3.0
3.50390625,3.222291999084456e-05,4.980226666056303e-05,5.0780095350576005e-05,2.1481184234378546e-05,4.2,3.0
3.5078125,4.003835959410999e-05,3.66159591790646e-05,4.394248443732354e-05,2.782988080262453e-05,4.2,3.0
3.51171875,3.514921614404514e-05,3.271183433585105e-05,3.563813048905163e-05,3.563813048905163e-05,4.2,3.0
3.515625,2.685205211261156e-05,3.026726261081862e-05,4.19868270572976e-05,3.563813048905163e-05,4.2,3.0
3.51953125,3.612704483405811e-05,3.173400564583808e-05,4.345357009231706e-05,3.41785773708705e-05,4.2,3.0
3.5234375,4.19868270572976e-05,2.782988080262453e-05,3.514921614404514e-05,3.612704483405811e-05,4.2,3.0
3.52734375,3.612704483405811e-05,2.6363137767605065e-05,3.222291999084456e-05,2.977834826581214e-05,4.2,3.0
3.53125,3.66159591790646e-05,2.782988080262453e-05,3.222291999084456e-05,2.245901292439153e-05,4.2,3.0
3.53515625,4.8824437970550064e-05,3.173400564583808e-05,3.466749171587699e-05,2.4896394732585618e-05,4.2,3.0
3.5390625,4.784660928053709e-05,4.345357009231706e-05,4.637986624551763e-05,3.514921614404514e-05,4.2,3.0
3.54296875,3.320074868085753e-05,4.394248443732354e-05,4.931335231555654e-05,2.88077094926375e-05,4.2,3.0
3.546875,2.977834826581214e-05,3.563813048905163e-05,4.4431398782330036e-05,1.903661250934613e-05,4.2,3.0
3.55078125,3.466749171587699e-05,2.2947927269398007e-05,3.710487352407108e-05,2.2947927269398007e-05,4.2,3.0
3.5546875,4.4431398782330036e-05,3.368966302586402e-05,4.637986624551763e-05,3.026726261081862e-05,4.2,3.0
3.55859375,4.2475741402304095e-05,3.759378786907757e-05,4.19868270572976e-05,2.1970098579385037e-05,4.2,3.0
3.5625,2.2947927269398007e-05,3.124509130083159e-05,3.710487352407108e-05,2.4407480387579127e-05,4.2,3.0
3.56640625,2.5874223422598588e-05,3.466749171587699e-05,3.271183433585105e-05,3.075617695582511e-05,4.2,3.0
3.5703125,3.466749171587699e-05,3.124509130083159e-05,2.2947927269398007e-05,2.5874223422598588e-05,4.2,3.0
3.57421875,3.222291999084456e-05,2.977834826581214e-05,2.9296623837643976e-05,2.977834826581214e-05,4.2,3.0
3.578125,4.4431398782330036e-05,4.492031312733651e-05,3.906053090409702e-05,4.052727393911648e-05,4.2,3.0
3.58203125,5.517313453879603e-05,4.4431398782330036e-05,4.589814181734948e-05,4.149791271229112e-05,4.2,3.0
3.5859375,5.0780095350576005e-05,2.7340966457618035e-05,3.857161655909054e-05,3.075617695582511e-05,4.2,3.0
3.58984375,3.66159591790646e-05,2.0992269889372066e-05,2.7340966457618035e-05,2.6363137767605065e-05,4.2,3.0
3.59375,3.514921614404514e-05,2.685205211261156e-05,3.41785773708705e-05,3.026726261081862e-05,4.2,3.0
3.59765625,3.514921614404514e-05,2.8318795147631006e-05,3.710487352407108e-05,2.3925755959410978e-05,4.2,3.0
3.6015625,2.3925755959410978e-05,2.88077094926375e-05,4.5409227472343e-05,1.6110316356145544e-05,4.2,3.0
3.60546875,3.41785773708705e-05,3.222291999084456e-05,3.857161655909054e-05,2.1970098579385037e-05,4.2,3.0
3.609375,4.8824437970550064e-05,2.8318795147631006e-05,2.0503355544365576e-05,3.66159591790646e-05,4.2,3.0
3.61328125,4.296465574731057e-05,2.3436841614404497e-05,1.9525526854352605e-05,4.1008998367284634e-05,4.2,3.0
3.6171875,4.052727393911648e-05,2.6363137767605065e-05,1.7088145046158515e-05,2.782988080262453e-05,4.2,3.0
3.62109375,4.637986624551763e-05,3.759378786907757e-05,2.1481184234378546e-05,2.3436841614404497e-05,4.2,3.0
3.625,3.710487352407108e-05,3.466749171587699e-05,2.3436841614404497e-05,3.320074868085753e-05,4.2,3.0
3.62890625,2.7340966457618035e-05,2.4896394732585618e-05,2.3436841614404497e-05,3.563813048905163e-05,4.2,3.0
3.6328125,2.7340966457618035e-05,3.075617695582511e-05,2.3436841614404497e-05,2.4896394732585618e-05,4.2,3.0
3.63671875,4.19868270572976e-05,3.320074868085753e-05,3.222291999084456e-05,2.0992269889372066e-05,4.2,3.0
3.640625,4.5409227472343e-05,3.124509130083159e-05,4.4431398782330036e-05,1.4154658976119605e-05,4.2,3.0
3.64453125,4.4431398782330036e-05,2.9296623837643976e-05,4.2475741402304095e-05,1.4154658976119605e-05,4.2,3.0
3.6484375,4.19868270572976e-05,1.8547698164339635e-05,3.026726261081862e-05,1.8065973736171485e-05,4.2,3.0
3.65234375,2.7340966457618035e-05,1.3665744631113128e-05,1.6599230701152038e-05,2.782988080262453e-05,4.2,3.0
3.65625,3.41785773708705e-05,2.6363137767605065e-05,2.4896394732585618e-05,5.7610516346990134e-05,4.2,3.0
3.66015625,3.173400564583808e-05,2.977834826581214e-05,3.514921614404514e-05,6.103291676203552e-05,4.2,3.0
3.6640625,2.4407480387579127e-05,1.4643573321126097e-05,2.4896394732585618e-05,4.296465574731057e-05,4.2,3.0
3.66796875,3.563813048905163e-05,9.272705442893083e-06,1.1717277167925516e-05,3.66159591790646e-05,4.2,3.0
3.671875,2.1481184234378546e-05,2.0503355544365576e-05,1.2695105857938486e-05,2.685205211261156e-05,4.2,3.0
3.67578125,1.9525526854352605e-05,2.4896394732585618e-05,3.320074868085753e-05,1.8065973736171485e-05,4.2,3.0
3.6796875,3.8082702214084046e-05,2.0014441199359096e-05,3.612704483405811e-05,1.6110316356145544e-05,4.2,3.0
3.68359375,3.759378786907757e-05,1.5132487666132575e-05,2.8318795147631006e-05,2.4896394732585618e-05,4.2,3.0
3.6875,3.8082702214084046e-05,1.8547698164339635e-05,3.368966302586402e-05,4.149791271229112e-05,4.2,3.0
3.69140625,3.906053090409702e-05,2.685205211261156e-05,2.9296623837643976e-05,4.492031312733651e-05,4.2,3.0
3.6953125,4.149791271229112e-05,2.7340966457618035e-05,2.5385309077592098e-05,4.589814181734948e-05,4.2,3.0
3.69921875,3.857161655909054e-05,3.173400564583808e-05,2.8318795147631006e-05,4.5409227472343e-05,4.2,3.0
3.703125,2.3436841614404497e-05,3.124509130083159e-05,2.9296623837643976e-05,3.320074868085753e-05,4.2,3.0
3.70703125,2.9296623837643976e-05,3.320074868085753e-05,3.271183433585105e-05,1.5132487666132575e-05,4.2,3.0
3.7109375,2.8318795147631006e-05,2.88077094926375e-05,2.977834826581214e-05,6.34640928969251e-06,4.2,3.0
3.71484375,2.7340966457618035e-05,2.4896394732585618e-05,2.8318795147631006e-05,2.6363137767605065e-05,4.2,3.0
3.71875,5.029118100556951e-05,2.88077094926375e-05,3.026726261081862e-05,4.784660928053709e-05,4.2,3.0
3.72265625,4.686878059052412e-05,1.8065973736171485e-05,3.124509130083159e-05,4.637986624551763e-05,4.2,3.0
3.7265625,3.8082702214084046e-05,1.5621402011139067e-05,3.222291999084456e-05,4.1008998367284634e-05,4.2,3.0
3.73046875,3.8082702214084046e-05,1.5621402011139067e-05,2.6363137767605065e-05,3.759378786907757e-05,4.2,3.0
3.734375,3.612704483405811e-05,9.761619787899577e-06,1.9525526854352605e-05,3.66159591790646e-05,4.2,3.0
3.73828125,2.3925755959410978e-05,1.2206191512931994e-05,1.4643573321126097e-05,2.8318795147631006e-05,4.2,3.0
3.7421875,1.903661250934613e-05,2.5385309077592098e-05,2.3925755959410978e-05,2.0014441199359096e-05,4.2,3.0
3.74609375,2.5874223422598588e-05,2.2947927269398007e-05,3.368966302586402e-05,2.4407480387579127e-05,4.2,3.0
3.75,3.271183433585105e-05,1.6599230701152038e-05,1.9525526854352605e-05,3.901837564660084e-06,4.2,3.0
3.75390625,4.1008998367284634e-05,2.2947927269398007e-05,1.9525526854352605e-05,-4.912016235599523e-07,4.2,3.0
3.7578125,3.173400564583808e-05,2.7340966457618035e-05,3.612704483405811e-05,4.052727393911648e-05,4.2,3.0
3.76171875,3.612704483405811e-05,2.4407480387579127e-05,2.7340966457618035e-05,5.566204888380253e-05,4.2,3.0
3.765625,5.468422019378955e-05,2.0014441199359096e-05,2.5874223422598588e-05,4.492031312733651e-05,4.2,3.0
3.76953125,5.0780095350576005e-05,2.9296623837643976e-05,2.2947927269398007e-05,3.124509130083159e-05,4.2,3.0
3.7734375,4.003835959410999e-05,3.271183433585105e-05,2.0992269889372066e-05,2.4407480387579127e-05,4.2,3.0
3.77734375,2.88077094926375e-05,2.1970098579385037e-05,2.782988080262453e-05,3.173400564583808e-05,4.2,3.0
3.78125,2.4407480387579127e-05,2.4407480387579127e-05,2.9296623837643976e-05,3.759378786907757e-05,4.2,3.0
3.78515625,2.5874223422598588e-05,3.222291999084456e-05,3.514921614404514e-05,3.906053090409702e-05,4.2,3.0
3.7890625,2.782988080262453e-05,2.782988080262453e-05,3.271183433585105e-05,3.222291999084456e-05,4.2,3.0
3.79296875,3.320074868085753e-05,2.2947927269398007e-05,2.5874223422598588e-05,2.0014441199359096e-05,4.2,3.0
3.796875,3.9549445249103514e-05,2.3925755959410978e-05,2.5874223422598588e-05,3.075617695582511e-05,4.2,3.0
3.80078125,3.906053090409702e-05,2.9296623837643976e-05,2.782988080262453e-05,3.514921614404514e-05,4.2,3.0
3.8046875,4.492031312733651e-05,3.466749171587699e-05,4.2475741402304095e-05,3.124509130083159e-05,4.2,3.0
3.80859375,3.9549445249103514e-05,2.685205211261156e-05,3.759378786907757e-05,3.41785773708705e-05,4.2,3.0
3.8125,3.222291999084456e-05,1.6599230701152038e-05,1.0250534132906053e-05,2.3925755959410978e-05,4.2,3.0
3.81640625,3.514921614404514e-05,1.4154658976119605e-05,1.6599230701152038e-05,2.4407480387579127e-05,4.2,3.0
3.8203125,2.1481184234378546e-05,1.5621402011139067e-05,3.026726261081862e-05,2.9296623837643976e-05,4.2,3.0
3.82421875,2.685205211261156e-05,2.245901292439153e-05,4.19868270572976e-05,2.3436841614404497e-05,4.2,3.0
3.828125,5.272856281376361e-05,2.4896394732585618e-05,3.466749171587699e-05,1.1717277167925516e-05,4.2,3.0
3.83203125,4.589814181734948e-05,2.0992269889372066e-05,2.0503355544365576e-05,1.6110316356145544e-05,4.2,3.0
3.8359375,4.2475741402304095e-05,2.3436841614404497e-05,3.320074868085753e-05,4.003835959410999e-05,4.2,3.0
3.83984375,4.784660928053709e-05,2.9296623837643976e-05,3.710487352407108e-05,4.492031312733651e-05,4.2,3.0
3.84375,3.514921614404514e-05,2.9296623837643976e-05,3.173400564583808e-05,3.66159591790646e-05,4.2,3.0
3.84765625,2.8318795147631006e-05,2.5874223422598588e-05,3.514921614404514e-05,2.7340966457618035e-05,4.2,3.0
3.8515625,3.612704483405811e-05,2.1481184234378546e-05,2.782988080262453e-05,1.7088145046158515e-05,4.2,3.0
3.85546875,3.906053090409702e-05,2.9296623837643976e-05,3.759378786907757e-05,4.879666254673054e-06,4.2,3.0
3.859375,3.026726261081862e-05,3.710487352407108e-05,4.052727393911648e-05,9.761619787899577e-06,4.2,3.0
3.86328125,3.271183433585105e-05,3.271183433585105e-05,4.052727393911648e-05,2.9296623837643976e-05,4.2,3.0
3.8671875,3.41785773708705e-05,3.173400564583808e-05,3.8082702214084046e-05,3.9549445249103514e-05,4.2,3.0
3.87109375,3.612704483405811e-05,2.5385309077592098e-05,2.3925755959410978e-05,2.88077094926375e-05,4.2,3.0
3.875,4.149791271229112e-05,2.0992269889372066e-05,2.3436841614404497e-05,2.1970098579385037e-05,4.2,3.0
3.87890625,3.906053090409702e-05,3.026726261081862e-05,2.685205211261156e-05,3.124509130083159e-05,4.2,3.0
3.8828125,4.1008998367284634e-05,3.906053090409702e-05,3.075617695582511e-05,4.149791271229112e-05,4.2,3.0
3.88671875,3.271183433585105e-05,2.9296623837643976e-05,3.41785773708705e-05,3.710487352407108e-05,4.2,3.0
3.890625,2.685205211261156e-05,3.41785773708705e-05,3.514921614404514e-05,3.222291999084456e-05,4.2,3.0
3.89453125,3.41785773708705e-05,4.345357009231706e-05,2.977834826581214e-05,3.857161655909054e-05,4.2,3.0
3.8984375,4.149791271229112e-05,3.514921614404514e-05,3.173400564583808e-05,2.977834826581214e-05,4.2,3.0
3.90234375,2.782988080262453e-05,3.759378786907757e-05,3.368966302586402e-05,1.3665744631113128e-05,4.2,3.0
3.90625,2.5385309077592098e-05,2.88077094926375e-05,2.245901292439153e-05,2.245901292439153e-05,4.2,3.0
3.91015625,3.710487352407108e-05,1.903661250934613e-05,9.761619787899577e-06,1.9525526854352605e-05,4.2,3.0
3.9140625,3.857161655909054e-05,2.0014441199359096e-05,1.5132487666132575e-05,6.34640928969251e-06,4.2,3.0
3.91796875,3.857161655909054e-05,2.0014441199359096e-05,2.0992269889372066e-05,2.7340966457618035e-05,4.2,3.0
3.921875,3.612704483405811e-05,2.977834826581214e-05,2.977834826581214e-05,4.394248443732354e-05,4.2,3.0
3.92578125,4.1008998367284634e-05,3.124509130083159e-05,3.563813048905163e-05,3.759378786907757e-05,4.2,3.0
3.9296875,4.394248443732354e-05,2.5385309077592098e-05,2.0014441199359096e-05,3.563813048905163e-05,4.2,3.0
3.93359375,3.222291999084456e-05,2.245901292439153e-05,2.3925755959410978e-05,3.41785773708705e-05,4.2,3.0
3.9375,2.0014441199359096e-05,2.3436841614404497e-05,3.173400564583808e-05,2.1481184234378546e-05,4.2,3.0
3.94140625,2.2947927269398007e-05,3.41785773708705e-05,4.19868270572976e-05,1.5621402011139067e-05,4.2,3.0
3.9453125,3.66159591790646e-05,3.66159591790646e-05,4.8824437970550064e-05,3.320074868085753e-05,4.2,3.0
3.94921875,4.394248443732354e-05,3.612704483405811e-05,4.003835959410999e-05,5.126900969558248e-05,4.2,3.0
3.953125,4.2475741402304095e-05,3.271183433585105e-05,3.466749171587699e-05,3.9549445249103514e-05,4.2,3.0
3.95703125,3.514921614404514e-05,2.4896394732585618e-05,3.075617695582511e-05,3.075617695582511e-05,4.2,3.0
3.9609375,3.612704483405811e-05,2.5385309077592098e-05,3.320074868085753e-05,3.368966302586402e-05,4.2,3.0
3.96484375,4.492031312733651e-05,2.3436841614404497e-05,2.7340966457618035e-05,2.4407480387579127e-05,4.2,3.0
3.96875,4.686878059052412e-05,2.4896394732585618e-05,2.6363137767605065e-05,2.0503355544365576e-05,4.2,3.0
3.97265625,4.4431398782330036e-05,3.271183433585105e-05,3.41785773708705e-05,3.271183433585105e-05,4.2,3.0
3.9765625,3.222291999084456e-05,2.88077094926375e-05,2.88077094926375e-05,3.759378786907757e-05,4.2,3.0
3.98046875,3.466749171587699e-05,2.9296623837643976e-05,2.782988080262453e-05,4.345357009231706e-05,4.2,3.0
3.984375,4.73576949355306e-05,3.026726261081862e-05,3.514921614404514e-05,4.1008998367284634e-05,4.2,3.0
3.98828125,4.296465574731057e-05,2.1970098579385037e-05,3.906053090409702e-05,2.782988080262453e-05,4.2,3.0
3.9921875,4.149791271229112e-05,2.0014441199359096e-05,3.41785773708705e-05,2.245901292439153e-05,4.2,3.0
3.99609375,3.857161655909054e-05,2.4896394732585618e-05,3.124509130083159e-05,3.026726261081862e-05,4.2,3.0
4.0,3.563813048905163e-05,3.368966302586402e-05,3.906053090409702e-05,2.9296623837643976e-05,4.2,3.0
4.00390625,4.784660928053709e-05,4.1008998367284634e-05,4.003835959410999e-05,1.4644557564659877e-06,4.2,3.0
4.0078125,4.296465574731057e-05,4.1008998367284634e-05,3.514921614404514e-05,6.34640928969251e-06,4.2,3.0
4.01171875,2.782988080262453e-05,3.9549445249103514e-05,2.3436841614404497e-05,3.222291999084456e-05,4.2,3.0
4.015625,2.1481184234378546e-05,3.563813048905163e-05,2.88077094926375e-05,2.9296623837643976e-05,4.2,3.0
4.01953125,2.9296623837643976e-05,2.4407480387579127e-05,2.782988080262453e-05,3.9549445249103514e-05,4.2,3.0
4.0234375,4.73576949355306e-05,2.6363137767605065e-05,1.2206191512931994e-05,5.272856281376361e-05,4.2,3.0
4.02734375,4.931335231555654e-05,3.222291999084456e-05,1.9525526854352605e-05,4.637986624551763e-05,4.2,3.0
4.03125,4.833552362554357e-05,2.1970098579385037e-05,1.9525526854352605e-05,3.8082702214084046e-05,4.2,3.0
4.03515625,4.1008998367284634e-05,1.7088145046158515e-05,1.8065973736171485e-05,3.368966302586402e-05,4.2,3.0
4.0390625,3.41785773708705e-05,2.2947927269398007e-05,3.271183433585105e-05,2.5385309077592098e-05,4.2,3.0
4.04296875,4.052727393911648e-05,3.173400564583808e-05,4.931335231555654e-05,2.782988080262453e-05,4.2,3.0
4.046875,4.589814181734948e-05,3.563813048905163e-05,5.8099430691996614e-05,3.173400564583808e-05,4.2,3.0
4.05078125,3.906053090409702e-05,3.026726261081862e-05,4.492031312733651e-05,3.173400564583808e-05,4.2,3.0
4.0546875,2.4896394732585618e-05,2.4896394732585618e-05,4.052727393911648e-05,4.4431398782330036e-05,4.2,3.0
4.05859375,3.026726261081862e-05,3.124509130083159e-05,4.1008998367284634e-05,4.73576949355306e-05,4.2,3.0
4.0625,3.466749171587699e-05,3.271183433585105e-05,3.9549445249103514e-05,3.173400564583808e-05,4.2,3.0
4.06640625,3.612704483405811e-05,3.271183433585105e-05,4.637986624551763e-05,3.466749171587699e-05,4.2,3.0
4.0703125,3.759378786907757e-05,3.271183433585105e-05,4.003835959410999e-05,4.492031312733651e-05,4.2,3.0
4.07421875,2.3925755959410978e-05,3.124509130083159e-05,3.41785773708705e-05,2.8318795147631006e-05,4.2,3.0
4.078125,2.5385309077592098e-05,3.41785773708705e-05,3.124509130083159e-05,2.5874223422598588e-05,4.2,3.0
4.08203125,4.492031312733651e-05,3.368966302586402e-05,3.173400564583808e-05,4.19868270572976e-05,4.2,3.0
4.0859375,4.73576949355306e-05,2.977834826581214e-05,3.075617695582511e-05,4.003835959410999e-05,4.2,3.0
4.08984375,5.029118100556951e-05,2.977834826581214e-05,2.2947927269398007e-05,3.368966302586402e-05,4.2,3.0
4.09375,4.980226666056303e-05,2.977834826581214e-05,1.0739448477912545e-05,2.8318795147631006e-05,4.2,3.0
4.09765625,4.149791271229112e-05,3.075617695582511e-05,1.5132487666132575e-05,9.755414114595027e-07,4.2,3.0
4.1015625,4.003835959410999e-05,3.710487352407108e-05,2.1481184234378546e-05,4.866270664530176e-07,4.2,3.0
4.10546875,3.612704483405811e-05,3.466749171587699e-05,5.368580599679539e-06,1.8065973736171485e-05,4.2,3.0
4.109375,3.41785773708705e-05,2.5874223422598588e-05,-3.424687693598862e-06,2.6363137767605065e-05,4.2,3.0
4.11328125,4.052727393911648e-05,2.2947927269398007e-05,4.866270664530176e-07,4.4431398782330036e-05,4.2,3.0
4.1171875,3.563813048905163e-05,2.5385309077592098e-05,1.0739448477912545e-05,4.394248443732354e-05,4.2,3.0
4.12109375,3.368966302586402e-05,3.906053090409702e-05,2.88077094926375e-05,3.759378786907757e-05,4.2,3.0
4.125,4.5409227472343e-05,3.9549445249103514e-05,3.271183433585105e-05,2.977834826581214e-05,4.2,3.0
4.12890625,3.8082702214084046e-05,2.5385309077592098e-05,3.466749171587699e-05,2.5385309077592098e-05,4.2,3.0
4.1328125,1.903661250934613e-05,1.8547698164339635e-05,3.9549445249103514e-05,1.8065973736171485e-05,4.2,3.0
4.13671875,2.6363137767605065e-05,1.903661250934613e-05,3.466749171587699e-05,6.835323634698994e-06,4.2,3.0
4.140625,3.466749171587699e-05,1.757705939116501e-05,2.8318795147631006e-05,2.0014441199359096e-05,4.2,3.0
4.14453125,3.222291999084456e-05,1.0739448477912545e-05,2.245901292439153e-05,3.906053090409702e-05,4.2,3.0
4.1484375,3.320074868085753e-05,-2.446859003585892e-06,1.3665744631113128e-05,5.419530584878306e-05,4.2,3.0
4.15234375,3.173400564583808e-05,-2.446859003585892e-06,3.4129232196535994e-06,5.858834503700311e-05,4.2,3.0
4.15625,2.977834826581214e-05,1.2695105857938486e-05,9.761619787899577e-06,4.73576949355306e-05,4.2,3.0
4.16015625,1.7088145046158515e-05,3.026726261081862e-05,2.8318795147631006e-05,3.222291999084456e-05,4.2,3.0
4.1640625,2.4407480387579127e-05,3.759378786907757e-05,3.222291999084456e-05,2.0503355544365576e-05,4.2,3.0
4.16796875,4.73576949355306e-05,2.3436841614404497e-05,3.026726261081862e-05,9.761619787899577e-06,4.2,3.0
4.171875,4.4431398782330036e-05,1.6110316356145544e-05,1.8547698164339635e-05,1.2206191512931994e-05,4.2,3.0
4.17578125,4.5409227472343e-05,3.026726261081862e-05,1.6110316356145544e-05,2.3436841614404497e-05,4.2,3.0
4.1796875,4.4431398782330036e-05,3.8082702214084046e-05,3.075617695582511e-05,2.88077094926375e-05,4.2,3.0
4.18359375,3.66159591790646e-05,3.563813048905163e-05,2.3436841614404497e-05,2.9296623837643976e-05,4.2,3.0
4.1875,3.222291999084456e-05,3.124509130083159e-05,1.6599230701152038e-05,3.075617695582511e-05,4.2,3.0
4.19140625,1.6110316356145544e-05,3.075617695582511e-05,2.3925755959410978e-05,3.41785773708705e-05,4.2,3.0
4.1953125,4.3907519096665695e-06,3.66159591790646e-05,2.4407480387579127e-05,2.245901292439153e-05,4.2,3.0
4.19921875,3.222291999084456e-05,3.906053090409702e-05,3.271183433585105e-05,1.8065973736171485e-05,4.2,3.0
4.203125,5.272856281376361e-05,2.5385309077592098e-05,4.149791271229112e-05,2.1481184234378546e-05,4.2,3.0
4.20703125,4.052727393911648e-05,1.5132487666132575e-05,4.73576949355306e-05,2.5874223422598588e-05,4.2,3.0
4.2109375,3.173400564583808e-05,1.5621402011139067e-05,3.514921614404514e-05,2.4407480387579127e-05,4.2,3.0
4.21484375,2.7340966457618035e-05,1.6110316356145544e-05,2.5385309077592098e-05,2.3436841614404497e-05,4.2,3.0
4.21875,3.563813048905163e-05,2.782988080262453e-05,4.4431398782330036e-05,3.612704483405811e-05,4.2,3.0
4.22265625,4.052727393911648e-05,3.759378786907757e-05,5.029118100556951e-05,3.173400564583808e-05,4.2,3.0
4.2265625,2.0014441199359096e-05,3.222291999084456e-05,4.1008998367284634e-05,1.8065973736171485e-05,4.2,3.0
4.23046875,1.1717277167925516e-05,2.5874223422598588e-05,4.19868270572976e-05,2.6363137767605065e-05,4.2,3.0
4.234375,3.075617695582511e-05,3.271183433585105e-05,4.637986624551763e-05,2.3925755959410978e-05,4.2,3.0
4.23828125,4.2475741402304095e-05,3.124509130083159e-05,3.759378786907757e-05,1.903661250934613e-05,4.2,3.0
4.2421875,4.19868270572976e-05,2.1481184234378546e-05,2.9296623837643976e-05,2.5874223422598588e-05,4.2,3.0
4.24609375,4.296465574731057e-05,2.4407480387579127e-05,3.222291999084456e-05,3.563813048905163e-05,4.2,3.0
4.25,4.492031312733651e-05,2.4407480387579127e-05,2.0014441199359096e-05,4.833552362554357e-05,4.2,3.0
4.25390625,4.394248443732354e-05,2.5385309077592098e-05,2.5874223422598588e-05,5.2239648468757125e-05,4.2,3.0
4.2578125,2.245901292439153e-05,3.8082702214084046e-05,3.026726261081862e-05,4.686878059052412e-05,4.2,3.0
4.26171875,3.4129232196535994e-06,3.173400564583808e-05,2.0503355544365576e-05,2.7340966457618035e-05,4.2,3.0
4.265625,3.710487352407108e-05,2.685205211261156e-05,2.3436841614404497e-05,1.7088145046158515e-05,4.2,3.0
4.26953125,5.2239648468757125e-05,2.782988080262453e-05,2.3925755959410978e-05,2.3436841614404497e-05,4.2,3.0
4.2734375,3.514921614404514e-05,2.1481184234378546e-05,1.5132487666132575e-05,2.685205211261156e-05,4.2,3.0
4.27734375,3.857161655909054e-05,3.026726261081862e-05,2.685205211261156e-05,2.0992269889372066e-05,4.2,3.0
4.28125,4.8824437970550064e-05,3.514921614404514e-05,3.612704483405811e-05,1.9525526854352605e-05,4.2,3.0
4.28515625,5.468422019378955e-05,2.5385309077592098e-05,2.3925755959410978e-05,2.1970098579385037e-05,4.2,3.0
4.2890625,4.492031312733651e-05,3.075617695582511e-05,2.8318795147631006e-05,3.222291999084456e-05,4.2,3.0
4.29296875,4.296465574731057e-05,3.41785773708705e-05,3.514921614404514e-05,3.563813048905163e-05,4.2,3.0
4.296875,3.857161655909054e-05,3.466749171587699e-05,3.563813048905163e-05,3.075617695582511e-05,4.2,3.0
4.30078125,2.1970098579385037e-05,4.19868270572976e-05,3.8082702214084046e-05,4.345357009231706e-05,4.2,3.0
4.3046875,2.7340966457618035e-05,3.075617695582511e-05,3.514921614404514e-05,4.003835959410999e-05,4.2,3.0
4.30859375,3.222291999084456e-05,2.245901292439153e-05,3.271183433585105e-05,2.0503355544365576e-05,4.2,3.0
4.3125,3.563813048905163e-05,2.5385309077592098e-05,3.271183433585105e-05,3.901837564660084e-06,4.2,3.0
4.31640625,4.5409227472343e-05,3.026726261081862e-05,3.466749171587699e-05,9.761619787899577e-06,4.2,3.0
4.3203125,4.5409227472343e-05,3.514921614404514e-05,3.8082702214084046e-05,1.4154658976119605e-05,4.2,3.0
4.32421875,4.296465574731057e-05,4.003835959410999e-05,4.2475741402304095e-05,1.8065973736171485e-05,4.2,3.0
4.328125,3.026726261081862e-05,3.612704483405811e-05,4.4431398782330036e-05,4.003835959410999e-05,4.2,3.0
4.33203125,1.6110316356145544e-05,2.0503355544365576e-05,3.368966302586402e-05,4.980226666056303e-05,4.2,3.0
4.3359375,1.946180184634144e-06,1.8065973736171485e-05,3.124509130083159e-05,5.468422019378955e-05,4.2,3.0
4.33984375,1.3176830286106636e-05,2.9296623837643976e-05,3.320074868085753e-05,5.517313453879603e-05,4.2,3.0
4.34375,3.9549445249103514e-05,2.5874223422598588e-05,2.4407480387579127e-05,3.271183433585105e-05,4.2,3.0
4.34765625,3.66159591790646e-05,1.6599230701152038e-05,1.6110316356145544e-05,1.8065973736171485e-05,4.2,3.0
4.3515625,3.173400564583808e-05,9.761619787899577e-06,1.6110316356145544e-05,3.026726261081862e-05,4.2,3.0
