timestamp,TP9,AF7,AF8,TP10,Valence,Arousal
0.0,-2.6367723308155886e-05,-6.396856996414125e-05,-6.690402383764396e-05,5.3622156008240436e-06,3.7333,5.7333
0.00390625,-4.004075845578693e-05,-6.64115628259708e-05,-6.787928976272216e-05,1.708471889829869e-05,3.7333,5.7333
0.0078125,-4.785254195468066e-05,-9.179744517280838e-05,-7.03126265262836e-05,-4.400099748226097e-06,3.7333,5.7333
0.01171875,-2.5392457383077698e-05,-0.00011182419298084988,-8.203512982375825e-05,-1.4162415097276209e-05,3.7333,5.7333
0.015625,-9.2860854718852e-06,-0.00014014552920119016,-0.0001176757885313191,-5.375365673304287e-06,3.7333,5.7333
0.01953125,4.879410687418982e-06,-0.0001547938302738994,-0.0001645464895246814,-1.7580673884183967e-05,3.7333,5.7333
0.0234375,1.659225788662553e-05,-0.0001708905460868238,-0.00019433555268177306,-2.5884918394750855e-05,3.7333,5.7333
0.02734375,2.587176832227061e-05,-0.00019823661638208585,-0.00019042483288319215,-3.6139694755474126e-05,3.7333,5.7333
0.03125,3.612654468299388e-05,-0.0002329020091645685,-0.00019433555268177306,-6.104277218890664e-05,3.7333,5.7333
0.03515625,3.9544803469901634e-05,-0.0002524362959609369,-0.00024071379266346222,-7.910933204852364e-05,3.7333,5.7333
0.0390625,5.077484575570312e-05,-0.00027099531683222696,-0.00028124043709468216,-8.008459797360184e-05,3.7333,5.7333
0.04296875,5.077484575570312e-05,-0.00029784892611581595,-0.0003076112414648661,-9.815115783321884e-05,3.7333,5.7333
0.046875,5.516837046768907e-05,-0.00028954468160524905,-0.0003256778013244831,-0.0001206112424048218,3.7333,5.7333
0.05078125,6.29801539665828e-05,-0.0002861264228183413,-0.00032958852112306393,-0.00012500476711680778,3.7333,5.7333
0.0546875,6.444788090333415e-05,-0.0003066359755397879,-0.0003330067799099718,-0.0001406283341145952,3.7333,5.7333
0.05859375,7.470265726405742e-05,-0.0003051682486030365,-0.00033690784361028455,-0.00015527663518730446,3.7333,5.7333
0.0625,7.860372096437024e-05,-0.0002875941497550926,-0.0003354401166735332,-0.00016307876258793007,3.7333,5.7333
0.06640625,7.470265726405742e-05,-0.0002900371426169222,-0.00033593257768520636,-0.0001787023295857175,3.7333,5.7333
0.0703125,7.128439847714966e-05,-0.0002988241920408941,-0.0003305637870481422,-0.00018309585429770347,3.7333,5.7333
0.07421875,8.446497261310756e-05,-0.00026269107232166017,-0.00030712843655146104,-0.000180662517534142,3.7333,5.7333
0.078125,8.251444076295115e-05,-0.00025976527454642554,-0.0003081037024765392,-0.00018700657409628438,3.7333,5.7333
0.08203125,6.200488804150459e-05,-0.0002783146393194475,-0.000311521961263447,-0.0001967688894453345,3.7333,5.7333
0.0859375,6.737367867856875e-05,-0.00025292875697261,-0.00028906187669184403,-0.00020018714823224226,3.7333,5.7333
0.08984375,5.7128558416113574e-05,-0.00023583746303807124,-0.00027880710033112075,-0.00020360540701915003,3.7333,5.7333
0.09375,4.393832818188761e-05,-0.00021435264439154643,-0.0002490180371740291,-0.00019628608453192947,3.7333,5.7333
0.09765625,5.371029962920582e-05,-0.00020214733618066676,-0.00022900094546425572,-0.00019237536473334856,3.7333,5.7333
0.1015625,5.419310454261088e-05,-0.00018261304938429842,-0.00021240211254139007,-0.00018895710594644076,3.7333,5.7333
0.10546875,4.6381321043717146e-05,-0.00016405402851300826,-0.00018212058837262525,-0.00018456358123445483,3.7333,5.7333
0.109375,4.0520069394979826e-05,-0.00015674436212405581,-0.0001577099719508659,-0.0001767517977355611,3.7333,5.7333
0.11328125,4.393832818188761e-05,-0.0001235370401800564,-0.00012109404731822685,-0.00017040774117341872,3.7333,5.7333
0.1171875,3.3683551821164314e-05,-0.00011621771769283583,-0.00011377472483100629,-0.0001645464895246814,3.7333,5.7333
0.12109375,2.0502977685206446e-05,-0.0001054704803204394,-0.00011816824954299224,-0.00016210349666285188,3.7333,5.7333
0.125,2.2945970547035983e-05,-5.859977932707709e-05,-7.373088531319138e-05,-0.00015527663518730446,3.7333,5.7333
0.12890625,6.347137624170358e-06,-4.687727602960245e-05,-4.1508485392538286e-05,-0.00013379181654077967,3.7333,5.7333
0.1328125,-4.400099748226097e-06,-4.443428316777289e-05,-4.101602438086513e-05,-0.0001293982918287937,3.7333,5.7333
0.13671875,-8.301163448538887e-06,-1.4654876108949366e-05,-1.6122603045700713e-05,-0.0001225617742549782,3.7333,5.7333
0.140625,-1.4162415097276209e-05,-9.2860854718852e-06,-9.2860854718852e-06,-0.0001074306682688639,3.7333,5.7333
0.14453125,-1.3187149172198019e-05,-1.123661732204161e-05,-3.90763873655294e-06,-0.00010596294133211256,3.7333,5.7333
0.1484375,-2.002366674601353e-05,1.8552445835050035e-05,2.7339495259021958e-05,-9.717589190814064e-05,3.7333,5.7333
0.15234375,-2.3441925532921287e-05,2.3921236472114202e-05,4.0520069394979826e-05,-8.642865453574421e-05,3.7333,5.7333
0.15625,-3.1746170043488165e-05,1.4158921123064062e-05,4.6873782055390306e-05,-8.594584962233915e-05,3.7333,5.7333
0.16015625,-3.7114960680552325e-05,1.805998482337688e-05,3.661900569466704e-05,-8.35028567605096e-05,3.7333,5.7333
0.1640625,-4.004075845578693e-05,2.3921236472114202e-05,4.443078919356074e-05,-8.398566167391465e-05,3.7333,5.7333
0.16796875,-4.73697370412756e-05,3.4176012832837474e-05,6.59156078400855e-05,-8.545338861066601e-05,3.7333,5.7333
0.171875,-4.83450029663538e-05,3.0265293034256557e-05,4.833185289387356e-05,-7.910933204852364e-05,3.7333,5.7333
0.17578125,-4.443428316777289e-05,3.710181060807207e-05,3.465881774624253e-05,-8.05674028870069e-05,3.7333,5.7333
0.1796875,-4.83450029663538e-05,3.9544803469901634e-05,2.9782488120851495e-05,-8.642865453574421e-05,3.7333,5.7333
0.18359375,-4.9812729903105164e-05,4.345552326848255e-05,3.1240558959334776e-05,-7.422334632486452e-05,3.7333,5.7333
0.1875,-4.9812729903105164e-05,5.468556555428404e-05,4.0037264481574794e-05,-6.933736060120542e-05,3.7333,5.7333
0.19140625,-5.468905952849617e-05,4.833185289387356e-05,4.882431390554672e-05,-7.129754854962992e-05,3.7333,5.7333
0.1953125,-5.273852767833976e-05,4.49135941069658e-05,4.78490479804685e-05,-6.933736060120542e-05,3.7333,5.7333
0.19921875,-5.1270800741588415e-05,4.296306225680939e-05,3.4176012832837474e-05,-6.690402383764396e-05,3.7333,5.7333
0.203125,-5.6649247476920676e-05,3.661900569466704e-05,2.68470342473488e-05,-6.836209467612722e-05,3.7333,5.7333
0.20703125,-5.908258424048213e-05,2.7339495259021958e-05,2.7831956270695115e-05,-6.885455568780036e-05,3.7333,5.7333
0.2109375,-5.518152054016933e-05,2.68470342473488e-05,3.807707653315029e-05,-6.690402383764396e-05,3.7333,5.7333
0.21484375,-5.0787995828183356e-05,2.2453509535362826e-05,3.856953754482345e-05,-6.738682875104901e-05,3.7333,5.7333
0.21875,-5.323098869001292e-05,2.0995438696879572e-05,1.659225788662553e-05,-6.104277218890664e-05,3.7333,5.7333
0.22265625,-6.055031117723348e-05,2.7339495259021958e-05,1.1223467249561366e-05,-6.44610309758144e-05,3.7333,5.7333
0.2265625,-6.299330403906305e-05,2.197070462195779e-05,2.5388963408865547e-05,-6.591910181429765e-05,3.7333,5.7333
0.23046875,-5.859977932707709e-05,2.489650239719239e-05,3.612654468299388e-05,-5.3713793603417965e-05,3.7333,5.7333
0.234375,-5.6156786465247516e-05,2.9782488120851495e-05,3.320074690775928e-05,-4.687727602960245e-05,3.7333,5.7333
0.23828125,-5.762451340199888e-05,1.8552445835050035e-05,1.708471889829869e-05,-4.053321946746008e-05,3.7333,5.7333
0.2421875,-5.908258424048213e-05,7.80520846265361e-06,6.829942537575391e-06,-3.6139694755474126e-05,3.7333,5.7333
0.24609375,-5.468905952849617e-05,9.765396411078114e-06,1.3173999099717776e-05,-3.3696701893644555e-05,3.7333,5.7333
0.25,-4.73697370412756e-05,5.854676612497201e-06,2.441369748378736e-05,-2.6367723308155886e-05,3.7333,5.7333
0.25390625,-5.762451340199888e-05,-8.301163448538887e-06,2.2945970547035983e-05,-3.3204240881971416e-05,3.7333,5.7333
0.2578125,-6.396856996414125e-05,-1.709786897077893e-05,1.4641726036469122e-05,-3.858268761730368e-05,3.7333,5.7333
0.26171875,-5.859977932707709e-05,-1.0744156310368453e-05,1.0740662336156304e-05,-3.662249966887917e-05,3.7333,5.7333
0.265625,-6.201803811398484e-05,-1.0744156310368453e-05,1.0248201324483147e-05,-3.272143596856636e-05,3.7333,5.7333
0.26953125,-6.44610309758144e-05,-1.954086183260847e-05,2.0995438696879572e-05,-3.809022660563053e-05,3.7333,5.7333
0.2734375,-6.152557710231169e-05,-1.954086183260847e-05,3.4176012832837474e-05,-3.858268761730368e-05,3.7333,5.7333
0.27734375,-5.9575045252155286e-05,-2.3441925532921287e-05,1.903525074845507e-05,-3.906549253070872e-05,3.7333,5.7333
0.28125,-5.859977932707709e-05,-1.51376810223544e-05,1.3173999099717776e-05,-4.200094640421143e-05,3.7333,5.7333
0.28515625,-6.055031117723348e-05,-2.1974198596169942e-05,1.805998482337688e-05,-4.6394471116197394e-05,3.7333,5.7333
0.2890625,-6.299330403906305e-05,-2.441719145799948e-05,1.805998482337688e-05,-4.883746397802696e-05,3.7333,5.7333
0.29296875,-5.810731831540393e-05,-2.5392457383077698e-05,2.197070462195779e-05,-4.83450029663538e-05,3.7333,5.7333
0.296875,-5.1270800741588415e-05,-2.7835450244907235e-05,1.2198733174639557e-05,-5.0787995828183356e-05,3.7333,5.7333
0.30078125,-5.4206254615091125e-05,-2.002366674601353e-05,6.829942537575391e-06,-4.73697370412756e-05,3.7333,5.7333
0.3046875,-6.055031117723348e-05,-2.832791125658039e-05,-3.90763873655294e-06,-5.029553481651021e-05,3.7333,5.7333
0.30859375,-5.224606666666662e-05,-3.3204240881971416e-05,-1.026135139696339e-05,-5.468905952849617e-05,3.7333,5.7333
0.3125,-4.83450029663538e-05,-2.441719145799948e-05,-4.893799496451833e-07,-4.3459017242694684e-05,3.7333,5.7333
0.31640625,-5.323098869001292e-05,-2.5884918394750855e-05,-3.424833823147878e-06,-4.395147825436784e-05,3.7333,5.7333
0.3203125,-4.83450029663538e-05,-2.3441925532921287e-05,-7.818358535133854e-06,-3.955795354238188e-05,3.7333,5.7333
0.32421875,-4.590201010452425e-05,-1.9048400820935312e-05,-1.1719422235446643e-05,-2.9785982095063656e-05,3.7333,5.7333
0.328125,-5.810731831540393e-05,-4.73697370412756e-05,-2.3441925532921287e-05,-3.5647233743800966e-05,3.7333,5.7333
0.33203125,-5.810731831540393e-05,-5.029553481651021e-05,-1.4654876108949366e-05,-4.297621232928964e-05,3.7333,5.7333
0.3359375,-4.6394471116197394e-05,-3.7114960680552325e-05,-9.768890385290263e-06,-4.248375131761649e-05,3.7333,5.7333
0.33984375,-4.248375131761649e-05,-4.883746397802696e-05,-4.053321946746008e-05,-4.053321946746008e-05,3.7333,5.7333
0.34375,-3.7114960680552325e-05,-3.222897495689321e-05,-4.54192051911192e-05,-5.6649247476920676e-05,3.7333,5.7333
0.34765625,-3.5647233743800966e-05,-4.004075845578693e-05,-3.1746170043488165e-05,-6.64115628259708e-05,3.7333,5.7333
0.3515625,-4.053321946746008e-05,-4.83450029663538e-05,-2.930317718165861e-05,-6.690402383764396e-05,3.7333,5.7333
0.35546875,-3.858268761730368e-05,-2.5884918394750855e-05,-1.4654876108949366e-05,-6.104277218890664e-05,3.7333,5.7333
0.359375,-4.004075845578693e-05,-2.6367723308155886e-05,-2.930317718165861e-05,-5.9575045252155286e-05,3.7333,5.7333
0.36328125,-3.955795354238188e-05,-2.2466659607843068e-05,-2.149139368276488e-05,-5.908258424048213e-05,3.7333,5.7333
0.3671875,-2.930317718165861e-05,-1.3679610183871147e-05,1.2198733174639557e-05,-4.200094640421143e-05,3.7333,5.7333
0.37109375,-3.4189162905317715e-05,-4.200094640421143e-05,-1.1719422235446643e-05,-5.1763261753261555e-05,3.7333,5.7333
0.375,-3.759776559395738e-05,-5.1270800741588415e-05,-2.8810716169985454e-05,-6.348576505073619e-05,3.7333,5.7333
0.37890625,-3.858268761730368e-05,-5.3713793603417965e-05,-4.6394471116197394e-05,-5.762451340199888e-05,3.7333,5.7333
0.3828125,-4.1508485392538286e-05,-6.055031117723348e-05,-5.6156786465247516e-05,-5.6156786465247516e-05,3.7333,5.7333
0.38671875,-4.6394471116197394e-05,-6.152557710231169e-05,-3.6139694755474126e-05,-5.6156786465247516e-05,3.7333,5.7333
0.390625,-4.785254195468066e-05,-6.690402383764396e-05,-2.1974198596169942e-05,-5.810731831540393e-05,3.7333,5.7333
0.39453125,-4.785254195468066e-05,-6.591910181429765e-05,-4.200094640421143e-05,-6.250084302738988e-05,3.7333,5.7333
0.3984375,-4.3459017242694684e-05,-7.178035346303497e-05,-6.690402383764396e-05,-5.5664325453574376e-05,3.7333,5.7333
0.40234375,-4.053321946746008e-05,-7.861687103685048e-05,-6.348576505073619e-05,-4.248375131761649e-05,3.7333,5.7333
0.40625,-4.3459017242694684e-05,-7.080508753795677e-05,-3.955795354238188e-05,-4.54192051911192e-05,3.7333,5.7333
0.41015625,-4.395147825436784e-05,-7.471580733653768e-05,-3.759776559395738e-05,-5.6156786465247516e-05,3.7333,5.7333
0.4140625,-3.955795354238188e-05,-6.933736060120542e-05,-4.687727602960245e-05,-4.9812729903105164e-05,3.7333,5.7333
0.41796875,-3.077090411840996e-05,-5.908258424048213e-05,-3.759776559395738e-05,-3.5647233743800966e-05,3.7333,5.7333
0.421875,-4.9320268891432004e-05,-7.666633918669409e-05,-6.591910181429765e-05,-5.3713793603417965e-05,3.7333,5.7333
0.42578125,-6.104277218890664e-05,-9.082217924773018e-05,-9.375763312123288e-05,-6.54362969008926e-05,3.7333,5.7333
0.4296875,-3.222897495689321e-05,-6.104277218890664e-05,-4.6394471116197394e-05,-3.5647233743800966e-05,3.7333,5.7333
0.43359375,-3.4189162905317715e-05,-5.0787995828183356e-05,-1.6122603045700713e-05,-3.077090411840996e-05,3.7333,5.7333
0.4375,-4.443428316777289e-05,-4.785254195468066e-05,-3.1746170043488165e-05,-3.6139694755474126e-05,3.7333,5.7333
0.44140625,-2.73526453315022e-05,-4.395147825436784e-05,-4.395147825436784e-05,-2.4909652469672636e-05,3.7333,5.7333
0.4453125,-2.6860184319829043e-05,-7.569107326161588e-05,-4.785254195468066e-05,-2.3934386544594444e-05,3.7333,5.7333
0.44921875,-4.248375131761649e-05,-5.762451340199888e-05,-4.200094640421143e-05,-3.222897495689321e-05,3.7333,5.7333
0.453125,-5.029553481651021e-05,-6.738682875104901e-05,-4.395147825436784e-05,-3.906549253070872e-05,3.7333,5.7333
0.45703125,-4.004075845578693e-05,-8.496092759899286e-05,-5.859977932707709e-05,-3.077090411840996e-05,3.7333,5.7333
0.4609375,-4.1508485392538286e-05,-8.35028567605096e-05,-7.519861224994273e-05,-3.858268761730368e-05,3.7333,5.7333
0.46484375,-4.9320268891432004e-05,-0.0001025446825452048,-8.984691332265197e-05,-5.273852767833976e-05,3.7333,5.7333
0.46875,-4.492674417944604e-05,-8.692111554741735e-05,-9.668343089646748e-05,-5.323098869001292e-05,3.7333,5.7333
0.47265625,-4.004075845578693e-05,-8.837918638590061e-05,-0.00010010168968337524,-5.518152054016933e-05,3.7333,5.7333
0.4765625,-3.02784431067368e-05,-8.594584962233915e-05,-8.105986389868005e-05,-4.297621232928964e-05,3.7333,5.7333
0.48046875,-3.759776559395738e-05,-8.984691332265197e-05,-9.228990618448152e-05,-3.272143596856636e-05,3.7333,5.7333
0.484375,-5.029553481651021e-05,-9.912642375829705e-05,-0.00010302748745860986,-3.759776559395738e-05,3.7333,5.7333
0.48828125,-4.004075845578693e-05,-9.765869682154569e-05,-7.910933204852364e-05,-3.906549253070872e-05,3.7333,5.7333
0.4921875,-4.3459017242694684e-05,-0.00011279945890592807,-8.642865453574421e-05,-4.9320268891432004e-05,3.7333,5.7333
0.49609375,-5.323098869001292e-05,-0.00010791347318226897,-9.961888476997019e-05,-6.348576505073619e-05,3.7333,5.7333
0.5,-5.1270800741588415e-05,-9.961888476997019e-05,-9.375763312123288e-05,-5.713205239032572e-05,3.7333,5.7333
0.50390625,-5.468905952849617e-05,-0.00011230699789425493,-0.00011328226381933314,-5.323098869001292e-05,3.7333,5.7333
0.5078125,-4.54192051911192e-05,-0.00010449521439536121,-0.00011230699789425493,-5.518152054016933e-05,3.7333,5.7333
0.51171875,-4.492674417944604e-05,-8.837918638590061e-05,-0.0001015694166201266,-5.029553481651021e-05,3.7333,5.7333
0.515625,-4.443428316777289e-05,-8.105986389868005e-05,-9.375763312123288e-05,-3.759776559395738e-05,3.7333,5.7333
0.51953125,-3.809022660563053e-05,-9.278236719615467e-05,-0.00010107695560845346,-4.492674417944604e-05,3.7333,5.7333
0.5234375,-4.3459017242694684e-05,-9.86339627466239e-05,-0.0001015694166201266,-4.443428316777289e-05,3.7333,5.7333
0.52734375,-4.9812729903105164e-05,-9.033937433432511e-05,-0.00010107695560845346,-3.759776559395738e-05,3.7333,5.7333
0.53125,-5.468905952849617e-05,-0.00011670052260624089,-9.620062598306243e-05,-3.6139694755474126e-05,3.7333,5.7333
0.53515625,-5.468905952849617e-05,-0.00011084892705577166,-9.961888476997019e-05,-3.222897495689321e-05,3.7333,5.7333
0.5390625,-4.590201010452425e-05,-8.008459797360184e-05,-9.424043803463793e-05,-4.3459017242694684e-05,3.7333,5.7333
0.54296875,-4.1508485392538286e-05,-7.861687103685048e-05,-8.203512982375825e-05,-4.73697370412756e-05,3.7333,5.7333
0.546875,-3.6139694755474126e-05,-9.375763312123288e-05,-8.692111554741735e-05,-3.516442883039592e-05,3.7333,5.7333
0.55078125,-3.077090411840996e-05,-7.861687103685048e-05,-7.324808039978632e-05,-3.809022660563053e-05,3.7333,5.7333
0.5546875,-3.1746170043488165e-05,-7.471580733653768e-05,-6.494383588921946e-05,-4.297621232928964e-05,3.7333,5.7333
0.55859375,-3.3204240881971416e-05,-7.129754854962992e-05,-8.05674028870069e-05,-4.004075845578693e-05,3.7333,5.7333
0.5625,-3.3204240881971416e-05,-6.494383588921946e-05,-8.35028567605096e-05,-3.6139694755474126e-05,3.7333,5.7333
0.56640625,-3.5647233743800966e-05,-7.324808039978632e-05,-6.982982161287856e-05,-3.5647233743800966e-05,3.7333,5.7333
0.5703125,-3.662249966887917e-05,-6.348576505073619e-05,-6.055031117723348e-05,-4.395147825436784e-05,3.7333,5.7333
0.57421875,-3.809022660563053e-05,-5.3713793603417965e-05,-5.323098869001292e-05,-4.443428316777289e-05,3.7333,5.7333
0.578125,-2.6367723308155886e-05,-4.6394471116197394e-05,-4.687727602960245e-05,-3.077090411840996e-05,3.7333,5.7333
0.58203125,-1.8073134895857124e-05,-6.348576505073619e-05,-5.9575045252155286e-05,-3.858268761730368e-05,3.7333,5.7333
0.5859375,-3.3204240881971416e-05,-6.54362969008926e-05,-5.762451340199888e-05,-5.273852767833976e-05,3.7333,5.7333
0.58984375,-3.077090411840996e-05,-4.73697370412756e-05,-3.3204240881971416e-05,-5.029553481651021e-05,3.7333,5.7333
0.59375,-2.2466659607843068e-05,-3.858268761730368e-05,-2.832791125658039e-05,-5.273852767833976e-05,3.7333,5.7333
0.59765625,-2.7835450244907235e-05,-4.687727602960245e-05,-4.3459017242694684e-05,-5.908258424048213e-05,3.7333,5.7333
0.6015625,-2.1974198596169942e-05,-3.1253709031815005e-05,-2.9785982095063656e-05,-6.006750626382843e-05,3.7333,5.7333
0.60546875,-2.0516127757686688e-05,-1.3679610183871147e-05,-1.026135139696339e-05,-5.029553481651021e-05,3.7333,5.7333
0.609375,-2.1974198596169942e-05,-9.768890385290263e-06,-2.7835450244907235e-05,-5.1763261753261555e-05,3.7333,5.7333
0.61328125,-1.954086183260847e-05,1.3173999099717776e-05,-2.932372811474721e-06,-5.4206254615091125e-05,3.7333,5.7333
0.6171875,-2.0998932671091723e-05,2.3428775460441045e-05,9.272935399404957e-06,-5.0787995828183356e-05,3.7333,5.7333
0.62109375,-2.73526453315022e-05,-4.88290466163113e-06,-2.449567898069688e-06,-5.273852767833976e-05,3.7333,5.7333
0.625,-3.02784431067368e-05,-1.709786897077893e-05,-3.90763873655294e-06,-5.323098869001292e-05,3.7333,5.7333
0.62890625,-2.4909652469672636e-05,2.1478243610284634e-05,2.436417825589444e-06,-5.029553481651021e-05,3.7333,5.7333
0.6328125,-2.2466659607843068e-05,3.17330199710079e-05,1.8552445835050035e-05,-5.029553481651021e-05,3.7333,5.7333
0.63671875,-2.4909652469672636e-05,3.1240558959334776e-05,2.7831956270695115e-05,-4.883746397802696e-05,3.7333,5.7333
0.640625,-2.4909652469672636e-05,3.710181060807207e-05,3.465881774624253e-05,-4.053321946746008e-05,3.7333,5.7333
0.64453125,-1.8555939809262182e-05,4.930711881895175e-05,4.78490479804685e-05,-3.3696701893644555e-05,3.7333,5.7333
0.6484375,-1.5630142034027556e-05,6.689087376516372e-05,6.835860070191506e-05,-4.1508485392538286e-05,3.7333,5.7333
0.65234375,-1.51376810223544e-05,6.200488804150459e-05,8.251444076295115e-05,-3.906549253070872e-05,3.7333,5.7333
0.65625,-1.4162415097276209e-05,7.177685948882282e-05,8.690796547493713e-05,-3.3204240881971416e-05,3.7333,5.7333
0.66015625,-1.0744156310368453e-05,7.617038420080879e-05,8.39821676997025e-05,-4.395147825436784e-05,3.7333,5.7333
0.6640625,-9.2860854718852e-06,6.639841275349056e-05,7.665318911421383e-05,-4.9320268891432004e-05,3.7333,5.7333
0.66796875,-4.400099748226097e-06,8.593269954985891e-05,8.495743362478072e-05,-5.323098869001292e-05,3.7333,5.7333
0.671875,-9.818409613183121e-07,8.837569241168847e-05,8.984341934843982e-05,-5.029553481651021e-05,3.7333,5.7333
0.67578125,-1.6605407959105775e-05,6.884140561532013e-05,7.128439847714966e-05,-5.1270800741588415e-05,3.7333,5.7333
0.6796875,-1.6122603045700713e-05,6.933386662699325e-05,4.833185289387356e-05,-5.859977932707709e-05,3.7333,5.7333
0.68359375,-6.350631598382477e-06,6.200488804150459e-05,5.175011168078131e-05,-6.54362969008926e-05,3.7333,5.7333
0.6875,-9.768890385290263e-06,5.9079090266269985e-05,5.7128558416113574e-05,-6.738682875104901e-05,3.7333,5.7333
0.69140625,-8.793624460212044e-06,7.177685948882282e-05,5.468556555428404e-05,-6.396856996414125e-05,3.7333,5.7333
0.6953125,-1.3679610183871147e-05,6.249734905317774e-05,5.614363639276729e-05,-6.494383588921946e-05,3.7333,5.7333
0.69921875,-1.3187149172198019e-05,4.6873782055390306e-05,4.0037264481574794e-05,-5.908258424048213e-05,3.7333,5.7333
0.703125,-1.6122603045700713e-05,4.6381321043717146e-05,2.7339495259021958e-05,-6.006750626382843e-05,3.7333,5.7333
0.70703125,-2.4909652469672636e-05,4.393832818188761e-05,2.636422933394374e-05,-6.885455568780036e-05,3.7333,5.7333
0.7109375,-2.832791125658039e-05,4.1012530406652986e-05,2.2945970547035983e-05,-6.201803811398484e-05,3.7333,5.7333
0.71484375,-2.6860184319829043e-05,2.5388963408865547e-05,1.0248201324483147e-05,-5.713205239032572e-05,3.7333,5.7333
0.71875,-2.149139368276488e-05,2.0995438696879572e-05,2.0502977685206446e-05,-5.810731831540393e-05,3.7333,5.7333
0.72265625,-2.7835450244907235e-05,9.272935399404957e-06,8.297669474326738e-06,-6.494383588921946e-05,3.7333,5.7333
0.7265625,-3.7114960680552325e-05,-1.22118832471198e-05,-2.294946452124813e-05,-7.178035346303497e-05,3.7333,5.7333
0.73046875,-4.248375131761649e-05,-1.957106886396531e-06,-6.843092610055635e-06,-5.323098869001292e-05,3.7333,5.7333
0.734375,-4.200094640421143e-05,1.2198733174639557e-05,1.9527711760128227e-05,-4.395147825436784e-05,3.7333,5.7333
0.73828125,-3.467196781872276e-05,-6.350631598382477e-06,2.436417825589444e-06,-4.6394471116197394e-05,3.7333,5.7333
0.7421875,-3.222897495689321e-05,-3.906549253070872e-05,-4.395147825436784e-05,-5.029553481651021e-05,3.7333,5.7333
0.74609375,-4.3459017242694684e-05,-4.004075845578693e-05,-4.248375131761649e-05,-4.6394471116197394e-05,3.7333,5.7333
0.75,-5.1763261753261555e-05,-2.1974198596169942e-05,-1.7580673884183967e-05,-3.222897495689321e-05,3.7333,5.7333
0.75390625,-3.3696701893644555e-05,-6.843092610055635e-06,-1.026135139696339e-05,-1.9048400820935312e-05,3.7333,5.7333
0.7578125,-3.272143596856636e-05,-1.8555939809262182e-05,-3.955795354238188e-05,-2.5884918394750855e-05,3.7333,5.7333
0.76171875,-4.004075845578693e-05,-1.2704344258792957e-05,-3.3696701893644555e-05,-3.759776559395738e-05,3.7333,5.7333
0.765625,-3.4189162905317715e-05,-3.90763873655294e-06,-1.2704344258792957e-05,-2.1974198596169942e-05,3.7333,5.7333
0.76953125,-4.883746397802696e-05,-3.759776559395738e-05,-3.516442883039592e-05,-2.3441925532921287e-05,3.7333,5.7333
0.7734375,-6.250084302738988e-05,-6.152557710231169e-05,-6.690402383764396e-05,-3.759776559395738e-05,3.7333,5.7333
0.77734375,-5.5664325453574376e-05,-6.201803811398484e-05,-6.250084302738988e-05,-2.832791125658039e-05,3.7333,5.7333
0.78125,-5.762451340199888e-05,-6.787928976272216e-05,-5.468905952849617e-05,-2.0516127757686688e-05,3.7333,5.7333
0.78515625,-5.6649247476920676e-05,-5.1763261753261555e-05,-2.5392457383077698e-05,-3.424833823147878e-06,3.7333,5.7333
0.7890625,-5.3713793603417965e-05,-5.9575045252155286e-05,-2.6860184319829043e-05,-8.301163448538887e-06,3.7333,5.7333
0.79296875,-5.1763261753261555e-05,-7.714914410009914e-05,-5.6156786465247516e-05,-2.832791125658039e-05,3.7333,5.7333
0.796875,-3.906549253070872e-05,-5.0787995828183356e-05,-4.004075845578693e-05,-1.8073134895857124e-05,3.7333,5.7333
0.80078125,-4.590201010452425e-05,-7.129754854962992e-05,-6.299330403906305e-05,-2.294946452124813e-05,3.7333,5.7333
0.8046875,-5.859977932707709e-05,-9.228990618448152e-05,-9.620062598306243e-05,-3.858268761730368e-05,3.7333,5.7333
0.80859375,-4.3459017242694684e-05,-6.836209467612722e-05,-6.64115628259708e-05,-1.9048400820935312e-05,3.7333,5.7333
0.8125,-5.0787995828183356e-05,-8.594584962233915e-05,-7.275561938811318e-05,-2.5392457383077698e-05,3.7333,5.7333
0.81640625,-7.275561938811318e-05,-0.00011524245176775764,-0.00010401240948195615,-4.83450029663538e-05,3.7333,5.7333
0.8203125,-6.982982161287856e-05,-0.0001074306682688639,-9.961888476997019e-05,-3.3696701893644555e-05,3.7333,5.7333
0.82421875,-6.64115628259708e-05,-0.00011035646604409852,-8.887164739757377e-05,-2.73526453315022e-05,3.7333,5.7333
0.828125,-6.348576505073619e-05,-0.0001245123061051346,-9.375763312123288e-05,-3.5647233743800966e-05,3.7333,5.7333
0.83203125,-6.494383588921946e-05,-0.00013721007532768747,-0.00011670052260624089,-3.3204240881971416e-05,3.7333,5.7333
0.8359375,-6.738682875104901e-05,-0.0001215865083299,-0.0001245123061051346,-3.3696701893644555e-05,3.7333,5.7333
0.83984375,-6.738682875104901e-05,-0.00013086601876554507,-0.00013086601876554507,-3.809022660563053e-05,3.7333,5.7333
0.84375,-7.422334632486452e-05,-0.00015625190111238265,-0.0001367272704142824,-3.906549253070872e-05,3.7333,5.7333
0.84765625,-7.422334632486452e-05,-0.0001435637879880979,-0.00014014552920119016,-3.809022660563053e-05,3.7333,5.7333
0.8515625,-7.080508753795677e-05,-0.00014404659290150298,-0.0001416036000396734,-3.858268761730368e-05,3.7333,5.7333
0.85546875,-6.201803811398484e-05,-0.00013428427755245284,-0.00012305423526665137,-4.248375131761649e-05,3.7333,5.7333
0.859375,-5.762451340199888e-05,-0.00013916060717784383,-0.00010986400503242538,-3.955795354238188e-05,3.7333,5.7333
0.86328125,-6.299330403906305e-05,-0.00013281655061570148,-0.00011182419298084988,-3.516442883039592e-05,3.7333,5.7333
0.8671875,-6.396856996414125e-05,-0.00011719298361791405,-0.00011524245176775764,-3.955795354238188e-05,3.7333,5.7333
0.87109375,-6.348576505073619e-05,-0.00011182419298084988,-0.00010401240948195615,-5.0787995828183356e-05,3.7333,5.7333
0.875,-5.810731831540393e-05,-0.00012109404731822685,-8.105986389868005e-05,-4.1508485392538286e-05,3.7333,5.7333
0.87890625,-6.006750626382843e-05,-0.0001245123061051346,-9.765869682154569e-05,-3.272143596856636e-05,3.7333,5.7333
0.8828125,-6.933736060120542e-05,-0.0001225617742549782,-0.00011182419298084988,-3.662249966887917e-05,3.7333,5.7333
0.88671875,-5.5664325453574376e-05,-8.789638147249556e-05,-8.105986389868005e-05,-3.1746170043488165e-05,3.7333,5.7333
0.890625,-4.492674417944604e-05,-7.129754854962992e-05,-7.227281447470812e-05,-3.1746170043488165e-05,3.7333,5.7333
0.89453125,-5.323098869001292e-05,-8.398566167391465e-05,-7.910933204852364e-05,-3.809022660563053e-05,3.7333,5.7333
0.8984375,-5.273852767833976e-05,-7.129754854962992e-05,-6.787928976272216e-05,-3.809022660563053e-05,3.7333,5.7333
0.90234375,-4.492674417944604e-05,-6.006750626382843e-05,-5.859977932707709e-05,-3.759776559395738e-05,3.7333,5.7333
0.90625,-4.101602438086513e-05,-3.759776559395738e-05,-3.3204240881971416e-05,-3.467196781872276e-05,3.7333,5.7333
0.91015625,-4.004075845578693e-05,-4.83450029663538e-05,-1.8073134895857124e-05,-3.3696701893644555e-05,3.7333,5.7333
0.9140625,-4.248375131761649e-05,-3.7114960680552325e-05,8.7804743877318e-06,-3.1253709031815005e-05,3.7333,5.7333
0.91796875,-3.759776559395738e-05,-8.301163448538887e-06,2.441369748378736e-05,-3.5647233743800966e-05,3.7333,5.7333
0.921875,-2.149139368276488e-05,-1.0744156310368453e-05,8.7804743877318e-06,-4.443428316777289e-05,3.7333,5.7333
0.92578125,-6.350631598382477e-06,1.4611519005112256e-06,8.7804743877318e-06,-2.9785982095063656e-05,3.7333,5.7333
0.9296875,-1.22118832471198e-05,6.347137624170358e-06,1.708471889829869e-05,-4.004075845578693e-05,3.7333,5.7333
0.93359375,-1.5630142034027556e-05,1.2691194186312713e-05,2.1478243610284634e-05,-7.813406612344543e-05,3.7333,5.7333
0.9375,3.4116837506676348e-06,2.489650239719239e-05,1.4158921123064062e-05,-8.789638147249556e-05,3.7333,5.7333
0.94140625,1.1223467249561366e-05,3.807707653315029e-05,1.0740662336156304e-05,-9.326517210955973e-05,3.7333,5.7333
0.9453125,2.0995438696879572e-05,6.1029622116426396e-05,2.8314761184100147e-05,-0.00010205222153353165,3.7333,5.7333
0.94921875,2.3921236472114202e-05,6.0054356191348204e-05,3.222548098268106e-05,-0.00011328226381933314,3.7333,5.7333
0.953125,2.8314761184100147e-05,6.347261497825596e-05,3.807707653315029e-05,-0.00012402950119172956,3.7333,5.7333
0.95703125,3.1240558959334776e-05,6.933386662699325e-05,3.661900569466704e-05,-0.00012891548691538866,3.7333,5.7333
0.9609375,2.68470342473488e-05,6.639841275349056e-05,4.443078919356074e-05,-0.00014209606105134657,3.7333,5.7333
0.96484375,2.68470342473488e-05,6.0054356191348204e-05,3.612654468299388e-05,-0.00015820243296253906,3.7333,5.7333
0.96875,2.68470342473488e-05,5.9079090266269985e-05,1.1715928261234523e-05,-0.00015722716703746084,3.7333,5.7333
0.97265625,3.222548098268106e-05,7.225966440222788e-05,2.0502977685206446e-05,-0.00014844011761348892,3.7333,5.7333
0.9765625,3.3683551821164314e-05,6.786613969024191e-05,2.3921236472114202e-05,-0.0001479573127000839,3.7333,5.7333
0.98046875,2.2945970547035983e-05,5.663609740444045e-05,1.805998482337688e-05,-0.0001367272704142824,3.7333,5.7333
0.984375,1.3666460111390903e-05,4.78490479804685e-05,-4.893799496451833e-07,-0.00012500476711680778,3.7333,5.7333
0.98828125,1.4641726036469122e-05,4.345552326848255e-05,3.4116837506676348e-06,-0.0001235370401800564,3.7333,5.7333
0.9921875,7.322403549248548e-06,4.540605511863896e-05,7.80520846265361e-06,-0.00011670052260624089,3.7333,5.7333
0.99609375,6.829942537575391e-06,4.6873782055390306e-05,-1.3187149172198019e-05,-0.00010938120011902032,3.7333,5.7333
1.0,1.0740662336156304e-05,4.248025734340433e-05,-1.51376810223544e-05,-0.000103519948470283,3.7333,5.7333
1.00390625,7.322403549248548e-06,2.9782488120851495e-05,-1.123661732204161e-05,-9.86339627466239e-05,3.7333,5.7333
1.0078125,6.347137624170358e-06,3.710181060807207e-05,8.7804743877318e-06,-9.570816497138929e-05,3.7333,5.7333
1.01171875,3.904144762340792e-06,3.710181060807207e-05,1.3173999099717776e-05,-8.984691332265197e-05,3.7333,5.7333
1.015625,3.904144762340792e-06,2.0995438696879572e-05,5.3622156008240436e-06,-8.252759083543139e-05,3.7333,5.7333
1.01953125,5.854676612497201e-06,2.587176832227061e-05,9.272935399404957e-06,-7.129754854962992e-05,3.7333,5.7333
1.0234375,1.943956813916287e-06,2.8807222195773307e-05,-3.424833823147878e-06,-6.64115628259708e-05,3.7333,5.7333
1.02734375,-2.932372811474721e-06,2.3428775460441045e-05,-9.2860854718852e-06,-6.836209467612722e-05,3.7333,5.7333
1.03125,-9.768890385290263e-06,1.3666460111390903e-05,-1.0744156310368453e-05,-7.178035346303497e-05,3.7333,5.7333
1.03515625,-1.51376810223544e-05,9.686908888380685e-07,-6.843092610055635e-06,-6.885455568780036e-05,3.7333,5.7333
1.0390625,-1.6605407959105775e-05,-7.325897523460696e-06,-1.0744156310368453e-05,-6.690402383764396e-05,3.7333,5.7333
1.04296875,-2.149139368276488e-05,-9.2860854718852e-06,-1.954086183260847e-05,-6.933736060120542e-05,3.7333,5.7333
1.046875,-1.9048400820935312e-05,-2.449567898069688e-06,-1.6605407959105775e-05,-6.44610309758144e-05,3.7333,5.7333
1.05078125,-1.9048400820935312e-05,6.347137624170358e-06,-5.375365673304287e-06,-6.787928976272216e-05,3.7333,5.7333
1.0546875,-1.8555939809262182e-05,-5.375365673304287e-06,-7.818358535133854e-06,-7.666633918669409e-05,3.7333,5.7333
1.05859375,-1.5630142034027556e-05,-6.350631598382477e-06,-1.8073134895857124e-05,-7.324808039978632e-05,3.7333,5.7333
1.0625,-2.5392457383077698e-05,-1.026135139696339e-05,4.858859754330354e-07,-5.9575045252155286e-05,3.7333,5.7333
1.06640625,-2.2466659607843068e-05,-2.0998932671091723e-05,1.7577179909971816e-05,-5.5664325453574376e-05,3.7333,5.7333
1.0703125,-2.149139368276488e-05,-1.8073134895857124e-05,1.610945297322047e-05,-5.5664325453574376e-05,3.7333,5.7333
1.07421875,-2.2466659607843068e-05,-1.2704344258792957e-05,1.805998482337688e-05,-4.83450029663538e-05,3.7333,5.7333
1.078125,-1.5630142034027556e-05,-1.957106886396531e-06,1.4611519005112256e-06,-5.1763261753261555e-05,3.7333,5.7333
1.08203125,-2.4909652469672636e-05,-9.768890385290263e-06,-2.0998932671091723e-05,-5.9575045252155286e-05,3.7333,5.7333
1.0859375,-3.1746170043488165e-05,-1.4162415097276209e-05,-1.2704344258792957e-05,-5.859977932707709e-05,3.7333,5.7333
1.08984375,-2.73526453315022e-05,-4.893799496451833e-07,-5.8678266849774445e-06,-5.4206254615091125e-05,3.7333,5.7333
1.09375,-2.930317718165861e-05,-8.793624460212044e-06,-7.325897523460696e-06,-5.762451340199888e-05,3.7333,5.7333
1.09765625,-3.077090411840996e-05,1.4611519005112256e-06,-9.2860854718852e-06,-5.6156786465247516e-05,3.7333,5.7333
1.1015625,-2.5392457383077698e-05,1.4611519005112256e-06,-1.709786897077893e-05,-3.955795354238188e-05,3.7333,5.7333
1.10546875,-2.6367723308155886e-05,-2.3934386544594444e-05,-1.2704344258792957e-05,-3.1746170043488165e-05,3.7333,5.7333
1.109375,-2.7835450244907235e-05,-2.149139368276488e-05,2.436417825589444e-06,-4.297621232928964e-05,3.7333,5.7333
1.11328125,-2.9785982095063656e-05,-1.4162415097276209e-05,1.4158921123064062e-05,-3.7114960680552325e-05,3.7333,5.7333
1.1171875,-3.516442883039592e-05,-2.294946452124813e-05,-1.8073134895857124e-05,-3.467196781872276e-05,3.7333,5.7333
1.12109375,-2.8810716169985454e-05,-2.6860184319829043e-05,-2.3441925532921287e-05,-3.467196781872276e-05,3.7333,5.7333
1.125,-3.1253709031815005e-05,-1.3187149172198019e-05,-3.90763873655294e-06,-3.516442883039592e-05,3.7333,5.7333
1.12890625,-4.73697370412756e-05,-2.9785982095063656e-05,-2.0516127757686688e-05,-5.224606666666662e-05,3.7333,5.7333
1.1328125,-4.492674417944604e-05,-4.492674417944604e-05,-2.3934386544594444e-05,-5.323098869001292e-05,3.7333,5.7333
1.13671875,-3.6139694755474126e-05,-2.6367723308155886e-05,-2.0998932671091723e-05,-4.687727602960245e-05,3.7333,5.7333
1.140625,-3.516442883039592e-05,-1.7580673884183967e-05,-2.294946452124813e-05,-4.9812729903105164e-05,3.7333,5.7333
1.14453125,-3.1746170043488165e-05,-2.294946452124813e-05,-1.51376810223544e-05,-4.395147825436784e-05,3.7333,5.7333
1.1484375,-2.6860184319829043e-05,-2.1974198596169942e-05,1.2198733174639557e-05,-4.101602438086513e-05,3.7333,5.7333
1.15234375,-1.8073134895857124e-05,-1.0744156310368453e-05,1.1223467249561366e-05,-3.809022660563053e-05,3.7333,5.7333
1.15625,-2.3441925532921287e-05,-1.6605407959105775e-05,1.4611519005112256e-06,-3.858268761730368e-05,3.7333,5.7333
1.16015625,-4.6394471116197394e-05,-4.200094640421143e-05,-2.832791125658039e-05,-5.810731831540393e-05,3.7333,5.7333
1.1640625,-4.54192051911192e-05,-4.73697370412756e-05,-2.0516127757686688e-05,-5.6156786465247516e-05,3.7333,5.7333
1.16796875,-4.297621232928964e-05,-4.1508485392538286e-05,-1.954086183260847e-05,-5.273852767833976e-05,3.7333,5.7333
1.171875,-4.200094640421143e-05,-4.6394471116197394e-05,-7.373088531319138e-05,-4.785254195468066e-05,3.7333,5.7333
1.17578125,-3.662249966887917e-05,-3.955795354238188e-05,-8.887164739757377e-05,-4.297621232928964e-05,3.7333,5.7333
1.1796875,-2.930317718165861e-05,-4.004075845578693e-05,-3.906549253070872e-05,-4.3459017242694684e-05,3.7333,5.7333
1.18359375,-4.54192051911192e-05,-6.787928976272216e-05,-5.273852767833976e-05,-4.492674417944604e-05,3.7333,5.7333
1.1875,-6.250084302738988e-05,-6.787928976272216e-05,-5.468905952849617e-05,-4.6394471116197394e-05,3.7333,5.7333
1.19140625,-4.200094640421143e-05,-5.4206254615091125e-05,-2.5392457383077698e-05,-3.5647233743800966e-05,3.7333,5.7333
1.1953125,-3.662249966887917e-05,-6.348576505073619e-05,-7.764160511177229e-05,-3.516442883039592e-05,3.7333,5.7333
1.19921875,-4.492674417944604e-05,-7.861687103685048e-05,-7.373088531319138e-05,-3.6139694755474126e-05,3.7333,5.7333
1.203125,-4.443428316777289e-05,-7.617387817502093e-05,-5.9575045252155286e-05,-4.492674417944604e-05,3.7333,5.7333
1.20703125,-4.492674417944604e-05,-8.984691332265197e-05,-9.228990618448152e-05,-5.810731831540393e-05,3.7333,5.7333
1.2109375,-4.1508485392538286e-05,-0.00010986400503242538,-0.00011035646604409852,-6.494383588921946e-05,3.7333,5.7333
1.21484375,-4.004075845578693e-05,-8.984691332265197e-05,-9.326517210955973e-05,-6.982982161287856e-05,3.7333,5.7333
1.21875,-3.759776559395738e-05,-9.570816497138929e-05,-7.714914410009914e-05,-6.690402383764396e-05,3.7333,5.7333
1.22265625,-5.3713793603417965e-05,-0.00014502185882658115,-0.00012500476711680778,-7.03126265262836e-05,3.7333,5.7333
1.2265625,-6.201803811398484e-05,-0.000139653068189517,-0.0001303735577538719,-7.569107326161588e-05,3.7333,5.7333
1.23046875,-5.1763261753261555e-05,-0.00012109404731822685,-0.00010302748745860986,-7.227281447470812e-05,3.7333,5.7333
1.234375,-5.762451340199888e-05,-0.00013428427755245284,-0.00014941538353856714,-6.396856996414125e-05,3.7333,5.7333
1.23828125,-5.5664325453574376e-05,-0.00014453905391317612,-0.00015527663518730446,-5.518152054016933e-05,3.7333,5.7333
1.2421875,-4.101602438086513e-05,-0.0001367272704142824,-0.00011572525668116269,-4.9812729903105164e-05,3.7333,5.7333
1.24609375,-4.883746397802696e-05,-0.0001225617742549782,-0.00013623480940260925,-5.762451340199888e-05,3.7333,5.7333
1.25,-5.224606666666662e-05,-0.00013623480940260925,-0.000171865812011902,-6.396856996414125e-05,3.7333,5.7333
1.25390625,-4.785254195468066e-05,-0.00013818534125276563,-0.00017919479059739065,-5.762451340199888e-05,3.7333,5.7333
1.2578125,-4.73697370412756e-05,-0.00011279945890592807,-0.00014941538353856714,-5.029553481651021e-05,3.7333,5.7333
1.26171875,-4.395147825436784e-05,-0.00011084892705577166,-0.00013525954347753106,-4.3459017242694684e-05,3.7333,5.7333
1.265625,-4.297621232928964e-05,-0.0001235370401800564,-0.00013428427755245284,-3.6139694755474126e-05,3.7333,5.7333
1.26953125,-3.858268761730368e-05,-9.278236719615467e-05,-0.00011914351546807044,-3.3204240881971416e-05,3.7333,5.7333
1.2734375,-4.6394471116197394e-05,-9.717589190814064e-05,-0.00012500476711680778,-3.6139694755474126e-05,3.7333,5.7333
1.27734375,-5.1763261753261555e-05,-0.0001235370401800564,-0.0001235370401800564,-2.832791125658039e-05,3.7333,5.7333
1.28125,-5.273852767833976e-05,-0.00012598003304188597,-0.00012744775997863733,-2.002366674601353e-05,3.7333,5.7333
1.28515625,-5.713205239032572e-05,-0.00010986400503242538,-0.00011572525668116269,-2.7835450244907235e-05,3.7333,5.7333
1.2890625,-5.1270800741588415e-05,-0.0001025446825452048,-0.00011328226381933314,-3.955795354238188e-05,3.7333,5.7333
1.29296875,-5.468905952849617e-05,-0.00011084892705577166,-9.86339627466239e-05,-2.9785982095063656e-05,3.7333,5.7333
1.296875,-6.055031117723348e-05,-0.00010986400503242538,-7.666633918669409e-05,-1.709786897077893e-05,3.7333,5.7333
1.30078125,-6.44610309758144e-05,-0.00012744775997863733,-0.0001054704803204394,-2.6860184319829043e-05,3.7333,5.7333
1.3046875,-5.3713793603417965e-05,-0.0001015694166201266,-9.033937433432511e-05,-2.002366674601353e-05,3.7333,5.7333
1.30859375,-5.273852767833976e-05,-8.740392046082242e-05,-6.690402383764396e-05,-1.4654876108949366e-05,3.7333,5.7333
1.3125,-6.299330403906305e-05,-0.0001176757885313191,-9.033937433432511e-05,-2.3441925532921287e-05,3.7333,5.7333
1.31640625,-6.152557710231169e-05,-0.00011328226381933314,-0.00011035646604409852,-2.7835450244907235e-05,3.7333,5.7333
1.3203125,-5.1270800741588415e-05,-0.00010693820725719076,-0.00010449521439536121,-3.222897495689321e-05,3.7333,5.7333
1.32421875,-4.6394471116197394e-05,-0.00010449521439536121,-0.0001015694166201266,-2.9785982095063656e-05,3.7333,5.7333
1.328125,-4.54192051911192e-05,-8.203512982375825e-05,-8.740392046082242e-05,-2.6367723308155886e-05,3.7333,5.7333
1.33203125,-5.3713793603417965e-05,-7.910933204852364e-05,-8.155232491035319e-05,-3.7114960680552325e-05,3.7333,5.7333
1.3359375,-6.104277218890664e-05,-0.00010010168968337524,-9.228990618448152e-05,-3.6139694755474126e-05,3.7333,5.7333
1.33984375,-5.859977932707709e-05,-9.521570395971614e-05,-9.765869682154569e-05,-2.294946452124813e-05,3.7333,5.7333
1.34375,-5.273852767833976e-05,-7.324808039978632e-05,-8.301039574883645e-05,-1.3187149172198019e-05,3.7333,5.7333
1.34765625,-5.4206254615091125e-05,-6.982982161287856e-05,-8.155232491035319e-05,-1.123661732204161e-05,3.7333,5.7333
1.3515625,-6.006750626382843e-05,-7.471580733653768e-05,-9.179744517280838e-05,-7.818358535133854e-06,3.7333,5.7333
1.35546875,-5.9575045252155286e-05,-8.301039574883645e-05,-7.813406612344543e-05,-6.575036240121789e-09,3.7333,5.7333
1.359375,-6.201803811398484e-05,-9.375763312123288e-05,-8.008459797360184e-05,-4.893799496451833e-07,3.7333,5.7333
1.36328125,-6.055031117723348e-05,-8.301039574883645e-05,-7.275561938811318e-05,-8.793624460212044e-06,3.7333,5.7333
1.3671875,-5.518152054016933e-05,-6.933736060120542e-05,-5.762451340199888e-05,-3.424833823147878e-06,3.7333,5.7333
1.37109375,-5.224606666666662e-05,-7.666633918669409e-05,-4.785254195468066e-05,1.943956813916287e-06,3.7333,5.7333
1.375,-5.859977932707709e-05,-7.714914410009914e-05,-5.6156786465247516e-05,-8.793624460212044e-06,3.7333,5.7333
1.37890625,-5.0787995828183356e-05,-5.810731831540393e-05,-4.9320268891432004e-05,-3.90763873655294e-06,3.7333,5.7333
1.3828125,-4.83450029663538e-05,-7.714914410009914e-05,-4.443428316777289e-05,-9.768890385290263e-06,3.7333,5.7333
1.38671875,-5.4206254615091125e-05,-9.082217924773018e-05,-4.9812729903105164e-05,-1.026135139696339e-05,3.7333,5.7333
1.390625,-5.1763261753261555e-05,-6.982982161287856e-05,-4.101602438086513e-05,-9.818409613183121e-07,3.7333,5.7333
1.39453125,-5.273852767833976e-05,-6.885455568780036e-05,-5.1270800741588415e-05,-7.818358535133854e-06,3.7333,5.7333
1.3984375,-5.273852767833976e-05,-6.933736060120542e-05,-4.9812729903105164e-05,-4.400099748226097e-06,3.7333,5.7333
1.40234375,-6.494383588921946e-05,-7.324808039978632e-05,-4.785254195468066e-05,-4.88290466163113e-06,3.7333,5.7333
1.40625,-6.104277218890664e-05,-6.201803811398484e-05,-3.858268761730368e-05,-1.4743019729914692e-06,3.7333,5.7333
1.41015625,-4.590201010452425e-05,-3.906549253070872e-05,-2.5392457383077698e-05,1.4611519005112256e-06,3.7333,5.7333
1.4140625,-5.029553481651021e-05,-4.883746397802696e-05,-2.7835450244907235e-05,1.4611519005112256e-06,3.7333,5.7333
1.41796875,-4.883746397802696e-05,-5.1270800741588415e-05,-3.1253709031815005e-05,4.879410687418982e-06,3.7333,5.7333
1.421875,-4.443428316777289e-05,-5.468905952849617e-05,-4.443428316777289e-05,1.943956813916287e-06,3.7333,5.7333
1.42578125,-4.687727602960245e-05,-6.494383588921946e-05,-4.883746397802696e-05,-6.843092610055635e-06,3.7333,5.7333
1.4296875,-4.443428316777289e-05,-6.836209467612722e-05,-5.1763261753261555e-05,-1.3679610183871147e-05,3.7333,5.7333
1.43359375,-3.662249966887917e-05,-5.6649247476920676e-05,-4.004075845578693e-05,-5.8678266849774445e-06,3.7333,5.7333
1.4375,-3.858268761730368e-05,-6.396856996414125e-05,-4.004075845578693e-05,-2.932372811474721e-06,3.7333,5.7333
1.44140625,-4.687727602960245e-05,-4.883746397802696e-05,-4.54192051911192e-05,-1.954086183260847e-05,3.7333,5.7333
1.4453125,-4.101602438086513e-05,-4.3459017242694684e-05,-4.883746397802696e-05,-2.0998932671091723e-05,3.7333,5.7333
1.44921875,-3.955795354238188e-05,-7.275561938811318e-05,-5.273852767833976e-05,-1.6605407959105775e-05,3.7333,5.7333
1.453125,-3.467196781872276e-05,-3.4189162905317715e-05,-3.955795354238188e-05,-2.294946452124813e-05,3.7333,5.7333
1.45703125,-3.3204240881971416e-05,-1.22118832471198e-05,-3.1253709031815005e-05,-6.843092610055635e-06,3.7333,5.7333
1.4609375,-4.54192051911192e-05,-4.053321946746008e-05,-4.492674417944604e-05,1.805998482337688e-05,3.7333,5.7333
1.46484375,-4.9320268891432004e-05,-5.908258424048213e-05,-5.713205239032572e-05,1.903525074845507e-05,3.7333,5.7333
1.46875,-4.83450029663538e-05,-5.713205239032572e-05,-2.6860184319829043e-05,2.587176832227061e-05,3.7333,5.7333
1.47265625,-5.323098869001292e-05,-8.155232491035319e-05,-3.4189162905317715e-05,2.3428775460441045e-05,3.7333,5.7333
1.4765625,-5.859977932707709e-05,-8.35028567605096e-05,-5.859977932707709e-05,2.7831956270695115e-05,3.7333,5.7333
1.48046875,-6.055031117723348e-05,-8.252759083543139e-05,-6.006750626382843e-05,4.393832818188761e-05,3.7333,5.7333
1.484375,-6.836209467612722e-05,-9.033937433432511e-05,-6.690402383764396e-05,4.540605511863896e-05,3.7333,5.7333
1.48828125,-7.666633918669409e-05,-0.00012109404731822685,-6.250084302738988e-05,6.786613969024191e-05,3.7333,5.7333
1.4921875,-8.008459797360184e-05,-0.00015674436212405581,-6.54362969008926e-05,7.42101962523843e-05,3.7333,5.7333
1.49609375,-9.424043803463793e-05,-0.00015380890825055307,-8.789638147249556e-05,7.372739133897923e-05,3.7333,5.7333
1.5,-0.00011377472483100629,-0.00017040774117341872,-0.00010498767540703435,8.30069017746243e-05,3.7333,5.7333
1.50390625,-0.00010840593419394212,-0.00015430136926222624,-9.521570395971614e-05,9.130149018692307e-05,3.7333,5.7333
1.5078125,-0.00010401240948195615,-0.00017235827302357513,-9.375763312123288e-05,9.667028082398724e-05,3.7333,5.7333
1.51171875,-0.00011524245176775764,-0.0001616206917494468,-6.44610309758144e-05,9.569501489890905e-05,3.7333,5.7333
1.515625,-0.00012500476711680778,-0.00011279945890592807,-5.0787995828183356e-05,0.00011131858189669646,3.7333,5.7333
1.51953125,-0.00011914351546807044,-0.00012695529896696416,-6.64115628259708e-05,0.00010497452533455413,3.7333,5.7333
1.5234375,-9.765869682154569e-05,-0.0001293982918287937,-4.200094640421143e-05,0.00012890233684290843,3.7333,5.7333
1.52734375,-0.00010401240948195615,-0.00012744775997863733,-3.906549253070872e-05,0.0001459936307774472,3.7333,5.7333
1.53125,-0.00013086601876554507,-0.0001015694166201266,-8.301163448538887e-06,0.00011327876984512101,3.7333,5.7333
1.53515625,-0.00013330901162737465,-7.129754854962992e-05,2.441369748378736e-05,0.00010253153247272456,3.7333,5.7333
1.5390625,-0.00011719298361791405,-5.1270800741588415e-05,1.4158921123064062e-05,0.00010644225227130544,3.7333,5.7333
1.54296875,-0.00010596294133211256,-5.6649247476920676e-05,-2.002366674601353e-05,0.0001010734616342413,3.7333,5.7333
1.546875,-0.00010401240948195615,-4.9812729903105164e-05,-1.6605407959105775e-05,7.90961819760434e-05,3.7333,5.7333
1.55078125,-9.961888476997019e-05,-4.443428316777289e-05,4.1987796331731205e-05,8.544023853818575e-05,3.7333,5.7333
1.5546875,-0.00010205222153353165,-5.273852767833976e-05,4.7356586968795365e-05,9.521220998550398e-05,3.7333,5.7333
1.55859375,-0.0001025446825452048,-5.810731831540393e-05,4.1012530406652986e-05,7.030913255207147e-05,3.7333,5.7333
1.5625,-8.887164739757377e-05,-4.883746397802696e-05,2.9290027109178366e-05,5.7128558416113574e-05,3.7333,5.7333
1.56640625,-8.203512982375825e-05,-9.2860854718852e-06,2.7339495259021958e-05,5.810382434119179e-05,3.7333,5.7333
1.5703125,-8.936410840924692e-05,-2.1974198596169942e-05,1.5616991961547314e-05,5.029204084229806e-05,3.7333,5.7333
1.57421875,-9.570816497138929e-05,-5.1763261753261555e-05,2.9782488120851495e-05,5.371029962920582e-05,3.7333,5.7333
1.578125,-8.398566167391465e-05,-4.883746397802696e-05,5.9561895179675044e-05,4.6873782055390306e-05,3.7333,5.7333
1.58203125,-6.54362969008926e-05,-4.053321946746008e-05,3.710181060807207e-05,3.9544803469901634e-05,3.7333,5.7333
1.5859375,-7.813406612344543e-05,-3.467196781872276e-05,1.4641726036469122e-05,3.222548098268106e-05,3.7333,5.7333
1.58984375,-8.155232491035319e-05,-3.077090411840996e-05,8.7804743877318e-06,2.3428775460441045e-05,3.7333,5.7333
1.59375,-7.471580733653768e-05,-3.759776559395738e-05,-4.893799496451833e-07,1.659225788662553e-05,3.7333,5.7333
1.59765625,-7.422334632486452e-05,-2.6860184319829043e-05,7.80520846265361e-06,9.765396411078114e-06,3.7333,5.7333
1.6015625,-6.738682875104901e-05,-2.6367723308155886e-05,3.4116837506676348e-06,1.2691194186312713e-05,3.7333,5.7333
1.60546875,-5.859977932707709e-05,-3.6139694755474126e-05,-1.3679610183871147e-05,-1.4743019729914692e-06,3.7333,5.7333
1.609375,-5.6649247476920676e-05,-3.467196781872276e-05,4.858859754330354e-07,-5.8678266849774445e-06,3.7333,5.7333
1.61328125,-6.348576505073619e-05,-3.7114960680552325e-05,1.659225788662553e-05,7.322403549248548e-06,3.7333,5.7333
1.6171875,-7.03126265262836e-05,-2.6367723308155886e-05,-4.88290466163113e-06,-6.575036240121789e-09,3.7333,5.7333
1.62109375,-6.591910181429765e-05,-4.83450029663538e-05,-1.709786897077893e-05,-1.6605407959105775e-05,3.7333,5.7333
1.625,-6.055031117723348e-05,-4.54192051911192e-05,7.80520846265361e-06,-9.2860854718852e-06,3.7333,5.7333
1.62890625,-5.908258424048213e-05,-1.8555939809262182e-05,4.858859754330354e-07,-1.123661732204161e-05,3.7333,5.7333
1.6328125,-5.713205239032572e-05,-2.9785982095063656e-05,1.943956813916287e-06,-8.793624460212044e-06,3.7333,5.7333
1.63671875,-5.859977932707709e-05,-3.7114960680552325e-05,3.904144762340792e-06,-2.449567898069688e-06,3.7333,5.7333
1.640625,-5.908258424048213e-05,-4.297621232928964e-05,-1.123661732204161e-05,-9.768890385290263e-06,3.7333,5.7333
1.64453125,-5.0787995828183356e-05,-3.5647233743800966e-05,8.7804743877318e-06,-1.2704344258792957e-05,3.7333,5.7333
1.6484375,-4.9812729903105164e-05,-2.1974198596169942e-05,1.8552445835050035e-05,-1.0744156310368453e-05,3.7333,5.7333
1.65234375,-5.1270800741588415e-05,-1.026135139696339e-05,9.686908888380685e-07,-1.6122603045700713e-05,3.7333,5.7333
1.65625,-4.785254195468066e-05,-2.441719145799948e-05,-9.2860854718852e-06,-2.5884918394750855e-05,3.7333,5.7333
1.66015625,-4.395147825436784e-05,-3.467196781872276e-05,-8.301163448538887e-06,-2.002366674601353e-05,3.7333,5.7333
1.6640625,-4.200094640421143e-05,-1.51376810223544e-05,2.436417825589444e-06,-1.6122603045700713e-05,3.7333,5.7333
1.66796875,-4.83450029663538e-05,-3.7114960680552325e-05,2.8807222195773307e-05,-7.818358535133854e-06,3.7333,5.7333
1.671875,-4.297621232928964e-05,-4.004075845578693e-05,2.68470342473488e-05,-3.90763873655294e-06,3.7333,5.7333
1.67578125,-3.02784431067368e-05,-9.768890385290263e-06,-6.575036240121789e-09,-2.441719145799948e-05,3.7333,5.7333
1.6796875,-3.7114960680552325e-05,-6.843092610055635e-06,-2.449567898069688e-06,-2.6367723308155886e-05,3.7333,5.7333
1.68359375,-4.053321946746008e-05,-5.375365673304287e-06,1.4158921123064062e-05,-1.0744156310368453e-05,3.7333,5.7333
1.6875,-3.467196781872276e-05,-6.843092610055635e-06,4.386949675745853e-06,-2.5884918394750855e-05,3.7333,5.7333
1.69140625,-3.5647233743800966e-05,-1.2704344258792957e-05,-1.8555939809262182e-05,-4.9320268891432004e-05,3.7333,5.7333
1.6953125,-3.858268761730368e-05,-2.1974198596169942e-05,-8.301163448538887e-06,-2.4909652469672636e-05,3.7333,5.7333
1.69921875,-4.004075845578693e-05,-3.3696701893644555e-05,-8.793624460212044e-06,-1.51376810223544e-05,3.7333,5.7333
1.703125,-4.053321946746008e-05,-3.467196781872276e-05,-2.149139368276488e-05,-3.077090411840996e-05,3.7333,5.7333
1.70703125,-3.4189162905317715e-05,-6.006750626382843e-05,-2.7835450244907235e-05,-2.5392457383077698e-05,3.7333,5.7333
1.7109375,-3.516442883039592e-05,-3.077090411840996e-05,-7.325897523460696e-06,-4.3459017242694684e-05,3.7333,5.7333
1.71484375,-4.3459017242694684e-05,3.904144762340792e-06,-5.375365673304287e-06,-4.492674417944604e-05,3.7333,5.7333
1.71875,-2.8810716169985454e-05,5.854676612497201e-06,-2.5392457383077698e-05,-1.8073134895857124e-05,3.7333,5.7333
1.72265625,-3.4189162905317715e-05,-1.7580673884183967e-05,-2.0516127757686688e-05,-1.709786897077893e-05,3.7333,5.7333
1.7265625,-4.248375131761649e-05,-6.44610309758144e-05,-2.441719145799948e-05,-1.8555939809262182e-05,3.7333,5.7333
1.73046875,-3.272143596856636e-05,-3.906549253070872e-05,-2.5392457383077698e-05,-2.0516127757686688e-05,3.7333,5.7333
1.734375,-4.9320268891432004e-05,-4.3459017242694684e-05,-2.3934386544594444e-05,-1.4654876108949366e-05,3.7333,5.7333
1.73828125,-3.7114960680552325e-05,-5.029553481651021e-05,-1.709786897077893e-05,-1.8073134895857124e-05,3.7333,5.7333
1.7421875,-3.1253709031815005e-05,-3.4189162905317715e-05,-2.3441925532921287e-05,-4.883746397802696e-05,3.7333,5.7333
1.74609375,-3.906549253070872e-05,-9.768890385290263e-06,-4.893799496451833e-07,-5.810731831540393e-05,3.7333,5.7333
1.75,-2.8810716169985454e-05,2.001051667353329e-05,1.1715928261234523e-05,-2.832791125658039e-05,3.7333,5.7333
1.75390625,-2.5392457383077698e-05,-1.6605407959105775e-05,-1.3679610183871147e-05,-2.5884918394750855e-05,3.7333,5.7333
1.7578125,-2.294946452124813e-05,-4.88290466163113e-06,-1.51376810223544e-05,-3.906549253070872e-05,3.7333,5.7333
1.76171875,-1.8073134895857124e-05,-4.400099748226097e-06,-3.1253709031815005e-05,-3.516442883039592e-05,3.7333,5.7333
1.765625,-6.350631598382477e-06,-6.348576505073619e-05,-7.422334632486452e-05,-3.7114960680552325e-05,3.7333,5.7333
1.76953125,-1.9048400820935312e-05,-3.6139694755474126e-05,-4.101602438086513e-05,-3.516442883039592e-05,3.7333,5.7333
1.7734375,-1.5630142034027556e-05,1.3173999099717776e-05,2.636422933394374e-05,-6.152557710231169e-05,3.7333,5.7333
1.77734375,-4.88290466163113e-06,-3.955795354238188e-05,-2.3441925532921287e-05,-5.5664325453574376e-05,3.7333,5.7333
1.78125,-2.3441925532921287e-05,-7.03126265262836e-05,-4.3459017242694684e-05,-2.4909652469672636e-05,3.7333,5.7333
1.78515625,-3.516442883039592e-05,3.661900569466704e-05,1.2691194186312713e-05,-5.9575045252155286e-05,3.7333,5.7333
1.7890625,-3.222897495689321e-05,2.3921236472114202e-05,2.928878837262573e-06,-4.785254195468066e-05,3.7333,5.7333
1.79296875,-1.2704344258792957e-05,-1.3187149172198019e-05,1.5616991961547314e-05,-3.272143596856636e-05,3.7333,5.7333
1.796875,-3.809022660563053e-05,9.276921712367442e-05,6.3955419891661e-05,-4.54192051911192e-05,3.7333,5.7333
1.80078125,-1.026135139696339e-05,5.761136332951863e-05,2.8807222195773307e-05,-5.518152054016933e-05,3.7333,5.7333
1.8046875,4.858859754330354e-07,7.322403549248548e-06,1.7577179909971816e-05,-5.859977932707709e-05,3.7333,5.7333
1.80859375,-2.5392457383077698e-05,2.3428775460441045e-05,3.856953754482345e-05,-2.7835450244907235e-05,3.7333,5.7333
1.8125,-4.492674417944604e-05,3.17330199710079e-05,3.661900569466704e-05,-2.0998932671091723e-05,3.7333,5.7333
1.81640625,-3.516442883039592e-05,1.2198733174639557e-05,3.515127875791566e-05,-5.3713793603417965e-05,3.7333,5.7333
1.8203125,-3.1253709031815005e-05,9.272935399404957e-06,9.272935399404957e-06,-2.294946452124813e-05,3.7333,5.7333
1.82421875,3.9544803469901634e-05,-8.496092759899286e-05,-6.787928976272216e-05,-1.026135139696339e-05,3.7333,5.7333
1.828125,4.78490479804685e-05,-0.00010498767540703435,-7.714914410009914e-05,-9.2860854718852e-06,3.7333,5.7333
1.83203125,-5.810731831540393e-05,6.829942537575391e-06,-1.3679610183871147e-05,-5.375365673304287e-06,3.7333,5.7333
1.8359375,-5.713205239032572e-05,3.1240558959334776e-05,-1.8073134895857124e-05,-3.955795354238188e-05,3.7333,5.7333
1.83984375,-4.297621232928964e-05,4.49135941069658e-05,1.4158921123064062e-05,-2.4909652469672636e-05,3.7333,5.7333
1.84375,-9.818409613183121e-07,9.686908888380685e-07,4.6873782055390306e-05,-3.90763873655294e-06,3.7333,5.7333
1.84765625,-3.5647233743800966e-05,1.9527711760128227e-05,5.029204084229806e-05,-4.590201010452425e-05,3.7333,5.7333
1.8515625,-8.44781226855878e-05,6.59156078400855e-05,3.856953754482345e-05,-3.222897495689321e-05,3.7333,5.7333
1.85546875,-1.5630142034027556e-05,-4.492674417944604e-05,-2.449567898069688e-06,-2.7835450244907235e-05,3.7333,5.7333
1.859375,-3.662249966887917e-05,-8.793624460212044e-06,1.2198733174639557e-05,-3.516442883039592e-05,3.7333,5.7333
1.86328125,-7.764160511177229e-05,5.614363639276729e-05,7.567792318913564e-05,-1.22118832471198e-05,3.7333,5.7333
1.8671875,-3.906549253070872e-05,-5.8678266849774445e-06,3.17330199710079e-05,-2.1974198596169942e-05,3.7333,5.7333
1.87109375,-5.518152054016933e-05,-2.1974198596169942e-05,-1.4743019729914692e-06,-2.6367723308155886e-05,3.7333,5.7333
1.875,-4.492674417944604e-05,-9.818409613183121e-07,5.854676612497201e-06,-1.1719422235446643e-05,3.7333,5.7333
1.87890625,-4.395147825436784e-05,1.2691194186312713e-05,-1.3679610183871147e-05,-4.893799496451833e-07,3.7333,5.7333
1.8828125,-4.9320268891432004e-05,-1.6122603045700713e-05,-1.4162415097276209e-05,-1.51376810223544e-05,3.7333,5.7333
1.88671875,-7.818358535133854e-06,9.272935399404957e-06,-5.375365673304287e-06,-2.73526453315022e-05,3.7333,5.7333
1.890625,-5.762451340199888e-05,3.0265293034256557e-05,4.393832818188761e-05,-1.3679610183871147e-05,3.7333,5.7333
1.89453125,-6.104277218890664e-05,-1.6122603045700713e-05,4.6873782055390306e-05,-2.832791125658039e-05,3.7333,5.7333
1.8984375,-4.395147825436784e-05,-1.0744156310368453e-05,-9.768890385290263e-06,-4.297621232928964e-05,3.7333,5.7333
1.90234375,-4.1508485392538286e-05,2.2453509535362826e-05,-2.441719145799948e-05,-4.101602438086513e-05,3.7333,5.7333
1.90625,-2.1974198596169942e-05,-5.375365673304287e-06,-7.325897523460696e-06,-5.810731831540393e-05,3.7333,5.7333
1.91015625,-2.3441925532921287e-05,-1.4654876108949366e-05,5.3622156008240436e-06,-4.73697370412756e-05,3.7333,5.7333
1.9140625,-4.297621232928964e-05,5.3622156008240436e-06,2.587176832227061e-05,-3.759776559395738e-05,3.7333,5.7333
1.91796875,-3.1253709031815005e-05,-1.22118832471198e-05,-3.424833823147878e-06,-4.053321946746008e-05,3.7333,5.7333
1.921875,-3.02784431067368e-05,3.904144762340792e-06,-1.7580673884183967e-05,-3.662249966887917e-05,3.7333,5.7333
1.92578125,-5.4206254615091125e-05,-1.2704344258792957e-05,7.80520846265361e-06,-1.7580673884183967e-05,3.7333,5.7333
1.9296875,-3.467196781872276e-05,-1.9048400820935312e-05,4.858859754330354e-07,-2.0516127757686688e-05,3.7333,5.7333
1.93359375,-1.709786897077893e-05,2.2945970547035983e-05,-2.932372811474721e-06,-4.200094640421143e-05,3.7333,5.7333
1.9375,-2.002366674601353e-05,-4.893799496451833e-07,9.686908888380685e-07,-3.1746170043488165e-05,3.7333,5.7333
1.94140625,-3.6139694755474126e-05,-4.101602438086513e-05,-4.88290466163113e-06,1.1223467249561366e-05,3.7333,5.7333
1.9453125,-3.272143596856636e-05,-2.6367723308155886e-05,-1.4743019729914692e-06,-6.843092610055635e-06,3.7333,5.7333
1.94921875,-2.4909652469672636e-05,-1.4743019729914692e-06,1.903525074845507e-05,-4.6394471116197394e-05,3.7333,5.7333
1.953125,-3.516442883039592e-05,-5.8678266849774445e-06,2.7831956270695115e-05,-3.4189162905317715e-05,3.7333,5.7333
1.95703125,-3.3204240881971416e-05,-1.6122603045700713e-05,2.587176832227061e-05,-3.272143596856636e-05,3.7333,5.7333
1.9609375,-3.858268761730368e-05,-2.6860184319829043e-05,2.7831956270695115e-05,-2.4909652469672636e-05,3.7333,5.7333
1.96484375,-4.443428316777289e-05,-2.0998932671091723e-05,3.564373976958882e-05,-1.8555939809262182e-05,3.7333,5.7333
1.96875,-3.272143596856636e-05,-8.301163448538887e-06,4.833185289387356e-05,-2.1974198596169942e-05,3.7333,5.7333
1.97265625,-3.1253709031815005e-05,1.1223467249561366e-05,4.49135941069658e-05,-2.930317718165861e-05,3.7333,5.7333
1.9765625,-3.02784431067368e-05,-3.90763873655294e-06,1.1223467249561366e-05,-3.3696701893644555e-05,3.7333,5.7333
1.98046875,-3.1253709031815005e-05,-2.149139368276488e-05,-2.3934386544594444e-05,-4.73697370412756e-05,3.7333,5.7333
1.984375,-3.759776559395738e-05,-2.2466659607843068e-05,-3.90763873655294e-06,-3.858268761730368e-05,3.7333,5.7333
1.98828125,-3.4189162905317715e-05,-2.0998932671091723e-05,6.829942537575391e-06,-3.3696701893644555e-05,3.7333,5.7333
1.9921875,-3.759776559395738e-05,-2.2466659607843068e-05,4.879410687418982e-06,-4.590201010452425e-05,3.7333,5.7333
1.99609375,-3.5647233743800966e-05,-2.441719145799948e-05,1.0740662336156304e-05,-3.759776559395738e-05,3.7333,5.7333
2.0,-2.2466659607843068e-05,-1.954086183260847e-05,-2.149139368276488e-05,-3.1746170043488165e-05,3.7333,5.7333
2.00390625,-2.002366674601353e-05,-1.2704344258792957e-05,-2.7835450244907235e-05,-3.759776559395738e-05,3.7333,5.7333
2.0078125,-2.4909652469672636e-05,-1.709786897077893e-05,-1.954086183260847e-05,-5.0787995828183356e-05,3.7333,5.7333
2.01171875,-3.1253709031815005e-05,-9.2860854718852e-06,-2.832791125658039e-05,-5.273852767833976e-05,3.7333,5.7333
2.015625,-3.02784431067368e-05,1.1715928261234523e-05,-1.5630142034027556e-05,-5.518152054016933e-05,3.7333,5.7333
2.01953125,-2.832791125658039e-05,9.686908888380685e-07,3.904144762340792e-06,-5.4206254615091125e-05,3.7333,5.7333
2.0234375,-2.0516127757686688e-05,1.0740662336156304e-05,2.9290027109178366e-05,-5.224606666666662e-05,3.7333,5.7333
2.02734375,-2.0516127757686688e-05,3.661900569466704e-05,4.296306225680939e-05,-4.883746397802696e-05,3.7333,5.7333
2.03125,-2.6860184319829043e-05,2.7831956270695115e-05,5.566083147936223e-05,-4.785254195468066e-05,3.7333,5.7333
2.03515625,-2.832791125658039e-05,1.3666460111390903e-05,4.345552326848255e-05,-5.323098869001292e-05,3.7333,5.7333
2.0390625,-3.222897495689321e-05,-6.843092610055635e-06,9.272935399404957e-06,-5.908258424048213e-05,3.7333,5.7333
2.04296875,-2.930317718165861e-05,-1.0744156310368453e-05,7.322403549248548e-06,-6.006750626382843e-05,3.7333,5.7333
2.046875,-2.441719145799948e-05,-9.818409613183121e-07,1.5134187048142279e-05,-6.396856996414125e-05,3.7333,5.7333
2.05078125,-2.9785982095063656e-05,5.3622156008240436e-06,2.3921236472114202e-05,-6.299330403906305e-05,3.7333,5.7333
2.0546875,-3.1253709031815005e-05,-3.424833823147878e-06,2.7831956270695115e-05,-5.1270800741588415e-05,3.7333,5.7333
2.05859375,-3.516442883039592e-05,-3.02784431067368e-05,2.587176832227061e-05,-5.908258424048213e-05,3.7333,5.7333
2.0625,-2.930317718165861e-05,-1.6605407959105775e-05,2.9782488120851495e-05,-5.468905952849617e-05,3.7333,5.7333
2.06640625,-1.6605407959105775e-05,-1.5630142034027556e-05,3.3683551821164314e-05,-5.1763261753261555e-05,3.7333,5.7333
2.0703125,-2.73526453315022e-05,-2.9785982095063656e-05,2.197070462195779e-05,-6.348576505073619e-05,3.7333,5.7333
2.07421875,-3.272143596856636e-05,-2.2466659607843068e-05,1.610945297322047e-05,-5.3713793603417965e-05,3.7333,5.7333
2.078125,-3.1253709031815005e-05,-2.0516127757686688e-05,1.2198733174639557e-05,-5.713205239032572e-05,3.7333,5.7333
2.08203125,-2.8810716169985454e-05,-1.9048400820935312e-05,-9.768890385290263e-06,-6.494383588921946e-05,3.7333,5.7333
2.0859375,-3.272143596856636e-05,-3.02784431067368e-05,-1.3679610183871147e-05,-7.324808039978632e-05,3.7333,5.7333
2.08984375,-3.467196781872276e-05,-4.443428316777289e-05,7.80520846265361e-06,-6.64115628259708e-05,3.7333,5.7333
2.09375,-2.832791125658039e-05,-3.759776559395738e-05,-9.818409613183121e-07,-5.908258424048213e-05,3.7333,5.7333
2.09765625,-2.002366674601353e-05,-2.149139368276488e-05,-2.4909652469672636e-05,-6.055031117723348e-05,3.7333,5.7333
2.1015625,-1.6122603045700713e-05,-6.843092610055635e-06,-2.9785982095063656e-05,-5.859977932707709e-05,3.7333,5.7333
2.10546875,-2.3441925532921287e-05,-1.5630142034027556e-05,-2.73526453315022e-05,-5.3713793603417965e-05,3.7333,5.7333
2.109375,-2.4909652469672636e-05,-3.759776559395738e-05,-1.6605407959105775e-05,-5.3713793603417965e-05,3.7333,5.7333
2.11328125,-2.2466659607843068e-05,-3.3696701893644555e-05,-1.2704344258792957e-05,-6.104277218890664e-05,3.7333,5.7333
2.1171875,-1.7580673884183967e-05,-5.8678266849774445e-06,5.3622156008240436e-06,-6.299330403906305e-05,3.7333,5.7333
2.12109375,-1.954086183260847e-05,-4.893799496451833e-07,-1.4743019729914692e-06,-5.9575045252155286e-05,3.7333,5.7333
2.125,-2.294946452124813e-05,-1.4162415097276209e-05,-5.8678266849774445e-06,-6.201803811398484e-05,3.7333,5.7333
2.12890625,-2.441719145799948e-05,-3.3696701893644555e-05,1.1223467249561366e-05,-6.690402383764396e-05,3.7333,5.7333
2.1328125,-2.441719145799948e-05,-2.6860184319829043e-05,4.393832818188761e-05,-6.494383588921946e-05,3.7333,5.7333
2.13671875,-1.3679610183871147e-05,-2.832791125658039e-05,4.540605511863896e-05,-6.006750626382843e-05,3.7333,5.7333
2.140625,-1.1719422235446643e-05,-5.224606666666662e-05,1.659225788662553e-05,-5.859977932707709e-05,3.7333,5.7333
2.14453125,-2.0998932671091723e-05,-3.077090411840996e-05,4.1012530406652986e-05,-5.518152054016933e-05,3.7333,5.7333
2.1484375,-1.3679610183871147e-05,-8.301163448538887e-06,4.0037264481574794e-05,-6.348576505073619e-05,3.7333,5.7333
2.15234375,-7.325897523460696e-06,-1.6122603045700713e-05,2.489650239719239e-05,-7.324808039978632e-05,3.7333,5.7333
2.15625,-1.5630142034027556e-05,-3.7114960680552325e-05,3.1240558959334776e-05,-6.836209467612722e-05,3.7333,5.7333
2.16015625,-1.9048400820935312e-05,-3.02784431067368e-05,1.610945297322047e-05,-6.44610309758144e-05,3.7333,5.7333
2.1640625,-1.8555939809262182e-05,-2.1974198596169942e-05,1.2691194186312713e-05,-6.299330403906305e-05,3.7333,5.7333
2.16796875,-2.0998932671091723e-05,-2.002366674601353e-05,2.0995438696879572e-05,-5.6649247476920676e-05,3.7333,5.7333
2.171875,-2.4909652469672636e-05,-2.0998932671091723e-05,1.8552445835050035e-05,-6.396856996414125e-05,3.7333,5.7333
2.17578125,-2.441719145799948e-05,-4.9320268891432004e-05,2.001051667353329e-05,-6.44610309758144e-05,3.7333,5.7333
2.1796875,-2.441719145799948e-05,-5.3713793603417965e-05,2.7831956270695115e-05,-5.468905952849617e-05,3.7333,5.7333
2.18359375,-2.4909652469672636e-05,-3.077090411840996e-05,1.7577179909971816e-05,-6.299330403906305e-05,3.7333,5.7333
2.1875,-2.149139368276488e-05,-2.6367723308155886e-05,1.0740662336156304e-05,-6.299330403906305e-05,3.7333,5.7333
2.19140625,-2.3441925532921287e-05,-3.662249966887917e-05,1.9527711760128227e-05,-5.468905952849617e-05,3.7333,5.7333
2.1953125,-2.2466659607843068e-05,-4.590201010452425e-05,9.765396411078114e-06,-4.443428316777289e-05,3.7333,5.7333
2.19921875,-2.4909652469672636e-05,-5.908258424048213e-05,-1.4743019729914692e-06,-3.6139694755474126e-05,3.7333,5.7333
2.203125,-3.02784431067368e-05,-5.6649247476920676e-05,-5.375365673304287e-06,-4.590201010452425e-05,3.7333,5.7333
2.20703125,-2.149139368276488e-05,-2.4909652469672636e-05,-1.957106886396531e-06,-5.323098869001292e-05,3.7333,5.7333
2.2109375,-2.3934386544594444e-05,-2.7835450244907235e-05,2.928878837262573e-06,-4.687727602960245e-05,3.7333,5.7333
2.21484375,-3.1253709031815005e-05,-4.004075845578693e-05,-9.818409613183121e-07,-4.297621232928964e-05,3.7333,5.7333
2.21875,-2.930317718165861e-05,-2.7835450244907235e-05,4.879410687418982e-06,-4.248375131761649e-05,3.7333,5.7333
2.22265625,-2.6367723308155886e-05,-1.2704344258792957e-05,-4.88290466163113e-06,-5.224606666666662e-05,3.7333,5.7333
2.2265625,-2.9785982095063656e-05,-2.8810716169985454e-05,-3.4189162905317715e-05,-5.6649247476920676e-05,3.7333,5.7333
2.23046875,-2.930317718165861e-05,-4.9320268891432004e-05,-3.759776559395738e-05,-5.323098869001292e-05,3.7333,5.7333
2.234375,-2.002366674601353e-05,-2.3441925532921287e-05,-2.0516127757686688e-05,-5.4206254615091125e-05,3.7333,5.7333
2.23828125,-2.2466659607843068e-05,-7.818358535133854e-06,-1.8555939809262182e-05,-4.73697370412756e-05,3.7333,5.7333
2.2421875,-2.4909652469672636e-05,-2.149139368276488e-05,-4.443428316777289e-05,-4.004075845578693e-05,3.7333,5.7333
2.24609375,-2.5884918394750855e-05,-2.9785982095063656e-05,-5.1270800741588415e-05,-4.101602438086513e-05,3.7333,5.7333
2.25,-3.077090411840996e-05,-2.930317718165861e-05,-3.4189162905317715e-05,-4.83450029663538e-05,3.7333,5.7333
2.25390625,-2.4909652469672636e-05,-9.768890385290263e-06,-1.1719422235446643e-05,-5.713205239032572e-05,3.7333,5.7333
2.2578125,-3.02784431067368e-05,-2.6860184319829043e-05,-1.5630142034027556e-05,-4.590201010452425e-05,3.7333,5.7333
2.26171875,-4.053321946746008e-05,-4.492674417944604e-05,-3.077090411840996e-05,-2.73526453315022e-05,3.7333,5.7333
2.265625,-4.590201010452425e-05,-3.222897495689321e-05,-9.768890385290263e-06,-2.9785982095063656e-05,3.7333,5.7333
2.26953125,-4.200094640421143e-05,-1.0744156310368453e-05,3.4116837506676348e-06,-2.6367723308155886e-05,3.7333,5.7333
2.2734375,-3.1746170043488165e-05,-7.818358535133854e-06,-1.709786897077893e-05,-1.8555939809262182e-05,3.7333,5.7333
2.27734375,-3.809022660563053e-05,-1.709786897077893e-05,-2.3934386544594444e-05,-1.8073134895857124e-05,3.7333,5.7333
2.28125,-4.54192051911192e-05,-1.0744156310368453e-05,-5.8678266849774445e-06,-1.4654876108949366e-05,3.7333,5.7333
2.28515625,-5.273852767833976e-05,-3.759776559395738e-05,-1.709786897077893e-05,5.3622156008240436e-06,3.7333,5.7333
2.2890625,-6.152557710231169e-05,-3.759776559395738e-05,-8.301163448538887e-06,1.9527711760128227e-05,3.7333,5.7333
2.29296875,-5.908258424048213e-05,-1.22118832471198e-05,1.0740662336156304e-05,2.5388963408865547e-05,3.7333,5.7333
2.296875,-6.933736060120542e-05,-1.1719422235446643e-05,-4.400099748226097e-06,2.8314761184100147e-05,3.7333,5.7333
2.30078125,-8.008459797360184e-05,-2.5392457383077698e-05,-1.3679610183871147e-05,3.222548098268106e-05,3.7333,5.7333
2.3046875,-7.910933204852364e-05,-3.4189162905317715e-05,-1.6605407959105775e-05,4.78490479804685e-05,3.7333,5.7333
2.30859375,-8.887164739757377e-05,-2.1974198596169942e-05,4.386949675745853e-06,6.1029622116426396e-05,3.7333,5.7333
2.3125,-8.692111554741735e-05,-1.51376810223544e-05,1.9527711760128227e-05,6.59156078400855e-05,3.7333,5.7333
2.31640625,-8.155232491035319e-05,-2.002366674601353e-05,7.322403549248548e-06,6.444788090333415e-05,3.7333,5.7333
2.3203125,-8.984691332265197e-05,-3.02784431067368e-05,-2.932372811474721e-06,7.470265726405742e-05,3.7333,5.7333
2.32421875,-9.570816497138929e-05,-2.832791125658039e-05,-8.301163448538887e-06,7.958864298771655e-05,3.7333,5.7333
2.328125,-8.789638147249556e-05,-1.4162415097276209e-05,3.4116837506676348e-06,8.30069017746243e-05,3.7333,5.7333
2.33203125,-8.545338861066601e-05,-2.3934386544594444e-05,-3.90763873655294e-06,9.032622426184488e-05,3.7333,5.7333
2.3359375,-9.082217924773018e-05,-2.8810716169985454e-05,-1.0744156310368453e-05,8.935095833676666e-05,3.7333,5.7333
2.33984375,-9.424043803463793e-05,-2.8810716169985454e-05,-1.4162415097276209e-05,9.423694406042579e-05,3.7333,5.7333
2.34375,-8.984691332265197e-05,-4.200094640421143e-05,-0.00026269107232166017,8.2021979751278e-05,3.7333,5.7333
2.34765625,-9.179744517280838e-05,-4.883746397802696e-05,-0.00047411134390173184,8.39821676997025e-05,3.7333,5.7333
2.3515625,-8.936410840924692e-05,-4.1508485392538286e-05,-0.0004331018945571068,9.032622426184488e-05,3.7333,5.7333
2.35546875,-8.155232491035319e-05,-3.467196781872276e-05,-0.0003915999842008087,8.251444076295115e-05,3.7333,5.7333
2.359375,-8.105986389868005e-05,-3.955795354238188e-05,-0.000352531410608072,8.984341934843982e-05,3.7333,5.7333
2.36328125,-8.301039574883645e-05,-4.73697370412756e-05,-0.0003183584788372625,9.374448304875264e-05,3.7333,5.7333
2.3671875,-8.05674028870069e-05,-4.200094640421143e-05,-0.0002773393733943694,8.885849732509351e-05,3.7333,5.7333
2.37109375,-8.105986389868005e-05,-2.9785982095063656e-05,-0.00022313969381551838,7.714565012588698e-05,3.7333,5.7333
2.375,-7.471580733653768e-05,-2.0516127757686688e-05,-0.0001928678257450217,7.079193746547654e-05,3.7333,5.7333
2.37890625,-6.738682875104901e-05,-1.026135139696339e-05,-0.0001757765318104829,8.2021979751278e-05,3.7333,5.7333
2.3828125,-7.080508753795677e-05,-1.9048400820935312e-05,-0.00016552175544975962,7.470265726405742e-05,3.7333,5.7333
2.38671875,-6.055031117723348e-05,-4.400099748226097e-06,-0.000162595957674525,6.542314682841237e-05,3.7333,5.7333
2.390625,-5.0787995828183356e-05,1.3173999099717776e-05,-0.00013525954347753106,6.542314682841237e-05,3.7333,5.7333
2.39453125,-4.83450029663538e-05,4.858859754330354e-07,-0.0001215865083299,4.930711881895175e-05,3.7333,5.7333
2.3984375,-4.492674417944604e-05,-2.449567898069688e-06,-0.00012891548691538866,3.270828589608612e-05,3.7333,5.7333
2.40234375,-4.443428316777289e-05,-1.2704344258792957e-05,-0.00012549722812848092,3.9061998556496575e-05,3.7333,5.7333
2.40625,-4.248375131761649e-05,-4.88290466163113e-06,-0.00010059415069504839,4.1987796331731205e-05,3.7333,5.7333
2.41015625,-3.662249966887917e-05,4.858859754330354e-07,-8.887164739757377e-05,3.0265293034256557e-05,3.7333,5.7333
2.4140625,-3.222897495689321e-05,-4.400099748226097e-06,-9.082217924773018e-05,2.197070462195779e-05,3.7333,5.7333
2.41796875,-3.4189162905317715e-05,-6.843092610055635e-06,-8.692111554741735e-05,2.636422933394374e-05,3.7333,5.7333
2.421875,-3.6139694755474126e-05,-1.957106886396531e-06,-9.570816497138929e-05,1.903525074845507e-05,3.7333,5.7333
2.42578125,-2.9785982095063656e-05,5.3622156008240436e-06,-8.545338861066601e-05,5.3622156008240436e-06,3.7333,5.7333
2.4296875,-2.0516127757686688e-05,6.829942537575391e-06,-5.859977932707709e-05,1.4611519005112256e-06,3.7333,5.7333
2.43359375,-2.2466659607843068e-05,1.610945297322047e-05,-5.1763261753261555e-05,1.4611519005112256e-06,3.7333,5.7333
2.4375,-3.6139694755474126e-05,-4.893799496451833e-07,-5.9575045252155286e-05,1.3666460111390903e-05,3.7333,5.7333
2.44140625,-3.1746170043488165e-05,1.3666460111390903e-05,-5.3713793603417965e-05,7.322403549248548e-06,3.7333,5.7333
2.4453125,-2.3934386544594444e-05,2.441369748378736e-05,-4.443428316777289e-05,-4.893799496451833e-07,3.7333,5.7333
2.44921875,-2.8810716169985454e-05,-5.375365673304287e-06,-3.6139694755474126e-05,5.3622156008240436e-06,3.7333,5.7333
2.453125,-2.4909652469672636e-05,5.3622156008240436e-06,-2.6860184319829043e-05,-9.818409613183121e-07,3.7333,5.7333
2.45703125,-2.3441925532921287e-05,1.3666460111390903e-05,-3.759776559395738e-05,-1.6122603045700713e-05,3.7333,5.7333
2.4609375,-2.5392457383077698e-05,7.322403549248548e-06,-4.297621232928964e-05,-1.8555939809262182e-05,3.7333,5.7333
2.46484375,-2.441719145799948e-05,-4.88290466163113e-06,-3.1253709031815005e-05,-1.3187149172198019e-05,3.7333,5.7333
2.46875,-2.3934386544594444e-05,-4.400099748226097e-06,-1.9048400820935312e-05,-1.8555939809262182e-05,3.7333,5.7333
2.47265625,-3.3204240881971416e-05,1.943956813916287e-06,-4.893799496451833e-07,-2.0998932671091723e-05,3.7333,5.7333
2.4765625,-3.858268761730368e-05,-1.4162415097276209e-05,9.272935399404957e-06,-1.8073134895857124e-05,3.7333,5.7333
2.48046875,-2.8810716169985454e-05,-2.5392457383077698e-05,2.436417825589444e-06,-2.5392457383077698e-05,3.7333,5.7333
2.484375,-2.5884918394750855e-05,-1.123661732204161e-05,1.2691194186312713e-05,-3.1746170043488165e-05,3.7333,5.7333
2.48828125,-2.4909652469672636e-05,3.904144762340792e-06,2.0502977685206446e-05,-3.467196781872276e-05,3.7333,5.7333
2.4921875,-2.73526453315022e-05,-1.0744156310368453e-05,3.17330199710079e-05,-2.832791125658039e-05,3.7333,5.7333
2.49609375,-3.5647233743800966e-05,-2.149139368276488e-05,3.710181060807207e-05,-1.8073134895857124e-05,3.7333,5.7333
2.5,-3.467196781872276e-05,-1.123661732204161e-05,2.7339495259021958e-05,-1.9048400820935312e-05,3.7333,5.7333
2.50390625,-3.02784431067368e-05,-3.90763873655294e-06,3.661900569466704e-05,-2.5392457383077698e-05,3.7333,5.7333
2.5078125,-3.077090411840996e-05,-7.818358535133854e-06,5.321783861753266e-05,-3.1746170043488165e-05,3.7333,5.7333
2.51171875,-2.930317718165861e-05,-9.768890385290263e-06,4.97995798306249e-05,-1.8555939809262182e-05,3.7333,5.7333
2.515625,-2.6860184319829043e-05,-2.6860184319829043e-05,2.7831956270695115e-05,-1.9048400820935312e-05,3.7333,5.7333
2.51953125,-1.954086183260847e-05,-2.7835450244907235e-05,2.2945970547035983e-05,-3.3696701893644555e-05,3.7333,5.7333
2.5234375,-3.02784431067368e-05,-2.832791125658039e-05,2.9290027109178366e-05,-2.7835450244907235e-05,3.7333,5.7333
2.52734375,-4.004075845578693e-05,-4.101602438086513e-05,4.49135941069658e-05,-2.4909652469672636e-05,3.7333,5.7333
2.53125,-2.832791125658039e-05,-1.7580673884183967e-05,5.272537760585953e-05,-3.1746170043488165e-05,3.7333,5.7333
2.53515625,-3.5647233743800966e-05,-2.6860184319829043e-05,3.9544803469901634e-05,-3.1253709031815005e-05,3.7333,5.7333
2.5390625,-4.83450029663538e-05,-1.5630142034027556e-05,5.8586629254596825e-05,-1.4162415097276209e-05,3.7333,5.7333
2.54296875,-3.077090411840996e-05,-2.449567898069688e-06,5.8586629254596825e-05,-1.22118832471198e-05,3.7333,5.7333
2.546875,-1.8073134895857124e-05,-5.6156786465247516e-05,1.0740662336156304e-05,-3.3204240881971416e-05,3.7333,5.7333
2.55078125,-2.441719145799948e-05,-6.104277218890664e-05,2.928878837262573e-06,-5.762451340199888e-05,3.7333,5.7333
2.5546875,-1.2704344258792957e-05,-5.029553481651021e-05,5.3622156008240436e-06,-7.178035346303497e-05,3.7333,5.7333
2.55859375,-7.818358535133854e-06,-6.44610309758144e-05,-2.5884918394750855e-05,-8.155232491035319e-05,3.7333,5.7333
2.5625,-4.893799496451833e-07,-5.5664325453574376e-05,-3.516442883039592e-05,-0.00010010168968337524,3.7333,5.7333
2.56640625,-1.4743019729914692e-06,-8.35028567605096e-05,-2.8810716169985454e-05,-0.00011816824954299224,3.7333,5.7333
2.5703125,-3.424833823147878e-06,-8.789638147249556e-05,-3.02784431067368e-05,-0.0001235370401800564,3.7333,5.7333
2.57421875,2.436417825589444e-06,-8.642865453574421e-05,-5.810731831540393e-05,-0.00014209606105134657,3.7333,5.7333
2.578125,-4.88290466163113e-06,-9.961888476997019e-05,-8.496092759899286e-05,-0.0001645464895246814,3.7333,5.7333
2.58203125,9.765396411078114e-06,-9.375763312123288e-05,-9.473289904631107e-05,-0.00016503895053635457,3.7333,5.7333
2.5859375,1.7577179909971816e-05,-0.0001015694166201266,-0.00010059415069504839,-0.0001738259999603265,3.7333,5.7333
2.58984375,1.659225788662553e-05,-0.00010644574624551762,-9.717589190814064e-05,-0.0001787023295857175,3.7333,5.7333
2.59375,1.2198733174639557e-05,-0.00010498767540703435,-0.0001074306682688639,-0.00018944956695811393,3.7333,5.7333
2.59765625,9.765396411078114e-06,-9.228990618448152e-05,-0.00011474999075608448,-0.00020116241415732048,3.7333,5.7333
2.6015625,1.4158921123064062e-05,-0.0001225617742549782,-0.00013574234839093608,-0.00020116241415732048,3.7333,5.7333
2.60546875,1.3173999099717776e-05,-0.0001235370401800564,-0.00013134882367895012,-0.00020312260210574498,3.7333,5.7333
2.609375,1.0248201324483147e-05,-9.375763312123288e-05,-9.278236719615467e-05,-0.00020312260210574498,3.7333,5.7333
2.61328125,1.0248201324483147e-05,-9.912642375829705e-05,-9.179744517280838e-05,-0.00020751612681773091,3.7333,5.7333
2.6171875,1.8552445835050035e-05,-9.033937433432511e-05,-0.00012207896934157315,-0.00019823661638208585,3.7333,5.7333
2.62109375,1.7577179909971816e-05,-8.692111554741735e-05,-0.00011621771769283583,-0.00018553884715953302,3.7333,5.7333
2.625,1.659225788662553e-05,-7.080508753795677e-05,-0.00010059415069504839,-0.00018163778345922022,3.7333,5.7333
2.62890625,9.765396411078114e-06,-7.959213696192869e-05,-8.155232491035319e-05,-0.00016747228729991603,3.7333,5.7333
2.6328125,4.386949675745853e-06,-7.714914410009914e-05,-6.64115628259708e-05,-0.00015868523787594408,3.7333,5.7333
2.63671875,3.904144762340792e-06,-6.494383588921946e-05,-5.6649247476920676e-05,-0.00014844011761348892,3.7333,5.7333
2.640625,2.928878837262573e-06,-5.713205239032572e-05,-4.9320268891432004e-05,-0.00013721007532768747,3.7333,5.7333
2.64453125,-1.4743019729914692e-06,-5.762451340199888e-05,-4.73697370412756e-05,-0.0001386778022644388,3.7333,5.7333
2.6484375,-9.768890385290263e-06,-5.1270800741588415e-05,-1.0744156310368453e-05,-0.0001206112424048218,3.7333,5.7333
2.65234375,-8.793624460212044e-06,-3.858268761730368e-05,1.4641726036469122e-05,-0.0001025446825452048,3.7333,5.7333
2.65625,-1.22118832471198e-05,-4.9320268891432004e-05,2.0995438696879572e-05,-0.00010107695560845346,3.7333,5.7333
2.66015625,-1.6122603045700713e-05,-2.832791125658039e-05,1.708471889829869e-05,-9.570816497138929e-05,3.7333,5.7333
2.6640625,-7.818358535133854e-06,-1.6605407959105775e-05,1.4158921123064062e-05,-9.179744517280838e-05,3.7333,5.7333
2.66796875,-3.424833823147878e-06,-2.6367723308155886e-05,4.930711881895175e-05,-8.496092759899286e-05,3.7333,5.7333
2.671875,-9.768890385290263e-06,-2.441719145799948e-05,7.81209160509652e-05,-8.155232491035319e-05,3.7333,5.7333
2.67578125,-1.2704344258792957e-05,-1.6605407959105775e-05,8.935095833676666e-05,-7.227281447470812e-05,3.7333,5.7333
2.6796875,-1.51376810223544e-05,-1.709786897077893e-05,8.788323140001532e-05,-6.006750626382843e-05,3.7333,5.7333
2.68359375,-1.6605407959105775e-05,-1.6605407959105775e-05,9.569501489890905e-05,-6.787928976272216e-05,3.7333,5.7333
2.6875,-1.954086183260847e-05,-1.7580673884183967e-05,0.00012109055334401471,-6.690402383764396e-05,3.7333,5.7333
2.69140625,-1.7580673884183967e-05,-2.002366674601353e-05,0.00013768938626688038,-5.3713793603417965e-05,3.7333,5.7333
2.6953125,-1.6605407959105775e-05,-1.8555939809262182e-05,0.0001372065813534753,-4.83450029663538e-05,3.7333,5.7333
2.69921875,-1.7580673884183967e-05,-6.350631598382477e-06,0.00013378832256656756,-5.5664325453574376e-05,3.7333,5.7333
2.703125,-1.6122603045700713e-05,-5.375365673304287e-06,0.00014891942855268183,-5.224606666666662e-05,3.7333,5.7333
2.70703125,-2.0998932671091723e-05,-1.3187149172198019e-05,0.0001513624214145114,-4.297621232928964e-05,3.7333,5.7333
2.7109375,-2.5884918394750855e-05,-2.930317718165861e-05,0.0001508699604028382,-4.54192051911192e-05,3.7333,5.7333
2.71484375,-2.149139368276488e-05,-3.516442883039592e-05,0.00014941188956435497,-4.73697370412756e-05,3.7333,5.7333
2.71875,-1.3679610183871147e-05,-1.9048400820935312e-05,0.0001303700637796598,-5.029553481651021e-05,3.7333,5.7333
2.72265625,-2.002366674601353e-05,-2.6367723308155886e-05,0.00013182813461814303,-4.83450029663538e-05,3.7333,5.7333
2.7265625,-2.8810716169985454e-05,-3.516442883039592e-05,0.0001552731412130923,-3.906549253070872e-05,3.7333,5.7333
2.73046875,-2.73526453315022e-05,-1.026135139696339e-05,0.00015869140000000003,-3.7114960680552325e-05,3.7333,5.7333
2.734375,-2.6367723308155886e-05,-1.4162415097276209e-05,0.00014647643569085225,-3.858268761730368e-05,3.7333,5.7333
2.73828125,-2.9785982095063656e-05,-3.1253709031815005e-05,0.00012987760276798662,-3.3204240881971416e-05,3.7333,5.7333
2.7421875,-2.6860184319829043e-05,-3.3204240881971416e-05,0.00011278630883344783,-3.222897495689321e-05,3.7333,5.7333
2.74609375,-2.73526453315022e-05,-2.2466659607843068e-05,0.00011815509947051202,-3.3204240881971416e-05,3.7333,5.7333
2.75,-3.759776559395738e-05,-2.002366674601353e-05,0.00013573885441672394,-2.73526453315022e-05,3.7333,5.7333
2.75390625,-3.5647233743800966e-05,-2.4909652469672636e-05,0.00012645934398107885,-2.441719145799948e-05,3.7333,5.7333
2.7578125,-2.7835450244907235e-05,1.943956813916287e-06,0.00011181104290836964,-2.5392457383077698e-05,3.7333,5.7333
2.76171875,-2.832791125658039e-05,-8.793624460212044e-06,0.00011034331597161827,-2.0998932671091723e-05,3.7333,5.7333
2.765625,-3.02784431067368e-05,-4.590201010452425e-05,9.569501489890905e-05,-1.026135139696339e-05,3.7333,5.7333
2.76953125,-2.832791125658039e-05,-3.516442883039592e-05,9.813800776073859e-05,-8.301163448538887e-06,3.7333,5.7333
2.7734375,-2.6367723308155886e-05,-1.2704344258792957e-05,9.569501489890905e-05,-1.026135139696339e-05,3.7333,5.7333
2.77734375,-2.73526453315022e-05,-1.5630142034027556e-05,6.200488804150459e-05,-1.22118832471198e-05,3.7333,5.7333
2.78125,-3.077090411840996e-05,-4.200094640421143e-05,5.810382434119179e-05,-1.3187149172198019e-05,3.7333,5.7333
2.78515625,-3.1746170043488165e-05,-2.3441925532921287e-05,7.128439847714966e-05,-1.4162415097276209e-05,3.7333,5.7333
2.7890625,-3.6139694755474126e-05,-1.9048400820935312e-05,7.177685948882282e-05,-1.2704344258792957e-05,3.7333,5.7333
2.79296875,-3.955795354238188e-05,-2.930317718165861e-05,8.10467138261998e-05,-2.0516127757686688e-05,3.7333,5.7333
2.796875,-4.590201010452425e-05,-4.1508485392538286e-05,6.542314682841237e-05,-2.1974198596169942e-05,3.7333,5.7333
2.80078125,-3.662249966887917e-05,-3.3204240881971416e-05,4.930711881895175e-05,-1.2704344258792957e-05,3.7333,5.7333
2.8046875,-2.832791125658039e-05,-1.026135139696339e-05,5.371029962920582e-05,-1.6122603045700713e-05,3.7333,5.7333
2.80859375,-3.5647233743800966e-05,-2.6367723308155886e-05,2.489650239719239e-05,-3.02784431067368e-05,3.7333,5.7333
2.8125,-3.955795354238188e-05,-5.859977932707709e-05,1.0740662336156304e-05,-1.6122603045700713e-05,3.7333,5.7333
2.81640625,-3.7114960680552325e-05,-3.858268761730368e-05,3.465881774624253e-05,-7.325897523460696e-06,3.7333,5.7333
2.8203125,-3.6139694755474126e-05,-3.662249966887917e-05,4.1495335320058045e-05,-2.1974198596169942e-05,3.7333,5.7333
2.82421875,-4.101602438086513e-05,-5.908258424048213e-05,2.2945970547035983e-05,-2.6367723308155886e-05,3.7333,5.7333
2.828125,-4.248375131761649e-05,-4.395147825436784e-05,1.3666460111390903e-05,-1.8073134895857124e-05,3.7333,5.7333
2.83203125,-3.906549253070872e-05,-4.004075845578693e-05,2.197070462195779e-05,-2.0998932671091723e-05,3.7333,5.7333
2.8359375,-3.3696701893644555e-05,-2.3441925532921287e-05,3.807707653315029e-05,-2.832791125658039e-05,3.7333,5.7333
2.83984375,-3.7114960680552325e-05,-2.294946452124813e-05,4.248025734340433e-05,-1.9048400820935312e-05,3.7333,5.7333
2.84375,-4.395147825436784e-05,-3.3204240881971416e-05,2.2945970547035983e-05,-1.2704344258792957e-05,3.7333,5.7333
2.84765625,-4.443428316777289e-05,-2.832791125658039e-05,3.270828589608612e-05,-1.3679610183871147e-05,3.7333,5.7333
2.8515625,-4.101602438086513e-05,-2.2466659607843068e-05,4.443078919356074e-05,-1.5630142034027556e-05,3.7333,5.7333
2.85546875,-3.5647233743800966e-05,-3.759776559395738e-05,3.612654468299388e-05,-2.002366674601353e-05,3.7333,5.7333
2.859375,-3.662249966887917e-05,-4.395147825436784e-05,4.1495335320058045e-05,-2.294946452124813e-05,3.7333,5.7333
2.86328125,-4.004075845578693e-05,-2.73526453315022e-05,4.345552326848255e-05,-2.5884918394750855e-05,3.7333,5.7333
2.8671875,-4.3459017242694684e-05,-5.1270800741588415e-05,5.321783861753266e-05,-2.002366674601353e-05,3.7333,5.7333
2.87109375,-4.9812729903105164e-05,-5.4206254615091125e-05,7.42101962523843e-05,-1.4162415097276209e-05,3.7333,5.7333
2.875,-4.6394471116197394e-05,-3.1253709031815005e-05,6.933386662699325e-05,-1.3187149172198019e-05,3.7333,5.7333
2.87890625,-4.492674417944604e-05,-4.492674417944604e-05,3.9544803469901634e-05,-2.0516127757686688e-05,3.7333,5.7333
2.8828125,-4.590201010452425e-05,-6.152557710231169e-05,2.636422933394374e-05,-2.5392457383077698e-05,3.7333,5.7333
2.88671875,-3.809022660563053e-05,-4.785254195468066e-05,3.661900569466704e-05,-2.930317718165861e-05,3.7333,5.7333
2.890625,-3.955795354238188e-05,-3.272143596856636e-05,3.1240558959334776e-05,-2.73526453315022e-05,3.7333,5.7333
2.89453125,-4.248375131761649e-05,-4.200094640421143e-05,2.68470342473488e-05,-2.73526453315022e-05,3.7333,5.7333
2.8984375,-3.809022660563053e-05,-3.955795354238188e-05,3.3683551821164314e-05,-3.272143596856636e-05,3.7333,5.7333
2.90234375,-3.272143596856636e-05,-4.1508485392538286e-05,2.7339495259021958e-05,-3.516442883039592e-05,3.7333,5.7333
2.90625,-3.4189162905317715e-05,-4.785254195468066e-05,4.443078919356074e-05,-3.516442883039592e-05,3.7333,5.7333
2.91015625,-3.5647233743800966e-05,-5.1270800741588415e-05,6.1029622116426396e-05,-2.8810716169985454e-05,3.7333,5.7333
2.9140625,-3.906549253070872e-05,-3.5647233743800966e-05,3.759427161974523e-05,-3.4189162905317715e-05,3.7333,5.7333
2.91796875,-4.1508485392538286e-05,-2.9785982095063656e-05,4.386949675745853e-06,-3.1253709031815005e-05,3.7333,5.7333
2.921875,-3.662249966887917e-05,-2.9785982095063656e-05,-5.8678266849774445e-06,-2.6367723308155886e-05,3.7333,5.7333
2.92578125,-4.053321946746008e-05,-3.516442883039592e-05,2.0502977685206446e-05,-3.6139694755474126e-05,3.7333,5.7333
2.9296875,-4.492674417944604e-05,-4.6394471116197394e-05,3.661900569466704e-05,-4.101602438086513e-05,3.7333,5.7333
2.93359375,-4.248375131761649e-05,-3.858268761730368e-05,3.9061998556496575e-05,-2.73526453315022e-05,3.7333,5.7333
2.9375,-3.759776559395738e-05,-2.4909652469672636e-05,2.7339495259021958e-05,-2.9785982095063656e-05,3.7333,5.7333
2.94140625,-4.200094640421143e-05,-4.492674417944604e-05,3.515127875791566e-05,-3.4189162905317715e-05,3.7333,5.7333
2.9453125,-4.9812729903105164e-05,-5.9575045252155286e-05,4.345552326848255e-05,-2.4909652469672636e-05,3.7333,5.7333
2.94921875,-4.590201010452425e-05,-3.467196781872276e-05,4.345552326848255e-05,-2.149139368276488e-05,3.7333,5.7333
2.953125,-4.1508485392538286e-05,-1.9048400820935312e-05,4.588886003204399e-05,-1.7580673884183967e-05,3.7333,5.7333
2.95703125,-4.3459017242694684e-05,-4.004075845578693e-05,3.710181060807207e-05,-3.1253709031815005e-05,3.7333,5.7333
2.9609375,-4.443428316777289e-05,-4.248375131761649e-05,4.1495335320058045e-05,-2.9785982095063656e-05,3.7333,5.7333
2.96484375,-4.3459017242694684e-05,-3.3696701893644555e-05,5.566083147936223e-05,-1.6605407959105775e-05,3.7333,5.7333
2.96875,-4.3459017242694684e-05,-3.955795354238188e-05,6.200488804150459e-05,-2.294946452124813e-05,3.7333,5.7333
2.97265625,-4.443428316777289e-05,-3.3696701893644555e-05,5.468556555428404e-05,-2.6860184319829043e-05,3.7333,5.7333
2.9765625,-4.004075845578693e-05,-2.7835450244907235e-05,4.78490479804685e-05,-2.832791125658039e-05,3.7333,5.7333
2.98046875,-3.759776559395738e-05,-3.759776559395738e-05,2.7831956270695115e-05,-2.4909652469672636e-05,3.7333,5.7333
2.984375,-3.5647233743800966e-05,-1.709786897077893e-05,4.393832818188761e-05,-1.7580673884183967e-05,3.7333,5.7333
2.98828125,-3.858268761730368e-05,-1.3679610183871147e-05,5.761136332951863e-05,-1.6605407959105775e-05,3.7333,5.7333
2.9921875,-4.54192051911192e-05,-3.467196781872276e-05,2.7339495259021958e-05,-1.3679610183871147e-05,3.7333,5.7333
2.99609375,-4.200094640421143e-05,-3.759776559395738e-05,2.5388963408865547e-05,-2.441719145799948e-05,3.7333,5.7333
3.0,-4.200094640421143e-05,-2.0516127757686688e-05,2.441369748378736e-05,-2.4909652469672636e-05,3.7333,5.7333
3.00390625,-4.101602438086513e-05,-2.0516127757686688e-05,2.1478243610284634e-05,-2.3934386544594444e-05,3.7333,5.7333
3.0078125,-4.297621232928964e-05,-1.3679610183871147e-05,4.1987796331731205e-05,-2.73526453315022e-05,3.7333,5.7333
3.01171875,-4.492674417944604e-05,-1.9048400820935312e-05,3.9544803469901634e-05,-2.441719145799948e-05,3.7333,5.7333
3.015625,-3.662249966887917e-05,-3.077090411840996e-05,2.3428775460441045e-05,-2.73526453315022e-05,3.7333,5.7333
3.01953125,-3.809022660563053e-05,-2.5884918394750855e-05,1.9527711760128227e-05,-2.441719145799948e-05,3.7333,5.7333
3.0234375,-4.004075845578693e-05,-2.4909652469672636e-05,9.272935399404957e-06,-1.6605407959105775e-05,3.7333,5.7333
3.02734375,-2.930317718165861e-05,-1.4162415097276209e-05,2.1478243610284634e-05,-2.932372811474721e-06,3.7333,5.7333
3.03125,-2.7835450244907235e-05,-1.9048400820935312e-05,2.9290027109178366e-05,4.858859754330354e-07,3.7333,5.7333
3.03515625,-3.759776559395738e-05,-7.519861224994273e-05,-2.1974198596169942e-05,-1.5630142034027556e-05,3.7333,5.7333
3.0390625,-3.4189162905317715e-05,-9.082217924773018e-05,-4.590201010452425e-05,-2.294946452124813e-05,3.7333,5.7333
3.04296875,-1.2704344258792957e-05,-5.468905952849617e-05,-3.222897495689321e-05,-6.575036240121789e-09,3.7333,5.7333
3.046875,2.928878837262573e-06,-7.373088531319138e-05,-4.395147825436784e-05,7.322403549248548e-06,3.7333,5.7333
3.05078125,-7.325897523460696e-06,-0.00011182419298084988,-8.05674028870069e-05,-1.0744156310368453e-05,3.7333,5.7333
3.0546875,-4.88290466163113e-06,-0.00011914351546807044,-0.000103519948470283,-1.0744156310368453e-05,3.7333,5.7333
3.05859375,-6.575036240121789e-09,-0.00015283364232547488,-0.00011914351546807044,6.347137624170358e-06,3.7333,5.7333
3.0625,1.3666460111390903e-05,-0.00016796474831158917,-0.00016112823073777366,1.708471889829869e-05,3.7333,5.7333
3.06640625,2.001051667353329e-05,-0.00018603130817120616,-0.0001938430916700999,1.4641726036469122e-05,3.7333,5.7333
3.0703125,1.0248201324483147e-05,-0.00023632026795147626,-0.00019726135045700766,1.5134187048142279e-05,3.7333,5.7333
3.07421875,1.5616991961547314e-05,-0.0002338772750896467,-0.00020849139274280913,1.659225788662553e-05,3.7333,5.7333
3.078125,2.8314761184100147e-05,-0.00023729553387655448,-0.00022948375037766075,2.3921236472114202e-05,3.7333,5.7333
3.08203125,3.661900569466704e-05,-0.00026122334538490876,-0.00024657504431219954,3.222548098268106e-05,3.7333,5.7333
3.0859375,2.8807222195773307e-05,-0.00028075763218127713,-0.0002675770580453193,2.9290027109178366e-05,3.7333,5.7333
3.08984375,1.7577179909971816e-05,-0.00029784892611581595,-0.000275388841544213,2.2453509535362826e-05,3.7333,5.7333
3.09375,1.7577179909971816e-05,-0.0003007747238910505,-0.0002724533876707103,2.8807222195773307e-05,3.7333,5.7333
3.09765625,3.0265293034256557e-05,-0.0003066359755397879,-0.00029051994753032725,4.443078919356074e-05,3.7333,5.7333
3.1015625,3.17330199710079e-05,-0.0003022424508278019,-0.0003002919189776455,3.4176012832837474e-05,3.7333,5.7333
3.10546875,2.0995438696879572e-05,-0.0002958887381673914,-0.00028564361790493623,2.636422933394374e-05,3.7333,5.7333
3.109375,1.8552445835050035e-05,-0.00029393820631723504,-0.00027880710033112075,2.441369748378736e-05,3.7333,5.7333
3.11328125,1.5616991961547314e-05,-0.00028564361790493623,-0.0002641587992584115,2.1478243610284634e-05,3.7333,5.7333
3.1171875,4.879410687418982e-06,-0.0002832006250431067,-0.00027099531683222696,2.197070462195779e-05,3.7333,5.7333
3.12109375,-5.375365673304287e-06,-0.00028075763218127713,-0.0002617158063965819,1.5134187048142279e-05,3.7333,5.7333
3.125,-1.7580673884183967e-05,-0.0002641587992584115,-0.00022069670095368883,2.3428775460441045e-05,3.7333,5.7333
3.12890625,-1.2704344258792957e-05,-0.00023534500202639807,-0.00020116241415732048,2.489650239719239e-05,3.7333,5.7333
3.1328125,-1.026135139696339e-05,-0.00022606549159075298,-0.00018944956695811393,7.80520846265361e-06,3.7333,5.7333
3.13671875,-2.0516127757686688e-05,-0.0002158107152300297,-0.00016405402851300826,1.5616991961547314e-05,3.7333,5.7333
3.140625,-2.930317718165861e-05,-0.00020018714823224226,-0.0001767517977355611,1.1223467249561366e-05,3.7333,5.7333
3.14453125,-2.930317718165861e-05,-0.00016747228729991603,-0.00017333353894865333,-5.375365673304287e-06,3.7333,5.7333
3.1484375,-3.02784431067368e-05,-0.0001577099719508659,-0.00015722716703746084,-6.843092610055635e-06,3.7333,5.7333
3.15234375,-3.955795354238188e-05,-0.0001264724940535591,-0.00014502185882658115,-3.424833823147878e-06,3.7333,5.7333
3.15625,-3.6139694755474126e-05,-0.00010888873910734716,-0.00013330901162737465,-7.818358535133854e-06,3.7333,5.7333
3.16015625,-4.395147825436784e-05,-0.00012305423526665137,-0.00015039064946364533,-1.51376810223544e-05,3.7333,5.7333
3.1640625,-6.201803811398484e-05,-8.496092759899286e-05,-9.912642375829705e-05,-1.6122603045700713e-05,3.7333,5.7333
3.16796875,-6.396856996414125e-05,-6.690402383764396e-05,-3.809022660563053e-05,-1.4654876108949366e-05,3.7333,5.7333
3.171875,-5.468905952849617e-05,-5.224606666666662e-05,-4.73697370412756e-05,-2.3441925532921287e-05,3.7333,5.7333
3.17578125,-4.785254195468066e-05,-3.809022660563053e-05,-6.982982161287856e-05,-3.1253709031815005e-05,3.7333,5.7333
3.1796875,-5.5664325453574376e-05,-3.759776559395738e-05,-6.982982161287856e-05,-2.5392457383077698e-05,3.7333,5.7333
3.18359375,-6.152557710231169e-05,-2.0998932671091723e-05,-6.006750626382843e-05,-1.9048400820935312e-05,3.7333,5.7333
3.1875,-5.9575045252155286e-05,-5.375365673304287e-06,-5.1763261753261555e-05,-1.123661732204161e-05,3.7333,5.7333
3.19140625,-5.859977932707709e-05,9.765396411078114e-06,-1.8555939809262182e-05,-1.6605407959105775e-05,3.7333,5.7333
3.1953125,-6.250084302738988e-05,6.829942537575391e-06,1.943956813916287e-06,-1.7580673884183967e-05,3.7333,5.7333
3.19921875,-6.299330403906305e-05,9.765396411078114e-06,1.5616991961547314e-05,-1.9048400820935312e-05,3.7333,5.7333
3.203125,-6.396856996414125e-05,6.829942537575391e-06,2.9290027109178366e-05,-2.3441925532921287e-05,3.7333,5.7333
3.20703125,-6.591910181429765e-05,3.075775404592971e-05,2.7831956270695115e-05,-1.954086183260847e-05,3.7333,5.7333
3.2109375,-7.03126265262836e-05,4.296306225680939e-05,3.856953754482345e-05,-1.9048400820935312e-05,3.7333,5.7333
3.21484375,-7.373088531319138e-05,2.0502977685206446e-05,3.807707653315029e-05,-1.954086183260847e-05,3.7333,5.7333
3.21875,-6.885455568780036e-05,2.2945970547035983e-05,2.441369748378736e-05,-1.3679610183871147e-05,3.7333,5.7333
3.22265625,-7.03126265262836e-05,2.7831956270695115e-05,3.710181060807207e-05,-1.026135139696339e-05,3.7333,5.7333
3.2265625,-7.324808039978632e-05,3.564373976958882e-05,5.029204084229806e-05,-1.0744156310368453e-05,3.7333,5.7333
3.23046875,-7.471580733653768e-05,3.320074690775928e-05,4.97995798306249e-05,-1.8073134895857124e-05,3.7333,5.7333
3.234375,-7.519861224994273e-05,2.68470342473488e-05,2.587176832227061e-05,-3.222897495689321e-05,3.7333,5.7333
3.23828125,-8.301039574883645e-05,2.1478243610284634e-05,9.272935399404957e-06,-2.6860184319829043e-05,3.7333,5.7333
3.2421875,-8.203512982375825e-05,1.1223467249561366e-05,1.0740662336156304e-05,-2.0998932671091723e-05,3.7333,5.7333
3.24609375,-7.861687103685048e-05,2.587176832227061e-05,2.7339495259021958e-05,-2.0998932671091723e-05,3.7333,5.7333
3.25,-8.545338861066601e-05,2.9782488120851495e-05,3.759427161974523e-05,-1.709786897077893e-05,3.7333,5.7333
3.25390625,-8.44781226855878e-05,3.515127875791566e-05,4.1495335320058045e-05,-1.7580673884183967e-05,3.7333,5.7333
3.2578125,-8.692111554741735e-05,2.5388963408865547e-05,3.564373976958882e-05,-1.9048400820935312e-05,3.7333,5.7333
3.26171875,-8.496092759899286e-05,4.858859754330354e-07,3.3683551821164314e-05,-1.51376810223544e-05,3.7333,5.7333
3.265625,-7.422334632486452e-05,2.1478243610284634e-05,5.614363639276729e-05,-1.0744156310368453e-05,3.7333,5.7333
3.26953125,-7.813406612344543e-05,2.001051667353329e-05,4.97995798306249e-05,-1.5630142034027556e-05,3.7333,5.7333
3.2734375,-7.764160511177229e-05,1.4641726036469122e-05,3.17330199710079e-05,-1.7580673884183967e-05,3.7333,5.7333
3.27734375,-7.714914410009914e-05,3.17330199710079e-05,3.270828589608612e-05,-1.6122603045700713e-05,3.7333,5.7333
3.28125,-8.35028567605096e-05,1.5134187048142279e-05,2.9782488120851495e-05,-1.8073134895857124e-05,3.7333,5.7333
3.28515625,-7.959213696192869e-05,4.858859754330354e-07,4.1987796331731205e-05,-2.4909652469672636e-05,3.7333,5.7333
3.2890625,-7.569107326161588e-05,2.441369748378736e-05,5.468556555428404e-05,-2.2466659607843068e-05,3.7333,5.7333
3.29296875,-7.275561938811318e-05,3.710181060807207e-05,4.49135941069658e-05,-1.1719422235446643e-05,3.7333,5.7333
3.296875,-7.03126265262836e-05,2.8807222195773307e-05,4.0037264481574794e-05,-5.375365673304287e-06,3.7333,5.7333
3.30078125,-6.348576505073619e-05,1.9527711760128227e-05,3.17330199710079e-05,-1.3187149172198019e-05,3.7333,5.7333
3.3046875,-6.982982161287856e-05,2.0995438696879572e-05,2.3921236472114202e-05,-1.6605407959105775e-05,3.7333,5.7333
3.30859375,-7.714914410009914e-05,2.3428775460441045e-05,2.8314761184100147e-05,-7.818358535133854e-06,3.7333,5.7333
3.3125,-7.519861224994273e-05,1.5616991961547314e-05,1.9527711760128227e-05,-2.932372811474721e-06,3.7333,5.7333
3.31640625,-7.617387817502093e-05,1.708471889829869e-05,2.1478243610284634e-05,-3.90763873655294e-06,3.7333,5.7333
3.3203125,-7.275561938811318e-05,1.8552445835050035e-05,2.68470342473488e-05,-4.400099748226097e-06,3.7333,5.7333
3.32421875,-7.129754854962992e-05,1.1223467249561366e-05,2.587176832227061e-05,-1.957106886396531e-06,3.7333,5.7333
3.328125,-6.933736060120542e-05,3.4176012832837474e-05,3.9061998556496575e-05,-3.90763873655294e-06,3.7333,5.7333
3.33203125,-6.738682875104901e-05,2.5388963408865547e-05,4.393832818188761e-05,-7.818358535133854e-06,3.7333,5.7333
3.3359375,-6.64115628259708e-05,1.1715928261234523e-05,2.489650239719239e-05,-1.123661732204161e-05,3.7333,5.7333
3.33984375,-6.104277218890664e-05,1.3173999099717776e-05,2.2945970547035983e-05,-9.2860854718852e-06,3.7333,5.7333
3.34375,-6.055031117723348e-05,-1.123661732204161e-05,3.1240558959334776e-05,-8.793624460212044e-06,3.7333,5.7333
3.34765625,-6.250084302738988e-05,-4.893799496451833e-07,3.1240558959334776e-05,-1.3679610183871147e-05,3.7333,5.7333
3.3515625,-6.494383588921946e-05,-9.2860854718852e-06,4.540605511863896e-05,-1.3679610183871147e-05,3.7333,5.7333
3.35546875,-6.64115628259708e-05,-9.818409613183121e-07,3.1240558959334776e-05,-1.3679610183871147e-05,3.7333,5.7333
3.359375,-6.250084302738988e-05,5.854676612497201e-06,-4.400099748226097e-06,-1.5630142034027556e-05,3.7333,5.7333
3.36328125,-6.64115628259708e-05,-2.0516127757686688e-05,1.5134187048142279e-05,-9.768890385290263e-06,3.7333,5.7333
3.3671875,-6.055031117723348e-05,4.858859754330354e-07,3.515127875791566e-05,-4.88290466163113e-06,3.7333,5.7333
3.37109375,-5.273852767833976e-05,-9.818409613183121e-07,3.4176012832837474e-05,-1.2704344258792957e-05,3.7333,5.7333
3.375,-5.6649247476920676e-05,-2.73526453315022e-05,3.465881774624253e-05,-1.6122603045700713e-05,3.7333,5.7333
3.37890625,-5.908258424048213e-05,-1.9048400820935312e-05,4.879410687418982e-06,-1.3187149172198019e-05,3.7333,5.7333
3.3828125,-5.3713793603417965e-05,9.686908888380685e-07,-1.026135139696339e-05,-2.441719145799948e-05,3.7333,5.7333
3.38671875,-4.9812729903105164e-05,-9.818409613183121e-07,-2.002366674601353e-05,-2.9785982095063656e-05,3.7333,5.7333
3.390625,-5.4206254615091125e-05,-3.662249966887917e-05,-1.709786897077893e-05,-2.2466659607843068e-05,3.7333,5.7333
3.39453125,-5.4206254615091125e-05,-2.002366674601353e-05,8.7804743877318e-06,-1.709786897077893e-05,3.7333,5.7333
3.3984375,-6.104277218890664e-05,-1.4162415097276209e-05,1.9527711760128227e-05,-1.2704344258792957e-05,3.7333,5.7333
3.40234375,-5.713205239032572e-05,-2.73526453315022e-05,1.5616991961547314e-05,-8.793624460212044e-06,3.7333,5.7333
3.40625,-4.248375131761649e-05,-9.768890385290263e-06,2.7831956270695115e-05,-9.2860854718852e-06,3.7333,5.7333
3.41015625,-5.0787995828183356e-05,-2.932372811474721e-06,3.320074690775928e-05,-1.2704344258792957e-05,3.7333,5.7333
3.4140625,-5.518152054016933e-05,-7.325897523460696e-06,-1.6605407959105775e-05,-1.2704344258792957e-05,3.7333,5.7333
3.41796875,-5.1763261753261555e-05,-1.1719422235446643e-05,-4.785254195468066e-05,-1.709786897077893e-05,3.7333,5.7333
3.421875,-5.1270800741588415e-05,-2.449567898069688e-06,-5.224606666666662e-05,-2.0998932671091723e-05,3.7333,5.7333
3.42578125,-5.713205239032572e-05,-6.843092610055635e-06,-5.762451340199888e-05,-1.3187149172198019e-05,3.7333,5.7333
3.4296875,-5.6649247476920676e-05,-1.954086183260847e-05,-5.5664325453574376e-05,-1.9048400820935312e-05,3.7333,5.7333
3.43359375,-5.224606666666662e-05,-6.350631598382477e-06,-4.73697370412756e-05,-3.3204240881971416e-05,3.7333,5.7333
3.4375,-4.883746397802696e-05,8.7804743877318e-06,-2.0998932671091723e-05,-1.9048400820935312e-05,3.7333,5.7333
3.44140625,-3.955795354238188e-05,2.441369748378736e-05,-2.4909652469672636e-05,-1.4162415097276209e-05,3.7333,5.7333
3.4453125,-4.54192051911192e-05,-1.4743019729914692e-06,-5.518152054016933e-05,-1.3679610183871147e-05,3.7333,5.7333
3.44921875,-5.9575045252155286e-05,-4.6394471116197394e-05,-6.152557710231169e-05,-1.4654876108949366e-05,3.7333,5.7333
3.453125,-5.5664325453574376e-05,-3.3204240881971416e-05,-4.248375131761649e-05,-1.8073134895857124e-05,3.7333,5.7333
3.45703125,-4.297621232928964e-05,-8.301163448538887e-06,-3.3696701893644555e-05,-1.51376810223544e-05,3.7333,5.7333
3.4609375,-4.053321946746008e-05,9.765396411078114e-06,-4.443428316777289e-05,-2.0516127757686688e-05,3.7333,5.7333
3.46484375,-4.443428316777289e-05,8.7804743877318e-06,-3.809022660563053e-05,-2.2466659607843068e-05,3.7333,5.7333
3.46875,-5.029553481651021e-05,-1.51376810223544e-05,-1.5630142034027556e-05,-2.2466659607843068e-05,3.7333,5.7333
3.47265625,-5.3713793603417965e-05,-1.026135139696339e-05,-1.22118832471198e-05,-2.294946452124813e-05,3.7333,5.7333
3.4765625,-5.1270800741588415e-05,-2.0516127757686688e-05,-1.123661732204161e-05,-2.0516127757686688e-05,3.7333,5.7333
3.48046875,-5.468905952849617e-05,-4.1508485392538286e-05,-2.294946452124813e-05,-1.954086183260847e-05,3.7333,5.7333
3.484375,-5.713205239032572e-05,-3.02784431067368e-05,-3.1746170043488165e-05,-1.8555939809262182e-05,3.7333,5.7333
3.48828125,-5.0787995828183356e-05,-1.8555939809262182e-05,-5.810731831540393e-05,-2.002366674601353e-05,3.7333,5.7333
3.4921875,-4.9320268891432004e-05,-1.0744156310368453e-05,-6.787928976272216e-05,-1.709786897077893e-05,3.7333,5.7333
3.49609375,-5.323098869001292e-05,-1.123661732204161e-05,-4.54192051911192e-05,-1.954086183260847e-05,3.7333,5.7333
3.5,-5.0787995828183356e-05,-1.6605407959105775e-05,-5.6649247476920676e-05,-1.8073134895857124e-05,3.7333,5.7333
3.50390625,-4.83450029663538e-05,-2.73526453315022e-05,-5.9575045252155286e-05,-1.709786897077893e-05,3.7333,5.7333
3.5078125,-4.590201010452425e-05,-2.0998932671091723e-05,-3.467196781872276e-05,-1.954086183260847e-05,3.7333,5.7333
3.51171875,-4.9320268891432004e-05,-1.7580673884183967e-05,-3.6139694755474126e-05,-1.9048400820935312e-05,3.7333,5.7333
3.515625,-5.029553481651021e-05,-4.053321946746008e-05,-6.055031117723348e-05,-2.6367723308155886e-05,3.7333,5.7333
3.51953125,-4.200094640421143e-05,-4.395147825436784e-05,-6.591910181429765e-05,-2.7835450244907235e-05,3.7333,5.7333
3.5234375,-3.6139694755474126e-05,-8.793624460212044e-06,-5.6156786465247516e-05,-1.9048400820935312e-05,3.7333,5.7333
3.52734375,-4.248375131761649e-05,-1.4162415097276209e-05,-5.4206254615091125e-05,-1.8073134895857124e-05,3.7333,5.7333
3.53125,-5.029553481651021e-05,-4.590201010452425e-05,-6.348576505073619e-05,-2.2466659607843068e-05,3.7333,5.7333
3.53515625,-4.9812729903105164e-05,-6.104277218890664e-05,-6.787928976272216e-05,-2.4909652469672636e-05,3.7333,5.7333
3.5390625,-4.785254195468066e-05,-5.468905952849617e-05,-6.933736060120542e-05,-1.6605407959105775e-05,3.7333,5.7333
3.54296875,-5.3713793603417965e-05,-4.83450029663538e-05,-7.910933204852364e-05,-1.709786897077893e-05,3.7333,5.7333
3.546875,-5.1763261753261555e-05,-6.396856996414125e-05,-8.496092759899286e-05,-2.0998932671091723e-05,3.7333,5.7333
3.55078125,-4.6394471116197394e-05,-7.959213696192869e-05,-6.250084302738988e-05,-2.002366674601353e-05,3.7333,5.7333
3.5546875,-4.883746397802696e-05,-6.055031117723348e-05,-3.077090411840996e-05,-1.709786897077893e-05,3.7333,5.7333
3.55859375,-4.9320268891432004e-05,-6.006750626382843e-05,-5.9575045252155286e-05,-1.1719422235446643e-05,3.7333,5.7333
3.5625,-4.443428316777289e-05,-7.129754854962992e-05,-9.815115783321884e-05,-1.2704344258792957e-05,3.7333,5.7333
3.56640625,-4.200094640421143e-05,-8.398566167391465e-05,-9.815115783321884e-05,-2.441719145799948e-05,3.7333,5.7333
3.5703125,-5.1270800741588415e-05,-9.131464025940332e-05,-0.00013623480940260925,-3.467196781872276e-05,3.7333,5.7333
3.57421875,-5.6649247476920676e-05,-9.375763312123288e-05,-0.00013379181654077967,-2.6860184319829043e-05,3.7333,5.7333
3.578125,-5.224606666666662e-05,-9.765869682154569e-05,-0.0001206112424048218,-1.4654876108949366e-05,3.7333,5.7333
3.58203125,-4.492674417944604e-05,-7.666633918669409e-05,-0.00012305423526665137,-1.3679610183871147e-05,3.7333,5.7333
3.5859375,-4.687727602960245e-05,-9.424043803463793e-05,-0.00010791347318226897,-1.5630142034027556e-05,3.7333,5.7333
3.58984375,-5.0787995828183356e-05,-0.00012598003304188597,-0.00012989075284046688,-1.8073134895857124e-05,3.7333,5.7333
3.59375,-5.4206254615091125e-05,-0.00012207896934157315,-0.00015917769888761725,-1.5630142034027556e-05,3.7333,5.7333
3.59765625,-6.54362969008926e-05,-0.00014209606105134657,-0.0001957936235202563,-1.5630142034027556e-05,3.7333,5.7333
3.6015625,-6.591910181429765e-05,-0.00016405402851300826,-0.00020409786803082317,-1.22118832471198e-05,3.7333,5.7333
3.60546875,-5.859977932707709e-05,-0.00014746485168841072,-0.00017626899282215604,-5.8678266849774445e-06,3.7333,5.7333
3.609375,-5.5664325453574376e-05,-0.0001347670824658579,-0.00015283364232547488,1.4611519005112256e-06,3.7333,5.7333
3.61328125,-6.885455568780036e-05,-0.00016943247524834053,-0.00015527663518730446,5.3622156008240436e-06,3.7333,5.7333
3.6171875,-7.471580733653768e-05,-0.00018212058837262525,-0.00019481835759517808,7.322403549248548e-06,3.7333,5.7333
3.62109375,-7.080508753795677e-05,-0.00018261304938429842,-0.0001997043433188372,1.8552445835050035e-05,3.7333,5.7333
3.625,-7.714914410009914e-05,-0.00018847430103303574,-0.00019775381146868083,2.8314761184100147e-05,3.7333,5.7333
3.62890625,-8.398566167391465e-05,-0.00016844755322499423,-0.00017333353894865333,3.612654468299388e-05,3.7333,5.7333
3.6328125,-8.105986389868005e-05,-0.00015137557148699163,-0.0001508831104753185,5.224257269245447e-05,3.7333,5.7333
3.63671875,-8.398566167391465e-05,-0.00015039064946364533,-0.00017968725160906381,6.1029622116426396e-05,3.7333,5.7333
3.640625,-9.86339627466239e-05,-0.00017772706366063932,-0.00019091729389486526,7.128439847714966e-05,3.7333,5.7333
3.64453125,-0.00010693820725719076,-0.00016405402851300826,-0.0001787023295857175,7.323493032730607e-05,3.7333,5.7333
3.6484375,-0.00011474999075608448,-0.00012598003304188597,-0.00014257886596475162,7.275212541390104e-05,3.7333,5.7333
3.65234375,-0.0001225617742549782,-0.00013233374570229643,-0.00012989075284046688,8.788323140001532e-05,3.7333,5.7333
3.65625,-0.0001196359764797436,-0.00011474999075608448,-0.00011719298361791405,9.569501489890905e-05,3.7333,5.7333
3.66015625,-0.0001245123061051346,-8.692111554741735e-05,-7.714914410009914e-05,9.667028082398724e-05,3.7333,5.7333
3.6640625,-0.0001293982918287937,-7.714914410009914e-05,-4.785254195468066e-05,9.081868527351804e-05,3.7333,5.7333
3.66796875,-0.00013086601876554507,-7.471580733653768e-05,-1.954086183260847e-05,0.00010058100062256818,3.7333,5.7333
3.671875,-0.00012500476711680778,-4.9812729903105164e-05,-1.4743019729914692e-06,0.00010888524513313501,3.7333,5.7333
3.67578125,-0.00011182419298084988,-1.709786897077893e-05,2.3921236472114202e-05,0.00010936805004654007,3.7333,5.7333
3.6796875,-0.00011621771769283583,-2.73526453315022e-05,2.2453509535362826e-05,0.00010546698634622725,3.7333,5.7333
3.68359375,-0.00012549722812848092,-3.467196781872276e-05,7.322403549248548e-06,9.667028082398724e-05,3.7333,5.7333
3.6875,-0.00012402950119172956,-3.1746170043488165e-05,-9.818409613183121e-07,9.471974897383083e-05,3.7333,5.7333
3.69140625,-0.0001225617742549782,-2.832791125658039e-05,-2.3934386544594444e-05,9.667028082398724e-05,3.7333,5.7333
3.6953125,-0.00011572525668116269,-8.301163448538887e-06,3.904144762340792e-06,0.00010692505718471051,3.7333,5.7333
3.69921875,-0.00011719298361791405,-1.123661732204161e-05,1.5616991961547314e-05,0.00010839278412146188,3.7333,5.7333
3.703125,-0.0001264724940535591,-1.957106886396531e-06,2.8807222195773307e-05,0.00010497452533455413,3.7333,5.7333
3.70703125,-0.00012793056489204238,-4.400099748226097e-06,2.8807222195773307e-05,0.0001142540357701992,3.7333,5.7333
3.7109375,-0.00011524245176775764,1.4611519005112256e-06,9.272935399404957e-06,0.00011669702863202877,3.7333,5.7333
3.71484375,-0.00010498767540703435,1.4641726036469122e-05,2.441369748378736e-05,0.00010497452533455413,3.7333,5.7333
3.71875,-9.228990618448152e-05,1.708471889829869e-05,5.419310454261088e-05,0.0001152293016952774,3.7333,5.7333
3.72265625,-9.033937433432511e-05,1.7577179909971816e-05,5.8586629254596825e-05,0.00011669702863202877,3.7333,5.7333
3.7265625,-0.00010205222153353165,-2.449567898069688e-06,5.272537760585953e-05,9.813800776073859e-05,3.7333,5.7333
3.73046875,-9.570816497138929e-05,2.7339495259021958e-05,7.030913255207147e-05,9.813800776073859e-05,3.7333,5.7333
3.734375,-8.984691332265197e-05,1.5616991961547314e-05,5.321783861753266e-05,9.765520284733355e-05,3.7333,5.7333
3.73828125,-8.398566167391465e-05,1.610945297322047e-05,4.1012530406652986e-05,9.569501489890905e-05,3.7333,5.7333
3.7421875,-8.05674028870069e-05,2.8807222195773307e-05,3.4176012832837474e-05,9.032622426184488e-05,3.7333,5.7333
3.74609375,-8.837918638590061e-05,2.436417825589444e-06,3.1240558959334776e-05,7.860372096437024e-05,3.7333,5.7333
3.75,-8.203512982375825e-05,1.7577179909971816e-05,6.0054356191348204e-05,7.177685948882282e-05,3.7333,5.7333
3.75390625,-6.591910181429765e-05,1.9527711760128227e-05,5.126730676737628e-05,6.689087376516372e-05,3.7333,5.7333
3.7578125,-6.54362969008926e-05,3.222548098268106e-05,-1.6122603045700713e-05,4.930711881895175e-05,3.7333,5.7333
3.76171875,-6.152557710231169e-05,2.8314761184100147e-05,-2.832791125658039e-05,3.661900569466704e-05,3.7333,5.7333
3.765625,-5.518152054016933e-05,3.661900569466704e-05,3.564373976958882e-05,4.49135941069658e-05,3.7333,5.7333
3.76953125,-5.9575045252155286e-05,4.588886003204399e-05,7.617038420080879e-05,3.3683551821164314e-05,3.7333,5.7333
3.7734375,-5.1763261753261555e-05,5.468556555428404e-05,7.323493032730607e-05,2.441369748378736e-05,3.7333,5.7333
3.77734375,-3.4189162905317715e-05,7.372739133897923e-05,7.079193746547654e-05,3.661900569466704e-05,3.7333,5.7333
3.78125,-4.248375131761649e-05,8.39821676997025e-05,8.446497261310756e-05,2.587176832227061e-05,3.7333,5.7333
3.78515625,-3.906549253070872e-05,7.519511827573057e-05,5.175011168078131e-05,7.322403549248548e-06,3.7333,5.7333
3.7890625,-2.149139368276488e-05,6.249734905317774e-05,1.8552445835050035e-05,1.0740662336156304e-05,3.7333,5.7333
3.79296875,-3.077090411840996e-05,6.542314682841237e-05,9.272935399404957e-06,9.765396411078114e-06,3.7333,5.7333
3.796875,-3.272143596856636e-05,4.248025734340433e-05,4.386949675745853e-06,4.858859754330354e-07,3.7333,5.7333
3.80078125,-3.4189162905317715e-05,2.0502977685206446e-05,5.854676612497201e-06,-2.449567898069688e-06,3.7333,5.7333
3.8046875,-2.5884918394750855e-05,2.5388963408865547e-05,-3.90763873655294e-06,-5.375365673304287e-06,3.7333,5.7333
3.80859375,-1.22118832471198e-05,3.320074690775928e-05,6.829942537575391e-06,-1.6605407959105775e-05,3.7333,5.7333
3.8125,-9.768890385290263e-06,4.49135941069658e-05,2.7831956270695115e-05,-2.002366674601353e-05,3.7333,5.7333
3.81640625,-1.1719422235446643e-05,3.1240558959334776e-05,2.5388963408865547e-05,-1.2704344258792957e-05,3.7333,5.7333
3.8203125,-4.88290466163113e-06,3.0265293034256557e-05,1.610945297322047e-05,-2.0516127757686688e-05,3.7333,5.7333
3.82421875,-4.400099748226097e-06,2.9782488120851495e-05,3.856953754482345e-05,-2.4909652469672636e-05,3.7333,5.7333
3.828125,-1.709786897077893e-05,1.2198733174639557e-05,7.470265726405742e-05,-1.9048400820935312e-05,3.7333,5.7333
3.83203125,-2.2466659607843068e-05,8.297669474326738e-06,8.593269954985891e-05,-2.73526453315022e-05,3.7333,5.7333
3.8359375,-1.3679610183871147e-05,4.858859754330354e-07,9.276921712367442e-05,-2.3934386544594444e-05,3.7333,5.7333
3.83984375,-1.4654876108949366e-05,3.904144762340792e-06,4.393832818188761e-05,-1.9048400820935312e-05,3.7333,5.7333
3.84375,-2.149139368276488e-05,6.347137624170358e-06,1.0740662336156304e-05,-2.930317718165861e-05,3.7333,5.7333
3.84765625,-2.294946452124813e-05,1.943956813916287e-06,5.224257269245447e-05,-3.662249966887917e-05,3.7333,5.7333
3.8515625,-2.3934386544594444e-05,1.4611519005112256e-06,5.9561895179675044e-05,-3.759776559395738e-05,3.7333,5.7333
3.85546875,-1.6605407959105775e-05,1.943956813916287e-06,5.761136332951863e-05,-3.662249966887917e-05,3.7333,5.7333
3.859375,-1.3187149172198019e-05,-7.325897523460696e-06,8.007144790112159e-05,-3.955795354238188e-05,3.7333,5.7333
3.86328125,-1.8555939809262182e-05,-1.1719422235446643e-05,6.200488804150459e-05,-4.1508485392538286e-05,3.7333,5.7333
3.8671875,-1.8555939809262182e-05,8.7804743877318e-06,1.4641726036469122e-05,-4.395147825436784e-05,3.7333,5.7333
3.87109375,-1.709786897077893e-05,1.0740662336156304e-05,2.2453509535362826e-05,-5.1270800741588415e-05,3.7333,5.7333
3.875,-1.6605407959105775e-05,1.1223467249561366e-05,4.540605511863896e-05,-4.9812729903105164e-05,3.7333,5.7333
3.87890625,-1.5630142034027556e-05,-9.818409613183121e-07,1.8552445835050035e-05,-4.687727602960245e-05,3.7333,5.7333
3.8828125,-5.8678266849774445e-06,8.297669474326738e-06,3.4176012832837474e-05,-4.297621232928964e-05,3.7333,5.7333
3.88671875,-1.954086183260847e-05,5.3622156008240436e-06,5.7128558416113574e-05,-4.248375131761649e-05,3.7333,5.7333
3.890625,-3.3696701893644555e-05,-1.9048400820935312e-05,6.639841275349056e-05,-3.955795354238188e-05,3.7333,5.7333
3.89453125,-2.1974198596169942e-05,7.80520846265361e-06,7.128439847714966e-05,-3.272143596856636e-05,3.7333,5.7333
3.8984375,-1.1719422235446643e-05,4.97995798306249e-05,1.9527711760128227e-05,-3.6139694755474126e-05,3.7333,5.7333
3.90234375,-2.441719145799948e-05,1.9527711760128227e-05,-9.768890385290263e-06,-2.7835450244907235e-05,3.7333,5.7333
3.90625,-3.3696701893644555e-05,-2.832791125658039e-05,-2.9785982095063656e-05,-2.1974198596169942e-05,3.7333,5.7333
3.91015625,-2.6860184319829043e-05,-3.02784431067368e-05,-5.0787995828183356e-05,-2.7835450244907235e-05,3.7333,5.7333
3.9140625,-3.272143596856636e-05,-5.0787995828183356e-05,-4.3459017242694684e-05,-3.222897495689321e-05,3.7333,5.7333
3.91796875,-3.906549253070872e-05,-9.278236719615467e-05,-6.787928976272216e-05,-2.832791125658039e-05,3.7333,5.7333
3.921875,-4.73697370412756e-05,-8.35028567605096e-05,-0.00010498767540703435,-3.077090411840996e-05,3.7333,5.7333
3.92578125,-5.0787995828183356e-05,-5.0787995828183356e-05,-7.275561938811318e-05,-1.2704344258792957e-05,3.7333,5.7333
3.9296875,-4.785254195468066e-05,-4.687727602960245e-05,-4.590201010452425e-05,4.858859754330354e-07,3.7333,5.7333
3.93359375,-6.055031117723348e-05,-9.131464025940332e-05,-8.105986389868005e-05,-9.768890385290263e-06,3.7333,5.7333
3.9375,-6.055031117723348e-05,-0.0001015694166201266,-9.86339627466239e-05,-4.893799496451833e-07,3.7333,5.7333
3.94140625,-6.104277218890664e-05,-8.35028567605096e-05,-8.252759083543139e-05,1.943956813916287e-06,3.7333,5.7333
3.9453125,-5.810731831540393e-05,-8.984691332265197e-05,-7.178035346303497e-05,-9.768890385290263e-06,3.7333,5.7333
3.94921875,-6.006750626382843e-05,-9.620062598306243e-05,-7.959213696192869e-05,-3.90763873655294e-06,3.7333,5.7333
3.953125,-6.152557710231169e-05,-6.982982161287856e-05,-5.908258424048213e-05,6.347137624170358e-06,3.7333,5.7333
3.95703125,-5.468905952849617e-05,-6.591910181429765e-05,-5.6156786465247516e-05,-2.449567898069688e-06,3.7333,5.7333
3.9609375,-5.810731831540393e-05,-8.105986389868005e-05,-5.5664325453574376e-05,-8.301163448538887e-06,3.7333,5.7333
3.96484375,-5.810731831540393e-05,-8.35028567605096e-05,-6.885455568780036e-05,-9.768890385290263e-06,3.7333,5.7333
3.96875,-5.3713793603417965e-05,-9.620062598306243e-05,-8.105986389868005e-05,-1.3187149172198019e-05,3.7333,5.7333
3.97265625,-4.883746397802696e-05,-9.473289904631107e-05,-0.00010302748745860986,-1.9048400820935312e-05,3.7333,5.7333
3.9765625,-5.908258424048213e-05,-9.765869682154569e-05,-0.00013770253633936058,-2.6367723308155886e-05,3.7333,5.7333
3.98046875,-6.885455568780036e-05,-0.000103519948470283,-0.00014014552920119016,-3.3204240881971416e-05,3.7333,5.7333
3.984375,-5.810731831540393e-05,-8.155232491035319e-05,-0.00011621771769283583,-2.294946452124813e-05,3.7333,5.7333
3.98828125,-4.590201010452425e-05,-6.201803811398484e-05,-8.984691332265197e-05,-2.0998932671091723e-05,3.7333,5.7333
3.9921875,-5.0787995828183356e-05,-7.910933204852364e-05,-9.326517210955973e-05,-3.272143596856636e-05,3.7333,5.7333
3.99609375,-5.518152054016933e-05,-8.496092759899286e-05,-0.00010888873910734716,-3.3696701893644555e-05,3.7333,5.7333
4.0,-3.809022660563053e-05,-5.810731831540393e-05,-0.00011035646604409852,-2.441719145799948e-05,3.7333,5.7333
4.00390625,-4.443428316777289e-05,-7.617387817502093e-05,-0.00012989075284046688,-3.467196781872276e-05,3.7333,5.7333
4.0078125,-5.9575045252155286e-05,-9.082217924773018e-05,-0.00011914351546807044,-4.83450029663538e-05,3.7333,5.7333
4.01171875,-4.6394471116197394e-05,-7.569107326161588e-05,-9.521570395971614e-05,-3.272143596856636e-05,3.7333,5.7333
4.015625,-4.73697370412756e-05,-7.227281447470812e-05,-0.00010693820725719076,-3.077090411840996e-05,3.7333,5.7333
4.01953125,-5.6156786465247516e-05,-7.422334632486452e-05,-0.00010791347318226897,-4.004075845578693e-05,3.7333,5.7333
