timestamp,TP9,AF7,AF8,TP10,Valence,Arousal
0.0,2.8807600492866383e-05,1.9526048093385193e-05,3.515222363164719e-05,3.857061670557715e-05,4.2,3.0
0.00390625,1.659981802853435e-05,2.538920741893642e-05,2.7341810661478573e-05,3.2225993566796346e-05,4.2,3.0
0.0078125,1.9039234682230848e-05,3.613120005188065e-05,2.4410230998702956e-05,2.978122731517507e-05,4.2,3.0
0.01171875,2.685499725032423e-05,5.126521258106352e-05,2.538920741893642e-05,4.0523219948119306e-05,4.2,3.0
0.015625,3.905743011673149e-05,5.077839916990918e-05,1.9526048093385193e-05,3.808380329442281e-05,4.2,3.0
0.01953125,4.198900977950711e-05,4.979942274967571e-05,2.1970814345006458e-05,3.271280697795069e-05,4.2,3.0
0.0234375,3.613120005188065e-05,5.029158575875483e-05,2.2457627756160804e-05,3.368643380025938e-05,4.2,3.0
0.02734375,2.6362834241245108e-05,4.638637927367053e-05,1.4647214785992196e-05,2.5876020830090766e-05,4.2,3.0
0.03125,2.0991837924773e-05,3.857061670557715e-05,1.3668238365758731e-05,3.0273390324254193e-05,4.2,3.0
0.03515625,2.978122731517507e-05,2.392341758754861e-05,1.8065607859922154e-05,3.271280697795069e-05,4.2,3.0
0.0390625,2.48970444098573e-05,3.0273390324254193e-05,1.171563512321658e-05,3.0273390324254193e-05,4.2,3.0
0.04296875,2.0505024513618658e-05,3.3199620389105036e-05,8.784055460440967e-06,3.466541022049284e-05,4.2,3.0
0.046875,2.2944441167315156e-05,3.173383055771722e-05,8.784055460440967e-06,3.2225993566796346e-05,4.2,3.0
0.05078125,1.9039234682230848e-05,3.515222363164719e-05,1.6113004617380005e-05,4.101538295719841e-05,4.2,3.0
0.0546875,1.171563512321658e-05,4.150219636835277e-05,2.343660417639427e-05,4.4920589442282714e-05,4.2,3.0
0.05859375,2.2944441167315156e-05,2.0505024513618658e-05,1.8552421271076503e-05,3.6618013463034995e-05,4.2,3.0
0.0625,3.857061670557715e-05,1.2694611543450044e-05,2.0505024513618658e-05,3.2225993566796346e-05,4.2,3.0
0.06640625,3.6618013463034995e-05,2.48970444098573e-05,3.515222363164719e-05,3.0273390324254193e-05,4.2,3.0
0.0703125,3.076020373540854e-05,4.003640653696496e-05,4.296798619974056e-05,2.978122731517507e-05,4.2,3.0
0.07421875,2.0991837924773e-05,4.296798619974056e-05,4.7846819507133556e-05,2.978122731517507e-05,4.2,3.0
0.078125,2.7341810661478573e-05,3.0273390324254193e-05,5.029158575875483e-05,2.929441390402073e-05,4.2,3.0
0.08203125,2.8807600492866383e-05,1.7573444850843038e-05,2.1970814345006458e-05,2.538920741893642e-05,4.2,3.0
0.0859375,2.7828624072632918e-05,2.7341810661478573e-05,1.6113004617380005e-05,2.538920741893642e-05,4.2,3.0
0.08984375,2.978122731517507e-05,3.710482687418934e-05,1.7573444850843038e-05,3.1247017146562884e-05,4.2,3.0
0.09375,3.41785968093385e-05,4.296798619974056e-05,9.763031880674425e-06,2.392341758754861e-05,4.2,3.0
0.09765625,4.687319268482487e-05,4.979942274967571e-05,1.1228821712062234e-05,1.9526048093385193e-05,4.2,3.0
0.1015625,4.247582319066146e-05,3.905743011673149e-05,3.9052221530479655e-06,1.2694611543450044e-05,4.2,3.0
0.10546875,4.979942274967571e-05,5.5175768664072604e-05,5.8578253955901185e-06,1.952618910505819e-06,4.2,3.0
0.109375,5.273100241245133e-05,5.76151853177691e-05,-1.4657741634241433e-06,-7.815746900129724e-06,4.2,3.0
0.11328125,3.808380329442281e-05,3.9549593125810616e-05,-5.863143657587571e-06,-7.815746900129724e-06,4.2,3.0
0.1171875,3.9549593125810616e-05,2.2457627756160804e-05,-6.836770479896259e-06,1.4604559014266982e-06,4.2,3.0
0.12109375,3.41785968093385e-05,1.7573444850843038e-05,-7.328933488975373e-06,5.8578253955901185e-06,4.2,3.0
0.125,2.8315437483787263e-05,3.515222363164719e-05,-5.333929961111039e-09,7.810428638132272e-06,4.2,3.0
0.12890625,1.2694611543450044e-05,3.7596989883268464e-05,3.9052221530479655e-06,9.736424902723542e-07,4.2,3.0
0.1328125,3.9052221530479655e-06,2.978122731517507e-05,8.784055460440967e-06,-1.4657741634241433e-06,4.2,3.0
0.13671875,2.978122731517507e-05,2.48970444098573e-05,-1.9579371725032643e-06,-3.4183774059662963e-06,4.2,3.0
0.140625,3.857061670557715e-05,3.076020373540854e-05,-2.9315639948119523e-06,4.868290791180101e-07,4.2,3.0
0.14453125,3.41785968093385e-05,2.685499725032423e-05,9.763031880674425e-06,1.1228821712062234e-05,4.2,3.0
0.1484375,4.3941613022049266e-05,2.1970814345006458e-05,1.0249845291828769e-05,1.659981802853435e-05,4.2,3.0
0.15234375,4.5894216264591404e-05,2.8807600492866383e-05,1.4647214785992196e-05,3.0273390324254193e-05,4.2,3.0
0.15625,2.1970814345006458e-05,3.857061670557715e-05,1.8552421271076503e-05,3.41785968093385e-05,4.2,3.0
0.16015625,8.297242049286617e-06,2.7828624072632918e-05,1.659981802853435e-05,1.659981802853435e-05,4.2,3.0
0.1640625,1.171563512321658e-05,7.810428638132272e-06,1.8552421271076503e-05,1.0249845291828769e-05,4.2,3.0
0.16796875,1.513402819714654e-05,5.8578253955901185e-06,1.3668238365758731e-05,1.074200830090789e-05,4.2,3.0
0.171875,2.0505024513618658e-05,2.4394323216601632e-06,8.297242049286617e-06,9.763031880674425e-06,4.2,3.0
0.17578125,3.0273390324254193e-05,1.659981802853435e-05,2.685499725032423e-05,2.0991837924773e-05,4.2,3.0
0.1796875,3.7596989883268464e-05,3.1247017146562884e-05,3.2225993566796346e-05,2.2944441167315156e-05,4.2,3.0
0.18359375,3.515222363164719e-05,3.368643380025938e-05,1.659981802853435e-05,2.1484000933852113e-05,4.2,3.0
0.1875,3.613120005188065e-05,4.198900977950711e-05,2.0991837924773e-05,2.1970814345006458e-05,4.2,3.0
0.19140625,4.833898251621268e-05,4.979942274967571e-05,2.978122731517507e-05,2.2944441167315156e-05,4.2,3.0
0.1953125,3.9549593125810616e-05,5.5175768664072604e-05,1.8552421271076503e-05,1.9039234682230848e-05,4.2,3.0
0.19921875,3.3199620389105036e-05,4.8825795927367025e-05,1.3668238365758731e-05,2.0505024513618658e-05,4.2,3.0
0.203125,2.8315437483787263e-05,3.710482687418934e-05,1.074200830090789e-05,1.5620841608300885e-05,4.2,3.0
0.20703125,2.7828624072632918e-05,3.271280697795069e-05,1.2694611543450044e-05,1.2694611543450044e-05,4.2,3.0
0.2109375,3.857061670557715e-05,4.5894216264591404e-05,1.2202448534370923e-05,1.9039234682230848e-05,4.2,3.0
0.21484375,3.466541022049284e-05,5.810199872892345e-05,1.7086631439688696e-05,3.0273390324254193e-05,4.2,3.0
0.21875,2.685499725032423e-05,4.4920589442282714e-05,2.929441390402073e-05,3.613120005188065e-05,4.2,3.0
0.22265625,3.271280697795069e-05,3.466541022049284e-05,2.2457627756160804e-05,3.271280697795069e-05,4.2,3.0
0.2265625,3.6618013463034995e-05,3.7596989883268464e-05,1.3181424954604388e-05,3.905743011673149e-05,4.2,3.0
0.23046875,2.4410230998702956e-05,3.0273390324254193e-05,2.9262457328145072e-06,3.6618013463034995e-05,4.2,3.0
0.234375,2.5876020830090766e-05,2.0505024513618658e-05,4.87884897535666e-06,3.808380329442281e-05,4.2,3.0
0.23828125,2.7341810661478573e-05,-9.768350142671874e-06,-4.397353826199761e-06,4.345479961089491e-05,4.2,3.0
0.2421875,2.2457627756160804e-05,-4.979939141374839e-05,-3.906274837872894e-05,3.271280697795069e-05,4.2,3.0
0.24609375,1.9526048093385193e-05,-5.663617756160831e-05,-5.4196760907911814e-05,4.345479961089491e-05,4.2,3.0
0.25,1.171563512321658e-05,-7.128872627756162e-05,-6.8357146614786e-05,6.298618163424121e-05,4.2,3.0
0.25390625,1.3181424954604388e-05,-0.0001035147041763943,-9.863052127107652e-05,6.347299504539556e-05,4.2,3.0
0.2578125,2.4410230998702956e-05,-0.00011572248664072632,-0.00012158029636835279,7.17755710246433e-05,4.2,3.0
0.26171875,2.1484000933852113e-05,-0.00012158029636835279,-0.00014550369828793776,8.34911904798962e-05,4.2,3.0
0.265625,1.5620841608300885e-05,-0.00015234048443579765,-0.00018310067250324255,8.4956980311284e-05,4.2,3.0
0.26953125,2.392341758754861e-05,-0.00016943244980544746,-0.00018798485540856032,8.935434980544744e-05,4.2,3.0
0.2734375,3.466541022049284e-05,-0.00017822183919584956,-0.00018359283551232165,0.00010106996926070035,4.2,3.0
0.27734375,2.538920741893642e-05,-0.0001909164350713359,-0.0001948216415564202,0.00010106996926070035,4.2,3.0
0.28125,1.8552421271076503e-05,-0.00018945064523994808,-0.00019042962166018155,0.00010351473551232163,4.2,3.0
0.28515625,3.6618013463034995e-05,-0.00015673785392996109,-0.00017919546601815825,0.0001147435415564202,4.2,3.0
0.2890625,4.198900977950711e-05,-0.00014062486498054476,-0.00018456646233463035,0.00010253575909208817,4.2,3.0
0.29296875,2.0505024513618658e-05,-0.00014745630153047988,-0.0001801744424383917,9.032797662775613e-05,4.2,3.0
0.296875,9.276218469520082e-06,-0.00015136685761348896,-0.00016406145348897536,8.056496041504535e-05,4.2,3.0
0.30078125,3.368643380025938e-05,-0.00013866691214007784,-0.0001440379084565499,7.665975392996105e-05,4.2,3.0
0.3046875,2.6362834241245108e-05,-0.00011181193055771726,-0.00012353289961089493,7.079659460440984e-05,4.2,3.0
0.30859375,1.074200830090789e-05,-8.447013556420233e-05,-9.374633836575876e-05,7.42149876783398e-05,4.2,3.0
0.3125,2.929441390402073e-05,-6.103354705577173e-05,-6.395977712062257e-05,8.056496041504535e-05,4.2,3.0
0.31640625,4.0523219948119306e-05,-5.12651812451362e-05,-5.077836783398185e-05,7.079659460440984e-05,4.2,3.0
0.3203125,4.979942274967571e-05,-3.1252335408560326e-05,-3.418391507133595e-05,6.542559828793771e-05,4.2,3.0
0.32421875,3.2225993566796346e-05,-1.4160370038910524e-05,-1.8557739533073948e-05,5.566258207522695e-05,4.2,3.0
0.328125,1.8552421271076503e-05,-1.4657741634241433e-06,-9.78960752269799e-07,4.540740285343706e-05,4.2,3.0
0.33203125,3.1247017146562884e-05,1.5620841608300885e-05,2.1484000933852113e-05,4.736000609597921e-05,4.2,3.0
0.3359375,2.8807600492866383e-05,1.9526048093385193e-05,4.003640653696496e-05,3.857061670557715e-05,4.2,3.0
0.33984375,3.3199620389105036e-05,3.857061670557715e-05,5.76151853177691e-05,2.538920741893642e-05,4.2,3.0
0.34375,3.076020373540854e-05,6.15203918028534e-05,7.274919784695199e-05,2.7341810661478573e-05,4.2,3.0
0.34765625,2.685499725032423e-05,6.542559828793771e-05,7.616759092088193e-05,2.7828624072632918e-05,4.2,3.0
0.3515625,3.271280697795069e-05,7.71465673411154e-05,6.689138811932552e-05,2.978122731517507e-05,4.2,3.0
0.35546875,3.271280697795069e-05,9.082013963683524e-05,6.103357839169906e-05,3.2225993566796346e-05,4.2,3.0
0.359375,2.8315437483787263e-05,8.593595673151748e-05,5.273100241245133e-05,3.3199620389105036e-05,4.2,3.0
0.36328125,2.2944441167315156e-05,8.25175636575875e-05,5.858881214007779e-05,2.7828624072632918e-05,4.2,3.0
0.3671875,2.8807600492866383e-05,9.130695304798959e-05,5.126521258106352e-05,1.5620841608300885e-05,4.2,3.0
0.37109375,3.564438664072631e-05,0.00010106996926070035,4.247582319066146e-05,9.763031880674425e-06,4.2,3.0
0.375,3.368643380025938e-05,9.082013963683524e-05,5.76151853177691e-05,1.513402819714654e-05,4.2,3.0
0.37890625,3.857061670557715e-05,0.00010546733875486379,6.493878487678337e-05,2.5876020830090766e-05,4.2,3.0
0.3828125,2.4410230998702956e-05,0.00010790675540856028,7.42149876783398e-05,2.8315437483787263e-05,4.2,3.0
0.38671875,4.392035564202317e-06,9.863055260700385e-05,7.274919784695199e-05,2.2457627756160804e-05,4.2,3.0
0.390625,2.1484000933852113e-05,0.00010253575909208817,7.86123571725032e-05,8.297242049286617e-06,4.2,3.0
0.39453125,1.5620841608300885e-05,9.179376645914394e-05,9.472534612191955e-05,1.171563512321658e-05,4.2,3.0
0.3984375,1.074200830090789e-05,9.716476277561605e-05,8.4956980311284e-05,2.0991837924773e-05,4.2,3.0
0.40234375,3.564438664072631e-05,9.472534612191955e-05,7.079659460440984e-05,2.9262457328145072e-06,4.2,3.0
0.40625,4.687319268482487e-05,0.00011035152166018155,8.300437706874185e-05,-9.78960752269799e-07,4.2,3.0
0.41015625,3.515222363164719e-05,0.0001108383350713359,9.472534612191955e-05,3.4130591439688512e-06,4.2,3.0
0.4140625,3.0273390324254193e-05,9.179376645914394e-05,8.544914332036313e-05,8.297242049286617e-06,4.2,3.0
0.41796875,2.4410230998702956e-05,9.423318311284043e-05,7.958598399481189e-05,1.659981802853435e-05,4.2,3.0
0.421875,1.7573444850843038e-05,9.27727428793774e-05,8.544914332036313e-05,1.7086631439688696e-05,4.2,3.0
0.42578125,3.710482687418934e-05,8.544914332036313e-05,8.398335348897533e-05,7.323615226977928e-06,4.2,3.0
0.4296875,4.8825795927367025e-05,7.71465673411154e-05,8.398335348897533e-05,1.5620841608300885e-05,4.2,3.0
0.43359375,4.3941613022049266e-05,9.228057987029828e-05,8.984116321660178e-05,3.076020373540854e-05,4.2,3.0
0.4375,4.5894216264591404e-05,9.569897294422824e-05,8.690958355382617e-05,2.48970444098573e-05,4.2,3.0
0.44140625,3.515222363164719e-05,7.812019416342409e-05,8.740174656290529e-05,2.4410230998702956e-05,4.2,3.0
0.4453125,2.5876020830090766e-05,8.398335348897533e-05,8.886218679636832e-05,3.9052221530479655e-06,4.2,3.0
0.44921875,3.2225993566796346e-05,9.569897294422824e-05,8.984116321660178e-05,-9.78960752269799e-07,4.2,3.0
0.453125,3.613120005188065e-05,9.716476277561605e-05,8.398335348897533e-05,2.685499725032423e-05,4.2,3.0
0.45703125,3.173383055771722e-05,8.935434980544744e-05,7.519396409857324e-05,2.0991837924773e-05,4.2,3.0
0.4609375,2.8315437483787263e-05,8.740174656290529e-05,6.493878487678337e-05,8.297242049286617e-06,4.2,3.0
0.46484375,3.1247017146562884e-05,7.909917058365755e-05,5.3217815823605674e-05,1.0249845291828769e-05,4.2,3.0
0.46875,1.7086631439688696e-05,7.958598399481189e-05,5.9567788560311254e-05,9.276218469520082e-06,4.2,3.0
0.47265625,1.2202448534370923e-05,0.00010497517574578467,6.00546019714656e-05,5.8578253955901185e-06,4.2,3.0
0.4765625,2.5876020830090766e-05,8.837537338521398e-05,4.247582319066146e-05,1.4604559014266982e-06,4.2,3.0
0.48046875,4.345479961089491e-05,6.493878487678337e-05,4.736000609597921e-05,1.2202448534370923e-05,4.2,3.0
0.484375,4.247582319066146e-05,8.25175636575875e-05,6.00546019714656e-05,1.8065607859922154e-05,4.2,3.0
0.48828125,3.6618013463034995e-05,8.447016690012967e-05,6.054676498054472e-05,1.7573444850843038e-05,4.2,3.0
0.4921875,4.247582319066146e-05,7.079659460440984e-05,5.4196792243839136e-05,1.7573444850843038e-05,4.2,3.0
0.49609375,2.8807600492866383e-05,6.15203918028534e-05,4.8825795927367025e-05,1.074200830090789e-05,4.2,3.0
0.5,2.978122731517507e-05,7.372817426718544e-05,5.76151853177691e-05,9.276218469520082e-06,4.2,3.0
0.50390625,2.8315437483787263e-05,8.007279740596624e-05,6.103357839169906e-05,1.4647214785992196e-05,4.2,3.0
0.5078125,7.323615226977928e-06,4.979942274967571e-05,4.540740285343706e-05,2.0505024513618658e-05,4.2,3.0
0.51171875,1.4155051776913075e-05,4.4920589442282714e-05,4.7846819507133556e-05,2.685499725032423e-05,4.2,3.0
0.515625,3.173383055771722e-05,4.8825795927367025e-05,4.687319268482487e-05,3.173383055771722e-05,4.2,3.0
0.51953125,4.638637927367053e-05,5.712837190661476e-05,5.566258207522695e-05,3.3199620389105036e-05,4.2,3.0
0.5234375,4.0523219948119306e-05,6.347299504539556e-05,5.858881214007779e-05,4.150219636835277e-05,4.2,3.0
0.52734375,2.978122731517507e-05,4.931260933852137e-05,4.247582319066146e-05,4.687319268482487e-05,4.2,3.0
0.53125,2.4410230998702956e-05,5.76151853177691e-05,5.126521258106352e-05,3.808380329442281e-05,4.2,3.0
0.53515625,1.074200830090789e-05,6.054676498054472e-05,5.908097514915691e-05,3.710482687418934e-05,4.2,3.0
0.5390625,1.513402819714654e-05,6.103357839169906e-05,5.810199872892345e-05,3.7596989883268464e-05,4.2,3.0
0.54296875,2.2944441167315156e-05,5.810199872892345e-05,4.931260933852137e-05,2.4410230998702956e-05,4.2,3.0
0.546875,2.1970814345006458e-05,6.445197146562902e-05,5.175737559014264e-05,3.076020373540854e-05,4.2,3.0
0.55078125,2.8315437483787263e-05,6.15203918028534e-05,5.37099788326848e-05,4.198900977950711e-05,4.2,3.0
0.5546875,4.101538295719841e-05,4.296798619974056e-05,4.442842643320361e-05,3.7596989883268464e-05,4.2,3.0
0.55859375,3.368643380025938e-05,4.687319268482487e-05,4.638637927367053e-05,3.41785968093385e-05,4.2,3.0
0.5625,2.0018211102464306e-05,4.979942274967571e-05,5.4196792243839136e-05,3.7596989883268464e-05,4.2,3.0
0.56640625,2.538920741893642e-05,4.5894216264591404e-05,6.00546019714656e-05,4.540740285343706e-05,4.2,3.0
0.5703125,2.48970444098573e-05,4.247582319066146e-05,5.6149395486381295e-05,5.029158575875483e-05,4.2,3.0
0.57421875,1.8065607859922154e-05,4.736000609597921e-05,4.736000609597921e-05,4.833898251621268e-05,4.2,3.0
0.578125,2.4410230998702956e-05,5.3217815823605674e-05,4.247582319066146e-05,3.271280697795069e-05,4.2,3.0
0.58203125,4.101538295719841e-05,5.4196792243839136e-05,4.0523219948119306e-05,2.929441390402073e-05,4.2,3.0
0.5859375,3.905743011673149e-05,5.5175768664072604e-05,4.540740285343706e-05,3.9549593125810616e-05,4.2,3.0
0.58984375,2.929441390402073e-05,5.3217815823605674e-05,5.37099788326848e-05,3.6618013463034995e-05,4.2,3.0
0.59375,3.564438664072631e-05,5.76151853177691e-05,5.9567788560311254e-05,3.808380329442281e-05,4.2,3.0
0.59765625,3.564438664072631e-05,6.15203918028534e-05,6.298618163424121e-05,3.6618013463034995e-05,4.2,3.0
0.6015625,1.7086631439688696e-05,4.931260933852137e-05,5.3217815823605674e-05,3.3199620389105036e-05,4.2,3.0
0.60546875,1.2202448534370923e-05,4.101538295719841e-05,4.296798619974056e-05,2.8807600492866383e-05,4.2,3.0
0.609375,2.343660417639427e-05,4.5894216264591404e-05,4.442842643320361e-05,2.343660417639427e-05,4.2,3.0
0.61328125,2.978122731517507e-05,4.345479961089491e-05,4.442842643320361e-05,3.173383055771722e-05,4.2,3.0
0.6171875,2.1484000933852113e-05,4.0523219948119306e-05,4.0523219948119306e-05,2.8315437483787263e-05,4.2,3.0
0.62109375,1.9039234682230848e-05,4.8825795927367025e-05,3.857061670557715e-05,1.9526048093385193e-05,4.2,3.0
0.625,4.3941613022049266e-05,5.077839916990918e-05,5.126521258106352e-05,3.710482687418934e-05,4.2,3.0
0.62890625,4.638637927367053e-05,5.029158575875483e-05,5.76151853177691e-05,3.173383055771722e-05,4.2,3.0
0.6328125,1.4647214785992196e-05,4.687319268482487e-05,4.101538295719841e-05,1.1228821712062234e-05,4.2,3.0
0.63671875,4.87884897535666e-06,5.4196792243839136e-05,4.003640653696496e-05,1.8552421271076503e-05,4.2,3.0
0.640625,2.538920741893642e-05,6.00546019714656e-05,5.077839916990918e-05,3.271280697795069e-05,4.2,3.0
0.64453125,3.2225993566796346e-05,3.808380329442281e-05,4.296798619974056e-05,3.9549593125810616e-05,4.2,3.0
0.6484375,3.808380329442281e-05,3.9549593125810616e-05,4.0523219948119306e-05,3.808380329442281e-05,4.2,3.0
0.65234375,2.8315437483787263e-05,4.198900977950711e-05,3.857061670557715e-05,2.48970444098573e-05,4.2,3.0
0.65625,2.5876020830090766e-05,3.3199620389105036e-05,3.613120005188065e-05,2.6362834241245108e-05,4.2,3.0
0.66015625,3.564438664072631e-05,4.296798619974056e-05,3.9549593125810616e-05,4.4920589442282714e-05,4.2,3.0
0.6640625,3.9549593125810616e-05,4.101538295719841e-05,3.271280697795069e-05,4.198900977950711e-05,4.2,3.0
0.66796875,3.808380329442281e-05,3.6618013463034995e-05,3.3199620389105036e-05,2.7828624072632918e-05,4.2,3.0
0.671875,2.1970814345006458e-05,4.003640653696496e-05,4.442842643320361e-05,1.9526048093385193e-05,4.2,3.0
0.67578125,2.7341810661478573e-05,5.126521258106352e-05,4.442842643320361e-05,3.173383055771722e-05,4.2,3.0
0.6796875,2.8315437483787263e-05,4.4920589442282714e-05,3.7596989883268464e-05,4.003640653696496e-05,4.2,3.0
0.68359375,1.5620841608300885e-05,4.0523219948119306e-05,3.613120005188065e-05,2.685499725032423e-05,4.2,3.0
0.6875,2.7828624072632918e-05,4.5894216264591404e-05,3.9549593125810616e-05,2.7341810661478573e-05,4.2,3.0
0.69140625,1.9039234682230848e-05,3.2225993566796346e-05,3.710482687418934e-05,2.0991837924773e-05,4.2,3.0
0.6953125,1.5620841608300885e-05,3.564438664072631e-05,2.392341758754861e-05,1.6113004617380005e-05,4.2,3.0
0.69921875,3.2225993566796346e-05,4.736000609597921e-05,2.685499725032423e-05,3.368643380025938e-05,4.2,3.0
0.703125,3.466541022049284e-05,4.979942274967571e-05,3.7596989883268464e-05,4.247582319066146e-05,4.2,3.0
0.70703125,4.3941613022049266e-05,4.296798619974056e-05,3.6618013463034995e-05,3.9549593125810616e-05,4.2,3.0
0.7109375,4.8825795927367025e-05,3.7596989883268464e-05,3.710482687418934e-05,4.003640653696496e-05,4.2,3.0
0.71484375,2.4410230998702956e-05,3.3199620389105036e-05,3.271280697795069e-05,4.7846819507133556e-05,4.2,3.0
0.71875,1.9526048093385193e-05,2.48970444098573e-05,3.076020373540854e-05,4.4920589442282714e-05,4.2,3.0
0.72265625,4.247582319066146e-05,2.1970814345006458e-05,2.8315437483787263e-05,3.368643380025938e-05,4.2,3.0
0.7265625,4.979942274967571e-05,3.6618013463034995e-05,2.0991837924773e-05,2.4410230998702956e-05,4.2,3.0
0.73046875,3.564438664072631e-05,4.003640653696496e-05,1.9526048093385193e-05,1.4647214785992196e-05,4.2,3.0
0.734375,1.8552421271076503e-05,4.442842643320361e-05,2.538920741893642e-05,2.2944441167315156e-05,4.2,3.0
0.73828125,2.538920741893642e-05,3.905743011673149e-05,3.173383055771722e-05,3.6618013463034995e-05,4.2,3.0
0.7421875,3.7596989883268464e-05,2.2457627756160804e-05,3.076020373540854e-05,3.905743011673149e-05,4.2,3.0
0.74609375,3.905743011673149e-05,2.8315437483787263e-05,2.6362834241245108e-05,3.7596989883268464e-05,4.2,3.0
0.75,3.613120005188065e-05,4.101538295719841e-05,2.6362834241245108e-05,3.368643380025938e-05,4.2,3.0
0.75390625,3.0273390324254193e-05,5.029158575875483e-05,2.8807600492866383e-05,4.003640653696496e-05,4.2,3.0
0.7578125,2.1484000933852113e-05,4.638637927367053e-05,2.929441390402073e-05,4.247582319066146e-05,4.2,3.0
0.76171875,2.978122731517507e-05,3.515222363164719e-05,2.685499725032423e-05,3.710482687418934e-05,4.2,3.0
0.765625,3.710482687418934e-05,5.6149395486381295e-05,3.7596989883268464e-05,2.6362834241245108e-05,4.2,3.0
0.76953125,3.271280697795069e-05,4.4920589442282714e-05,4.198900977950711e-05,2.8807600492866383e-05,4.2,3.0
0.7734375,3.6618013463034995e-05,1.513402819714654e-05,2.538920741893642e-05,3.808380329442281e-05,4.2,3.0
0.77734375,2.5876020830090766e-05,1.4647214785992196e-05,2.8315437483787263e-05,4.0523219948119306e-05,4.2,3.0
0.78125,2.538920741893642e-05,2.685499725032423e-05,4.4920589442282714e-05,5.029158575875483e-05,4.2,3.0
0.78515625,3.710482687418934e-05,3.076020373540854e-05,4.0523219948119306e-05,5.566258207522695e-05,4.2,3.0
0.7890625,2.685499725032423e-05,2.2457627756160804e-05,3.368643380025938e-05,5.3217815823605674e-05,4.2,3.0
0.79296875,2.2944441167315156e-05,3.710482687418934e-05,3.1247017146562884e-05,5.126521258106352e-05,4.2,3.0
0.796875,2.7341810661478573e-05,3.2225993566796346e-05,3.41785968093385e-05,4.8825795927367025e-05,4.2,3.0
0.80078125,1.4647214785992196e-05,1.7573444850843038e-05,3.905743011673149e-05,4.931260933852137e-05,4.2,3.0
0.8046875,1.952618910505819e-06,2.0505024513618658e-05,4.736000609597921e-05,5.126521258106352e-05,4.2,3.0
0.80859375,2.343660417639427e-05,2.1970814345006458e-05,4.296798619974056e-05,5.126521258106352e-05,4.2,3.0
0.8125,2.929441390402073e-05,2.2944441167315156e-05,3.076020373540854e-05,4.736000609597921e-05,4.2,3.0
0.81640625,2.1484000933852113e-05,2.1484000933852113e-05,3.7596989883268464e-05,4.101538295719841e-05,4.2,3.0
0.8203125,2.48970444098573e-05,1.2694611543450044e-05,4.150219636835277e-05,3.6618013463034995e-05,4.2,3.0
0.82421875,1.7573444850843038e-05,2.2944441167315156e-05,3.466541022049284e-05,3.466541022049284e-05,4.2,3.0
0.828125,2.7828624072632918e-05,5.126521258106352e-05,3.564438664072631e-05,3.466541022049284e-05,4.2,3.0
0.83203125,2.7828624072632918e-05,3.1247017146562884e-05,3.564438664072631e-05,3.515222363164719e-05,4.2,3.0
0.8359375,2.1484000933852113e-05,2.5876020830090766e-05,3.7596989883268464e-05,3.613120005188065e-05,4.2,3.0
0.83984375,2.0018211102464306e-05,3.564438664072631e-05,4.833898251621268e-05,3.9549593125810616e-05,4.2,3.0
0.84375,1.7573444850843038e-05,1.9526048093385193e-05,3.857061670557715e-05,3.368643380025938e-05,4.2,3.0
0.84765625,2.4410230998702956e-05,2.8807600492866383e-05,3.271280697795069e-05,2.48970444098573e-05,4.2,3.0
0.8515625,3.1247017146562884e-05,4.150219636835277e-05,3.9549593125810616e-05,3.9549593125810616e-05,4.2,3.0
0.85546875,2.685499725032423e-05,3.905743011673149e-05,2.8315437483787263e-05,4.198900977950711e-05,4.2,3.0
0.859375,1.659981802853435e-05,2.0991837924773e-05,2.4410230998702956e-05,2.685499725032423e-05,4.2,3.0
0.86328125,1.8065607859922154e-05,2.6362834241245108e-05,3.515222363164719e-05,2.929441390402073e-05,4.2,3.0
0.8671875,2.2944441167315156e-05,4.736000609597921e-05,4.833898251621268e-05,3.41785968093385e-05,4.2,3.0
0.87109375,1.6113004617380005e-05,3.710482687418934e-05,5.3217815823605674e-05,4.0523219948119306e-05,4.2,3.0
0.875,1.9526048093385193e-05,2.392341758754861e-05,4.198900977950711e-05,4.979942274967571e-05,4.2,3.0
0.87890625,4.003640653696496e-05,9.763031880674425e-06,3.368643380025938e-05,3.173383055771722e-05,4.2,3.0
0.8828125,3.2225993566796346e-05,1.1228821712062234e-05,2.392341758754861e-05,1.7086631439688696e-05,4.2,3.0
0.88671875,2.4410230998702956e-05,2.8807600492866383e-05,2.5876020830090766e-05,2.7341810661478573e-05,4.2,3.0
0.890625,2.0018211102464306e-05,3.905743011673149e-05,3.564438664072631e-05,3.076020373540854e-05,4.2,3.0
0.89453125,2.0991837924773e-05,3.710482687418934e-05,3.808380329442281e-05,4.442842643320361e-05,4.2,3.0
0.8984375,2.8315437483787263e-05,3.076020373540854e-05,3.710482687418934e-05,4.638637927367053e-05,4.2,3.0
0.90234375,1.2202448534370923e-05,2.48970444098573e-05,2.0505024513618658e-05,3.076020373540854e-05,4.2,3.0
0.90625,2.392341758754861e-05,3.2225993566796346e-05,2.2944441167315156e-05,2.929441390402073e-05,4.2,3.0
0.91015625,5.273100241245133e-05,3.41785968093385e-05,3.3199620389105036e-05,2.7828624072632918e-05,4.2,3.0
0.9140625,3.515222363164719e-05,3.271280697795069e-05,3.6618013463034995e-05,3.515222363164719e-05,4.2,3.0
0.91796875,1.7573444850843038e-05,1.3668238365758731e-05,3.564438664072631e-05,4.0523219948119306e-05,4.2,3.0
0.921875,2.343660417639427e-05,-5.333929961111039e-09,2.685499725032423e-05,4.101538295719841e-05,4.2,3.0
0.92578125,2.8315437483787263e-05,2.1484000933852113e-05,3.1247017146562884e-05,4.736000609597921e-05,4.2,3.0
0.9296875,3.0273390324254193e-05,2.7341810661478573e-05,2.48970444098573e-05,4.833898251621268e-05,4.2,3.0
0.93359375,3.710482687418934e-05,2.2457627756160804e-05,2.929441390402073e-05,4.540740285343706e-05,4.2,3.0
0.9375,3.076020373540854e-05,2.343660417639427e-05,3.2225993566796346e-05,3.564438664072631e-05,4.2,3.0
0.94140625,8.297242049286617e-06,1.4155051776913075e-05,2.538920741893642e-05,3.2225993566796346e-05,4.2,3.0
0.9453125,1.8065607859922154e-05,3.710482687418934e-05,3.515222363164719e-05,3.076020373540854e-05,4.2,3.0
0.94921875,3.3199620389105036e-05,3.7596989883268464e-05,3.613120005188065e-05,2.4410230998702956e-05,4.2,3.0
0.953125,2.978122731517507e-05,2.4394323216601632e-06,2.538920741893642e-05,2.978122731517507e-05,4.2,3.0
0.95703125,3.0273390324254193e-05,6.34463880674447e-06,2.929441390402073e-05,3.173383055771722e-05,4.2,3.0
0.9609375,2.929441390402073e-05,1.4155051776913075e-05,2.1970814345006458e-05,2.8807600492866383e-05,4.2,3.0
0.96484375,3.6618013463034995e-05,2.4410230998702956e-05,1.171563512321658e-05,3.515222363164719e-05,4.2,3.0
0.96875,3.6618013463034995e-05,2.48970444098573e-05,1.2202448534370923e-05,4.003640653696496e-05,4.2,3.0
0.97265625,3.0273390324254193e-05,1.171563512321658e-05,7.323615226977928e-06,2.538920741893642e-05,4.2,3.0
0.9765625,3.0273390324254193e-05,1.9526048093385193e-05,9.763031880674425e-06,2.0505024513618658e-05,4.2,3.0
0.98046875,2.7341810661478573e-05,2.0505024513618658e-05,1.4155051776913075e-05,3.564438664072631e-05,4.2,3.0
0.984375,2.0505024513618658e-05,1.1228821712062234e-05,9.276218469520082e-06,2.7828624072632918e-05,4.2,3.0
0.98828125,2.48970444098573e-05,1.3181424954604388e-05,1.3668238365758731e-05,2.0991837924773e-05,4.2,3.0
0.9921875,3.7596989883268464e-05,1.2202448534370923e-05,3.3199620389105036e-05,3.613120005188065e-05,4.2,3.0
0.99609375,3.173383055771722e-05,2.0505024513618658e-05,3.173383055771722e-05,3.271280697795069e-05,4.2,3.0
1.0,3.271280697795069e-05,1.7086631439688696e-05,1.6113004617380005e-05,2.2944441167315156e-05,4.2,3.0
1.00390625,3.0273390324254193e-05,1.9039234682230848e-05,2.0018211102464306e-05,2.685499725032423e-05,4.2,3.0
1.0078125,1.8065607859922154e-05,2.48970444098573e-05,2.0991837924773e-05,2.343660417639427e-05,4.2,3.0
1.01171875,1.9039234682230848e-05,2.1970814345006458e-05,1.513402819714654e-05,1.7573444850843038e-05,4.2,3.0
1.015625,2.929441390402073e-05,1.8065607859922154e-05,1.4647214785992196e-05,2.538920741893642e-05,4.2,3.0
1.01953125,2.538920741893642e-05,2.4410230998702956e-05,1.9526048093385193e-05,2.978122731517507e-05,4.2,3.0
1.0234375,3.0273390324254193e-05,4.101538295719841e-05,2.7341810661478573e-05,2.929441390402073e-05,4.2,3.0
1.02734375,4.345479961089491e-05,3.271280697795069e-05,3.905743011673149e-05,3.3199620389105036e-05,4.2,3.0
1.03125,3.076020373540854e-05,1.074200830090789e-05,2.978122731517507e-05,2.929441390402073e-05,4.2,3.0
1.03515625,2.6362834241245108e-05,2.4394323216601632e-06,1.2694611543450044e-05,3.368643380025938e-05,4.2,3.0
1.0390625,3.710482687418934e-05,1.0249845291828769e-05,1.1228821712062234e-05,4.345479961089491e-05,4.2,3.0
1.04296875,4.247582319066146e-05,1.7086631439688696e-05,1.1228821712062234e-05,3.1247017146562884e-05,4.2,3.0
1.046875,4.0523219948119306e-05,1.171563512321658e-05,1.7573444850843038e-05,2.392341758754861e-05,4.2,3.0
1.05078125,4.247582319066146e-05,1.7086631439688696e-05,2.4410230998702956e-05,3.1247017146562884e-05,4.2,3.0
1.0546875,3.710482687418934e-05,2.929441390402073e-05,2.2457627756160804e-05,2.48970444098573e-05,4.2,3.0
1.05859375,3.1247017146562884e-05,3.808380329442281e-05,1.659981802853435e-05,2.685499725032423e-05,4.2,3.0
1.0625,3.710482687418934e-05,3.3199620389105036e-05,2.1970814345006458e-05,3.3199620389105036e-05,4.2,3.0
1.06640625,2.1970814345006458e-05,1.4155051776913075e-05,2.4410230998702956e-05,1.7573444850843038e-05,4.2,3.0
1.0703125,1.4647214785992196e-05,1.4155051776913075e-05,1.9526048093385193e-05,2.0991837924773e-05,4.2,3.0
1.07421875,3.173383055771722e-05,2.685499725032423e-05,1.9039234682230848e-05,4.540740285343706e-05,4.2,3.0
1.078125,2.6362834241245108e-05,2.7828624072632918e-05,1.4647214785992196e-05,4.296798619974056e-05,4.2,3.0
1.08203125,3.0273390324254193e-05,1.8065607859922154e-05,2.9262457328145072e-06,3.173383055771722e-05,4.2,3.0
1.0859375,4.345479961089491e-05,9.763031880674425e-06,1.0249845291828769e-05,3.2225993566796346e-05,4.2,3.0
1.08984375,4.101538295719841e-05,8.297242049286617e-06,2.343660417639427e-05,3.564438664072631e-05,4.2,3.0
1.09375,3.515222363164719e-05,7.323615226977928e-06,1.171563512321658e-05,3.564438664072631e-05,4.2,3.0
1.09765625,2.978122731517507e-05,7.810428638132272e-06,7.810428638132272e-06,2.929441390402073e-05,4.2,3.0
1.1015625,3.2225993566796346e-05,1.1228821712062234e-05,2.0018211102464306e-05,2.4410230998702956e-05,4.2,3.0
1.10546875,2.0991837924773e-05,1.7086631439688696e-05,1.9526048093385193e-05,2.4410230998702956e-05,4.2,3.0
1.109375,1.3668238365758731e-05,3.271280697795069e-05,1.8065607859922154e-05,3.857061670557715e-05,4.2,3.0
1.11328125,1.8552421271076503e-05,2.685499725032423e-05,1.8552421271076503e-05,3.857061670557715e-05,4.2,3.0
1.1171875,2.48970444098573e-05,8.784055460440967e-06,1.2694611543450044e-05,2.929441390402073e-05,4.2,3.0
1.12109375,4.150219636835277e-05,1.6113004617380005e-05,1.9039234682230848e-05,3.564438664072631e-05,4.2,3.0
1.125,3.613120005188065e-05,2.7341810661478573e-05,2.7828624072632918e-05,3.2225993566796346e-05,4.2,3.0
1.12890625,2.7828624072632918e-05,2.538920741893642e-05,2.8807600492866383e-05,3.515222363164719e-05,4.2,3.0
1.1328125,2.4410230998702956e-05,3.710482687418934e-05,2.0018211102464306e-05,3.613120005188065e-05,4.2,3.0
1.13671875,3.271280697795069e-05,4.7846819507133556e-05,2.685499725032423e-05,3.564438664072631e-05,4.2,3.0
1.140625,4.198900977950711e-05,2.343660417639427e-05,3.2225993566796346e-05,2.7828624072632918e-05,4.2,3.0
1.14453125,3.0273390324254193e-05,1.9039234682230848e-05,1.4647214785992196e-05,1.8552421271076503e-05,4.2,3.0
1.1484375,2.392341758754861e-05,1.8552421271076503e-05,1.8552421271076503e-05,2.8807600492866383e-05,4.2,3.0
1.15234375,2.929441390402073e-05,1.9526048093385193e-05,3.0273390324254193e-05,4.101538295719841e-05,4.2,3.0
1.15625,3.271280697795069e-05,1.6113004617380005e-05,2.0018211102464306e-05,3.271280697795069e-05,4.2,3.0
1.16015625,2.6362834241245108e-05,1.8065607859922154e-05,2.4394323216601632e-06,1.9039234682230848e-05,4.2,3.0
1.1640625,2.2944441167315156e-05,4.345479961089491e-05,1.6113004617380005e-05,2.978122731517507e-05,4.2,3.0
1.16796875,2.343660417639427e-05,3.3199620389105036e-05,2.4410230998702956e-05,3.515222363164719e-05,4.2,3.0
1.171875,3.41785968093385e-05,1.6113004617380005e-05,1.074200830090789e-05,3.41785968093385e-05,4.2,3.0
1.17578125,3.0273390324254193e-05,2.8807600492866383e-05,1.2694611543450044e-05,3.466541022049284e-05,4.2,3.0
1.1796875,2.7341810661478573e-05,2.8315437483787263e-05,1.7086631439688696e-05,2.0505024513618658e-05,4.2,3.0
1.18359375,3.368643380025938e-05,1.2202448534370923e-05,1.6113004617380005e-05,2.8315437483787263e-05,4.2,3.0
1.1875,3.1247017146562884e-05,2.2457627756160804e-05,2.7828624072632918e-05,4.979942274967571e-05,4.2,3.0
1.19140625,3.857061670557715e-05,3.0273390324254193e-05,3.710482687418934e-05,5.029158575875483e-05,4.2,3.0
1.1953125,3.613120005188065e-05,1.6113004617380005e-05,3.0273390324254193e-05,4.345479961089491e-05,4.2,3.0
1.19921875,1.659981802853435e-05,7.810428638132272e-06,2.0018211102464306e-05,2.5876020830090766e-05,4.2,3.0
1.203125,1.4155051776913075e-05,4.392035564202317e-06,3.4130591439688512e-06,2.978122731517507e-05,4.2,3.0
1.20703125,2.4410230998702956e-05,1.171563512321658e-05,4.392035564202317e-06,3.808380329442281e-05,4.2,3.0
1.2109375,2.2944441167315156e-05,2.5876020830090766e-05,1.5620841608300885e-05,2.8315437483787263e-05,4.2,3.0
1.21484375,2.343660417639427e-05,1.9526048093385193e-05,1.659981802853435e-05,2.48970444098573e-05,4.2,3.0
1.21875,2.978122731517507e-05,1.7573444850843038e-05,1.3181424954604388e-05,2.4410230998702956e-05,4.2,3.0
1.22265625,3.857061670557715e-05,1.9039234682230848e-05,2.1970814345006458e-05,3.173383055771722e-05,4.2,3.0
1.2265625,3.515222363164719e-05,3.0273390324254193e-05,2.538920741893642e-05,4.101538295719841e-05,4.2,3.0
1.23046875,2.6362834241245108e-05,2.978122731517507e-05,1.8552421271076503e-05,4.247582319066146e-05,4.2,3.0
1.234375,2.0991837924773e-05,3.4130591439688512e-06,1.7086631439688696e-05,3.3199620389105036e-05,4.2,3.0
1.23828125,2.0018211102464306e-05,1.0249845291828769e-05,2.7341810661478573e-05,2.8807600492866383e-05,4.2,3.0
1.2421875,2.1970814345006458e-05,1.8552421271076503e-05,2.929441390402073e-05,1.7573444850843038e-05,4.2,3.0
1.24609375,1.9526048093385193e-05,6.831452217898814e-06,1.2694611543450044e-05,8.784055460440967e-06,4.2,3.0
1.25,1.7573444850843038e-05,2.2457627756160804e-05,1.7573444850843038e-05,2.4410230998702956e-05,4.2,3.0
1.25390625,3.271280697795069e-05,2.8807600492866383e-05,2.0505024513618658e-05,1.9526048093385193e-05,4.2,3.0
1.2578125,3.466541022049284e-05,1.7573444850843038e-05,1.513402819714654e-05,2.4410230998702956e-05,4.2,3.0
1.26171875,2.6362834241245108e-05,9.276218469520082e-06,2.1970814345006458e-05,5.37099788326848e-05,4.2,3.0
1.265625,2.929441390402073e-05,9.736424902723542e-07,1.7086631439688696e-05,3.905743011673149e-05,4.2,3.0
1.26953125,2.0991837924773e-05,4.868290791180101e-07,1.0249845291828769e-05,2.2457627756160804e-05,4.2,3.0
1.2734375,2.7828624072632918e-05,1.9039234682230848e-05,1.8065607859922154e-05,2.2457627756160804e-05,4.2,3.0
1.27734375,3.564438664072631e-05,2.929441390402073e-05,1.7086631439688696e-05,1.171563512321658e-05,4.2,3.0
1.28125,2.0505024513618658e-05,1.9039234682230848e-05,1.5620841608300885e-05,1.2694611543450044e-05,4.2,3.0
1.28515625,9.276218469520082e-06,1.4647214785992196e-05,1.8552421271076503e-05,2.538920741893642e-05,4.2,3.0
1.2890625,2.5876020830090766e-05,2.5876020830090766e-05,2.5876020830090766e-05,3.6618013463034995e-05,4.2,3.0
1.29296875,4.638637927367053e-05,2.8315437483787263e-05,3.368643380025938e-05,3.564438664072631e-05,4.2,3.0
1.296875,3.857061670557715e-05,8.297242049286617e-06,2.0991837924773e-05,2.5876020830090766e-05,4.2,3.0
1.30078125,2.1970814345006458e-05,5.371011984435775e-06,2.0505024513618658e-05,3.368643380025938e-05,4.2,3.0
1.3046875,2.5876020830090766e-05,6.831452217898814e-06,1.659981802853435e-05,2.6362834241245108e-05,4.2,3.0
1.30859375,2.48970444098573e-05,2.48970444098573e-05,1.7086631439688696e-05,1.659981802853435e-05,4.2,3.0
1.3125,1.1228821712062234e-05,2.343660417639427e-05,2.0018211102464306e-05,2.2944441167315156e-05,4.2,3.0
1.31640625,2.2457627756160804e-05,4.392035564202317e-06,1.513402819714654e-05,3.0273390324254193e-05,4.2,3.0
1.3203125,2.0505024513618658e-05,2.392341758754861e-05,2.48970444098573e-05,3.0273390324254193e-05,4.2,3.0
1.32421875,2.7828624072632918e-05,1.9526048093385193e-05,2.1970814345006458e-05,3.2225993566796346e-05,4.2,3.0
1.328125,3.613120005188065e-05,4.392035564202317e-06,2.929441390402073e-05,2.48970444098573e-05,4.2,3.0
1.33203125,3.7596989883268464e-05,2.8807600492866383e-05,4.247582319066146e-05,2.2944441167315156e-05,4.2,3.0
1.3359375,4.833898251621268e-05,1.9526048093385193e-05,2.1484000933852113e-05,3.3199620389105036e-05,4.2,3.0
1.33984375,3.076020373540854e-05,-4.884167237354106e-06,6.831452217898814e-06,2.685499725032423e-05,4.2,3.0
1.34375,2.48970444098573e-05,9.763031880674425e-06,1.659981802853435e-05,2.6362834241245108e-05,4.2,3.0
1.34765625,2.0991837924773e-05,7.323615226977928e-06,1.2202448534370923e-05,1.2694611543450044e-05,4.2,3.0
1.3515625,2.8315437483787263e-05,8.297242049286617e-06,9.276218469520082e-06,4.868290791180101e-07,4.2,3.0
1.35546875,1.9039234682230848e-05,2.1970814345006458e-05,1.4155051776913075e-05,1.2202448534370923e-05,4.2,3.0
1.359375,1.2694611543450044e-05,1.2202448534370923e-05,2.9262457328145072e-06,1.171563512321658e-05,4.2,3.0
1.36328125,4.296798619974056e-05,1.3181424954604388e-05,4.87884897535666e-06,5.371011984435775e-06,4.2,3.0
1.3671875,5.077839916990918e-05,2.2457627756160804e-05,1.7573444850843038e-05,1.2202448534370923e-05,4.2,3.0
1.37109375,3.515222363164719e-05,1.1228821712062234e-05,1.2202448534370923e-05,2.0505024513618658e-05,4.2,3.0
1.375,3.368643380025938e-05,1.2202448534370923e-05,1.4155051776913075e-05,2.4410230998702956e-05,4.2,3.0
1.37890625,3.6618013463034995e-05,1.8065607859922154e-05,1.7573444850843038e-05,1.513402819714654e-05,4.2,3.0
1.3828125,2.2457627756160804e-05,1.7573444850843038e-05,1.1228821712062234e-05,1.0249845291828769e-05,4.2,3.0
1.38671875,9.763031880674425e-06,2.1970814345006458e-05,1.3181424954604388e-05,9.276218469520082e-06,4.2,3.0
1.390625,2.343660417639427e-05,2.343660417639427e-05,1.4647214785992196e-05,8.297242049286617e-06,4.2,3.0
1.39453125,3.613120005188065e-05,1.9526048093385193e-05,1.3668238365758731e-05,1.6113004617380005e-05,4.2,3.0
1.3984375,3.271280697795069e-05,1.7573444850843038e-05,2.0505024513618658e-05,2.0018211102464306e-05,4.2,3.0
1.40234375,2.48970444098573e-05,2.0018211102464306e-05,2.4410230998702956e-05,1.4647214785992196e-05,4.2,3.0
1.40625,3.1247017146562884e-05,2.8315437483787263e-05,1.5620841608300885e-05,1.7086631439688696e-05,4.2,3.0
1.41015625,3.0273390324254193e-05,4.833898251621268e-05,1.7573444850843038e-05,1.8552421271076503e-05,4.2,3.0
1.4140625,2.2944441167315156e-05,3.6618013463034995e-05,2.392341758754861e-05,1.513402819714654e-05,4.2,3.0
1.41796875,3.271280697795069e-05,1.7086631439688696e-05,1.8552421271076503e-05,1.3668238365758731e-05,4.2,3.0
1.421875,3.7596989883268464e-05,2.343660417639427e-05,2.343660417639427e-05,5.371011984435775e-06,4.2,3.0
1.42578125,3.6618013463034995e-05,3.41785968093385e-05,3.41785968093385e-05,1.7573444850843038e-05,4.2,3.0
1.4296875,3.076020373540854e-05,2.8807600492866383e-05,2.343660417639427e-05,2.8807600492866383e-05,4.2,3.0
1.43359375,3.515222363164719e-05,2.48970444098573e-05,2.0991837924773e-05,2.2457627756160804e-05,4.2,3.0
1.4375,3.2225993566796346e-05,3.3199620389105036e-05,2.392341758754861e-05,2.8315437483787263e-05,4.2,3.0
1.44140625,1.4647214785992196e-05,2.929441390402073e-05,2.929441390402073e-05,1.6113004617380005e-05,4.2,3.0
1.4453125,1.9039234682230848e-05,2.685499725032423e-05,2.343660417639427e-05,7.810428638132272e-06,4.2,3.0
1.44921875,3.515222363164719e-05,2.4410230998702956e-05,1.8065607859922154e-05,3.41785968093385e-05,4.2,3.0
1.453125,3.710482687418934e-05,1.3181424954604388e-05,2.0018211102464306e-05,5.029158575875483e-05,4.2,3.0
1.45703125,3.857061670557715e-05,2.1970814345006458e-05,2.2944441167315156e-05,4.7846819507133556e-05,4.2,3.0
1.4609375,4.296798619974056e-05,2.0505024513618658e-05,1.9039234682230848e-05,3.613120005188065e-05,4.2,3.0
1.46484375,4.101538295719841e-05,1.5620841608300885e-05,1.0249845291828769e-05,3.905743011673149e-05,4.2,3.0
1.46875,2.929441390402073e-05,7.323615226977928e-06,4.868290791180101e-07,3.0273390324254193e-05,4.2,3.0
1.47265625,1.659981802853435e-05,-3.4183774059662963e-06,-1.1720953385214026e-05,2.0018211102464306e-05,4.2,3.0
1.4765625,1.8552421271076503e-05,-1.4657741634241433e-06,-1.2207766796368372e-05,2.8315437483787263e-05,4.2,3.0
1.48046875,2.392341758754861e-05,-1.2699929805447488e-05,-2.0997156186770445e-05,2.685499725032423e-05,4.2,3.0
1.484375,2.6362834241245108e-05,-3.223131182879379e-05,-3.61365183138781e-05,4.8825795927367025e-05,4.2,3.0
1.48828125,1.659981802853435e-05,-5.761515398184177e-05,-6.445194012970169e-05,5.9567788560311254e-05,4.2,3.0
1.4921875,2.0505024513618658e-05,-7.079656326848249e-05,-6.933077343709469e-05,7.470180108949414e-05,4.2,3.0
1.49609375,2.8807600492866383e-05,-9.082010830090792e-05,-8.251753232166018e-05,9.032797662775613e-05,4.2,3.0
1.5,2.7341810661478573e-05,-0.00012987752274967572,-0.0001284170825162127,8.25175636575875e-05,4.2,3.0
1.50390625,3.613120005188065e-05,-0.00015575887750972762,-0.00015380627426718547,8.25175636575875e-05,4.2,3.0
1.5078125,2.6362834241245108e-05,-0.0001581982941634241,-0.00016406145348897536,8.740174656290529e-05,4.2,3.0
1.51171875,1.7573444850843038e-05,-0.00017675604936446174,-0.0001826138590920882,9.423318311284043e-05,4.2,3.0
1.515625,1.4155051776913075e-05,-0.00019628743138780803,-0.00019872684804150451,9.130695304798959e-05,4.2,3.0
1.51953125,1.1228821712062234e-05,-0.0001855454387548638,-0.00019238222490272373,9.130695304798959e-05,4.2,3.0
1.5234375,2.8315437483787263e-05,-0.00017968227942931258,-0.0001855454387548638,8.935434980544744e-05,4.2,3.0
1.52734375,5.029158575875483e-05,-0.0001606430604150454,-0.00018212704568093386,8.935434980544744e-05,4.2,3.0
1.53125,4.979942274967571e-05,-0.00015087469460440986,-0.00017040607662775615,0.00010644096557717248,4.2,3.0
1.53515625,2.7828624072632918e-05,-0.00016991926321660182,-0.00016112987382619972,0.00010937254523994809,4.2,3.0
1.5390625,1.6113004617380005e-05,-0.00016161668723735408,-0.000168453473385214,9.814373919584952e-05,4.2,3.0
1.54296875,2.48970444098573e-05,-0.00014501688487678337,-0.0001645482669001297,8.935434980544744e-05,4.2,3.0
1.546875,3.613120005188065e-05,-0.00013769328531776915,-0.0001352538686640726,8.935434980544744e-05,4.2,3.0
1.55078125,2.538920741893642e-05,-0.0001269512926848249,-0.0001230460861997406,8.740174656290529e-05,4.2,3.0
1.5546875,3.1247017146562884e-05,-0.00011474351022049286,-0.00011425669680933851,6.542559828793771e-05,4.2,3.0
1.55859375,4.540740285343706e-05,-9.17937351232166e-05,-8.935431846952011e-05,5.37099788326848e-05,4.2,3.0
1.5625,3.710482687418934e-05,-8.251753232166018e-05,-8.056492907911802e-05,5.029158575875483e-05,4.2,3.0
1.56640625,2.5876020830090766e-05,-6.152036046692608e-05,-6.152036046692608e-05,4.247582319066146e-05,4.2,3.0
1.5703125,2.8315437483787263e-05,-2.9299732166018174e-05,-3.76023081452659e-05,5.126521258106352e-05,4.2,3.0
1.57421875,3.564438664072631e-05,-2.3441922438391717e-05,-3.027870858625164e-05,4.0523219948119306e-05,4.2,3.0
1.578125,3.905743011673149e-05,-1.611832287937745e-05,-1.9044552944228293e-05,2.1970814345006458e-05,4.2,3.0
1.58203125,4.540740285343706e-05,4.392035564202317e-06,1.4604559014266982e-06,1.2694611543450044e-05,4.2,3.0
1.5859375,4.0523219948119306e-05,2.929441390402073e-05,2.0018211102464306e-05,1.4155051776913075e-05,4.2,3.0
1.58984375,1.4155051776913075e-05,2.978122731517507e-05,1.7086631439688696e-05,1.2202448534370923e-05,4.2,3.0
1.59375,1.6113004617380005e-05,2.0018211102464306e-05,1.6113004617380005e-05,8.784055460440967e-06,4.2,3.0
1.59765625,3.466541022049284e-05,4.833898251621268e-05,3.905743011673149e-05,1.3668238365758731e-05,4.2,3.0
1.6015625,3.466541022049284e-05,6.787036453955899e-05,4.736000609597921e-05,5.371011984435775e-06,4.2,3.0
1.60546875,3.271280697795069e-05,5.5175768664072604e-05,4.540740285343706e-05,8.784055460440967e-06,4.2,3.0
1.609375,2.6362834241245108e-05,5.908097514915691e-05,6.39598084565499e-05,1.9039234682230848e-05,4.2,3.0
1.61328125,2.8807600492866383e-05,5.9567788560311254e-05,7.274919784695199e-05,1.2202448534370923e-05,4.2,3.0
1.6171875,3.271280697795069e-05,5.5175768664072604e-05,8.10517738261997e-05,6.831452217898814e-06,4.2,3.0
1.62109375,3.6618013463034995e-05,7.42149876783398e-05,8.642277014267182e-05,1.0249845291828769e-05,4.2,3.0
1.625,2.685499725032423e-05,8.007279740596624e-05,8.4956980311284e-05,1.659981802853435e-05,4.2,3.0
1.62890625,2.392341758754861e-05,8.153858723735404e-05,8.203075024643317e-05,9.763031880674425e-06,4.2,3.0
1.6328125,4.150219636835277e-05,8.886218679636832e-05,6.591776129701684e-05,1.952618910505819e-06,4.2,3.0
1.63671875,4.296798619974056e-05,9.569897294422824e-05,6.787036453955899e-05,1.3668238365758731e-05,4.2,3.0
1.640625,2.685499725032423e-05,8.788855997405963e-05,7.42149876783398e-05,1.3668238365758731e-05,4.2,3.0
1.64453125,1.4647214785992196e-05,7.226238443579764e-05,7.519396409857324e-05,7.810428638132272e-06,4.2,3.0
1.6484375,1.8065607859922154e-05,8.10517738261997e-05,7.909917058365755e-05,1.2202448534370923e-05,4.2,3.0
1.65234375,3.1247017146562884e-05,9.960417942931254e-05,8.593595673151748e-05,1.6113004617380005e-05,4.2,3.0
1.65625,4.247582319066146e-05,9.228057987029828e-05,8.788855997405963e-05,1.3668238365758731e-05,4.2,3.0
1.66015625,4.150219636835277e-05,7.519396409857324e-05,8.690958355382617e-05,4.868290791180101e-07,4.2,3.0
1.6640625,1.8552421271076503e-05,8.10517738261997e-05,8.4956980311284e-05,-5.3763302464332196e-06,4.2,3.0
1.66796875,1.3181424954604388e-05,8.593595673151748e-05,8.398335348897533e-05,2.9262457328145072e-06,4.2,3.0
1.671875,2.6362834241245108e-05,8.642277014267182e-05,8.788855997405963e-05,1.513402819714654e-05,4.2,3.0
1.67578125,2.6362834241245108e-05,8.203075024643317e-05,9.27727428793774e-05,1.2694611543450044e-05,4.2,3.0
1.6796875,3.7596989883268464e-05,8.153858723735404e-05,9.374636970168609e-05,1.171563512321658e-05,4.2,3.0
1.68359375,3.7596989883268464e-05,8.690958355382617e-05,9.27727428793774e-05,2.0018211102464306e-05,4.2,3.0
1.6875,3.41785968093385e-05,7.030978119325549e-05,9.032797662775613e-05,2.0018211102464306e-05,4.2,3.0
1.69140625,4.3941613022049266e-05,6.835717795071334e-05,9.569897294422824e-05,1.5620841608300885e-05,4.2,3.0
1.6953125,4.150219636835277e-05,7.079659460440984e-05,8.837537338521398e-05,1.7086631439688696e-05,4.2,3.0
1.69921875,3.564438664072631e-05,7.274919784695199e-05,7.665975392996105e-05,1.513402819714654e-05,4.2,3.0
1.703125,2.929441390402073e-05,7.665975392996105e-05,7.763338075226974e-05,6.831452217898814e-06,4.2,3.0
1.70703125,9.276218469520082e-06,6.493878487678337e-05,7.17755710246433e-05,4.87884897535666e-06,4.2,3.0
1.7109375,1.0249845291828769e-05,6.591776129701684e-05,6.933080477302201e-05,1.3668238365758731e-05,4.2,3.0
1.71484375,2.978122731517507e-05,8.056496041504535e-05,8.300437706874185e-05,2.2944441167315156e-05,4.2,3.0
1.71875,3.515222363164719e-05,8.984116321660178e-05,8.398335348897533e-05,2.1484000933852113e-05,4.2,3.0
1.72265625,4.736000609597921e-05,8.788855997405963e-05,8.056496041504535e-05,2.0505024513618658e-05,4.2,3.0
1.7265625,5.5175768664072604e-05,7.86123571725032e-05,8.203075024643317e-05,2.7341810661478573e-05,4.2,3.0
1.73046875,5.712837190661476e-05,8.690958355382617e-05,8.10517738261997e-05,3.857061670557715e-05,4.2,3.0
1.734375,4.247582319066146e-05,7.568077750972759e-05,7.42149876783398e-05,3.076020373540854e-05,4.2,3.0
1.73828125,1.7086631439688696e-05,5.37099788326848e-05,6.39598084565499e-05,7.810428638132272e-06,4.2,3.0
1.7421875,2.4410230998702956e-05,6.347299504539556e-05,6.884399136186768e-05,8.784055460440967e-06,4.2,3.0
1.74609375,3.7596989883268464e-05,6.884399136186768e-05,6.591776129701684e-05,1.6113004617380005e-05,4.2,3.0
1.75,2.392341758754861e-05,5.077839916990918e-05,6.054676498054472e-05,1.171563512321658e-05,4.2,3.0
1.75390625,2.7341810661478573e-05,4.8825795927367025e-05,5.468360565499348e-05,1.6113004617380005e-05,4.2,3.0
1.7578125,4.5894216264591404e-05,5.273100241245133e-05,4.931260933852137e-05,1.513402819714654e-05,4.2,3.0
1.76171875,4.979942274967571e-05,5.6636208897535633e-05,5.077839916990918e-05,4.392035564202317e-06,4.2,3.0
1.765625,5.126521258106352e-05,4.979942274967571e-05,5.126521258106352e-05,1.9526048093385193e-05,4.2,3.0
1.76953125,3.710482687418934e-05,5.029158575875483e-05,5.566258207522695e-05,2.8807600492866383e-05,4.2,3.0
1.7734375,2.7341810661478573e-05,4.296798619974056e-05,4.3941613022049266e-05,9.763031880674425e-06,4.2,3.0
1.77734375,2.2457627756160804e-05,3.515222363164719e-05,3.808380329442281e-05,7.810428638132272e-06,4.2,3.0
1.78125,1.659981802853435e-05,4.4920589442282714e-05,4.540740285343706e-05,7.323615226977928e-06,4.2,3.0
1.78515625,2.0505024513618658e-05,4.638637927367053e-05,4.101538295719841e-05,1.171563512321658e-05,4.2,3.0
1.7890625,3.613120005188065e-05,4.3941613022049266e-05,4.296798619974056e-05,1.8552421271076503e-05,4.2,3.0
1.79296875,4.3941613022049266e-05,6.689138811932552e-05,5.5175768664072604e-05,2.7341810661478573e-05,4.2,3.0
1.796875,3.6618013463034995e-05,7.71465673411154e-05,5.76151853177691e-05,3.271280697795069e-05,4.2,3.0
1.80078125,4.638637927367053e-05,4.198900977950711e-05,5.6149395486381295e-05,2.4410230998702956e-05,4.2,3.0
1.8046875,4.979942274967571e-05,2.7828624072632918e-05,4.736000609597921e-05,2.2457627756160804e-05,4.2,3.0
1.80859375,2.5876020830090766e-05,4.247582319066146e-05,4.442842643320361e-05,2.392341758754861e-05,4.2,3.0
1.8125,2.5876020830090766e-05,6.103357839169906e-05,5.712837190661476e-05,2.5876020830090766e-05,4.2,3.0
1.81640625,3.173383055771722e-05,5.9567788560311254e-05,6.347299504539556e-05,2.5876020830090766e-05,4.2,3.0
1.8203125,2.7341810661478573e-05,4.247582319066146e-05,5.126521258106352e-05,1.5620841608300885e-05,4.2,3.0
1.82421875,3.7596989883268464e-05,3.076020373540854e-05,3.710482687418934e-05,1.9039234682230848e-05,4.2,3.0
1.828125,3.466541022049284e-05,3.808380329442281e-05,3.613120005188065e-05,3.076020373540854e-05,4.2,3.0
1.83203125,3.515222363164719e-05,2.2457627756160804e-05,4.101538295719841e-05,3.857061670557715e-05,4.2,3.0
1.8359375,4.150219636835277e-05,2.343660417639427e-05,3.9549593125810616e-05,3.3199620389105036e-05,4.2,3.0
1.83984375,8.297242049286617e-06,4.5894216264591404e-05,3.808380329442281e-05,1.6113004617380005e-05,4.2,3.0
1.84375,6.831452217898814e-06,5.468360565499348e-05,3.515222363164719e-05,1.8065607859922154e-05,4.2,3.0
1.84765625,4.833898251621268e-05,5.468360565499348e-05,3.173383055771722e-05,3.076020373540854e-05,4.2,3.0
1.8515625,4.101538295719841e-05,4.687319268482487e-05,2.8807600492866383e-05,3.076020373540854e-05,4.2,3.0
1.85546875,3.564438664072631e-05,2.8315437483787263e-05,3.466541022049284e-05,1.7573444850843038e-05,4.2,3.0
1.859375,4.003640653696496e-05,4.868290791180101e-07,3.466541022049284e-05,1.171563512321658e-05,4.2,3.0
1.86328125,3.41785968093385e-05,2.4394323216601632e-06,2.0505024513618658e-05,1.3181424954604388e-05,4.2,3.0
1.8671875,3.271280697795069e-05,2.1970814345006458e-05,1.5620841608300885e-05,1.5620841608300885e-05,4.2,3.0
1.87109375,2.5876020830090766e-05,1.9526048093385193e-05,2.538920741893642e-05,2.7828624072632918e-05,4.2,3.0
1.875,2.4410230998702956e-05,3.368643380025938e-05,3.41785968093385e-05,4.003640653696496e-05,4.2,3.0
1.87890625,2.343660417639427e-05,3.9549593125810616e-05,3.0273390324254193e-05,3.515222363164719e-05,4.2,3.0
1.8828125,2.1484000933852113e-05,3.9549593125810616e-05,2.1484000933852113e-05,2.0991837924773e-05,4.2,3.0
1.88671875,2.978122731517507e-05,4.7846819507133556e-05,2.929441390402073e-05,2.48970444098573e-05,4.2,3.0
1.890625,3.515222363164719e-05,2.6362834241245108e-05,3.9549593125810616e-05,3.2225993566796346e-05,4.2,3.0
1.89453125,3.076020373540854e-05,3.1247017146562884e-05,3.808380329442281e-05,2.8807600492866383e-05,4.2,3.0
1.8984375,1.2202448534370923e-05,4.3941613022049266e-05,3.368643380025938e-05,3.0273390324254193e-05,4.2,3.0
1.90234375,1.659981802853435e-05,2.48970444098573e-05,3.271280697795069e-05,3.0273390324254193e-05,4.2,3.0
1.90625,4.7846819507133556e-05,2.685499725032423e-05,3.710482687418934e-05,3.3199620389105036e-05,4.2,3.0
1.91015625,5.029158575875483e-05,4.003640653696496e-05,4.5894216264591404e-05,3.857061670557715e-05,4.2,3.0
1.9140625,3.1247017146562884e-05,2.7828624072632918e-05,3.808380329442281e-05,3.857061670557715e-05,4.2,3.0
1.91796875,3.173383055771722e-05,4.3941613022049266e-05,3.368643380025938e-05,3.613120005188065e-05,4.2,3.0
1.921875,3.808380329442281e-05,4.736000609597921e-05,4.3941613022049266e-05,3.857061670557715e-05,4.2,3.0
1.92578125,2.4410230998702956e-05,3.076020373540854e-05,4.638637927367053e-05,4.3941613022049266e-05,4.2,3.0
1.9296875,2.2457627756160804e-05,3.368643380025938e-05,4.198900977950711e-05,3.7596989883268464e-05,4.2,3.0
1.93359375,2.6362834241245108e-05,3.466541022049284e-05,4.150219636835277e-05,3.173383055771722e-05,4.2,3.0
1.9375,2.685499725032423e-05,3.41785968093385e-05,4.540740285343706e-05,4.247582319066146e-05,4.2,3.0
1.94140625,3.9549593125810616e-05,2.685499725032423e-05,3.808380329442281e-05,4.198900977950711e-05,4.2,3.0
1.9453125,3.710482687418934e-05,2.8315437483787263e-05,2.8315437483787263e-05,2.7828624072632918e-05,4.2,3.0
1.94921875,2.5876020830090766e-05,3.6618013463034995e-05,3.613120005188065e-05,3.3199620389105036e-05,4.2,3.0
1.953125,2.392341758754861e-05,2.8315437483787263e-05,4.247582319066146e-05,4.3941613022049266e-05,4.2,3.0
1.95703125,1.4155051776913075e-05,2.2457627756160804e-05,4.638637927367053e-05,4.8825795927367025e-05,4.2,3.0
1.9609375,2.7341810661478573e-05,3.857061670557715e-05,5.273100241245133e-05,4.247582319066146e-05,4.2,3.0
1.96484375,4.003640653696496e-05,4.7846819507133556e-05,4.0523219948119306e-05,3.3199620389105036e-05,4.2,3.0
1.96875,3.857061670557715e-05,2.5876020830090766e-05,2.4410230998702956e-05,2.6362834241245108e-05,4.2,3.0
1.97265625,3.808380329442281e-05,2.0505024513618658e-05,3.2225993566796346e-05,2.8807600492866383e-05,4.2,3.0
1.9765625,3.0273390324254193e-05,3.905743011673149e-05,5.029158575875483e-05,4.0523219948119306e-05,4.2,3.0
1.98046875,3.41785968093385e-05,4.247582319066146e-05,4.150219636835277e-05,3.6618013463034995e-05,4.2,3.0
1.984375,2.0018211102464306e-05,2.8315437483787263e-05,3.173383055771722e-05,2.6362834241245108e-05,4.2,3.0
1.98828125,1.2202448534370923e-05,2.2457627756160804e-05,4.345479961089491e-05,2.0991837924773e-05,4.2,3.0
1.9921875,2.8315437483787263e-05,1.9526048093385193e-05,5.273100241245133e-05,2.392341758754861e-05,4.2,3.0
1.99609375,2.8807600492866383e-05,2.6362834241245108e-05,4.4920589442282714e-05,2.343660417639427e-05,4.2,3.0
2.0,1.9526048093385193e-05,2.5876020830090766e-05,4.198900977950711e-05,2.8315437483787263e-05,4.2,3.0
2.00390625,4.247582319066146e-05,1.9039234682230848e-05,4.003640653696496e-05,3.905743011673149e-05,4.2,3.0
2.0078125,4.150219636835277e-05,1.7086631439688696e-05,2.1484000933852113e-05,2.48970444098573e-05,4.2,3.0
2.01171875,4.003640653696496e-05,2.343660417639427e-05,2.978122731517507e-05,2.2944441167315156e-05,4.2,3.0
2.015625,3.466541022049284e-05,4.8825795927367025e-05,5.858881214007779e-05,3.271280697795069e-05,4.2,3.0
2.01953125,1.8552421271076503e-05,2.8807600492866383e-05,4.7846819507133556e-05,4.931260933852137e-05,4.2,3.0
2.0234375,2.8315437483787263e-05,-6.349957068741915e-06,2.8315437483787263e-05,4.4920589442282714e-05,4.2,3.0
2.02734375,3.271280697795069e-05,2.343660417639427e-05,4.687319268482487e-05,3.368643380025938e-05,4.2,3.0
2.03125,2.8807600492866383e-05,3.3199620389105036e-05,5.273100241245133e-05,4.198900977950711e-05,4.2,3.0
2.03515625,3.1247017146562884e-05,9.763031880674425e-06,4.345479961089491e-05,5.273100241245133e-05,4.2,3.0
2.0390625,3.564438664072631e-05,1.513402819714654e-05,4.296798619974056e-05,5.2244189001296984e-05,4.2,3.0
2.04296875,3.3199620389105036e-05,3.076020373540854e-05,4.247582319066146e-05,4.4920589442282714e-05,4.2,3.0
2.046875,2.8315437483787263e-05,3.271280697795069e-05,5.126521258106352e-05,5.029158575875483e-05,4.2,3.0
2.05078125,1.513402819714654e-05,3.1247017146562884e-05,5.858881214007779e-05,5.3217815823605674e-05,4.2,3.0
2.0546875,1.3181424954604388e-05,2.7828624072632918e-05,4.5894216264591404e-05,4.345479961089491e-05,4.2,3.0
2.05859375,2.1484000933852113e-05,2.6362834241245108e-05,4.198900977950711e-05,3.9549593125810616e-05,4.2,3.0
2.0625,2.5876020830090766e-05,4.247582319066146e-05,4.7846819507133556e-05,4.296798619974056e-05,4.2,3.0
2.06640625,1.9039234682230848e-05,2.8807600492866383e-05,3.613120005188065e-05,4.150219636835277e-05,4.2,3.0
2.0703125,2.8315437483787263e-05,1.513402819714654e-05,3.6618013463034995e-05,3.905743011673149e-05,4.2,3.0
2.07421875,2.48970444098573e-05,9.736424902723542e-07,4.5894216264591404e-05,4.833898251621268e-05,4.2,3.0
2.078125,2.2944441167315156e-05,-9.78960752269799e-07,4.638637927367053e-05,4.247582319066146e-05,4.2,3.0
2.08203125,3.2225993566796346e-05,7.323615226977928e-06,4.540740285343706e-05,3.710482687418934e-05,4.2,3.0
2.0859375,3.9549593125810616e-05,2.0991837924773e-05,5.126521258106352e-05,4.247582319066146e-05,4.2,3.0
2.08984375,3.368643380025938e-05,3.564438664072631e-05,5.126521258106352e-05,4.296798619974056e-05,4.2,3.0
2.09375,2.0018211102464306e-05,3.466541022049284e-05,5.126521258106352e-05,3.9549593125810616e-05,4.2,3.0
2.09765625,2.0505024513618658e-05,2.6362834241245108e-05,4.8825795927367025e-05,4.4920589442282714e-05,4.2,3.0
2.1015625,3.1247017146562884e-05,2.685499725032423e-05,4.3941613022049266e-05,5.37099788326848e-05,4.2,3.0
2.10546875,3.2225993566796346e-05,3.2225993566796346e-05,3.6618013463034995e-05,5.273100241245133e-05,4.2,3.0
2.109375,3.466541022049284e-05,2.0018211102464306e-05,3.41785968093385e-05,4.979942274967571e-05,4.2,3.0
2.11328125,2.6362834241245108e-05,2.1484000933852113e-05,3.808380329442281e-05,4.3941613022049266e-05,4.2,3.0
2.1171875,2.2457627756160804e-05,1.4155051776913075e-05,3.613120005188065e-05,3.808380329442281e-05,4.2,3.0
2.12109375,3.0273390324254193e-05,2.1970814345006458e-05,3.857061670557715e-05,3.076020373540854e-05,4.2,3.0
2.125,2.538920741893642e-05,4.003640653696496e-05,4.345479961089491e-05,3.2225993566796346e-05,4.2,3.0
2.12890625,2.929441390402073e-05,1.5620841608300885e-05,4.5894216264591404e-05,3.6618013463034995e-05,4.2,3.0
2.1328125,2.6362834241245108e-05,6.831452217898814e-06,4.442842643320361e-05,3.613120005188065e-05,4.2,3.0
2.13671875,2.0991837924773e-05,1.8552421271076503e-05,3.564438664072631e-05,3.905743011673149e-05,4.2,3.0
2.140625,2.538920741893642e-05,2.6362834241245108e-05,2.538920741893642e-05,4.247582319066146e-05,4.2,3.0
2.14453125,2.4410230998702956e-05,2.7341810661478573e-05,2.343660417639427e-05,3.857061670557715e-05,4.2,3.0
2.1484375,3.271280697795069e-05,4.687319268482487e-05,3.6618013463034995e-05,4.0523219948119306e-05,4.2,3.0
2.15234375,3.905743011673149e-05,4.296798619974056e-05,4.931260933852137e-05,4.198900977950711e-05,4.2,3.0
2.15625,3.9549593125810616e-05,3.2225993566796346e-05,4.931260933852137e-05,2.538920741893642e-05,4.2,3.0
2.16015625,4.150219636835277e-05,3.857061670557715e-05,4.4920589442282714e-05,3.515222363164719e-05,4.2,3.0
2.1640625,2.8807600492866383e-05,3.6618013463034995e-05,3.271280697795069e-05,3.9549593125810616e-05,4.2,3.0
2.16796875,1.4647214785992196e-05,1.9526048093385193e-05,2.392341758754861e-05,2.4410230998702956e-05,4.2,3.0
2.171875,2.7828624072632918e-05,2.2944441167315156e-05,4.540740285343706e-05,3.173383055771722e-05,4.2,3.0
2.17578125,3.173383055771722e-05,3.271280697795069e-05,4.198900977950711e-05,3.0273390324254193e-05,4.2,3.0
2.1796875,3.271280697795069e-05,3.6618013463034995e-05,2.929441390402073e-05,3.41785968093385e-05,4.2,3.0
2.18359375,4.0523219948119306e-05,3.905743011673149e-05,3.173383055771722e-05,4.442842643320361e-05,4.2,3.0
2.1875,2.8315437483787263e-05,3.515222363164719e-05,3.710482687418934e-05,3.7596989883268464e-05,4.2,3.0
2.19140625,2.685499725032423e-05,3.1247017146562884e-05,5.077839916990918e-05,3.466541022049284e-05,4.2,3.0
2.1953125,2.978122731517507e-05,9.736424902723542e-07,3.466541022049284e-05,3.271280697795069e-05,4.2,3.0
2.19921875,2.7341810661478573e-05,6.831452217898814e-06,3.271280697795069e-05,3.613120005188065e-05,4.2,3.0
2.203125,3.564438664072631e-05,2.7341810661478573e-05,3.7596989883268464e-05,3.173383055771722e-05,4.2,3.0
2.20703125,3.515222363164719e-05,1.7573444850843038e-05,2.685499725032423e-05,4.003640653696496e-05,4.2,3.0
2.2109375,3.2225993566796346e-05,3.0273390324254193e-05,3.0273390324254193e-05,4.296798619974056e-05,4.2,3.0
2.21484375,2.7341810661478573e-05,2.6362834241245108e-05,3.1247017146562884e-05,2.392341758754861e-05,4.2,3.0
2.21875,2.6362834241245108e-05,1.5620841608300885e-05,3.9549593125810616e-05,7.810428638132272e-06,4.2,3.0
2.22265625,3.271280697795069e-05,3.564438664072631e-05,4.638637927367053e-05,1.8552421271076503e-05,4.2,3.0
2.2265625,2.5876020830090766e-05,2.685499725032423e-05,3.368643380025938e-05,3.710482687418934e-05,4.2,3.0
2.23046875,2.2944441167315156e-05,4.87884897535666e-06,1.7086631439688696e-05,3.515222363164719e-05,4.2,3.0
2.234375,2.929441390402073e-05,1.5620841608300885e-05,2.7828624072632918e-05,3.076020373540854e-05,4.2,3.0
2.23828125,2.0991837924773e-05,1.6113004617380005e-05,3.368643380025938e-05,3.0273390324254193e-05,4.2,3.0
2.2421875,2.392341758754861e-05,1.8552421271076503e-05,3.41785968093385e-05,3.0273390324254193e-05,4.2,3.0
2.24609375,2.8807600492866383e-05,3.3199620389105036e-05,4.7846819507133556e-05,3.710482687418934e-05,4.2,3.0
2.25,2.0991837924773e-05,3.905743011673149e-05,4.638637927367053e-05,3.368643380025938e-05,4.2,3.0
2.25390625,1.7573444850843038e-05,2.929441390402073e-05,4.003640653696496e-05,3.3199620389105036e-05,4.2,3.0
2.2578125,4.150219636835277e-05,3.613120005188065e-05,4.198900977950711e-05,4.003640653696496e-05,4.2,3.0
2.26171875,3.613120005188065e-05,4.5894216264591404e-05,3.2225993566796346e-05,2.8315437483787263e-05,4.2,3.0
2.265625,1.6113004617380005e-05,4.345479961089491e-05,3.271280697795069e-05,2.1970814345006458e-05,4.2,3.0
2.26953125,2.7341810661478573e-05,2.7341810661478573e-05,3.613120005188065e-05,2.48970444098573e-05,4.2,3.0
2.2734375,3.466541022049284e-05,6.831452217898814e-06,2.8315437483787263e-05,2.6362834241245108e-05,4.2,3.0
2.27734375,3.710482687418934e-05,1.4155051776913075e-05,3.3199620389105036e-05,2.929441390402073e-05,4.2,3.0
2.28125,3.9549593125810616e-05,3.1247017146562884e-05,4.101538295719841e-05,3.564438664072631e-05,4.2,3.0
2.28515625,3.41785968093385e-05,2.4410230998702956e-05,3.613120005188065e-05,2.978122731517507e-05,4.2,3.0
2.2890625,2.685499725032423e-05,1.7573444850843038e-05,2.5876020830090766e-05,2.2944441167315156e-05,4.2,3.0
2.29296875,3.173383055771722e-05,4.101538295719841e-05,3.9549593125810616e-05,2.978122731517507e-05,4.2,3.0
2.296875,1.8065607859922154e-05,3.3199620389105036e-05,3.2225993566796346e-05,2.6362834241245108e-05,4.2,3.0
2.30078125,1.3668238365758731e-05,-9.78960752269799e-07,1.7086631439688696e-05,2.5876020830090766e-05,4.2,3.0
2.3046875,2.8807600492866383e-05,9.763031880674425e-06,2.1484000933852113e-05,2.0991837924773e-05,4.2,3.0
2.30859375,3.613120005188065e-05,2.6362834241245108e-05,2.48970444098573e-05,3.2225993566796346e-05,4.2,3.0
2.3125,2.685499725032423e-05,2.1970814345006458e-05,2.685499725032423e-05,3.710482687418934e-05,4.2,3.0
2.31640625,2.392341758754861e-05,1.7573444850843038e-05,2.8807600492866383e-05,2.48970444098573e-05,4.2,3.0
2.3203125,3.076020373540854e-05,2.6362834241245108e-05,3.905743011673149e-05,2.7341810661478573e-05,4.2,3.0
2.32421875,1.9039234682230848e-05,2.2944441167315156e-05,4.101538295719841e-05,2.1970814345006458e-05,4.2,3.0
2.328125,1.1228821712062234e-05,1.5620841608300885e-05,2.7341810661478573e-05,1.8065607859922154e-05,4.2,3.0
2.33203125,3.0273390324254193e-05,2.0018211102464306e-05,2.538920741893642e-05,1.5620841608300885e-05,4.2,3.0
2.3359375,4.247582319066146e-05,2.6362834241245108e-05,2.2457627756160804e-05,2.2944441167315156e-05,4.2,3.0
2.33984375,2.929441390402073e-05,1.9039234682230848e-05,1.659981802853435e-05,2.685499725032423e-05,4.2,3.0
2.34375,2.392341758754861e-05,1.2694611543450044e-05,2.0018211102464306e-05,1.7573444850843038e-05,4.2,3.0
2.34765625,2.8807600492866383e-05,1.6113004617380005e-05,1.2202448534370923e-05,2.0991837924773e-05,4.2,3.0
2.3515625,2.1970814345006458e-05,2.0991837924773e-05,1.9039234682230848e-05,2.929441390402073e-05,4.2,3.0
2.35546875,2.5876020830090766e-05,3.7596989883268464e-05,3.076020373540854e-05,3.613120005188065e-05,4.2,3.0
2.359375,3.3199620389105036e-05,2.929441390402073e-05,2.538920741893642e-05,2.929441390402073e-05,4.2,3.0
2.36328125,3.076020373540854e-05,2.392341758754861e-05,1.9526048093385193e-05,2.2944441167315156e-05,4.2,3.0
2.3671875,4.0523219948119306e-05,3.3199620389105036e-05,2.4410230998702956e-05,1.6113004617380005e-05,4.2,3.0
2.37109375,4.931260933852137e-05,2.343660417639427e-05,2.5876020830090766e-05,1.8065607859922154e-05,4.2,3.0
2.375,4.101538295719841e-05,4.868290791180101e-07,2.8807600492866383e-05,3.564438664072631e-05,4.2,3.0
2.37890625,1.1228821712062234e-05,9.736424902723542e-07,2.929441390402073e-05,2.2457627756160804e-05,4.2,3.0
2.3828125,-6.349957068741915e-06,1.074200830090789e-05,1.8065607859922154e-05,1.7086631439688696e-05,4.2,3.0
2.38671875,2.4410230998702956e-05,2.392341758754861e-05,2.0018211102464306e-05,2.8807600492866383e-05,4.2,3.0
2.390625,3.564438664072631e-05,3.076020373540854e-05,2.8807600492866383e-05,2.0505024513618658e-05,4.2,3.0
2.39453125,2.8807600492866383e-05,1.8065607859922154e-05,2.538920741893642e-05,1.7086631439688696e-05,4.2,3.0
2.3984375,4.638637927367053e-05,2.4410230998702956e-05,2.392341758754861e-05,2.2457627756160804e-05,4.2,3.0
2.40234375,4.979942274967571e-05,2.0018211102464306e-05,2.7341810661478573e-05,3.271280697795069e-05,4.2,3.0
2.40625,3.7596989883268464e-05,1.5620841608300885e-05,3.515222363164719e-05,3.710482687418934e-05,4.2,3.0
2.41015625,3.905743011673149e-05,2.0505024513618658e-05,2.7828624072632918e-05,2.685499725032423e-05,4.2,3.0
2.4140625,3.076020373540854e-05,2.343660417639427e-05,2.6362834241245108e-05,2.7341810661478573e-05,4.2,3.0
2.41796875,1.952618910505819e-06,2.0991837924773e-05,2.48970444098573e-05,1.8552421271076503e-05,4.2,3.0
2.421875,9.763031880674425e-06,1.8552421271076503e-05,1.3668238365758731e-05,2.538920741893642e-05,4.2,3.0
2.42578125,3.173383055771722e-05,3.173383055771722e-05,2.1484000933852113e-05,4.0523219948119306e-05,4.2,3.0
2.4296875,3.41785968093385e-05,1.4155051776913075e-05,2.5876020830090766e-05,4.247582319066146e-05,4.2,3.0
2.43359375,2.929441390402073e-05,4.392035564202317e-06,2.685499725032423e-05,3.1247017146562884e-05,4.2,3.0
2.4375,3.515222363164719e-05,2.9262457328145072e-06,2.6362834241245108e-05,2.0505024513618658e-05,4.2,3.0
2.44140625,4.4920589442282714e-05,1.171563512321658e-05,2.48970444098573e-05,2.7341810661478573e-05,4.2,3.0
2.4453125,4.5894216264591404e-05,2.0505024513618658e-05,1.659981802853435e-05,2.48970444098573e-05,4.2,3.0
2.44921875,2.1484000933852113e-05,1.8552421271076503e-05,2.1970814345006458e-05,2.4410230998702956e-05,4.2,3.0
2.453125,2.1970814345006458e-05,1.8552421271076503e-05,3.2225993566796346e-05,2.7341810661478573e-05,4.2,3.0
2.45703125,4.3941613022049266e-05,1.659981802853435e-05,2.6362834241245108e-05,3.076020373540854e-05,4.2,3.0
2.4609375,3.076020373540854e-05,1.4647214785992196e-05,3.1247017146562884e-05,3.173383055771722e-05,4.2,3.0
2.46484375,2.0018211102464306e-05,2.8315437483787263e-05,3.368643380025938e-05,3.710482687418934e-05,4.2,3.0
2.46875,3.613120005188065e-05,3.857061670557715e-05,3.1247017146562884e-05,5.2244189001296984e-05,4.2,3.0
2.47265625,4.150219636835277e-05,2.929441390402073e-05,3.173383055771722e-05,3.368643380025938e-05,4.2,3.0
2.4765625,3.1247017146562884e-05,2.538920741893642e-05,2.0018211102464306e-05,1.5620841608300885e-05,4.2,3.0
2.48046875,3.3199620389105036e-05,2.978122731517507e-05,1.171563512321658e-05,3.076020373540854e-05,4.2,3.0
2.484375,2.7341810661478573e-05,1.513402819714654e-05,1.2694611543450044e-05,2.5876020830090766e-05,4.2,3.0
2.48828125,2.1970814345006458e-05,1.8552421271076503e-05,2.6362834241245108e-05,3.173383055771722e-05,4.2,3.0
2.4921875,2.1970814345006458e-05,3.0273390324254193e-05,3.368643380025938e-05,5.2244189001296984e-05,4.2,3.0
2.49609375,3.466541022049284e-05,2.343660417639427e-05,2.7341810661478573e-05,4.540740285343706e-05,4.2,3.0
2.5,4.540740285343706e-05,1.7086631439688696e-05,1.7086631439688696e-05,3.0273390324254193e-05,4.2,3.0
2.50390625,3.9549593125810616e-05,1.9526048093385193e-05,1.8552421271076503e-05,3.41785968093385e-05,4.2,3.0
2.5078125,3.6618013463034995e-05,2.1484000933852113e-05,2.343660417639427e-05,3.7596989883268464e-05,4.2,3.0
2.51171875,2.538920741893642e-05,1.2202448534370923e-05,2.1970814345006458e-05,2.8315437483787263e-05,4.2,3.0
2.515625,2.2457627756160804e-05,1.659981802853435e-05,3.1247017146562884e-05,3.0273390324254193e-05,4.2,3.0
2.51953125,3.1247017146562884e-05,9.276218469520082e-06,3.076020373540854e-05,3.466541022049284e-05,4.2,3.0
2.5234375,2.4410230998702956e-05,-2.4447505836576083e-06,2.685499725032423e-05,3.173383055771722e-05,4.2,3.0
2.52734375,1.9039234682230848e-05,1.4647214785992196e-05,3.0273390324254193e-05,2.7341810661478573e-05,4.2,3.0
2.53125,2.8315437483787263e-05,2.7828624072632918e-05,3.3199620389105036e-05,2.392341758754861e-05,4.2,3.0
2.53515625,3.710482687418934e-05,1.8552421271076503e-05,3.1247017146562884e-05,4.003640653696496e-05,4.2,3.0
2.5390625,4.101538295719841e-05,1.074200830090789e-05,2.5876020830090766e-05,4.345479961089491e-05,4.2,3.0
2.54296875,3.076020373540854e-05,1.6113004617380005e-05,2.48970444098573e-05,3.0273390324254193e-05,4.2,3.0
2.546875,1.9039234682230848e-05,3.0273390324254193e-05,3.515222363164719e-05,3.0273390324254193e-05,4.2,3.0
2.55078125,2.0505024513618658e-05,2.0505024513618658e-05,3.466541022049284e-05,2.8807600492866383e-05,4.2,3.0
2.5546875,3.173383055771722e-05,1.4155051776913075e-05,2.8315437483787263e-05,2.538920741893642e-05,4.2,3.0
2.55859375,2.685499725032423e-05,2.0505024513618658e-05,3.271280697795069e-05,3.710482687418934e-05,4.2,3.0
2.5625,2.2457627756160804e-05,2.0018211102464306e-05,1.8065607859922154e-05,3.271280697795069e-05,4.2,3.0
2.56640625,2.4410230998702956e-05,1.659981802853435e-05,8.784055460440967e-06,1.7086631439688696e-05,4.2,3.0
2.5703125,3.613120005188065e-05,1.074200830090789e-05,1.513402819714654e-05,2.5876020830090766e-05,4.2,3.0
2.57421875,4.3941613022049266e-05,2.0018211102464306e-05,2.1484000933852113e-05,4.736000609597921e-05,4.2,3.0
2.578125,3.173383055771722e-05,1.513402819714654e-05,2.0018211102464306e-05,5.029158575875483e-05,4.2,3.0
2.58203125,2.48970444098573e-05,1.1228821712062234e-05,2.4410230998702956e-05,4.198900977950711e-05,4.2,3.0
2.5859375,2.538920741893642e-05,2.8315437483787263e-05,2.978122731517507e-05,3.2225993566796346e-05,4.2,3.0
2.58984375,3.173383055771722e-05,2.0991837924773e-05,2.0018211102464306e-05,3.173383055771722e-05,4.2,3.0
2.59375,2.929441390402073e-05,6.34463880674447e-06,2.343660417639427e-05,2.8315437483787263e-05,4.2,3.0
2.59765625,3.076020373540854e-05,1.5620841608300885e-05,2.8807600492866383e-05,2.929441390402073e-05,4.2,3.0
2.6015625,3.2225993566796346e-05,1.4647214785992196e-05,2.0991837924773e-05,4.150219636835277e-05,4.2,3.0
2.60546875,2.538920741893642e-05,1.4155051776913075e-05,2.8807600492866383e-05,3.271280697795069e-05,4.2,3.0
2.609375,2.7341810661478573e-05,1.659981802853435e-05,2.343660417639427e-05,2.978122731517507e-05,4.2,3.0
2.61328125,3.6618013463034995e-05,4.87884897535666e-06,4.87884897535666e-06,3.613120005188065e-05,4.2,3.0
2.6171875,4.687319268482487e-05,2.4394323216601632e-06,8.784055460440967e-06,3.515222363164719e-05,4.2,3.0
2.62109375,3.076020373540854e-05,2.1484000933852113e-05,2.6362834241245108e-05,3.41785968093385e-05,4.2,3.0
2.625,1.659981802853435e-05,4.8825795927367025e-05,4.345479961089491e-05,2.685499725032423e-05,4.2,3.0
2.62890625,3.41785968093385e-05,3.271280697795069e-05,3.0273390324254193e-05,2.48970444098573e-05,4.2,3.0
2.6328125,4.198900977950711e-05,-2.9315639948119523e-06,2.4394323216601632e-06,2.48970444098573e-05,4.2,3.0
2.63671875,3.1247017146562884e-05,-1.8557739533073948e-05,-1.4160370038910524e-05,2.392341758754861e-05,4.2,3.0
2.640625,2.2457627756160804e-05,-1.4160370038910524e-05,-1.7091949701686138e-05,1.3181424954604388e-05,4.2,3.0
2.64453125,2.978122731517507e-05,-1.0747326562905336e-05,-1.2699929805447488e-05,1.8552421271076503e-05,4.2,3.0
2.6484375,4.5894216264591404e-05,-1.367355662775618e-05,-1.1720953385214026e-05,2.978122731517507e-05,4.2,3.0
2.65234375,3.905743011673149e-05,3.4130591439688512e-06,-5.863143657587571e-06,2.2944441167315156e-05,4.2,3.0
2.65625,2.5876020830090766e-05,9.763031880674425e-06,-5.333929961111039e-09,1.3181424954604388e-05,4.2,3.0
2.66015625,3.857061670557715e-05,-8.789373722438413e-06,-6.836770479896259e-06,9.736424902723542e-07,4.2,3.0
2.6640625,4.3941613022049266e-05,-1.6605136290531796e-05,-1.123413997405968e-05,-9.78960752269799e-07,4.2,3.0
2.66796875,3.515222363164719e-05,-1.4160370038910524e-05,-7.815746900129724e-06,5.371011984435775e-06,4.2,3.0
2.671875,2.2944441167315156e-05,1.2202448534370923e-05,-5.333929961111039e-09,1.1228821712062234e-05,4.2,3.0
2.67578125,2.6362834241245108e-05,2.48970444098573e-05,1.952618910505819e-06,1.4647214785992196e-05,4.2,3.0
2.6796875,3.564438664072631e-05,-3.4183774059662963e-06,1.3181424954604388e-05,2.2457627756160804e-05,4.2,3.0
2.68359375,3.515222363164719e-05,-6.349957068741915e-06,1.1228821712062234e-05,2.978122731517507e-05,4.2,3.0
2.6875,1.9526048093385193e-05,2.9262457328145072e-06,-4.92147341115455e-07,2.0991837924773e-05,4.2,3.0
2.69140625,3.0273390324254193e-05,1.4155051776913075e-05,1.4604559014266982e-06,4.392035564202317e-06,4.2,3.0
2.6953125,5.175737559014264e-05,1.513402819714654e-05,-1.4657741634241433e-06,9.276218469520082e-06,4.2,3.0
2.69921875,3.6618013463034995e-05,3.9052221530479655e-06,-1.9579371725032643e-06,1.513402819714654e-05,4.2,3.0
2.703125,3.7596989883268464e-05,1.6113004617380005e-05,4.868290791180101e-07,1.9039234682230848e-05,4.2,3.0
2.70703125,3.41785968093385e-05,2.8315437483787263e-05,1.171563512321658e-05,2.8315437483787263e-05,4.2,3.0
2.7109375,2.2457627756160804e-05,2.4410230998702956e-05,1.8065607859922154e-05,2.0991837924773e-05,4.2,3.0
2.71484375,3.076020373540854e-05,1.4155051776913075e-05,1.1228821712062234e-05,1.5620841608300885e-05,4.2,3.0
2.71875,3.710482687418934e-05,1.4647214785992196e-05,1.0249845291828769e-05,1.659981802853435e-05,4.2,3.0
2.72265625,2.685499725032423e-05,1.074200830090789e-05,8.784055460440967e-06,1.3181424954604388e-05,4.2,3.0
2.7265625,1.8065607859922154e-05,7.810428638132272e-06,1.2202448534370923e-05,1.9526048093385193e-05,4.2,3.0
2.73046875,3.564438664072631e-05,2.343660417639427e-05,1.6113004617380005e-05,3.173383055771722e-05,4.2,3.0
2.734375,4.638637927367053e-05,2.1970814345006458e-05,1.5620841608300885e-05,2.685499725032423e-05,4.2,3.0
2.73828125,3.7596989883268464e-05,1.9526048093385193e-05,2.0018211102464306e-05,2.685499725032423e-05,4.2,3.0
2.7421875,2.8315437483787263e-05,1.074200830090789e-05,2.4410230998702956e-05,3.368643380025938e-05,4.2,3.0
2.74609375,3.515222363164719e-05,1.513402819714654e-05,2.5876020830090766e-05,3.41785968093385e-05,4.2,3.0
2.75,4.296798619974056e-05,2.2944441167315156e-05,2.6362834241245108e-05,4.247582319066146e-05,4.2,3.0
2.75390625,2.0018211102464306e-05,1.8065607859922154e-05,2.1970814345006458e-05,2.0991837924773e-05,4.2,3.0
2.7578125,1.513402819714654e-05,2.48970444098573e-05,2.538920741893642e-05,1.0249845291828769e-05,4.2,3.0
2.76171875,2.5876020830090766e-05,9.763031880674425e-06,2.2944441167315156e-05,2.1484000933852113e-05,4.2,3.0
2.765625,2.978122731517507e-05,1.074200830090789e-05,2.2457627756160804e-05,1.6113004617380005e-05,4.2,3.0
2.76953125,2.685499725032423e-05,2.4410230998702956e-05,2.8807600492866383e-05,2.929441390402073e-05,4.2,3.0
2.7734375,3.41785968093385e-05,3.6618013463034995e-05,4.003640653696496e-05,4.101538295719841e-05,4.2,3.0
2.77734375,5.4196792243839136e-05,3.0273390324254193e-05,3.905743011673149e-05,3.564438664072631e-05,4.2,3.0
2.78125,4.198900977950711e-05,1.171563512321658e-05,2.7341810661478573e-05,3.41785968093385e-05,4.2,3.0
2.78515625,2.4410230998702956e-05,3.4130591439688512e-06,2.1970814345006458e-05,4.150219636835277e-05,4.2,3.0
2.7890625,1.7573444850843038e-05,-2.9315639948119523e-06,2.0991837924773e-05,3.271280697795069e-05,4.2,3.0
2.79296875,1.9039234682230848e-05,-4.92147341115455e-07,2.4410230998702956e-05,1.3181424954604388e-05,4.2,3.0
2.796875,3.2225993566796346e-05,8.297242049286617e-06,2.8807600492866383e-05,2.8315437483787263e-05,4.2,3.0
2.80078125,2.1484000933852113e-05,6.34463880674447e-06,2.6362834241245108e-05,3.905743011673149e-05,4.2,3.0
2.8046875,2.929441390402073e-05,2.9262457328145072e-06,1.659981802853435e-05,3.564438664072631e-05,4.2,3.0
2.80859375,4.150219636835277e-05,8.297242049286617e-06,1.171563512321658e-05,3.466541022049284e-05,4.2,3.0
2.8125,4.198900977950711e-05,1.8552421271076503e-05,1.9526048093385193e-05,2.2457627756160804e-05,4.2,3.0
2.81640625,3.0273390324254193e-05,2.1970814345006458e-05,3.271280697795069e-05,3.0273390324254193e-05,4.2,3.0
2.8203125,2.5876020830090766e-05,2.1484000933852113e-05,3.7596989883268464e-05,4.3941613022049266e-05,4.2,3.0
2.82421875,3.0273390324254193e-05,7.810428638132272e-06,2.2944441167315156e-05,4.0523219948119306e-05,4.2,3.0
2.828125,7.323615226977928e-06,-1.4657741634241433e-06,1.1228821712062234e-05,3.271280697795069e-05,4.2,3.0
2.83203125,1.074200830090789e-05,1.3668238365758731e-05,2.1484000933852113e-05,2.7341810661478573e-05,4.2,3.0
2.8359375,3.3199620389105036e-05,1.659981802853435e-05,3.173383055771722e-05,2.5876020830090766e-05,4.2,3.0
2.83984375,4.247582319066146e-05,1.2202448534370923e-05,2.8315437483787263e-05,2.343660417639427e-05,4.2,3.0
2.84375,5.273100241245133e-05,2.392341758754861e-05,1.9039234682230848e-05,1.513402819714654e-05,4.2,3.0
2.84765625,4.8825795927367025e-05,3.466541022049284e-05,2.343660417639427e-05,1.4155051776913075e-05,4.2,3.0
2.8515625,3.271280697795069e-05,7.810428638132272e-06,2.48970444098573e-05,1.8552421271076503e-05,4.2,3.0
2.85546875,2.0991837924773e-05,3.9052221530479655e-06,2.48970444098573e-05,3.905743011673149e-05,4.2,3.0
2.859375,2.2457627756160804e-05,2.0505024513618658e-05,2.4410230998702956e-05,4.5894216264591404e-05,4.2,3.0
2.86328125,3.466541022049284e-05,2.0505024513618658e-05,2.7828624072632918e-05,3.710482687418934e-05,4.2,3.0
2.8671875,2.7341810661478573e-05,2.1484000933852113e-05,3.1247017146562884e-05,2.929441390402073e-05,4.2,3.0
2.87109375,3.1247017146562884e-05,2.343660417639427e-05,2.5876020830090766e-05,3.2225993566796346e-05,4.2,3.0
2.875,4.540740285343706e-05,3.076020373540854e-05,3.0273390324254193e-05,3.368643380025938e-05,4.2,3.0
2.87890625,4.003640653696496e-05,3.271280697795069e-05,3.2225993566796346e-05,2.392341758754861e-05,4.2,3.0
2.8828125,4.0523219948119306e-05,1.8552421271076503e-05,2.538920741893642e-05,3.076020373540854e-05,4.2,3.0
2.88671875,2.0505024513618658e-05,5.371011984435775e-06,2.1484000933852113e-05,3.613120005188065e-05,4.2,3.0
2.890625,8.784055460440967e-06,1.513402819714654e-05,2.7828624072632918e-05,3.6618013463034995e-05,4.2,3.0
2.89453125,2.1970814345006458e-05,1.6113004617380005e-05,2.685499725032423e-05,3.710482687418934e-05,4.2,3.0
2.8984375,1.9526048093385193e-05,1.4155051776913075e-05,2.0018211102464306e-05,3.6618013463034995e-05,4.2,3.0
2.90234375,3.564438664072631e-05,2.5876020830090766e-05,3.173383055771722e-05,3.2225993566796346e-05,4.2,3.0
2.90625,6.103357839169906e-05,2.685499725032423e-05,4.003640653696496e-05,2.7828624072632918e-05,4.2,3.0
2.91015625,4.736000609597921e-05,1.5620841608300885e-05,2.8315437483787263e-05,2.929441390402073e-05,4.2,3.0
2.9140625,3.6618013463034995e-05,1.4647214785992196e-05,2.7341810661478573e-05,3.7596989883268464e-05,4.2,3.0
2.91796875,2.685499725032423e-05,1.171563512321658e-05,3.515222363164719e-05,4.198900977950711e-05,4.2,3.0
2.921875,2.0018211102464306e-05,1.3668238365758731e-05,3.2225993566796346e-05,2.343660417639427e-05,4.2,3.0
2.92578125,4.4920589442282714e-05,3.1247017146562884e-05,3.076020373540854e-05,2.4410230998702956e-05,4.2,3.0
2.9296875,3.515222363164719e-05,3.0273390324254193e-05,3.271280697795069e-05,4.003640653696496e-05,4.2,3.0
2.93359375,1.2694611543450044e-05,1.5620841608300885e-05,2.392341758754861e-05,3.076020373540854e-05,4.2,3.0
2.9375,4.638637927367053e-05,2.1484000933852113e-05,2.1970814345006458e-05,2.978122731517507e-05,4.2,3.0
2.94140625,4.198900977950711e-05,1.659981802853435e-05,2.5876020830090766e-05,2.7828624072632918e-05,4.2,3.0
2.9453125,1.5620841608300885e-05,1.074200830090789e-05,2.538920741893642e-05,1.7086631439688696e-05,4.2,3.0
2.94921875,2.5876020830090766e-05,1.2202448534370923e-05,1.9526048093385193e-05,2.2944441167315156e-05,4.2,3.0
2.953125,3.905743011673149e-05,2.0018211102464306e-05,2.978122731517507e-05,3.6618013463034995e-05,4.2,3.0
2.95703125,3.9549593125810616e-05,3.076020373540854e-05,3.564438664072631e-05,3.466541022049284e-05,4.2,3.0
2.9609375,2.48970444098573e-05,1.659981802853435e-05,1.7086631439688696e-05,2.392341758754861e-05,4.2,3.0
2.96484375,3.515222363164719e-05,1.6113004617380005e-05,2.0018211102464306e-05,3.076020373540854e-05,4.2,3.0
2.96875,3.613120005188065e-05,1.7086631439688696e-05,2.2944441167315156e-05,2.7828624072632918e-05,4.2,3.0
2.97265625,1.4647214785992196e-05,4.87884897535666e-06,1.8552421271076503e-05,2.0991837924773e-05,4.2,3.0
2.9765625,1.7086631439688696e-05,1.513402819714654e-05,2.929441390402073e-05,3.0273390324254193e-05,4.2,3.0
2.98046875,3.41785968093385e-05,2.2944441167315156e-05,3.613120005188065e-05,2.685499725032423e-05,4.2,3.0
2.984375,3.1247017146562884e-05,2.1970814345006458e-05,2.0991837924773e-05,2.8807600492866383e-05,4.2,3.0
2.98828125,1.5620841608300885e-05,2.392341758754861e-05,1.6113004617380005e-05,2.5876020830090766e-05,4.2,3.0
2.9921875,3.41785968093385e-05,1.8552421271076503e-05,2.8315437483787263e-05,2.929441390402073e-05,4.2,3.0
2.99609375,5.37099788326848e-05,1.6113004617380005e-05,3.0273390324254193e-05,4.540740285343706e-05,4.2,3.0
3.0,3.710482687418934e-05,1.0249845291828769e-05,1.8552421271076503e-05,2.7341810661478573e-05,4.2,3.0
3.00390625,1.7086631439688696e-05,5.371011984435775e-06,1.2202448534370923e-05,2.6362834241245108e-05,4.2,3.0
3.0078125,2.0505024513618658e-05,9.276218469520082e-06,1.2694611543450044e-05,4.687319268482487e-05,4.2,3.0
3.01171875,2.392341758754861e-05,1.074200830090789e-05,2.4410230998702956e-05,4.687319268482487e-05,4.2,3.0
3.015625,2.0991837924773e-05,5.371011984435775e-06,1.7573444850843038e-05,2.6362834241245108e-05,4.2,3.0
3.01953125,2.5876020830090766e-05,1.5620841608300885e-05,1.3668238365758731e-05,2.5876020830090766e-05,4.2,3.0
3.0234375,3.9549593125810616e-05,2.7341810661478573e-05,2.48970444098573e-05,3.905743011673149e-05,4.2,3.0
3.02734375,5.6149395486381295e-05,2.7341810661478573e-05,3.466541022049284e-05,4.150219636835277e-05,4.2,3.0
3.03125,3.2225993566796346e-05,2.7828624072632918e-05,2.6362834241245108e-05,3.808380329442281e-05,4.2,3.0
3.03515625,2.7828624072632918e-05,1.2694611543450044e-05,1.1228821712062234e-05,2.6362834241245108e-05,4.2,3.0
3.0390625,2.5876020830090766e-05,1.8552421271076503e-05,1.7086631439688696e-05,2.538920741893642e-05,4.2,3.0
3.04296875,1.6113004617380005e-05,1.9039234682230848e-05,1.8552421271076503e-05,2.2457627756160804e-05,4.2,3.0
3.046875,3.710482687418934e-05,1.4647214785992196e-05,2.343660417639427e-05,2.1970814345006458e-05,4.2,3.0
3.05078125,4.0523219948119306e-05,1.5620841608300885e-05,2.2457627756160804e-05,3.41785968093385e-05,4.2,3.0
3.0546875,2.8807600492866383e-05,6.831452217898814e-06,2.2457627756160804e-05,4.833898251621268e-05,4.2,3.0
3.05859375,3.41785968093385e-05,1.3181424954604388e-05,2.7341810661478573e-05,5.810199872892345e-05,4.2,3.0
3.0625,5.077839916990918e-05,1.513402819714654e-05,2.0991837924773e-05,5.712837190661476e-05,4.2,3.0
3.06640625,4.0523219948119306e-05,3.9052221530479655e-06,1.2202448534370923e-05,4.296798619974056e-05,4.2,3.0
3.0703125,3.710482687418934e-05,8.297242049286617e-06,1.5620841608300885e-05,3.613120005188065e-05,4.2,3.0
3.07421875,3.710482687418934e-05,1.3181424954604388e-05,1.5620841608300885e-05,4.296798619974056e-05,4.2,3.0
3.078125,3.368643380025938e-05,1.1228821712062234e-05,1.171563512321658e-05,5.468360565499348e-05,4.2,3.0
3.08203125,2.8315437483787263e-05,-9.78960752269799e-07,9.763031880674425e-06,4.979942274967571e-05,4.2,3.0
3.0859375,1.8065607859922154e-05,-2.392873584954606e-05,-6.349957068741915e-06,4.003640653696496e-05,4.2,3.0
3.08984375,2.7341810661478573e-05,-2.1976132607003907e-05,-1.3186743216601833e-05,4.833898251621268e-05,4.2,3.0
3.09375,3.6618013463034995e-05,-2.2949759429312598e-05,-1.8557739533073948e-05,6.347299504539556e-05,4.2,3.0
3.09765625,2.343660417639427e-05,-5.4196760907911814e-05,-4.4428395097276275e-05,6.347299504539556e-05,4.2,3.0
3.1015625,4.87884897535666e-06,-8.593592539559014e-05,-7.128872627756162e-05,5.810199872892345e-05,4.2,3.0
3.10546875,6.831452217898814e-06,-9.911733468223087e-05,-8.300434573281452e-05,7.324136085603109e-05,4.2,3.0
3.109375,2.392341758754861e-05,-0.00011474351022049286,-0.0001059541208300908,8.25175636575875e-05,4.2,3.0
3.11328125,2.1484000933852113e-05,-0.0001542930876783398,-0.0001503878811932555,8.300437706874185e-05,4.2,3.0
3.1171875,1.6113004617380005e-05,-0.00017431128311284045,-0.00017724286277561607,7.812019416342409e-05,4.2,3.0
3.12109375,2.1970814345006458e-05,-0.00017724286277561607,-0.00018798485540856032,8.34911904798962e-05,4.2,3.0
3.125,1.6113004617380005e-05,-0.0001933558517250324,-0.0002011716142931258,9.765157618677039e-05,4.2,3.0
3.12890625,5.8578253955901185e-06,-0.00020067945128404667,-0.00021093463050583656,9.130695304798959e-05,4.2,3.0
3.1328125,1.7573444850843038e-05,-0.00020800305084306094,-0.000215332,9.325955629053174e-05,4.2,3.0
3.13671875,3.7596989883268464e-05,-0.0002128872337483787,-0.0002099556540856031,0.00010351473551232163,4.2,3.0
3.140625,4.638637927367053e-05,-0.00021191360692607002,-0.00021483983699092086,9.619113595330736e-05,4.2,3.0
3.14453125,4.442842643320361e-05,-0.00020019263787289233,-0.0002050768207782101,8.886218679636832e-05,4.2,3.0
3.1484375,2.0018211102464306e-05,-0.00018603225216601817,-0.00017577707294422828,8.056496041504535e-05,4.2,3.0
3.15234375,1.5620841608300885e-05,-0.00017382446970168612,-0.0001674798465629053,7.470180108949414e-05,4.2,3.0
3.15625,2.538920741893642e-05,-0.00016161668723735408,-0.00016601405673151751,7.71465673411154e-05,4.2,3.0
3.16015625,2.0991837924773e-05,-0.00014306428163424122,-0.0001440379084565499,8.740174656290529e-05,4.2,3.0
3.1640625,1.074200830090789e-05,-0.0001284170825162127,-0.0001284170825162127,7.958598399481189e-05,4.2,3.0
3.16796875,3.368643380025938e-05,-0.00011376453380025941,-0.00011718292687418937,5.37099788326848e-05,4.2,3.0
3.171875,5.858881214007779e-05,-8.837534204928663e-05,-9.277271154345007e-05,5.5175768664072604e-05,4.2,3.0
3.17578125,4.3941613022049266e-05,-8.495694897535667e-05,-8.105174249027237e-05,6.249936822308687e-05,4.2,3.0
3.1796875,4.687319268482487e-05,-6.493875354085604e-05,-6.152036046692608e-05,5.3217815823605674e-05,4.2,3.0
3.18359375,5.077839916990918e-05,-4.198897844357978e-05,-4.49205581063554e-05,3.6618013463034995e-05,4.2,3.0
3.1875,4.736000609597921e-05,-3.173914881971467e-05,-3.61365183138781e-05,2.8807600492866383e-05,4.2,3.0
3.19140625,3.6618013463034995e-05,-1.123413997405968e-05,-1.562615987029833e-05,4.345479961089491e-05,4.2,3.0
3.1953125,2.1970814345006458e-05,-4.397353826199761e-06,-7.328933488975373e-06,3.2225993566796346e-05,4.2,3.0
3.19921875,2.2457627756160804e-05,-7.328933488975373e-06,-3.4183774059662963e-06,1.7086631439688696e-05,4.2,3.0
3.203125,3.076020373540854e-05,-3.4183774059662963e-06,2.9262457328145072e-06,2.2457627756160804e-05,4.2,3.0
3.20703125,2.929441390402073e-05,1.4647214785992196e-05,1.7573444850843038e-05,2.2457627756160804e-05,4.2,3.0
3.2109375,2.4410230998702956e-05,3.905743011673149e-05,4.0523219948119306e-05,2.1970814345006458e-05,4.2,3.0
3.21484375,2.685499725032423e-05,3.9549593125810616e-05,4.4920589442282714e-05,2.0018211102464306e-05,4.2,3.0
3.21875,2.7341810661478573e-05,2.8807600492866383e-05,4.101538295719841e-05,1.6113004617380005e-05,4.2,3.0
3.22265625,2.8807600492866383e-05,3.466541022049284e-05,5.3217815823605674e-05,1.1228821712062234e-05,4.2,3.0
3.2265625,3.905743011673149e-05,6.542559828793771e-05,6.15203918028534e-05,1.6113004617380005e-05,4.2,3.0
3.23046875,3.613120005188065e-05,6.591776129701684e-05,5.077839916990918e-05,2.7341810661478573e-05,4.2,3.0
3.234375,3.1247017146562884e-05,3.808380329442281e-05,4.8825795927367025e-05,1.9039234682230848e-05,4.2,3.0
3.23828125,3.9549593125810616e-05,5.37099788326848e-05,5.908097514915691e-05,1.7086631439688696e-05,4.2,3.0
3.2421875,3.271280697795069e-05,4.931260933852137e-05,5.858881214007779e-05,2.0505024513618658e-05,4.2,3.0
3.24609375,2.4410230998702956e-05,4.833898251621268e-05,6.249936822308687e-05,1.7086631439688696e-05,4.2,3.0
3.25,3.41785968093385e-05,6.445197146562902e-05,6.787036453955899e-05,3.515222363164719e-05,4.2,3.0
3.25390625,3.9549593125810616e-05,7.616759092088193e-05,7.128875761348894e-05,4.296798619974056e-05,4.2,3.0
3.2578125,3.41785968093385e-05,5.468360565499348e-05,6.347299504539556e-05,3.41785968093385e-05,4.2,3.0
3.26171875,3.7596989883268464e-05,2.0505024513618658e-05,4.833898251621268e-05,1.7086631439688696e-05,4.2,3.0
3.265625,3.515222363164719e-05,2.343660417639427e-05,2.6362834241245108e-05,1.0249845291828769e-05,4.2,3.0
3.26953125,3.368643380025938e-05,2.2457627756160804e-05,1.513402819714654e-05,3.1247017146562884e-05,4.2,3.0
3.2734375,4.3941613022049266e-05,2.392341758754861e-05,1.8552421271076503e-05,3.9549593125810616e-05,4.2,3.0
3.27734375,4.4920589442282714e-05,6.831452217898814e-06,-4.92147341115455e-07,3.564438664072631e-05,4.2,3.0
3.28125,3.9549593125810616e-05,-2.2949759429312598e-05,-1.9044552944228293e-05,4.247582319066146e-05,4.2,3.0
3.28515625,4.931260933852137e-05,-4.345476827496759e-05,-2.6368152503242557e-05,6.00546019714656e-05,4.2,3.0
3.2890625,4.687319268482487e-05,-6.103354705577173e-05,-4.5407371517509743e-05,6.591776129701684e-05,4.2,3.0
3.29296875,4.3941613022049266e-05,-7.177553968871597e-05,-6.395977712062257e-05,7.226238443579764e-05,4.2,3.0
3.296875,3.7596989883268464e-05,-0.0001035147041763943,-8.54491119844358e-05,6.787036453955899e-05,4.2,3.0
3.30078125,2.929441390402073e-05,-0.00011669611346303501,-9.521212819714657e-05,8.447016690012967e-05,4.2,3.0
3.3046875,5.6636208897535633e-05,-0.00011816190329442282,-9.960414809338522e-05,0.00010351473551232163,4.2,3.0
3.30859375,6.689138811932552e-05,-0.00013378807883268485,-0.0001098593273151751,9.179376645914394e-05,4.2,3.0
3.3125,5.3217815823605674e-05,-0.00011669611346303501,-0.00010741991066147861,7.665975392996105e-05,4.2,3.0
3.31640625,4.150219636835277e-05,-7.909913924773022e-05,-9.082010830090792e-05,8.203075024643317e-05,4.2,3.0
3.3203125,3.3199620389105036e-05,-8.984113188067445e-05,-9.42331517769131e-05,8.593595673151748e-05,4.2,3.0
3.32421875,3.3199620389105036e-05,-0.00010400151758754865,-0.00010693309725032426,8.153858723735404e-05,4.2,3.0
3.328125,4.345479961089491e-05,-9.03279452918288e-05,-9.472531478599222e-05,7.86123571725032e-05,4.2,3.0
3.33203125,5.810199872892345e-05,-8.447013556420233e-05,-7.812016282749677e-05,7.568077750972759e-05,4.2,3.0
3.3359375,6.884399136186768e-05,-7.226235309987031e-05,-6.787033320363165e-05,7.71465673411154e-05,4.2,3.0
3.33984375,5.2244189001296984e-05,-5.517573732814528e-05,-5.908094381322958e-05,7.17755710246433e-05,4.2,3.0
3.34375,5.273100241245133e-05,-4.931257800259405e-05,-5.370994749675747e-05,6.298618163424121e-05,4.2,3.0
3.34765625,5.468360565499348e-05,-3.6623331725032444e-05,-4.979939141374839e-05,6.249936822308687e-05,4.2,3.0
3.3515625,4.638637927367053e-05,-1.2699929805447488e-05,-3.027870858625164e-05,5.810199872892345e-05,4.2,3.0
3.35546875,5.566258207522695e-05,-5.863143657587571e-06,-1.2207766796368372e-05,4.0523219948119306e-05,4.2,3.0
3.359375,5.37099788326848e-05,-1.4160370038910524e-05,-9.281536731517529e-06,3.613120005188065e-05,4.2,3.0
3.36328125,4.4920589442282714e-05,1.9039234682230848e-05,1.6113004617380005e-05,4.931260933852137e-05,4.2,3.0
3.3671875,3.173383055771722e-05,4.150219636835277e-05,3.076020373540854e-05,3.905743011673149e-05,4.2,3.0
3.37109375,3.710482687418934e-05,2.5876020830090766e-05,3.41785968093385e-05,3.0273390324254193e-05,4.2,3.0
3.375,4.540740285343706e-05,2.8807600492866383e-05,4.687319268482487e-05,2.392341758754861e-05,4.2,3.0
3.37890625,3.271280697795069e-05,4.442842643320361e-05,4.736000609597921e-05,1.2694611543450044e-05,4.2,3.0
3.3828125,3.173383055771722e-05,5.029158575875483e-05,5.077839916990918e-05,1.2202448534370923e-05,4.2,3.0
3.38671875,4.7846819507133556e-05,6.640457470817119e-05,7.42149876783398e-05,1.8552421271076503e-05,4.2,3.0
3.390625,4.345479961089491e-05,8.788855997405963e-05,8.593595673151748e-05,1.074200830090789e-05,4.2,3.0
3.39453125,2.685499725032423e-05,0.00010106996926070035,8.007279740596624e-05,-1.9579371725032643e-06,4.2,3.0
3.3984375,3.6618013463034995e-05,0.00010888573182879374,7.909917058365755e-05,-6.836770479896259e-06,4.2,3.0
3.40234375,4.003640653696496e-05,0.00010546733875486379,9.179376645914394e-05,-5.3763302464332196e-06,4.2,3.0
3.40625,1.9526048093385193e-05,0.00010204894568093383,0.00010302257250324252,-7.815746900129724e-06,4.2,3.0
3.41015625,2.0505024513618658e-05,0.00010839356881971463,9.960417942931254e-05,-3.910540415045418e-06,4.2,3.0
3.4140625,3.710482687418934e-05,0.0001123041249027237,0.00010351473551232163,4.392035564202317e-06,4.2,3.0
3.41796875,4.101538295719841e-05,0.00012450655776913093,0.00011425672814526587,1.1228821712062234e-05,4.2,3.0
3.421875,2.8807600492866383e-05,0.00011523035496757455,0.00011132514848249024,-1.4657741634241433e-06,4.2,3.0
3.42578125,1.3181424954604388e-05,9.569897294422824e-05,0.00010839356881971463,-1.1720953385214026e-05,4.2,3.0
3.4296875,2.4410230998702956e-05,9.52121595330739e-05,0.00011572251797665365,-5.3763302464332196e-06,4.2,3.0
3.43359375,3.6618013463034995e-05,9.863055260700385e-05,0.0001279249508430609,1.952618910505819e-06,4.2,3.0
3.4375,1.7086631439688696e-05,9.863055260700385e-05,0.0001303697170946822,6.34463880674447e-06,4.2,3.0
3.44140625,2.0991837924773e-05,9.228057987029828e-05,0.00011816193463035015,4.87884897535666e-06,4.2,3.0
3.4453125,3.613120005188065e-05,0.00011035152166018155,0.00011523035496757455,1.952618910505819e-06,4.2,3.0
3.44921875,3.076020373540854e-05,0.00012890392726329437,0.0001240197443579766,-6.836770479896259e-06,4.2,3.0
3.453125,3.2225993566796346e-05,0.00012646451060959789,0.0001215803277042801,-5.3763302464332196e-06,4.2,3.0
3.45703125,3.9549593125810616e-05,0.00011035152166018155,0.0001215803277042801,1.4604559014266982e-06,4.2,3.0
3.4609375,3.466541022049284e-05,0.00011669614479896235,0.00012841711385214004,4.868290791180101e-07,4.2,3.0
3.46484375,2.5876020830090766e-05,0.00012939074067444873,0.00012890392726329437,8.784055460440967e-06,4.2,3.0
3.46875,2.6362834241245108e-05,0.00013525389999999996,0.00012597234760051876,1.3668238365758731e-05,4.2,3.0
3.47265625,2.538920741893642e-05,0.0001147435415564202,0.00011669614479896235,3.4130591439688512e-06,4.2,3.0
3.4765625,3.076020373540854e-05,9.91173660181582e-05,0.00011279093831387805,-4.92147341115455e-07,4.2,3.0
3.48046875,3.173383055771722e-05,0.0001171829582101167,0.0001132777517250324,3.4130591439688512e-06,4.2,3.0
3.484375,2.343660417639427e-05,0.00010741994199740594,0.00010888573182879374,4.868290791180101e-07,4.2,3.0
3.48828125,3.0273390324254193e-05,9.66779493644617e-05,0.00010009634243839167,-6.836770479896259e-06,4.2,3.0
3.4921875,2.343660417639427e-05,0.00011864874804150452,9.569897294422824e-05,2.9262457328145072e-06,4.2,3.0
3.49609375,1.9039234682230848e-05,0.00010937254523994809,0.00010497517574578467,1.0249845291828769e-05,4.2,3.0
3.5,3.0273390324254193e-05,8.984116321660178e-05,9.91173660181582e-05,7.810428638132272e-06,4.2,3.0
3.50390625,2.2457627756160804e-05,7.226238443579764e-05,9.082013963683524e-05,1.074200830090789e-05,4.2,3.0
3.5078125,2.6362834241245108e-05,6.982296778210114e-05,9.91173660181582e-05,1.9039234682230848e-05,4.2,3.0
3.51171875,4.442842643320361e-05,8.447016690012967e-05,9.765157618677039e-05,3.271280697795069e-05,4.2,3.0
3.515625,4.003640653696496e-05,9.082013963683524e-05,9.619113595330736e-05,3.6618013463034995e-05,4.2,3.0
3.51953125,1.6113004617380005e-05,8.203075024643317e-05,9.130695304798959e-05,2.2944441167315156e-05,4.2,3.0
3.5234375,1.3181424954604388e-05,6.933080477302201e-05,8.398335348897533e-05,1.3181424954604388e-05,4.2,3.0
3.52734375,2.392341758754861e-05,7.17755710246433e-05,8.007279740596624e-05,1.513402819714654e-05,4.2,3.0
3.53125,3.515222363164719e-05,8.642277014267182e-05,7.86123571725032e-05,2.0991837924773e-05,4.2,3.0
3.53515625,2.2944441167315156e-05,9.130695304798959e-05,8.300437706874185e-05,1.659981802853435e-05,4.2,3.0
3.5390625,2.7341810661478573e-05,7.812019416342409e-05,8.4956980311284e-05,1.7573444850843038e-05,4.2,3.0
3.54296875,4.979942274967571e-05,7.470180108949414e-05,7.17755710246433e-05,2.48970444098573e-05,4.2,3.0
3.546875,3.905743011673149e-05,6.737820153047986e-05,6.200720521400775e-05,2.7828624072632918e-05,4.2,3.0
3.55078125,2.8807600492866383e-05,5.5175768664072604e-05,6.445197146562902e-05,2.343660417639427e-05,4.2,3.0
3.5546875,2.2457627756160804e-05,6.737820153047986e-05,6.689138811932552e-05,1.0249845291828769e-05,4.2,3.0
3.55859375,3.271280697795069e-05,8.740174656290529e-05,6.982296778210114e-05,1.4155051776913075e-05,4.2,3.0
3.5625,3.6618013463034995e-05,6.640457470817119e-05,7.226238443579764e-05,2.1484000933852113e-05,4.2,3.0
3.56640625,2.538920741893642e-05,4.540740285343706e-05,5.810199872892345e-05,1.7086631439688696e-05,4.2,3.0
3.5703125,1.659981802853435e-05,4.931260933852137e-05,4.687319268482487e-05,2.4410230998702956e-05,4.2,3.0
3.57421875,2.929441390402073e-05,5.908097514915691e-05,6.542559828793771e-05,4.003640653696496e-05,4.2,3.0
3.578125,4.198900977950711e-05,5.2244189001296984e-05,7.030978119325549e-05,2.6362834241245108e-05,4.2,3.0
3.58203125,1.659981802853435e-05,4.4920589442282714e-05,5.76151853177691e-05,1.9039234682230848e-05,4.2,3.0
3.5859375,1.8552421271076503e-05,4.687319268482487e-05,5.908097514915691e-05,3.466541022049284e-05,4.2,3.0
3.58984375,3.857061670557715e-05,4.442842643320361e-05,5.5175768664072604e-05,3.076020373540854e-05,4.2,3.0
3.59375,2.2944441167315156e-05,4.5894216264591404e-05,5.3217815823605674e-05,3.1247017146562884e-05,4.2,3.0
3.59765625,1.7573444850843038e-05,5.029158575875483e-05,5.468360565499348e-05,2.685499725032423e-05,4.2,3.0
3.6015625,3.271280697795069e-05,4.833898251621268e-05,5.4196792243839136e-05,1.6113004617380005e-05,4.2,3.0
3.60546875,3.905743011673149e-05,5.2244189001296984e-05,5.077839916990918e-05,2.2944441167315156e-05,4.2,3.0
3.609375,3.905743011673149e-05,6.103357839169906e-05,5.273100241245133e-05,3.857061670557715e-05,4.2,3.0
3.61328125,3.710482687418934e-05,4.442842643320361e-05,5.029158575875483e-05,3.515222363164719e-05,4.2,3.0
3.6171875,3.0273390324254193e-05,3.076020373540854e-05,4.247582319066146e-05,2.0018211102464306e-05,4.2,3.0
3.62109375,2.392341758754861e-05,3.466541022049284e-05,3.564438664072631e-05,2.8807600492866383e-05,4.2,3.0
3.625,2.1970814345006458e-05,4.101538295719841e-05,3.173383055771722e-05,3.271280697795069e-05,4.2,3.0
3.62890625,3.271280697795069e-05,4.442842643320361e-05,3.7596989883268464e-05,2.538920741893642e-05,4.2,3.0
3.6328125,3.41785968093385e-05,4.247582319066146e-05,4.4920589442282714e-05,2.7828624072632918e-05,4.2,3.0
3.63671875,2.2944441167315156e-05,4.687319268482487e-05,4.736000609597921e-05,2.978122731517507e-05,4.2,3.0
3.640625,2.8807600492866383e-05,3.564438664072631e-05,3.2225993566796346e-05,2.392341758754861e-05,4.2,3.0
3.64453125,2.978122731517507e-05,2.48970444098573e-05,2.0991837924773e-05,1.4155051776913075e-05,4.2,3.0
3.6484375,9.736424902723542e-07,3.515222363164719e-05,3.3199620389105036e-05,2.2457627756160804e-05,4.2,3.0
3.65234375,1.4604559014266982e-06,3.857061670557715e-05,4.247582319066146e-05,3.515222363164719e-05,4.2,3.0
3.65625,2.8807600492866383e-05,2.8807600492866383e-05,4.296798619974056e-05,2.8315437483787263e-05,4.2,3.0
3.66015625,4.4920589442282714e-05,2.343660417639427e-05,3.368643380025938e-05,2.6362834241245108e-05,4.2,3.0
3.6640625,4.4920589442282714e-05,2.7341810661478573e-05,2.929441390402073e-05,2.6362834241245108e-05,4.2,3.0
3.66796875,2.6362834241245108e-05,3.368643380025938e-05,3.6618013463034995e-05,3.2225993566796346e-05,4.2,3.0
3.671875,2.7341810661478573e-05,4.003640653696496e-05,3.7596989883268464e-05,3.2225993566796346e-05,4.2,3.0
3.67578125,2.0991837924773e-05,3.808380329442281e-05,2.343660417639427e-05,2.48970444098573e-05,4.2,3.0
3.6796875,1.9526048093385193e-05,3.564438664072631e-05,2.8315437483787263e-05,2.48970444098573e-05,4.2,3.0
3.68359375,1.7573444850843038e-05,3.271280697795069e-05,3.173383055771722e-05,3.173383055771722e-05,4.2,3.0
3.6875,2.343660417639427e-05,3.3199620389105036e-05,2.7828624072632918e-05,3.466541022049284e-05,4.2,3.0
3.69140625,4.638637927367053e-05,3.466541022049284e-05,2.8315437483787263e-05,2.2457627756160804e-05,4.2,3.0
3.6953125,4.4920589442282714e-05,3.271280697795069e-05,2.7341810661478573e-05,2.6362834241245108e-05,4.2,3.0
3.69921875,3.515222363164719e-05,2.929441390402073e-05,2.978122731517507e-05,2.5876020830090766e-05,4.2,3.0
3.703125,1.5620841608300885e-05,3.41785968093385e-05,3.076020373540854e-05,2.2944441167315156e-05,4.2,3.0
3.70703125,1.659981802853435e-05,3.3199620389105036e-05,2.1484000933852113e-05,3.9549593125810616e-05,4.2,3.0
3.7109375,3.564438664072631e-05,2.48970444098573e-05,1.5620841608300885e-05,3.613120005188065e-05,4.2,3.0
3.71484375,3.368643380025938e-05,3.271280697795069e-05,2.0505024513618658e-05,3.857061670557715e-05,4.2,3.0
3.71875,3.710482687418934e-05,2.48970444098573e-05,1.7086631439688696e-05,4.150219636835277e-05,4.2,3.0
3.72265625,3.710482687418934e-05,2.1484000933852113e-05,1.8552421271076503e-05,2.929441390402073e-05,4.2,3.0
3.7265625,3.271280697795069e-05,3.2225993566796346e-05,2.978122731517507e-05,2.2457627756160804e-05,4.2,3.0
3.73046875,4.638637927367053e-05,3.173383055771722e-05,3.564438664072631e-05,1.3668238365758731e-05,4.2,3.0
3.734375,3.3199620389105036e-05,3.2225993566796346e-05,3.368643380025938e-05,2.8807600492866383e-05,4.2,3.0
3.73828125,1.7573444850843038e-05,3.076020373540854e-05,3.1247017146562884e-05,5.858881214007779e-05,4.2,3.0
3.7421875,3.271280697795069e-05,2.978122731517507e-05,2.4410230998702956e-05,6.00546019714656e-05,4.2,3.0
3.74609375,4.247582319066146e-05,2.538920741893642e-05,1.4155051776913075e-05,3.6618013463034995e-05,4.2,3.0
3.75,4.638637927367053e-05,2.0505024513618658e-05,1.9039234682230848e-05,2.1970814345006458e-05,4.2,3.0
3.75390625,4.296798619974056e-05,3.466541022049284e-05,2.6362834241245108e-05,2.978122731517507e-05,4.2,3.0
3.7578125,3.9549593125810616e-05,3.271280697795069e-05,2.2457627756160804e-05,4.101538295719841e-05,4.2,3.0
3.76171875,2.8807600492866383e-05,2.538920741893642e-05,2.538920741893642e-05,3.710482687418934e-05,4.2,3.0
3.765625,2.4410230998702956e-05,2.392341758754861e-05,2.978122731517507e-05,3.41785968093385e-05,4.2,3.0
3.76953125,2.4410230998702956e-05,2.685499725032423e-05,1.7086631439688696e-05,4.4920589442282714e-05,4.2,3.0
3.7734375,2.2944441167315156e-05,2.978122731517507e-05,1.9039234682230848e-05,4.296798619974056e-05,4.2,3.0
3.77734375,3.3199620389105036e-05,2.2944441167315156e-05,2.6362834241245108e-05,3.857061670557715e-05,4.2,3.0
3.78125,3.9549593125810616e-05,2.8315437483787263e-05,2.5876020830090766e-05,4.101538295719841e-05,4.2,3.0
3.78515625,3.271280697795069e-05,2.8807600492866383e-05,1.7086631439688696e-05,3.271280697795069e-05,4.2,3.0
3.7890625,2.392341758754861e-05,2.8315437483787263e-05,1.5620841608300885e-05,3.2225993566796346e-05,4.2,3.0
3.79296875,2.5876020830090766e-05,1.9039234682230848e-05,2.48970444098573e-05,4.540740285343706e-05,4.2,3.0
3.796875,2.978122731517507e-05,1.2202448534370923e-05,2.0991837924773e-05,5.37099788326848e-05,4.2,3.0
3.80078125,3.076020373540854e-05,2.7828624072632918e-05,2.7828624072632918e-05,6.00546019714656e-05,4.2,3.0
3.8046875,3.173383055771722e-05,3.7596989883268464e-05,2.7341810661478573e-05,5.37099788326848e-05,4.2,3.0
3.80859375,3.076020373540854e-05,1.9526048093385193e-05,7.323615226977928e-06,5.6636208897535633e-05,4.2,3.0
3.8125,2.6362834241245108e-05,-5.863143657587571e-06,5.371011984435775e-06,5.4196792243839136e-05,4.2,3.0
3.81640625,2.978122731517507e-05,9.736424902723542e-07,1.2202448534370923e-05,4.8825795927367025e-05,4.2,3.0
3.8203125,4.0523219948119306e-05,2.4394323216601632e-06,9.763031880674425e-06,4.296798619974056e-05,4.2,3.0
3.82421875,2.8315437483787263e-05,1.171563512321658e-05,1.0249845291828769e-05,3.6618013463034995e-05,4.2,3.0
3.828125,2.929441390402073e-05,3.0273390324254193e-05,9.763031880674425e-06,4.7846819507133556e-05,4.2,3.0
3.83203125,4.638637927367053e-05,2.0505024513618658e-05,1.4155051776913075e-05,5.6149395486381295e-05,4.2,3.0
3.8359375,3.857061670557715e-05,1.4155051776913075e-05,2.7341810661478573e-05,5.3217815823605674e-05,4.2,3.0
3.83984375,3.857061670557715e-05,1.8065607859922154e-05,2.6362834241245108e-05,4.736000609597921e-05,4.2,3.0
3.84375,3.2225993566796346e-05,2.0018211102464306e-05,2.392341758754861e-05,4.296798619974056e-05,4.2,3.0
3.84765625,6.831452217898814e-06,2.1970814345006458e-05,2.1970814345006458e-05,3.3199620389105036e-05,4.2,3.0
3.8515625,1.8552421271076503e-05,2.978122731517507e-05,2.392341758754861e-05,4.638637927367053e-05,4.2,3.0
3.85546875,3.613120005188065e-05,2.343660417639427e-05,2.6362834241245108e-05,6.054676498054472e-05,4.2,3.0
3.859375,2.0505024513618658e-05,1.7086631439688696e-05,2.48970444098573e-05,4.931260933852137e-05,4.2,3.0
3.86328125,2.538920741893642e-05,3.2225993566796346e-05,3.466541022049284e-05,5.029158575875483e-05,4.2,3.0
3.8671875,3.710482687418934e-05,2.685499725032423e-05,3.2225993566796346e-05,5.468360565499348e-05,4.2,3.0
3.87109375,3.271280697795069e-05,1.7086631439688696e-05,2.392341758754861e-05,5.077839916990918e-05,4.2,3.0
3.875,4.931260933852137e-05,1.9039234682230848e-05,1.8552421271076503e-05,3.7596989883268464e-05,4.2,3.0
3.87890625,4.931260933852137e-05,2.4410230998702956e-05,2.4410230998702956e-05,3.466541022049284e-05,4.2,3.0
3.8828125,2.5876020830090766e-05,3.173383055771722e-05,2.4410230998702956e-05,3.564438664072631e-05,4.2,3.0
3.88671875,2.7341810661478573e-05,2.8315437483787263e-05,1.3668238365758731e-05,3.564438664072631e-05,4.2,3.0
3.890625,4.3941613022049266e-05,2.7828624072632918e-05,2.343660417639427e-05,4.0523219948119306e-05,4.2,3.0
3.89453125,3.710482687418934e-05,2.685499725032423e-05,2.685499725032423e-05,4.003640653696496e-05,4.2,3.0
3.8984375,2.4410230998702956e-05,1.3668238365758731e-05,1.4155051776913075e-05,4.150219636835277e-05,4.2,3.0
3.90234375,3.1247017146562884e-05,6.34463880674447e-06,1.1228821712062234e-05,3.7596989883268464e-05,4.2,3.0
3.90625,3.808380329442281e-05,4.87884897535666e-06,2.0018211102464306e-05,2.343660417639427e-05,4.2,3.0
3.91015625,3.808380329442281e-05,1.4604559014266982e-06,2.2944441167315156e-05,2.4410230998702956e-05,4.2,3.0
3.9140625,3.905743011673149e-05,3.4130591439688512e-06,2.0991837924773e-05,3.466541022049284e-05,4.2,3.0
3.91796875,3.710482687418934e-05,2.343660417639427e-05,2.7341810661478573e-05,3.1247017146562884e-05,4.2,3.0
3.921875,3.173383055771722e-05,3.710482687418934e-05,2.392341758754861e-05,4.150219636835277e-05,4.2,3.0
3.92578125,2.538920741893642e-05,3.6618013463034995e-05,2.2944441167315156e-05,4.7846819507133556e-05,4.2,3.0
3.9296875,3.0273390324254193e-05,3.271280697795069e-05,3.515222363164719e-05,4.736000609597921e-05,4.2,3.0
3.93359375,2.2457627756160804e-05,1.0249845291828769e-05,3.271280697795069e-05,3.857061670557715e-05,4.2,3.0
3.9375,2.5876020830090766e-05,6.34463880674447e-06,2.538920741893642e-05,2.2457627756160804e-05,4.2,3.0
3.94140625,4.4920589442282714e-05,2.0018211102464306e-05,2.929441390402073e-05,2.685499725032423e-05,4.2,3.0
3.9453125,3.466541022049284e-05,1.3181424954604388e-05,2.5876020830090766e-05,2.538920741893642e-05,4.2,3.0
3.94921875,3.2225993566796346e-05,2.538920741893642e-05,2.2457627756160804e-05,2.929441390402073e-05,4.2,3.0
3.953125,3.7596989883268464e-05,3.808380329442281e-05,3.076020373540854e-05,4.3941613022049266e-05,4.2,3.0
3.95703125,2.4410230998702956e-05,2.929441390402073e-05,2.8315437483787263e-05,3.515222363164719e-05,4.2,3.0
3.9609375,2.6362834241245108e-05,2.48970444098573e-05,2.7828624072632918e-05,3.3199620389105036e-05,4.2,3.0
3.96484375,2.978122731517507e-05,2.538920741893642e-05,3.515222363164719e-05,5.2244189001296984e-05,4.2,3.0
3.96875,2.0018211102464306e-05,1.8552421271076503e-05,3.2225993566796346e-05,4.833898251621268e-05,4.2,3.0
3.97265625,2.5876020830090766e-05,-1.4657741634241433e-06,2.7828624072632918e-05,2.48970444098573e-05,4.2,3.0
3.9765625,3.1247017146562884e-05,4.868290791180101e-07,1.8552421271076503e-05,2.4410230998702956e-05,4.2,3.0
3.98046875,2.2457627756160804e-05,2.538920741893642e-05,1.9039234682230848e-05,3.368643380025938e-05,4.2,3.0
3.984375,2.1970814345006458e-05,2.685499725032423e-05,2.4410230998702956e-05,3.0273390324254193e-05,4.2,3.0
3.98828125,3.0273390324254193e-05,2.1970814345006458e-05,2.4410230998702956e-05,3.857061670557715e-05,4.2,3.0
3.9921875,3.1247017146562884e-05,2.4410230998702956e-05,1.9526048093385193e-05,4.0523219948119306e-05,4.2,3.0
3.99609375,2.7828624072632918e-05,1.6113004617380005e-05,1.6113004617380005e-05,3.466541022049284e-05,4.2,3.0
4.0,2.978122731517507e-05,6.831452217898814e-06,2.1484000933852113e-05,3.3199620389105036e-05,4.2,3.0
4.00390625,4.3941613022049266e-05,2.0505024513618658e-05,2.0505024513618658e-05,3.710482687418934e-05,4.2,3.0
4.0078125,3.515222363164719e-05,2.7341810661478573e-05,2.392341758754861e-05,3.808380329442281e-05,4.2,3.0
4.01171875,2.8315437483787263e-05,1.7086631439688696e-05,2.2944441167315156e-05,2.538920741893642e-05,4.2,3.0
4.015625,3.710482687418934e-05,2.0505024513618658e-05,1.8065607859922154e-05,2.978122731517507e-05,4.2,3.0
4.01953125,3.173383055771722e-05,2.4410230998702956e-05,3.076020373540854e-05,4.833898251621268e-05,4.2,3.0
4.0234375,2.7828624072632918e-05,2.48970444098573e-05,3.3199620389105036e-05,4.150219636835277e-05,4.2,3.0
4.02734375,3.613120005188065e-05,3.857061670557715e-05,1.9039234682230848e-05,2.8315437483787263e-05,4.2,3.0
4.03125,3.3199620389105036e-05,2.6362834241245108e-05,1.0249845291828769e-05,2.7341810661478573e-05,4.2,3.0
4.03515625,2.5876020830090766e-05,1.9526048093385193e-05,1.3181424954604388e-05,2.6362834241245108e-05,4.2,3.0
4.0390625,2.7341810661478573e-05,2.4410230998702956e-05,2.48970444098573e-05,3.808380329442281e-05,4.2,3.0
4.04296875,3.613120005188065e-05,1.4647214785992196e-05,2.2457627756160804e-05,3.6618013463034995e-05,4.2,3.0
4.046875,3.905743011673149e-05,2.0991837924773e-05,2.0018211102464306e-05,2.343660417639427e-05,4.2,3.0
4.05078125,2.1970814345006458e-05,2.6362834241245108e-05,2.0991837924773e-05,2.0018211102464306e-05,4.2,3.0
4.0546875,1.9039234682230848e-05,2.2457627756160804e-05,2.2944441167315156e-05,2.5876020830090766e-05,4.2,3.0
4.05859375,3.0273390324254193e-05,2.7341810661478573e-05,2.5876020830090766e-05,3.808380329442281e-05,4.2,3.0
4.0625,2.7828624072632918e-05,2.48970444098573e-05,1.659981802853435e-05,3.613120005188065e-05,4.2,3.0
4.06640625,3.1247017146562884e-05,4.003640653696496e-05,2.1484000933852113e-05,2.8315437483787263e-05,4.2,3.0
4.0703125,3.857061670557715e-05,5.126521258106352e-05,2.5876020830090766e-05,2.929441390402073e-05,4.2,3.0
4.07421875,2.685499725032423e-05,1.3181424954604388e-05,1.7573444850843038e-05,4.003640653696496e-05,4.2,3.0
4.078125,3.173383055771722e-05,1.952618910505819e-06,1.7573444850843038e-05,3.808380329442281e-05,4.2,3.0
4.08203125,5.566258207522695e-05,2.685499725032423e-05,2.8315437483787263e-05,2.7828624072632918e-05,4.2,3.0
4.0859375,3.857061670557715e-05,3.857061670557715e-05,3.613120005188065e-05,2.1970814345006458e-05,4.2,3.0
4.08984375,1.8552421271076503e-05,2.343660417639427e-05,2.1484000933852113e-05,3.271280697795069e-05,4.2,3.0
4.09375,2.8807600492866383e-05,1.5620841608300885e-05,1.074200830090789e-05,3.9549593125810616e-05,4.2,3.0
4.09765625,3.173383055771722e-05,1.9039234682230848e-05,2.4410230998702956e-05,3.6618013463034995e-05,4.2,3.0
4.1015625,2.48970444098573e-05,2.343660417639427e-05,2.6362834241245108e-05,3.9549593125810616e-05,4.2,3.0
4.10546875,2.929441390402073e-05,1.8552421271076503e-05,1.4155051776913075e-05,3.3199620389105036e-05,4.2,3.0
4.109375,2.8807600492866383e-05,1.0249845291828769e-05,5.8578253955901185e-06,2.7341810661478573e-05,4.2,3.0
4.11328125,2.7828624072632918e-05,1.5620841608300885e-05,1.1228821712062234e-05,2.978122731517507e-05,4.2,3.0
4.1171875,3.3199620389105036e-05,2.392341758754861e-05,2.392341758754861e-05,3.0273390324254193e-05,4.2,3.0
4.12109375,3.857061670557715e-05,2.2457627756160804e-05,2.392341758754861e-05,2.392341758754861e-05,4.2,3.0
4.125,3.857061670557715e-05,2.8807600492866383e-05,2.8807600492866383e-05,3.1247017146562884e-05,4.2,3.0
4.12890625,3.41785968093385e-05,3.564438664072631e-05,3.710482687418934e-05,4.4920589442282714e-05,4.2,3.0
4.1328125,2.8807600492866383e-05,1.9526048093385193e-05,3.1247017146562884e-05,4.442842643320361e-05,4.2,3.0
4.13671875,2.392341758754861e-05,3.9549593125810616e-05,2.2944441167315156e-05,3.857061670557715e-05,4.2,3.0
4.140625,2.8315437483787263e-05,3.6618013463034995e-05,2.0991837924773e-05,3.3199620389105036e-05,4.2,3.0
4.14453125,3.173383055771722e-05,4.392035564202317e-06,2.7341810661478573e-05,3.613120005188065e-05,4.2,3.0
4.1484375,3.368643380025938e-05,1.171563512321658e-05,3.173383055771722e-05,3.0273390324254193e-05,4.2,3.0
4.15234375,3.368643380025938e-05,1.659981802853435e-05,2.978122731517507e-05,2.929441390402073e-05,4.2,3.0
4.15625,3.076020373540854e-05,1.8065607859922154e-05,3.271280697795069e-05,3.564438664072631e-05,4.2,3.0
4.16015625,3.1247017146562884e-05,2.1484000933852113e-05,3.1247017146562884e-05,3.564438664072631e-05,4.2,3.0
4.1640625,3.2225993566796346e-05,2.0991837924773e-05,2.4410230998702956e-05,4.101538295719841e-05,4.2,3.0
4.16796875,3.466541022049284e-05,3.3199620389105036e-05,2.7341810661478573e-05,3.466541022049284e-05,4.2,3.0
4.171875,3.9549593125810616e-05,3.710482687418934e-05,3.466541022049284e-05,2.978122731517507e-05,4.2,3.0
4.17578125,4.296798619974056e-05,2.4410230998702956e-05,2.685499725032423e-05,3.613120005188065e-05,4.2,3.0
4.1796875,3.076020373540854e-05,2.48970444098573e-05,2.0505024513618658e-05,2.929441390402073e-05,4.2,3.0
4.18359375,2.343660417639427e-05,2.48970444098573e-05,2.392341758754861e-05,2.6362834241245108e-05,4.2,3.0
4.1875,3.6618013463034995e-05,2.0505024513618658e-05,2.929441390402073e-05,2.1484000933852113e-05,4.2,3.0
4.19140625,5.126521258106352e-05,2.8315437483787263e-05,3.2225993566796346e-05,2.2457627756160804e-05,4.2,3.0
4.1953125,4.3941613022049266e-05,1.9526048093385193e-05,3.076020373540854e-05,3.710482687418934e-05,4.2,3.0
4.19921875,2.1970814345006458e-05,2.0505024513618658e-05,2.7828624072632918e-05,2.929441390402073e-05,4.2,3.0
4.203125,3.808380329442281e-05,4.003640653696496e-05,2.7341810661478573e-05,3.1247017146562884e-05,4.2,3.0
4.20703125,3.857061670557715e-05,2.2944441167315156e-05,2.929441390402073e-05,4.687319268482487e-05,4.2,3.0
4.2109375,1.8065607859922154e-05,1.6113004617380005e-05,3.2225993566796346e-05,5.37099788326848e-05,4.2,3.0
4.21484375,2.392341758754861e-05,2.5876020830090766e-05,3.3199620389105036e-05,4.150219636835277e-05,4.2,3.0
4.21875,2.0991837924773e-05,2.1484000933852113e-05,2.7341810661478573e-05,2.8807600492866383e-05,4.2,3.0
4.22265625,3.3199620389105036e-05,1.7573444850843038e-05,2.7828624072632918e-05,3.905743011673149e-05,4.2,3.0
4.2265625,4.0523219948119306e-05,2.4410230998702956e-05,3.173383055771722e-05,3.2225993566796346e-05,4.2,3.0
4.23046875,3.808380329442281e-05,3.7596989883268464e-05,3.7596989883268464e-05,2.8315437483787263e-05,4.2,3.0
4.234375,3.857061670557715e-05,3.515222363164719e-05,3.857061670557715e-05,2.8315437483787263e-05,4.2,3.0
4.23828125,3.0273390324254193e-05,4.638637927367053e-05,3.564438664072631e-05,2.929441390402073e-05,4.2,3.0
4.2421875,3.368643380025938e-05,4.198900977950711e-05,3.564438664072631e-05,3.9549593125810616e-05,4.2,3.0
4.24609375,3.2225993566796346e-05,2.7341810661478573e-05,3.368643380025938e-05,3.710482687418934e-05,4.2,3.0
4.25,3.466541022049284e-05,3.808380329442281e-05,3.2225993566796346e-05,3.9549593125810616e-05,4.2,3.0
4.25390625,4.198900977950711e-05,2.685499725032423e-05,2.48970444098573e-05,3.271280697795069e-05,4.2,3.0
4.2578125,3.271280697795069e-05,2.685499725032423e-05,2.48970444098573e-05,2.392341758754861e-05,4.2,3.0
4.26171875,2.2457627756160804e-05,2.685499725032423e-05,2.4410230998702956e-05,2.8807600492866383e-05,4.2,3.0
4.265625,3.466541022049284e-05,2.1970814345006458e-05,1.5620841608300885e-05,2.4410230998702956e-05,4.2,3.0
4.26953125,3.613120005188065e-05,2.7828624072632918e-05,2.0505024513618658e-05,2.8315437483787263e-05,4.2,3.0
4.2734375,2.6362834241245108e-05,2.7828624072632918e-05,2.8807600492866383e-05,3.564438664072631e-05,4.2,3.0
4.27734375,2.929441390402073e-05,2.4410230998702956e-05,2.685499725032423e-05,3.466541022049284e-05,4.2,3.0
4.28125,3.515222363164719e-05,1.8552421271076503e-05,1.8552421271076503e-05,3.2225993566796346e-05,4.2,3.0
4.28515625,3.515222363164719e-05,1.7573444850843038e-05,2.0018211102464306e-05,2.8807600492866383e-05,4.2,3.0
4.2890625,3.6618013463034995e-05,1.659981802853435e-05,1.7086631439688696e-05,2.685499725032423e-05,4.2,3.0
4.29296875,3.6618013463034995e-05,2.0505024513618658e-05,2.0991837924773e-05,3.0273390324254193e-05,4.2,3.0
4.296875,2.0505024513618658e-05,2.1484000933852113e-05,1.8552421271076503e-05,2.8807600492866383e-05,4.2,3.0
4.30078125,1.4155051776913075e-05,2.1970814345006458e-05,1.3181424954604388e-05,2.2457627756160804e-05,4.2,3.0
4.3046875,2.1484000933852113e-05,1.7086631439688696e-05,1.8552421271076503e-05,1.8552421271076503e-05,4.2,3.0
4.30859375,2.538920741893642e-05,6.831452217898814e-06,1.9039234682230848e-05,2.1484000933852113e-05,4.2,3.0
4.3125,3.173383055771722e-05,2.4410230998702956e-05,1.8552421271076503e-05,2.343660417639427e-05,4.2,3.0
4.31640625,2.685499725032423e-05,2.8315437483787263e-05,2.2944441167315156e-05,1.8065607859922154e-05,4.2,3.0
4.3203125,3.564438664072631e-05,1.3668238365758731e-05,1.6113004617380005e-05,2.392341758754861e-05,4.2,3.0
4.32421875,4.931260933852137e-05,1.513402819714654e-05,1.3181424954604388e-05,3.857061670557715e-05,4.2,3.0
4.328125,3.515222363164719e-05,2.0018211102464306e-05,1.2694611543450044e-05,2.929441390402073e-05,4.2,3.0
4.33203125,2.0991837924773e-05,2.4410230998702956e-05,1.4647214785992196e-05,2.7341810661478573e-05,4.2,3.0
4.3359375,1.9526048093385193e-05,2.7341810661478573e-05,2.1970814345006458e-05,3.41785968093385e-05,4.2,3.0
4.33984375,2.5876020830090766e-05,2.2944441167315156e-05,2.0505024513618658e-05,2.929441390402073e-05,4.2,3.0
