timestamp,TP9,AF7,AF8,TP10,Valence,Arousal
0.0,-3.6144567461661683e-05,6.344293138017875e-06,-2.5391607544060397e-05,-3.711399208056761e-05,3.3333,4.4667
0.00390625,-3.9065596905470336e-05,1.4150712437628769e-05,-5.420647878233003e-05,-3.711399208056761e-05,3.3333,4.4667
0.0078125,-3.418020704966809e-05,1.318128781872285e-05,-5.615808360723275e-05,-4.101720173037306e-05,3.3333,4.4667
0.01171875,-3.5162387255664886e-05,-1.9595940581368438e-06,-4.932108892652778e-05,-3.759870439002058e-05,3.3333,4.4667
0.015625,-3.4677674946211924e-05,1.1714395303273078e-05,-4.3466274451819615e-05,-3.5647099565117855e-05,3.3333,4.4667
0.01953125,-3.369549474021513e-05,1.4150712437628769e-05,-5.030326913252457e-05,-4.1999381936369856e-05,3.3333,4.4667
0.0234375,-3.5162387255664886e-05,4.392688313115158e-06,-4.638730389562826e-05,-4.1514669626916887e-05,3.3333,4.4667
0.02734375,-4.0532489420920096e-05,8.295897962920605e-06,-3.3210782430762164e-05,-2.7840680265506954e-05,3.3333,4.4667
0.03125,-4.296880655527578e-05,5.3621129320210765e-06,-2.832539257495992e-05,-2.588907544060423e-05,3.3333,4.4667
0.03515625,-4.1514669626916887e-05,3.8952204165713194e-06,-1.0748193563744542e-05,-3.4677674946211924e-05,3.3333,4.4667
0.0390625,-4.004777711146713e-05,-9.766013357747745e-06,-6.360271604486129e-06,-4.004777711146713e-05,3.3333,4.4667
0.04296875,-4.296880655527578e-05,-2.490689523460744e-05,-2.4422182925154473e-05,-4.493316696726937e-05,3.3333,4.4667
0.046875,-4.395098676127257e-05,-4.296880655527578e-05,-3.5162387255664886e-05,-4.493316696726937e-05,3.3333,4.4667
0.05078125,-4.004777711146713e-05,-5.030326913252457e-05,-1.905208075989927e-05,-3.711399208056761e-05,3.3333,4.4667
0.0546875,-3.809617228656441e-05,-4.1999381936369856e-05,-6.844983913939089e-06,-3.5647099565117855e-05,3.3333,4.4667
0.05859375,-3.858088459601737e-05,-4.8351664307621856e-05,-8.311876429388853e-06,-3.125917760585944e-05,3.3333,4.4667
0.0625,-4.395098676127257e-05,-4.736948410162506e-05,-3.17438899153124e-05,-2.9792285090409676e-05,3.3333,4.4667
0.06640625,-4.395098676127257e-05,-2.9792285090409676e-05,-3.9065596905470336e-05,-3.3210782430762164e-05,3.3333,4.4667
0.0703125,-3.759870439002058e-05,-1.22150860791943e-05,-2.9307572780956717e-05,-3.711399208056761e-05,3.3333,4.4667
0.07421875,-3.4677674946211924e-05,-1.0748193563744542e-05,-2.0518973275349026e-05,-4.1999381936369856e-05,3.3333,4.4667
0.078125,-3.9065596905470336e-05,-2.9792285090409676e-05,-1.3184510698100226e-05,-3.2726070121309195e-05,3.3333,4.4667
0.08203125,-4.3466274451819615e-05,-3.369549474021513e-05,-3.17438899153124e-05,-2.5391607544060397e-05,3.3333,4.4667
0.0859375,-4.004777711146713e-05,-2.2470578100251748e-05,-4.8351664307621856e-05,-2.490689523460744e-05,3.3333,4.4667
0.08984375,-3.6144567461661683e-05,-2.2470578100251748e-05,-4.736948410162506e-05,-2.5391607544060397e-05,3.3333,4.4667
0.09375,-4.980580123598075e-05,-3.222860222476537e-05,-5.078798144197755e-05,-3.222860222476537e-05,3.3333,4.4667
0.09765625,-6.299507828793771e-05,-2.3440002719157675e-05,-3.2726070121309195e-05,-3.759870439002058e-05,3.3333,4.4667
0.1015625,-5.177016164797434e-05,-2.2470578100251748e-05,-2.9307572780956717e-05,-4.638730389562826e-05,3.3333,4.4667
0.10546875,-4.0532489420920096e-05,-4.4435699070725546e-05,-5.030326913252457e-05,-4.4435699070725546e-05,3.3333,4.4667
0.109375,-3.809617228656441e-05,-3.2726070121309195e-05,-3.6144567461661683e-05,-3.222860222476537e-05,3.3333,4.4667
0.11328125,-3.6629279771114646e-05,-2.4422182925154473e-05,-4.0532489420920096e-05,-3.6629279771114646e-05,3.3333,4.4667
0.1171875,-3.9065596905470336e-05,-3.027699739986264e-05,-5.567337129777979e-05,-3.369549474021513e-05,3.3333,4.4667
0.12109375,-3.3210782430762164e-05,-1.7585188244449503e-05,-5.859440074158844e-05,-3.076170970931561e-05,3.3333,4.4667
0.125,-3.125917760585944e-05,-1.22150860791943e-05,-6.738300024719613e-05,-3.9563064802014165e-05,3.3333,4.4667
0.12890625,-3.809617228656441e-05,-1.905208075989927e-05,-6.446197080338747e-05,-4.638730389562826e-05,3.3333,4.4667
0.1328125,-3.711399208056761e-05,-1.7100475934996545e-05,-4.1514669626916887e-05,-4.68847717921721e-05,3.3333,4.4667
0.13671875,-3.6629279771114646e-05,-1.465140321354999e-05,-3.222860222476537e-05,-3.9065596905470336e-05,3.3333,4.4667
0.140625,-4.0532489420920096e-05,-1.6603008038452713e-05,-3.5647099565117855e-05,-3.5647099565117855e-05,3.3333,4.4667
0.14453125,-3.809617228656441e-05,-2.5391607544060397e-05,-4.004777711146713e-05,-3.222860222476537e-05,3.3333,4.4667
0.1484375,-3.5162387255664886e-05,-2.1973110203707916e-05,-4.1514669626916887e-05,-2.7355967956053992e-05,3.3333,4.4667
0.15234375,-3.125917760585944e-05,-2.9417742641336416e-06,-3.5162387255664886e-05,-2.9307572780956717e-05,3.3333,4.4667
0.15625,-2.4422182925154473e-05,-9.7741385214006e-07,-2.490689523460744e-05,-3.17438899153124e-05,3.3333,4.4667
0.16015625,-3.076170970931561e-05,-1.4166690904097024e-05,-1.953679306935223e-05,-2.7840680265506954e-05,3.3333,4.4667
0.1640625,-3.5162387255664886e-05,-1.806990055390247e-05,-3.6144567461661683e-05,-3.3210782430762164e-05,3.3333,4.4667
0.16796875,-3.418020704966809e-05,-2.3440002719157675e-05,-4.785419641107802e-05,-3.222860222476537e-05,3.3333,4.4667
0.171875,-3.6144567461661683e-05,-2.5391607544060397e-05,-3.418020704966809e-05,-3.027699739986264e-05,3.3333,4.4667
0.17578125,-3.076170970931561e-05,-1.1730373769741333e-05,-1.2699798388647266e-05,-3.711399208056761e-05,3.3333,4.4667
0.1796875,-2.9307572780956717e-05,-1.3681978594644056e-05,-2.3937470615701507e-05,-3.711399208056761e-05,3.3333,4.4667
0.18359375,-2.7840680265506954e-05,-2.9307572780956717e-05,-4.8351664307621856e-05,-2.832539257495992e-05,3.3333,4.4667
0.1875,-2.100368558480199e-05,-2.0518973275349026e-05,-3.222860222476537e-05,-2.8810104884412885e-05,3.3333,4.4667
0.19140625,-2.2470578100251748e-05,-1.3184510698100226e-05,-2.6373787750057195e-05,-3.809617228656441e-05,3.3333,4.4667
0.1953125,-2.7840680265506954e-05,-2.6858500059510164e-05,-1.7585188244449503e-05,-3.6629279771114646e-05,3.3333,4.4667
0.19921875,-2.6373787750057195e-05,-1.953679306935223e-05,-1.0263481254291577e-05,-3.369549474021513e-05,3.3333,4.4667
0.203125,-2.0518973275349026e-05,-8.311876429388853e-06,-2.2470578100251748e-05,-3.5162387255664886e-05,3.3333,4.4667
0.20703125,-2.6373787750057195e-05,-1.85673684504463e-05,-4.3466274451819615e-05,-3.858088459601737e-05,3.3333,4.4667
0.2109375,-2.7355967956053992e-05,-1.6118295728999747e-05,-4.980580123598075e-05,-4.101720173037306e-05,3.3333,4.4667
0.21484375,-2.6373787750057195e-05,-8.311876429388853e-06,-3.6144567461661683e-05,-3.418020704966809e-05,3.3333,4.4667
0.21875,-2.3440002719157675e-05,-1.4748817486838846e-06,-3.076170970931561e-05,-3.759870439002058e-05,3.3333,4.4667
0.22265625,-2.3440002719157675e-05,-1.465140321354999e-05,-2.832539257495992e-05,-3.759870439002058e-05,3.3333,4.4667
0.2265625,-2.6858500059510164e-05,-3.6629279771114646e-05,-3.4677674946211924e-05,-3.2726070121309195e-05,3.3333,4.4667
0.23046875,-2.7840680265506954e-05,-3.076170970931561e-05,-4.0532489420920096e-05,-3.3210782430762164e-05,3.3333,4.4667
0.234375,-2.6858500059510164e-05,-2.4422182925154473e-05,-2.4422182925154473e-05,-3.222860222476537e-05,3.3333,4.4667
0.23828125,-2.8810104884412885e-05,-4.736948410162506e-05,-1.5148871110093821e-05,-3.4677674946211924e-05,3.3333,4.4667
0.2421875,-2.4422182925154473e-05,-4.8351664307621856e-05,-3.418020704966809e-05,-3.4677674946211924e-05,3.3333,4.4667
0.24609375,-2.490689523460744e-05,-3.125917760585944e-05,-3.858088459601737e-05,-3.17438899153124e-05,3.3333,4.4667
0.25,-3.125917760585944e-05,6.344293138017875e-06,-2.9417742641336416e-06,-2.5391607544060397e-05,3.3333,4.4667
0.25390625,-1.7585188244449503e-05,1.5132892643625566e-05,1.61023172625315e-05,-3.711399208056761e-05,3.3333,4.4667
0.2578125,-1.22150860791943e-05,-4.785419641107802e-05,-2.7355967956053992e-05,-3.5162387255664886e-05,3.3333,4.4667
0.26171875,-2.3440002719157675e-05,-5.177016164797434e-05,-5.859440074158844e-05,-2.3440002719157675e-05,3.3333,4.4667
0.265625,-2.4422182925154473e-05,-2.9792285090409676e-05,-3.9563064802014165e-05,-2.6858500059510164e-05,3.3333,4.4667
0.26953125,-2.6373787750057195e-05,-6.836518045319292e-05,-6.055876115358203e-05,-2.8810104884412885e-05,3.3333,4.4667
0.2734375,-2.7840680265506954e-05,-6.64135756282902e-05,-6.494668311284045e-05,-3.17438899153124e-05,3.3333,4.4667
0.27734375,-2.6858500059510164e-05,-5.859440074158844e-05,-6.00612932570382e-05,-3.027699739986264e-05,3.3333,4.4667
0.28125,-2.5391607544060397e-05,-5.567337129777979e-05,-7.714102437170974e-05,-2.7355967956053992e-05,3.3333,4.4667
0.28515625,-1.85673684504463e-05,-4.1514669626916887e-05,-8.544491156786448e-05,-3.4677674946211924e-05,3.3333,4.4667
0.2890625,-2.1973110203707916e-05,-5.127269375143051e-05,-9.325133086747536e-05,-4.1514669626916887e-05,3.3333,4.4667
0.29296875,-3.17438899153124e-05,-6.397725849393451e-05,-8.104423402151518e-05,-4.1514669626916887e-05,3.3333,4.4667
0.296875,-3.222860222476537e-05,-4.8351664307621856e-05,-6.446197080338747e-05,-3.759870439002058e-05,3.3333,4.4667
0.30078125,-3.027699739986264e-05,-2.8810104884412885e-05,-6.00612932570382e-05,-3.6629279771114646e-05,3.3333,4.4667
0.3046875,-2.490689523460744e-05,-2.6858500059510164e-05,-7.275310241245134e-05,-3.9563064802014165e-05,3.3333,4.4667
0.30859375,-2.3937470615701507e-05,-2.1973110203707916e-05,-7.957734150606544e-05,-3.6144567461661683e-05,3.3333,4.4667
0.3125,-2.490689523460744e-05,-6.360271604486129e-06,-4.101720173037306e-05,-2.6858500059510164e-05,3.3333,4.4667
0.31640625,-2.1973110203707916e-05,1.0247502787823322e-05,-3.027699739986264e-05,-2.588907544060423e-05,3.3333,4.4667
0.3203125,-1.806990055390247e-05,4.877400622568118e-06,-5.664279591668571e-05,-3.6144567461661683e-05,3.3333,4.4667
0.32421875,-1.85673684504463e-05,-3.9111988830395744e-06,-6.934736065918971e-05,-3.711399208056761e-05,3.3333,4.4667
0.328125,-2.148839789425495e-05,-1.0263481254291577e-05,-6.836518045319292e-05,-3.5162387255664886e-05,3.3333,4.4667
0.33203125,-2.3937470615701507e-05,-1.806990055390247e-05,-5.517590340123595e-05,-3.9563064802014165e-05,3.3333,4.4667
0.3359375,-2.588907544060423e-05,6.344293138017875e-06,-2.9307572780956717e-05,-3.711399208056761e-05,3.3333,4.4667
0.33984375,-2.5391607544060397e-05,6.829005447470848e-06,-2.9307572780956717e-05,-3.858088459601737e-05,3.3333,4.4667
0.34375,-2.0518973275349026e-05,-1.9595940581368438e-06,-5.372176647287706e-05,-3.711399208056761e-05,3.3333,4.4667
0.34765625,-2.3937470615701507e-05,-5.3780913984893315e-06,-6.152818577248795e-05,-3.125917760585944e-05,3.3333,4.4667
0.3515625,-2.6858500059510164e-05,-3.9111988830395744e-06,-5.030326913252457e-05,-3.3210782430762164e-05,3.3333,4.4667
0.35546875,-2.588907544060423e-05,2.050299480888077e-05,-2.2955290409704717e-05,-3.5162387255664886e-05,3.3333,4.4667
0.359375,-2.832539257495992e-05,2.977630662394142e-05,-1.905208075989927e-05,-3.759870439002058e-05,3.3333,4.4667
0.36328125,-2.4422182925154473e-05,4.101397885099567e-05,-3.9065596905470336e-05,-4.004777711146713e-05,3.3333,4.4667
0.3671875,-1.7100475934996545e-05,5.126947087205312e-05,-5.273958626688026e-05,-4.1514669626916887e-05,3.3333,4.4667
0.37109375,-1.5148871110093821e-05,5.6142105140764495e-05,-4.0532489420920096e-05,-4.004777711146713e-05,3.3333,4.4667
0.375,-1.7585188244449503e-05,6.34765677180133e-05,-1.22150860791943e-05,-3.6144567461661683e-05,3.3333,4.4667
0.37890625,-2.0021505378805194e-05,5.6142105140764495e-05,-7.329696223392062e-06,-3.6629279771114646e-05,3.3333,4.4667
0.3828125,-2.9792285090409676e-05,3.856490612954911e-05,-2.1973110203707916e-05,-3.9065596905470336e-05,3.3333,4.4667
0.38671875,-3.711399208056761e-05,2.050299480888077e-05,-4.736948410162506e-05,-3.9563064802014165e-05,3.3333,4.4667
0.390625,-3.9065596905470336e-05,1.2199107612726052e-05,-5.322429857633323e-05,-4.296880655527578e-05,3.3333,4.4667
0.39453125,-3.9563064802014165e-05,2.1472419427786702e-05,-3.2726070121309195e-05,-4.0532489420920096e-05,3.3333,4.4667
0.3984375,-3.076170970931561e-05,2.0987707118333743e-05,-2.5391607544060397e-05,-4.4435699070725546e-05,3.3333,4.4667
0.40234375,-2.7355967956053992e-05,2.392149214923326e-05,-3.076170970931561e-05,-4.8351664307621856e-05,3.3333,4.4667
0.40625,-3.6144567461661683e-05,2.0987707118333743e-05,-4.3466274451819615e-05,-4.101720173037306e-05,3.3333,4.4667
0.41015625,-3.809617228656441e-05,1.9036102293431015e-05,-5.615808360723275e-05,-3.5162387255664886e-05,3.3333,4.4667
0.4140625,-3.418020704966809e-05,1.4150712437628769e-05,-5.177016164797434e-05,-3.6144567461661683e-05,3.3333,4.4667
0.41796875,-3.2726070121309195e-05,1.7084497468528296e-05,-3.6144567461661683e-05,-3.759870439002058e-05,3.3333,4.4667
0.421875,-3.418020704966809e-05,2.1472419427786702e-05,-4.493316696726937e-05,-3.9065596905470336e-05,3.3333,4.4667
0.42578125,-3.5162387255664886e-05,2.7339989489585747e-05,-5.957658094758523e-05,-4.101720173037306e-05,3.3333,4.4667
0.4296875,-3.4677674946211924e-05,3.1243199139391194e-05,-5.030326913252457e-05,-4.004777711146713e-05,3.3333,4.4667
0.43359375,-3.759870439002058e-05,1.9036102293431015e-05,-3.809617228656441e-05,-3.5647099565117855e-05,3.3333,4.4667
0.4375,-3.9563064802014165e-05,2.489091676813919e-05,-2.5391607544060397e-05,-3.125917760585944e-05,3.3333,4.4667
0.44140625,-3.9563064802014165e-05,3.808019382009616e-05,-4.0532489420920096e-05,-3.9065596905470336e-05,3.3333,4.4667
0.4453125,-3.6144567461661683e-05,3.172791144884415e-05,-5.273958626688026e-05,-4.1999381936369856e-05,3.3333,4.4667
0.44921875,-3.809617228656441e-05,1.8551389983978053e-05,-3.858088459601737e-05,-2.8810104884412885e-05,3.3333,4.4667
0.453125,-3.4677674946211924e-05,1.8551389983978053e-05,-3.3210782430762164e-05,-2.7355967956053992e-05,3.3333,4.4667
0.45703125,-2.2955290409704717e-05,3.319480396429391e-05,-2.5391607544060397e-05,-2.4422182925154473e-05,3.3333,4.4667
0.4609375,-2.490689523460744e-05,2.5873096974135974e-05,-1.4166690904097024e-05,-1.806990055390247e-05,3.3333,4.4667
0.46484375,-2.588907544060423e-05,1.8053922087434214e-05,-3.2726070121309195e-05,-2.3440002719157675e-05,3.3333,4.4667
0.46875,-2.6373787750057195e-05,1.61023172625315e-05,-4.248409424582282e-05,-2.5391607544060397e-05,3.3333,4.4667
0.47265625,-3.076170970931561e-05,2.489091676813919e-05,-1.6603008038452713e-05,-2.832539257495992e-05,3.3333,4.4667
0.4765625,-3.2726070121309195e-05,4.443247619134816e-05,1.7569209777981255e-05,-2.3937470615701507e-05,3.3333,4.4667
0.48046875,-3.6629279771114646e-05,2.5873096974135974e-05,3.8952204165713194e-06,-1.6118295728999747e-05,3.3333,4.4667
0.484375,-3.222860222476537e-05,5.8468252414740505e-06,-3.711399208056761e-05,-2.100368558480199e-05,3.3333,4.4667
0.48828125,-3.125917760585944e-05,1.366600012817581e-05,-2.4422182925154473e-05,-2.2470578100251748e-05,3.3333,4.4667
0.4921875,-3.858088459601737e-05,4.767230762188319e-07,-1.7585188244449503e-05,-2.100368558480199e-05,3.3333,4.4667
0.49609375,-4.3466274451819615e-05,-2.4422182925154473e-05,-2.1973110203707916e-05,-2.4422182925154473e-05,3.3333,4.4667
0.5,-4.4435699070725546e-05,-1.85673684504463e-05,-1.5148871110093821e-05,-2.7840680265506954e-05,3.3333,4.4667
0.50390625,-4.638730389562826e-05,-5.862803707942291e-06,-2.490689523460744e-05,-2.6858500059510164e-05,3.3333,4.4667
0.5078125,-4.395098676127257e-05,-8.796588738841819e-06,-2.3440002719157675e-05,-2.588907544060423e-05,3.3333,4.4667
0.51171875,-3.6629279771114646e-05,-1.1232905873197503e-05,-3.17438899153124e-05,-2.7355967956053992e-05,3.3333,4.4667
0.515625,-3.418020704966809e-05,-5.862803707942291e-06,-3.076170970931561e-05,-2.9307572780956717e-05,3.3333,4.4667
0.51953125,-3.6629279771114646e-05,-2.9417742641336416e-06,-3.3210782430762164e-05,-3.5162387255664886e-05,3.3333,4.4667
0.5234375,-3.9563064802014165e-05,4.877400622568118e-06,-5.664279591668571e-05,-3.711399208056761e-05,3.3333,4.4667
0.52734375,-3.9065596905470336e-05,3.4105081071183602e-06,-7.275310241245134e-05,-3.809617228656441e-05,3.3333,4.4667
0.53125,-3.027699739986264e-05,4.392688313115158e-06,-6.104347346303499e-05,-4.248409424582282e-05,3.3333,4.4667
0.53515625,-2.9792285090409676e-05,9.762790478370363e-06,-4.3466274451819615e-05,-3.711399208056761e-05,3.3333,4.4667
0.5390625,-3.5162387255664886e-05,6.829005447470848e-06,-5.273958626688026e-05,-3.5162387255664886e-05,3.3333,4.4667
0.54296875,-3.6144567461661683e-05,-4.893379089036372e-06,-6.397725849393451e-05,-4.4435699070725546e-05,3.3333,4.4667
0.546875,-3.2726070121309195e-05,-5.862803707942291e-06,-6.64135756282902e-05,-4.541787927672234e-05,3.3333,4.4667
0.55078125,-3.5162387255664886e-05,-1.4748817486838846e-06,-5.372176647287706e-05,-4.248409424582282e-05,3.3333,4.4667
0.5546875,-3.9563064802014165e-05,-3.9111988830395744e-06,-3.418020704966809e-05,-4.0532489420920096e-05,3.3333,4.4667
0.55859375,-4.493316696726937e-05,-7.989233234127369e-09,-1.953679306935223e-05,-3.9563064802014165e-05,3.3333,4.4667
0.5625,-4.4435699070725546e-05,8.780610272373564e-06,-1.6603008038452713e-05,-3.6629279771114646e-05,3.3333,4.4667
0.56640625,-4.101720173037306e-05,1.122968299382012e-05,-2.832539257495992e-05,-3.5647099565117855e-05,3.3333,4.4667
0.5703125,-3.759870439002058e-05,-4.893379089036372e-06,-3.6629279771114646e-05,-3.9563064802014165e-05,3.3333,4.4667
0.57421875,-3.759870439002058e-05,-2.3937470615701507e-05,-2.8810104884412885e-05,-3.759870439002058e-05,3.3333,4.4667
0.578125,-4.1514669626916887e-05,-2.3937470615701507e-05,-1.2699798388647266e-05,-2.8810104884412885e-05,3.3333,4.4667
0.58203125,-3.858088459601737e-05,-1.7100475934996545e-05,-2.1973110203707916e-05,-1.806990055390247e-05,3.3333,4.4667
0.5859375,-3.6144567461661683e-05,-1.3184510698100226e-05,-4.395098676127257e-05,-1.7585188244449503e-05,3.3333,4.4667
0.58984375,-4.004777711146713e-05,-3.418020704966809e-05,-5.078798144197755e-05,-2.588907544060423e-05,3.3333,4.4667
0.59375,-3.9065596905470336e-05,-6.446197080338747e-05,-3.369549474021513e-05,-2.9307572780956717e-05,3.3333,4.4667
0.59765625,-4.004777711146713e-05,-5.273958626688026e-05,-2.6858500059510164e-05,-2.9792285090409676e-05,3.3333,4.4667
0.6015625,-4.1999381936369856e-05,-3.4677674946211924e-05,-3.076170970931561e-05,-3.3210782430762164e-05,3.3333,4.4667
0.60546875,-3.809617228656441e-05,-3.3210782430762164e-05,-4.68847717921721e-05,-3.858088459601737e-05,3.3333,4.4667
0.609375,-3.418020704966809e-05,-2.4422182925154473e-05,-6.689828793774316e-05,-3.9563064802014165e-05,3.3333,4.4667
0.61328125,-3.6144567461661683e-05,-1.7585188244449503e-05,-4.4435699070725546e-05,-4.004777711146713e-05,3.3333,4.4667
0.6171875,-3.9065596905470336e-05,-2.3440002719157675e-05,-4.296880655527578e-05,-4.0532489420920096e-05,3.3333,4.4667
0.62109375,-3.858088459601737e-05,-1.806990055390247e-05,-4.68847717921721e-05,-4.101720173037306e-05,3.3333,4.4667
0.625,-3.3210782430762164e-05,-9.28130104829478e-06,-5.957658094758523e-05,-4.1514669626916887e-05,3.3333,4.4667
0.62890625,-3.3210782430762164e-05,-1.9595940581368438e-06,-7.177092220645454e-05,-4.0532489420920096e-05,3.3333,4.4667
0.6328125,-3.5647099565117855e-05,-4.893379089036372e-06,-5.273958626688026e-05,-3.711399208056761e-05,3.3333,4.4667
0.63671875,-3.809617228656441e-05,-9.28130104829478e-06,-3.369549474021513e-05,-3.9563064802014165e-05,3.3333,4.4667
0.640625,-4.1514669626916887e-05,9.741909727626706e-07,-3.369549474021513e-05,-4.1514669626916887e-05,3.3333,4.4667
0.64453125,-3.9563064802014165e-05,9.265322581826524e-06,-4.736948410162506e-05,-3.858088459601737e-05,3.3333,4.4667
0.6484375,-3.759870439002058e-05,4.392688313115158e-06,-4.932108892652778e-05,-3.418020704966809e-05,3.3333,4.4667
0.65234375,-3.5162387255664886e-05,-7.989233234127369e-09,-4.493316696726937e-05,-2.6858500059510164e-05,3.3333,4.4667
0.65625,-2.490689523460744e-05,9.762790478370363e-06,-2.832539257495992e-05,-2.5391607544060397e-05,3.3333,4.4667
0.66015625,-2.0021505378805194e-05,5.8468252414740505e-06,-3.027699739986264e-05,-2.6858500059510164e-05,3.3333,4.4667
0.6640625,-2.2470578100251748e-05,-3.9111988830395744e-06,-3.809617228656441e-05,-2.8810104884412885e-05,3.3333,4.4667
0.66796875,-2.9307572780956717e-05,-1.3681978594644056e-05,-5.177016164797434e-05,-3.369549474021513e-05,3.3333,4.4667
0.671875,-3.2726070121309195e-05,-6.00612932570382e-05,-5.714026381322955e-05,-3.4677674946211924e-05,3.3333,4.4667
0.67578125,-3.2726070121309195e-05,-0.00010985910525978482,-3.4677674946211924e-05,-2.8810104884412885e-05,3.3333,4.4667
0.6796875,-3.5647099565117855e-05,-0.00011376231490959027,-2.5391607544060397e-05,-2.7840680265506954e-05,3.3333,4.4667
0.68359375,-3.5647099565117855e-05,-8.934812121766992e-05,-4.541787927672234e-05,-3.125917760585944e-05,3.3333,4.4667
0.6875,-3.711399208056761e-05,-7.32378147219043e-05,-5.517590340123595e-05,-3.17438899153124e-05,3.3333,4.4667
0.69140625,-3.222860222476537e-05,-7.665631206225678e-05,-4.248409424582282e-05,-3.9065596905470336e-05,3.3333,4.4667
0.6953125,-3.125917760585944e-05,-8.49601992584115e-05,-3.6629279771114646e-05,-4.3466274451819615e-05,3.3333,4.4667
0.69921875,-3.027699739986264e-05,-7.372252703135727e-05,-3.369549474021513e-05,-3.9065596905470336e-05,3.3333,4.4667
0.703125,-2.148839789425495e-05,-7.420723934081024e-05,-4.883637661707482e-05,-4.0532489420920096e-05,3.3333,4.4667
0.70703125,-1.7100475934996545e-05,-6.494668311284045e-05,-6.983207296864269e-05,-4.004777711146713e-05,3.3333,4.4667
0.7109375,-1.85673684504463e-05,-5.810968843213548e-05,-5.859440074158844e-05,-4.1514669626916887e-05,3.3333,4.4667
0.71484375,-2.6858500059510164e-05,-6.788046814373995e-05,-4.638730389562826e-05,-4.736948410162506e-05,3.3333,4.4667
0.71875,-3.369549474021513e-05,-6.055876115358203e-05,-2.4422182925154473e-05,-3.711399208056761e-05,3.3333,4.4667
0.72265625,-3.222860222476537e-05,-5.322429857633323e-05,-3.125917760585944e-05,-2.832539257495992e-05,3.3333,4.4667
0.7265625,-3.076170970931561e-05,-4.395098676127257e-05,-6.055876115358203e-05,-3.9065596905470336e-05,3.3333,4.4667
0.73046875,-3.5162387255664886e-05,-3.6629279771114646e-05,-4.736948410162506e-05,-4.1999381936369856e-05,3.3333,4.4667
0.734375,-3.6629279771114646e-05,-4.1999381936369856e-05,-2.9307572780956717e-05,-3.711399208056761e-05,3.3333,4.4667
0.73828125,-3.418020704966809e-05,-3.9563064802014165e-05,-2.9792285090409676e-05,-3.5162387255664886e-05,3.3333,4.4667
0.7421875,-3.222860222476537e-05,-2.5391607544060397e-05,-4.8351664307621856e-05,-3.809617228656441e-05,3.3333,4.4667
0.74609375,-3.3210782430762164e-05,-2.6373787750057195e-05,-7.420723934081024e-05,-4.4435699070725546e-05,3.3333,4.4667
0.75,-2.832539257495992e-05,-2.2470578100251748e-05,-5.420647878233003e-05,-4.004777711146713e-05,3.3333,4.4667
0.75390625,-2.4422182925154473e-05,-1.465140321354999e-05,-2.100368558480199e-05,-3.222860222476537e-05,3.3333,4.4667
0.7578125,-3.4677674946211924e-05,-9.28130104829478e-06,-1.5148871110093821e-05,-3.6144567461661683e-05,3.3333,4.4667
0.76171875,-3.17438899153124e-05,-9.7741385214006e-07,-1.7585188244449503e-05,-3.711399208056761e-05,3.3333,4.4667
0.765625,-2.9307572780956717e-05,-1.6118295728999747e-05,-3.858088459601737e-05,-3.4677674946211924e-05,3.3333,4.4667
0.76953125,-3.222860222476537e-05,-2.100368558480199e-05,-5.567337129777979e-05,-3.3210782430762164e-05,3.3333,4.4667
0.7734375,-3.2726070121309195e-05,-2.2955290409704717e-05,-3.809617228656441e-05,-2.9307572780956717e-05,3.3333,4.4667
0.77734375,-3.5162387255664886e-05,-3.3210782430762164e-05,-1.1730373769741333e-05,-2.588907544060423e-05,3.3333,4.4667
0.78125,-2.8810104884412885e-05,-2.6373787750057195e-05,-1.1232905873197503e-05,-2.2955290409704717e-05,3.3333,4.4667
0.78515625,-1.85673684504463e-05,-1.3681978594644056e-05,-2.490689523460744e-05,-2.8810104884412885e-05,3.3333,4.4667
0.7890625,-1.953679306935223e-05,-1.905208075989927e-05,-3.369549474021513e-05,-3.759870439002058e-05,3.3333,4.4667
0.79296875,-2.0518973275349026e-05,-1.5148871110093821e-05,-2.588907544060423e-05,-3.858088459601737e-05,3.3333,4.4667
0.796875,-2.3440002719157675e-05,-1.4166690904097024e-05,-1.465140321354999e-05,-4.248409424582282e-05,3.3333,4.4667
0.80078125,-3.17438899153124e-05,-3.6144567461661683e-05,-3.3210782430762164e-05,-4.3466274451819615e-05,3.3333,4.4667
0.8046875,-3.027699739986264e-05,-3.9563064802014165e-05,-6.54313954222934e-05,-4.101720173037306e-05,3.3333,4.4667
0.80859375,-2.6858500059510164e-05,-2.9792285090409676e-05,-5.567337129777979e-05,-4.493316696726937e-05,3.3333,4.4667
0.8125,-2.6858500059510164e-05,-3.6629279771114646e-05,-4.1514669626916887e-05,-4.004777711146713e-05,3.3333,4.4667
0.81640625,-3.027699739986264e-05,-4.004777711146713e-05,-3.4677674946211924e-05,-3.5647099565117855e-05,3.3333,4.4667
0.8203125,-2.8810104884412885e-05,-3.027699739986264e-05,-3.027699739986264e-05,-3.6144567461661683e-05,3.3333,4.4667
0.82421875,-2.588907544060423e-05,-3.4677674946211924e-05,-4.248409424582282e-05,-3.6144567461661683e-05,3.3333,4.4667
0.828125,-3.222860222476537e-05,-4.68847717921721e-05,-4.541787927672234e-05,-3.4677674946211924e-05,3.3333,4.4667
0.83203125,-3.2726070121309195e-05,-5.078798144197755e-05,-3.3210782430762164e-05,-3.4677674946211924e-05,3.3333,4.4667
0.8359375,-2.588907544060423e-05,-3.2726070121309195e-05,-2.2470578100251748e-05,-4.004777711146713e-05,3.3333,4.4667
0.83984375,-2.6373787750057195e-05,-2.9307572780956717e-05,-2.6373787750057195e-05,-4.004777711146713e-05,3.3333,4.4667
0.84375,-3.2726070121309195e-05,-4.493316696726937e-05,-4.1514669626916887e-05,-3.809617228656441e-05,3.3333,4.4667
0.84765625,-3.027699739986264e-05,-4.296880655527578e-05,-4.296880655527578e-05,-3.3210782430762164e-05,3.3333,4.4667
0.8515625,-2.6373787750057195e-05,-3.369549474021513e-05,-2.100368558480199e-05,-3.3210782430762164e-05,3.3333,4.4667
0.85546875,-2.8810104884412885e-05,-4.8351664307621856e-05,-2.0021505378805194e-05,-3.809617228656441e-05,3.3333,4.4667
0.859375,-2.9307572780956717e-05,-6.494668311284045e-05,-3.759870439002058e-05,-4.296880655527578e-05,3.3333,4.4667
0.86328125,-3.6629279771114646e-05,-4.785419641107802e-05,-3.4677674946211924e-05,-3.5162387255664886e-05,3.3333,4.4667
0.8671875,-4.1514669626916887e-05,-4.395098676127257e-05,-2.6373787750057195e-05,-2.588907544060423e-05,3.3333,4.4667
0.87109375,-2.832539257495992e-05,-4.296880655527578e-05,-2.7840680265506954e-05,-2.832539257495992e-05,3.3333,4.4667
0.875,-2.588907544060423e-05,-4.980580123598075e-05,-4.296880655527578e-05,-2.8810104884412885e-05,3.3333,4.4667
0.87890625,-2.9792285090409676e-05,-6.104347346303499e-05,-4.0532489420920096e-05,-2.832539257495992e-05,3.3333,4.4667
0.8828125,-2.3937470615701507e-05,-5.177016164797434e-05,-3.3210782430762164e-05,-2.9307572780956717e-05,3.3333,4.4667
0.88671875,-2.6373787750057195e-05,-4.8351664307621856e-05,-5.078798144197755e-05,-2.7840680265506954e-05,3.3333,4.4667
0.890625,-3.125917760585944e-05,-5.030326913252457e-05,-5.078798144197755e-05,-2.6858500059510164e-05,3.3333,4.4667
0.89453125,-3.711399208056761e-05,-5.714026381322955e-05,1.943615591668603e-06,-1.953679306935223e-05,3.3333,4.4667
0.8984375,-4.1999381936369856e-05,-6.251036597848475e-05,1.4589032822156298e-06,-1.953679306935223e-05,3.3333,4.4667
0.90234375,-3.759870439002058e-05,-5.372176647287706e-05,-1.905208075989927e-05,-2.7840680265506954e-05,3.3333,4.4667
0.90625,-3.3210782430762164e-05,-5.859440074158844e-05,-3.3210782430762164e-05,-3.125917760585944e-05,3.3333,4.4667
0.91015625,-3.17438899153124e-05,-5.2254873957427306e-05,-3.9065596905470336e-05,-3.369549474021513e-05,3.3333,4.4667
0.9140625,-2.6858500059510164e-05,-2.832539257495992e-05,-3.5162387255664886e-05,-3.9065596905470336e-05,3.3333,4.4667
0.91796875,-3.076170970931561e-05,-3.369549474021513e-05,-3.076170970931561e-05,-3.809617228656441e-05,3.3333,4.4667
0.921875,-3.125917760585944e-05,-4.1514669626916887e-05,-1.85673684504463e-05,-3.222860222476537e-05,3.3333,4.4667
0.92578125,-2.7840680265506954e-05,-3.369549474021513e-05,-5.078798144197755e-05,-3.418020704966809e-05,3.3333,4.4667
0.9296875,-3.125917760585944e-05,-1.7100475934996545e-05,-4.1999381936369856e-05,-3.759870439002058e-05,3.3333,4.4667
0.93359375,-3.222860222476537e-05,-2.6373787750057195e-05,-3.027699739986264e-05,-3.858088459601737e-05,3.3333,4.4667
0.9375,-3.369549474021513e-05,-3.759870439002058e-05,-2.1973110203707916e-05,-3.759870439002058e-05,3.3333,4.4667
0.94140625,-3.711399208056761e-05,-2.8810104884412885e-05,-2.1973110203707916e-05,-3.6629279771114646e-05,3.3333,4.4667
0.9453125,-3.809617228656441e-05,-2.2955290409704717e-05,-4.4435699070725546e-05,-3.6629279771114646e-05,3.3333,4.4667
0.94921875,-3.6629279771114646e-05,-3.076170970931561e-05,-4.1514669626916887e-05,-4.0532489420920096e-05,3.3333,4.4667
0.953125,-3.4677674946211924e-05,-2.8810104884412885e-05,-3.369549474021513e-05,-4.0532489420920096e-05,3.3333,4.4667
0.95703125,-3.4677674946211924e-05,-1.7585188244449503e-05,-3.222860222476537e-05,-3.6144567461661683e-05,3.3333,4.4667
0.9609375,-3.9065596905470336e-05,-1.5148871110093821e-05,-3.076170970931561e-05,-3.759870439002058e-05,3.3333,4.4667
0.96484375,-4.0532489420920096e-05,-2.2470578100251748e-05,-5.810968843213548e-05,-3.9563064802014165e-05,3.3333,4.4667
0.96875,-3.6629279771114646e-05,-2.5391607544060397e-05,-7.665631206225678e-05,-3.809617228656441e-05,3.3333,4.4667
0.97265625,-3.5162387255664886e-05,-1.1232905873197503e-05,-3.418020704966809e-05,-3.9065596905470336e-05,3.3333,4.4667
0.9765625,-3.2726070121309195e-05,-6.360271604486129e-06,-9.28130104829478e-06,-3.759870439002058e-05,3.3333,4.4667
0.98046875,-3.076170970931561e-05,-9.7741385214006e-07,-1.5148871110093821e-05,-3.858088459601737e-05,3.3333,4.4667
0.984375,-3.222860222476537e-05,1.0247502787823322e-05,-1.4166690904097024e-05,-3.5647099565117855e-05,3.3333,4.4667
0.98828125,-3.2726070121309195e-05,-5.3780913984893315e-06,-3.125917760585944e-05,-3.17438899153124e-05,3.3333,4.4667
0.9921875,-2.9307572780956717e-05,-1.905208075989927e-05,-6.104347346303499e-05,-3.711399208056761e-05,3.3333,4.4667
0.99609375,-2.490689523460744e-05,4.392688313115158e-06,-2.0021505378805194e-05,-3.3210782430762164e-05,3.3333,4.4667
1.0,-1.7585188244449503e-05,-3.4264865735866152e-06,1.4648180334172607e-05,-3.4677674946211924e-05,3.3333,4.4667
1.00390625,-1.85673684504463e-05,-1.3681978594644056e-05,-5.078798144197755e-05,-3.6629279771114646e-05,3.3333,4.4667
1.0078125,-3.027699739986264e-05,-9.28130104829478e-06,-3.076170970931561e-05,-2.6858500059510164e-05,3.3333,4.4667
1.01171875,-2.9307572780956717e-05,-1.9595940581368438e-06,3.1243199139391194e-05,-2.7355967956053992e-05,3.3333,4.4667
1.015625,-2.7840680265506954e-05,-4.893379089036372e-06,3.417698417029071e-05,-2.7355967956053992e-05,3.3333,4.4667
1.01953125,-2.832539257495992e-05,-1.953679306935223e-05,1.5132892643625566e-05,-2.6858500059510164e-05,3.3333,4.4667
1.0234375,-2.4422182925154473e-05,-3.222860222476537e-05,-3.9065596905470336e-05,-3.3210782430762164e-05,3.3333,4.4667
1.02734375,-3.125917760585944e-05,-3.418020704966809e-05,-3.418020704966809e-05,-3.222860222476537e-05,3.3333,4.4667
1.03125,-3.6629279771114646e-05,-2.8810104884412885e-05,6.829005447470848e-06,-3.17438899153124e-05,3.3333,4.4667
1.03515625,-3.5647099565117855e-05,-1.1232905873197503e-05,-2.9417742641336416e-06,-3.6144567461661683e-05,3.3333,4.4667
1.0390625,-2.9792285090409676e-05,-1.0263481254291577e-05,-2.6373787750057195e-05,-3.5647099565117855e-05,3.3333,4.4667
1.04296875,-2.8810104884412885e-05,-5.862803707942291e-06,-2.832539257495992e-05,-3.076170970931561e-05,3.3333,4.4667
1.046875,-3.125917760585944e-05,-6.360271604486129e-06,-2.0021505378805194e-05,-2.832539257495992e-05,3.3333,4.4667
1.05078125,-3.369549474021513e-05,-5.714026381322955e-05,-1.465140321354999e-05,-3.5162387255664886e-05,3.3333,4.4667
1.0546875,-3.809617228656441e-05,-4.638730389562826e-05,-2.6373787750057195e-05,-3.809617228656441e-05,3.3333,4.4667
1.05859375,-3.6629279771114646e-05,-5.862803707942291e-06,-1.465140321354999e-05,-3.6144567461661683e-05,3.3333,4.4667
1.0625,-3.5162387255664886e-05,-2.6858500059510164e-05,-8.299583884641792e-05,-4.493316696726937e-05,3.3333,4.4667
1.06640625,-3.027699739986264e-05,-2.3937470615701507e-05,-7.86079168871595e-05,-4.785419641107802e-05,3.3333,4.4667
1.0703125,-1.953679306935223e-05,5.8468252414740505e-06,5.8468252414740505e-06,-3.858088459601737e-05,3.3333,4.4667
1.07421875,-2.490689523460744e-05,1.366600012817581e-05,2.050299480888077e-05,-3.418020704966809e-05,3.3333,4.4667
1.078125,-3.9563064802014165e-05,-2.9417742641336416e-06,-7.989233234127369e-09,-2.9792285090409676e-05,3.3333,4.4667
1.08203125,-3.6629279771114646e-05,-1.6603008038452713e-05,-7.080149758754861e-05,-3.809617228656441e-05,3.3333,4.4667
1.0859375,-4.004777711146713e-05,-4.4435699070725546e-05,-2.832539257495992e-05,-4.1999381936369856e-05,3.3333,4.4667
1.08984375,-5.078798144197755e-05,-4.101720173037306e-05,-2.9417742641336416e-06,-3.4677674946211924e-05,3.3333,4.4667
1.09375,-3.5647099565117855e-05,-2.6858500059510164e-05,-1.905208075989927e-05,-3.6144567461661683e-05,3.3333,4.4667
1.09765625,-3.418020704966809e-05,-4.296880655527578e-05,-2.588907544060423e-05,-3.027699739986264e-05,3.3333,4.4667
1.1015625,-3.5647099565117855e-05,-4.541787927672234e-05,-2.0518973275349026e-05,-2.7355967956053992e-05,3.3333,4.4667
1.10546875,-3.222860222476537e-05,-4.101720173037306e-05,-2.588907544060423e-05,-2.832539257495992e-05,3.3333,4.4667
1.109375,-3.6629279771114646e-05,-4.493316696726937e-05,2.4410834882124274e-06,-2.0021505378805194e-05,3.3333,4.4667
1.11328125,-3.711399208056761e-05,-5.078798144197755e-05,-5.3780913984893315e-06,-2.100368558480199e-05,3.3333,4.4667
1.1171875,-3.222860222476537e-05,-3.6629279771114646e-05,-2.0518973275349026e-05,-3.5162387255664886e-05,3.3333,4.4667
1.12109375,-3.222860222476537e-05,-2.9307572780956717e-05,1.6599785159075324e-05,-3.027699739986264e-05,3.3333,4.4667
1.125,-3.6144567461661683e-05,-3.759870439002058e-05,-3.4264865735866152e-06,-2.0021505378805194e-05,3.3333,4.4667
1.12890625,-3.9563064802014165e-05,-3.418020704966809e-05,4.767230762188319e-07,-2.148839789425495e-05,3.3333,4.4667
1.1328125,-3.759870439002058e-05,-9.766013357747745e-06,2.8309414108491665e-05,-2.6373787750057195e-05,3.3333,4.4667
1.13671875,-3.027699739986264e-05,3.8952204165713194e-06,1.318128781872285e-05,-2.8810104884412885e-05,3.3333,4.4667
1.140625,-2.832539257495992e-05,-2.100368558480199e-05,-1.7585188244449503e-05,-3.5162387255664886e-05,3.3333,4.4667
1.14453125,-3.125917760585944e-05,-3.711399208056761e-05,-1.5148871110093821e-05,-3.6629279771114646e-05,3.3333,4.4667
1.1484375,-3.809617228656441e-05,-2.832539257495992e-05,-4.395911192492533e-06,-3.6144567461661683e-05,3.3333,4.4667
1.15234375,-3.418020704966809e-05,-2.3440002719157675e-05,-2.7355967956053992e-05,-3.858088459601737e-05,3.3333,4.4667
1.15625,-3.125917760585944e-05,-3.6629279771114646e-05,-3.2726070121309195e-05,-2.6373787750057195e-05,3.3333,4.4667
1.16015625,-3.5647099565117855e-05,-1.465140321354999e-05,5.3621129320210765e-06,-3.076170970931561e-05,3.3333,4.4667
1.1640625,-3.809617228656441e-05,-2.2470578100251748e-05,-7.329696223392062e-06,-3.5162387255664886e-05,3.3333,4.4667
1.16796875,-3.5162387255664886e-05,-4.541787927672234e-05,-4.68847717921721e-05,-4.296880655527578e-05,3.3333,4.4667
1.171875,-2.9307572780956717e-05,-4.248409424582282e-05,-4.296880655527578e-05,-4.493316696726937e-05,3.3333,4.4667
1.17578125,-2.9307572780956717e-05,-3.5647099565117855e-05,-2.4443063675898174e-06,-3.2726070121309195e-05,3.3333,4.4667
1.1796875,-3.2726070121309195e-05,-2.3440002719157675e-05,-4.927015426870866e-07,-2.7840680265506954e-05,3.3333,4.4667
1.18359375,-3.4677674946211924e-05,-2.2470578100251748e-05,-2.0021505378805194e-05,-2.832539257495992e-05,3.3333,4.4667
1.1875,-3.418020704966809e-05,-3.125917760585944e-05,-2.490689523460744e-05,-3.222860222476537e-05,3.3333,4.4667
1.19140625,-4.1999381936369856e-05,-2.148839789425495e-05,-9.766013357747745e-06,-3.027699739986264e-05,3.3333,4.4667
1.1953125,-3.809617228656441e-05,-1.1232905873197503e-05,-1.6603008038452713e-05,-3.17438899153124e-05,3.3333,4.4667
1.19921875,-3.3210782430762164e-05,-3.4677674946211924e-05,-3.027699739986264e-05,-3.858088459601737e-05,3.3333,4.4667
1.203125,-4.101720173037306e-05,-5.127269375143051e-05,-2.148839789425495e-05,-3.3210782430762164e-05,3.3333,4.4667
1.20703125,-4.101720173037306e-05,-2.7840680265506954e-05,-3.759870439002058e-05,-2.7355967956053992e-05,3.3333,4.4667
1.2109375,-3.9065596905470336e-05,-3.418020704966809e-05,-4.4435699070725546e-05,-2.3937470615701507e-05,3.3333,4.4667
1.21484375,-3.9065596905470336e-05,-5.2254873957427306e-05,-3.711399208056761e-05,-2.588907544060423e-05,3.3333,4.4667
1.21875,-3.369549474021513e-05,-4.980580123598075e-05,-2.5391607544060397e-05,-3.222860222476537e-05,3.3333,4.4667
1.22265625,-3.076170970931561e-05,-4.296880655527578e-05,-1.7585188244449503e-05,-2.588907544060423e-05,3.3333,4.4667
1.2265625,-3.369549474021513e-05,-2.6858500059510164e-05,-2.5391607544060397e-05,-2.7840680265506954e-05,3.3333,4.4667
1.23046875,-3.369549474021513e-05,-2.3937470615701507e-05,-3.418020704966809e-05,-3.858088459601737e-05,3.3333,4.4667
1.234375,-2.9307572780956717e-05,-3.5162387255664886e-05,-2.7355967956053992e-05,-3.759870439002058e-05,3.3333,4.4667
1.23828125,-3.17438899153124e-05,-1.3184510698100226e-05,-4.893379089036372e-06,-3.027699739986264e-05,3.3333,4.4667
1.2421875,-3.3210782430762164e-05,5.3621129320210765e-06,-2.0518973275349026e-05,-2.832539257495992e-05,3.3333,4.4667
1.24609375,-2.7840680265506954e-05,4.877400622568118e-06,-3.809617228656441e-05,-3.418020704966809e-05,3.3333,4.4667
1.25,-2.3937470615701507e-05,3.8952204165713194e-06,-2.588907544060423e-05,-3.027699739986264e-05,3.3333,4.4667
1.25390625,-2.7840680265506954e-05,2.4410834882124274e-06,-2.148839789425495e-05,-2.490689523460744e-05,3.3333,4.4667
1.2578125,-3.076170970931561e-05,1.122968299382012e-05,-2.832539257495992e-05,-2.832539257495992e-05,3.3333,4.4667
1.26171875,-3.3210782430762164e-05,2.24545996337835e-05,-2.4422182925154473e-05,-2.588907544060423e-05,3.3333,4.4667
1.265625,-3.418020704966809e-05,1.9520814602883974e-05,-6.844983913939089e-06,-2.3937470615701507e-05,3.3333,4.4667
1.26953125,-3.369549474021513e-05,4.392688313115158e-06,-3.076170970931561e-05,-1.85673684504463e-05,3.3333,4.4667
1.2734375,-3.027699739986264e-05,2.4410834882124274e-06,-3.4677674946211924e-05,-1.85673684504463e-05,3.3333,4.4667
1.27734375,-3.076170970931561e-05,8.780610272373564e-06,-6.844983913939089e-06,-2.148839789425495e-05,3.3333,4.4667
1.28125,-3.4677674946211924e-05,-1.1730373769741333e-05,-2.490689523460744e-05,-2.1973110203707916e-05,3.3333,4.4667
1.28515625,-3.2726070121309195e-05,-2.588907544060423e-05,-5.322429857633323e-05,-2.4422182925154473e-05,3.3333,4.4667
1.2890625,-3.3210782430762164e-05,-2.490689523460744e-05,-4.1514669626916887e-05,-2.3937470615701507e-05,3.3333,4.4667
1.29296875,-3.9563064802014165e-05,-1.7585188244449503e-05,-2.588907544060423e-05,-2.5391607544060397e-05,3.3333,4.4667
1.296875,-3.6629279771114646e-05,-1.563358341954678e-05,-4.493316696726937e-05,-2.6858500059510164e-05,3.3333,4.4667
1.30078125,-3.369549474021513e-05,-2.4422182925154473e-05,-1.465140321354999e-05,-2.7355967956053992e-05,3.3333,4.4667
1.3046875,-3.858088459601737e-05,-3.418020704966809e-05,-3.076170970931561e-05,-3.6144567461661683e-05,3.3333,4.4667
1.30859375,-3.5162387255664886e-05,-2.7840680265506954e-05,-4.8351664307621856e-05,-3.6144567461661683e-05,3.3333,4.4667
1.3125,-3.759870439002058e-05,-1.3184510698100226e-05,-2.3440002719157675e-05,-3.125917760585944e-05,3.3333,4.4667
1.31640625,-4.541787927672234e-05,-2.6373787750057195e-05,-3.418020704966809e-05,-3.3210782430762164e-05,3.3333,4.4667
1.3203125,-3.858088459601737e-05,-4.883637661707482e-05,-4.1514669626916887e-05,-3.9065596905470336e-05,3.3333,4.4667
1.32421875,-3.809617228656441e-05,-4.68847717921721e-05,-4.004777711146713e-05,-3.5162387255664886e-05,3.3333,4.4667
1.328125,-4.4435699070725546e-05,-6.299507828793771e-05,-7.275310241245134e-05,-3.027699739986264e-05,3.3333,4.4667
1.33203125,-4.101720173037306e-05,-6.689828793774316e-05,-5.859440074158844e-05,-3.17438899153124e-05,3.3333,4.4667
1.3359375,-3.858088459601737e-05,-6.494668311284045e-05,-1.0748193563744542e-05,-3.2726070121309195e-05,3.3333,4.4667
1.33984375,-3.125917760585944e-05,-6.201289808194093e-05,-2.832539257495992e-05,-4.1514669626916887e-05,3.3333,4.4667
1.34375,-3.369549474021513e-05,-8.886340890821696e-05,-7.177092220645454e-05,-3.9563064802014165e-05,3.3333,4.4667
1.34765625,-4.638730389562826e-05,-0.00011718081224994276,-5.127269375143051e-05,-2.9307572780956717e-05,3.3333,4.4667
1.3515625,-4.883637661707482e-05,-7.762573668116272e-05,-2.8810104884412885e-05,-2.7840680265506954e-05,3.3333,4.4667
1.35546875,-4.101720173037306e-05,-6.64135756282902e-05,-4.4435699070725546e-05,-3.076170970931561e-05,3.3333,4.4667
1.359375,-3.711399208056761e-05,-6.201289808194093e-05,-6.446197080338747e-05,-3.5647099565117855e-05,3.3333,4.4667
1.36328125,-3.809617228656441e-05,-4.3466274451819615e-05,-2.490689523460744e-05,-3.369549474021513e-05,3.3333,4.4667
1.3671875,-3.3210782430762164e-05,-5.273958626688026e-05,-1.7100475934996545e-05,-3.17438899153124e-05,3.3333,4.4667
1.37109375,-3.418020704966809e-05,-6.494668311284045e-05,-4.493316696726937e-05,-3.3210782430762164e-05,3.3333,4.4667
1.375,-4.101720173037306e-05,-5.177016164797434e-05,-3.5162387255664886e-05,-3.5647099565117855e-05,3.3333,4.4667
1.37890625,-4.101720173037306e-05,-5.273958626688026e-05,-2.5391607544060397e-05,-4.004777711146713e-05,3.3333,4.4667
1.3828125,-3.9065596905470336e-05,-6.884989276264589e-05,-3.027699739986264e-05,-3.418020704966809e-05,3.3333,4.4667
1.38671875,-3.4677674946211924e-05,-8.8378696598764e-05,-5.859440074158844e-05,-3.027699739986264e-05,3.3333,4.4667
1.390625,-2.148839789425495e-05,-9.960361323872738e-05,-4.248409424582282e-05,-4.248409424582282e-05,3.3333,4.4667
1.39453125,-1.6603008038452713e-05,-4.8351664307621856e-05,-3.076170970931561e-05,-4.0532489420920096e-05,3.3333,4.4667
1.3984375,-2.3937470615701507e-05,-6.00612932570382e-05,-3.418020704966809e-05,-3.3210782430762164e-05,3.3333,4.4667
1.40234375,-2.9307572780956717e-05,-9.666982820782786e-05,-2.0518973275349026e-05,-3.222860222476537e-05,3.3333,4.4667
1.40625,-2.4422182925154473e-05,-5.273958626688026e-05,-4.248409424582282e-05,-3.5647099565117855e-05,3.3333,4.4667
1.41015625,-2.7355967956053992e-05,-3.125917760585944e-05,-1.0748193563744542e-05,-3.027699739986264e-05,3.3333,4.4667
1.4140625,-2.588907544060423e-05,-6.00612932570382e-05,3.8952204165713194e-06,-2.588907544060423e-05,3.3333,4.4667
1.41796875,-2.490689523460744e-05,-9.081501373311968e-05,-2.3440002719157675e-05,-2.7840680265506954e-05,3.3333,4.4667
1.421875,-2.8810104884412885e-05,-5.372176647287706e-05,-1.465140321354999e-05,-3.17438899153124e-05,3.3333,4.4667
1.42578125,-2.9307572780956717e-05,-2.7355967956053992e-05,-2.3937470615701507e-05,-2.490689523460744e-05,3.3333,4.4667
1.4296875,-3.3210782430762164e-05,-4.883637661707482e-05,-5.3780913984893315e-06,-1.465140321354999e-05,3.3333,4.4667
1.43359375,-3.125917760585944e-05,-6.251036597848475e-05,-4.893379089036372e-06,-1.806990055390247e-05,3.3333,4.4667
1.4375,-2.9307572780956717e-05,-1.1232905873197503e-05,-2.6373787750057195e-05,-2.9307572780956717e-05,3.3333,4.4667
1.44140625,-3.3210782430762164e-05,-9.7741385214006e-07,-2.9792285090409676e-05,-4.0532489420920096e-05,3.3333,4.4667
1.4453125,-3.6629279771114646e-05,4.392688313115158e-06,-2.4422182925154473e-05,-3.809617228656441e-05,3.3333,4.4667
1.44921875,-3.418020704966809e-05,2.4410834882124274e-06,-3.809617228656441e-05,-3.711399208056761e-05,3.3333,4.4667
1.453125,-3.759870439002058e-05,1.5132892643625566e-05,-2.4422182925154473e-05,-3.222860222476537e-05,3.3333,4.4667
1.45703125,-3.858088459601737e-05,4.588661311970705e-05,1.7084497468528296e-05,-2.2470578100251748e-05,3.3333,4.4667
1.4609375,-3.9065596905470336e-05,3.0261018933394393e-05,1.0732215097276296e-05,-3.17438899153124e-05,3.3333,4.4667
1.46484375,-4.5902591586175306e-05,4.767230762188319e-07,-4.893379089036372e-06,-3.5162387255664886e-05,3.3333,4.4667
1.46875,-4.3466274451819615e-05,8.295897962920605e-06,-2.7355967956053992e-05,-2.588907544060423e-05,3.3333,4.4667
1.47265625,-3.9563064802014165e-05,2.1472419427786702e-05,-2.832539257495992e-05,-2.2470578100251748e-05,3.3333,4.4667
1.4765625,-3.6144567461661683e-05,1.61023172625315e-05,-6.360271604486129e-06,-2.490689523460744e-05,3.3333,4.4667
1.48046875,-3.4677674946211924e-05,3.7595481510643195e-05,-6.360271604486129e-06,-2.6858500059510164e-05,3.3333,4.4667
1.484375,-3.17438899153124e-05,4.101397885099567e-05,-1.806990055390247e-05,-2.3937470615701507e-05,3.3333,4.4667
1.48828125,-3.369549474021513e-05,2.34367798397803e-05,-1.85673684504463e-05,-2.588907544060423e-05,3.3333,4.4667
1.4921875,-4.296880655527578e-05,1.122968299382012e-05,-1.6118295728999747e-05,-2.7840680265506954e-05,3.3333,4.4667
1.49609375,-3.9563064802014165e-05,1.122968299382012e-05,-4.893379089036372e-06,-2.8810104884412885e-05,3.3333,4.4667
1.5,-3.027699739986264e-05,1.268381992217901e-05,-9.766013357747745e-06,-2.9792285090409676e-05,3.3333,4.4667
1.50390625,-2.5391607544060397e-05,5.467521262531474e-05,-2.490689523460744e-05,-2.5391607544060397e-05,3.3333,4.4667
1.5078125,-2.6373787750057195e-05,2.050299480888077e-05,-3.17438899153124e-05,-2.6858500059510164e-05,3.3333,4.4667
1.51171875,-2.832539257495992e-05,2.293931194323646e-05,-3.6629279771114646e-05,-2.9792285090409676e-05,3.3333,4.4667
1.515625,-3.17438899153124e-05,2.5873096974135974e-05,-2.3937470615701507e-05,-2.6858500059510164e-05,3.3333,4.4667
1.51953125,-3.418020704966809e-05,-1.2699798388647266e-05,-1.1730373769741333e-05,-2.2955290409704717e-05,3.3333,4.4667
1.5234375,-4.101720173037306e-05,-8.311876429388853e-06,-2.6373787750057195e-05,-2.0021505378805194e-05,3.3333,4.4667
1.52734375,-4.1514669626916887e-05,1.318128781872285e-05,-1.5148871110093821e-05,-2.2470578100251748e-05,3.3333,4.4667
1.53125,-3.9065596905470336e-05,2.1472419427786702e-05,-4.927015426870866e-07,-2.7355967956053992e-05,3.3333,4.4667
1.53515625,-3.5647099565117855e-05,1.122968299382012e-05,1.4589032822156298e-06,-2.8810104884412885e-05,3.3333,4.4667
1.5390625,-2.5391607544060397e-05,-1.0748193563744542e-05,-1.4748817486838846e-06,-2.6373787750057195e-05,3.3333,4.4667
1.54296875,-2.3937470615701507e-05,-5.2254873957427306e-05,-7.814408532845021e-06,-2.6373787750057195e-05,3.3333,4.4667
1.546875,-2.6373787750057195e-05,-1.905208075989927e-05,-3.809617228656441e-05,-3.17438899153124e-05,3.3333,4.4667
1.55078125,-2.5391607544060397e-05,1.4648180334172607e-05,-2.2955290409704717e-05,-2.832539257495992e-05,3.3333,4.4667
1.5546875,-2.8810104884412885e-05,-5.078798144197755e-05,9.265322581826524e-06,-1.905208075989927e-05,3.3333,4.4667
1.55859375,-2.9792285090409676e-05,-5.567337129777979e-05,-1.22150860791943e-05,-1.85673684504463e-05,3.3333,4.4667
1.5625,-2.9792285090409676e-05,-2.2955290409704717e-05,-2.100368558480199e-05,-2.832539257495992e-05,3.3333,4.4667
1.56640625,-2.4422182925154473e-05,-4.638730389562826e-05,-3.076170970931561e-05,-3.5162387255664886e-05,3.3333,4.4667
1.5703125,-2.3937470615701507e-05,-3.17438899153124e-05,-3.125917760585944e-05,-2.5391607544060397e-05,3.3333,4.4667
1.57421875,-2.6858500059510164e-05,-1.905208075989927e-05,-1.3184510698100226e-05,-2.832539257495992e-05,3.3333,4.4667
1.578125,-2.6373787750057195e-05,-7.989233234127369e-09,-3.5162387255664886e-05,-3.418020704966809e-05,3.3333,4.4667
1.58203125,-2.832539257495992e-05,-2.9417742641336416e-06,-3.418020704966809e-05,-2.4422182925154473e-05,3.3333,4.4667
1.5859375,-3.2726070121309195e-05,-4.1999381936369856e-05,-3.4677674946211924e-05,-2.7840680265506954e-05,3.3333,4.4667
1.58984375,-2.5391607544060397e-05,-6.360271604486129e-06,-5.615808360723275e-05,-3.17438899153124e-05,3.3333,4.4667
1.59375,-2.2470578100251748e-05,2.6357809283588946e-05,-6.54313954222934e-05,-2.9792285090409676e-05,3.3333,4.4667
1.59765625,-1.953679306935223e-05,-1.0748193563744542e-05,-4.248409424582282e-05,-3.17438899153124e-05,3.3333,4.4667
1.6015625,-2.148839789425495e-05,-4.101720173037306e-05,-4.4435699070725546e-05,-3.369549474021513e-05,3.3333,4.4667
1.60546875,-3.6144567461661683e-05,-5.177016164797434e-05,-5.517590340123595e-05,-3.125917760585944e-05,3.3333,4.4667
1.609375,-4.395098676127257e-05,-5.273958626688026e-05,-4.296880655527578e-05,-2.4422182925154473e-05,3.3333,4.4667
1.61328125,-3.9563064802014165e-05,-5.4691191091783e-05,-2.148839789425495e-05,-2.3440002719157675e-05,3.3333,4.4667
1.6171875,-3.17438899153124e-05,-4.541787927672234e-05,1.1714395303273078e-05,-2.9307572780956717e-05,3.3333,4.4667
1.62109375,-3.125917760585944e-05,-1.4166690904097024e-05,1.9036102293431015e-05,-3.5162387255664886e-05,3.3333,4.4667
1.625,-3.3210782430762164e-05,-5.4691191091783e-05,-2.3937470615701507e-05,-3.222860222476537e-05,3.3333,4.4667
1.62890625,-3.2726070121309195e-05,-0.00010887692505378802,-4.8351664307621856e-05,-2.6373787750057195e-05,3.3333,4.4667
1.6328125,-2.7355967956053992e-05,-8.154170191805903e-05,-2.0021505378805194e-05,-2.6858500059510164e-05,3.3333,4.4667
1.63671875,-2.5391607544060397e-05,-5.714026381322955e-05,-3.9111988830395744e-06,-2.8810104884412885e-05,3.3333,4.4667
1.640625,-3.125917760585944e-05,-4.932108892652778e-05,-1.6118295728999747e-05,-2.9307572780956717e-05,3.3333,4.4667
1.64453125,-3.3210782430762164e-05,-7.470470723735406e-05,-3.6629279771114646e-05,-2.9792285090409676e-05,3.3333,4.4667
1.6484375,-3.076170970931561e-05,-5.078798144197755e-05,-3.027699739986264e-05,-3.17438899153124e-05,3.3333,4.4667
1.65234375,-3.027699739986264e-05,-1.1232905873197503e-05,-1.953679306935223e-05,-2.588907544060423e-05,3.3333,4.4667
1.65625,-3.369549474021513e-05,-5.909186863813227e-05,-2.588907544060423e-05,-3.369549474021513e-05,3.3333,4.4667
1.66015625,-3.5647099565117855e-05,-6.251036597848475e-05,-2.8810104884412885e-05,-3.9563064802014165e-05,3.3333,4.4667
1.6640625,-3.5162387255664886e-05,-2.3440002719157675e-05,-1.2699798388647266e-05,-2.7355967956053992e-05,3.3333,4.4667
1.66796875,-3.5162387255664886e-05,-3.418020704966809e-05,-4.1514669626916887e-05,-2.6858500059510164e-05,3.3333,4.4667
1.671875,-3.027699739986264e-05,-3.6629279771114646e-05,-4.101720173037306e-05,-3.076170970931561e-05,3.3333,4.4667
1.67578125,-2.9792285090409676e-05,-2.5391607544060397e-05,-1.2699798388647266e-05,-2.9307572780956717e-05,3.3333,4.4667
1.6796875,-3.369549474021513e-05,-1.6603008038452713e-05,-6.844983913939089e-06,-3.4677674946211924e-05,3.3333,4.4667
1.68359375,-3.125917760585944e-05,-2.5391607544060397e-05,-4.101720173037306e-05,-3.858088459601737e-05,3.3333,4.4667
1.6875,-3.369549474021513e-05,-5.4691191091783e-05,-5.859440074158844e-05,-4.004777711146713e-05,3.3333,4.4667
1.69140625,-3.858088459601737e-05,-2.832539257495992e-05,-1.806990055390247e-05,-3.5647099565117855e-05,3.3333,4.4667
1.6953125,-4.1514669626916887e-05,-4.004777711146713e-05,-3.2726070121309195e-05,-3.2726070121309195e-05,3.3333,4.4667
1.69921875,-4.248409424582282e-05,-8.202641422751198e-05,-4.1999381936369856e-05,-3.5647099565117855e-05,3.3333,4.4667
1.703125,-3.809617228656441e-05,-3.17438899153124e-05,-5.127269375143051e-05,-3.858088459601737e-05,3.3333,4.4667
1.70703125,-3.5162387255664886e-05,-4.395098676127257e-05,-6.397725849393451e-05,-4.1999381936369856e-05,3.3333,4.4667
1.7109375,-3.5647099565117855e-05,-6.738300024719613e-05,-5.762497612268251e-05,-4.296880655527578e-05,3.3333,4.4667
1.71484375,-3.809617228656441e-05,-5.909186863813227e-05,-4.0532489420920096e-05,-4.1999381936369856e-05,3.3333,4.4667
1.71875,-3.759870439002058e-05,-5.2254873957427306e-05,-1.3681978594644056e-05,-3.4677674946211924e-05,3.3333,4.4667
1.72265625,-4.1999381936369856e-05,-3.5647099565117855e-05,-3.809617228656441e-05,-2.9792285090409676e-05,3.3333,4.4667
1.7265625,-4.101720173037306e-05,-7.420723934081024e-05,-5.030326913252457e-05,-3.027699739986264e-05,3.3333,4.4667
1.73046875,-3.369549474021513e-05,-7.762573668116272e-05,-2.7840680265506954e-05,-3.076170970931561e-05,3.3333,4.4667
1.734375,-3.6629279771114646e-05,8.780610272373564e-06,-2.2470578100251748e-05,-3.6629279771114646e-05,3.3333,4.4667
1.73828125,-4.004777711146713e-05,-3.809617228656441e-05,-3.9111988830395744e-06,-3.6629279771114646e-05,3.3333,4.4667
1.7421875,-4.248409424582282e-05,-9.520293569237809e-05,-3.5647099565117855e-05,-3.418020704966809e-05,3.3333,4.4667
1.74609375,-3.6629279771114646e-05,-8.154170191805903e-05,-4.0532489420920096e-05,-3.3210782430762164e-05,3.3333,4.4667
1.75,-3.17438899153124e-05,-5.127269375143051e-05,-2.148839789425495e-05,-3.5162387255664886e-05,3.3333,4.4667
1.75390625,-3.17438899153124e-05,-4.736948410162506e-05,-2.7355967956053992e-05,-3.4677674946211924e-05,3.3333,4.4667
1.7578125,-2.3440002719157675e-05,-7.812320457770654e-05,-1.953679306935223e-05,-3.711399208056761e-05,3.3333,4.4667
1.76171875,-2.100368558480199e-05,-5.030326913252457e-05,-1.3681978594644056e-05,-3.5162387255664886e-05,3.3333,4.4667
1.765625,-1.85673684504463e-05,-3.17438899153124e-05,-2.4443063675898174e-06,-2.832539257495992e-05,3.3333,4.4667
1.76953125,-1.7585188244449503e-05,-1.6118295728999747e-05,-1.806990055390247e-05,-3.222860222476537e-05,3.3333,4.4667
1.7734375,-2.5391607544060397e-05,-4.1999381936369856e-05,-3.6144567461661683e-05,-3.125917760585944e-05,3.3333,4.4667
1.77734375,-2.148839789425495e-05,-4.736948410162506e-05,-2.0518973275349026e-05,-2.490689523460744e-05,3.3333,4.4667
1.78125,-2.5391607544060397e-05,-2.6858500059510164e-05,-1.563358341954678e-05,-2.7840680265506954e-05,3.3333,4.4667
1.78515625,-4.3466274451819615e-05,-0.0002206924014923323,-4.1514669626916887e-05,-2.7840680265506954e-05,3.3333,4.4667
1.7890625,-4.493316696726937e-05,-0.00012108402189974819,-5.664279591668571e-05,-3.222860222476537e-05,3.3333,4.4667
1.79296875,-3.711399208056761e-05,7.56709089768826e-05,-3.9563064802014165e-05,-3.4677674946211924e-05,3.3333,4.4667
1.796875,-3.418020704966809e-05,3.4105081071183602e-06,-1.6118295728999747e-05,-3.5162387255664886e-05,3.3333,4.4667
1.80078125,-3.759870439002058e-05,-1.6118295728999747e-05,4.767230762188319e-07,-4.395098676127257e-05,3.3333,4.4667
1.8046875,-3.711399208056761e-05,6.200967520256352e-05,-1.953679306935223e-05,-4.638730389562826e-05,3.3333,4.4667
1.80859375,-3.6629279771114646e-05,3.1243199139391194e-05,-4.1514669626916887e-05,-2.9307572780956717e-05,3.3333,4.4667
1.8125,-3.17438899153124e-05,-7.275310241245134e-05,-0.00011816299245593956,-3.125917760585944e-05,3.3333,4.4667
1.81640625,-2.0518973275349026e-05,-5.664279591668571e-05,-0.00010008832554818033,-3.858088459601737e-05,3.3333,4.4667
1.8203125,-2.3937470615701507e-05,-1.563358341954678e-05,-6.360271604486129e-06,-1.806990055390247e-05,3.3333,4.4667
1.82421875,-3.6144567461661683e-05,-7.372252703135727e-05,-2.6858500059510164e-05,-8.796588738841819e-06,3.3333,4.4667
1.828125,-3.222860222476537e-05,-1.4748817486838846e-06,-3.711399208056761e-05,-2.148839789425495e-05,3.3333,4.4667
1.83203125,-2.0518973275349026e-05,0.00015673266493934542,-5.420647878233003e-05,-3.076170970931561e-05,3.3333,4.4667
1.8359375,-3.5647099565117855e-05,0.00010643738504005495,-2.3440002719157675e-05,-3.076170970931561e-05,3.3333,4.4667
1.83984375,-3.711399208056761e-05,9.081179085374231e-05,-1.85673684504463e-05,-3.125917760585944e-05,3.3333,4.4667
1.84375,-2.832539257495992e-05,5.859117786221105e-05,-4.5902591586175306e-05,-3.125917760585944e-05,3.3333,4.4667
1.84765625,-3.418020704966809e-05,6.493070464637219e-05,-5.957658094758523e-05,-3.076170970931561e-05,3.3333,4.4667
1.8515625,-3.9563064802014165e-05,7.95868742137789e-05,-6.836518045319292e-05,-2.9307572780956717e-05,3.3333,4.4667
1.85546875,-2.7840680265506954e-05,0.00011474127223620968,-4.932108892652778e-05,-3.759870439002058e-05,3.3333,4.4667
1.859375,-2.7355967956053992e-05,1.7569209777981255e-05,-5.030326913252457e-05,-3.222860222476537e-05,3.3333,4.4667
1.86328125,-3.711399208056761e-05,6.68823094712749e-05,-5.567337129777979e-05,-1.22150860791943e-05,3.3333,4.4667
1.8671875,-2.832539257495992e-05,0.00020067566246738386,1.4589032822156298e-06,-1.0748193563744542e-05,3.3333,4.4667
1.87109375,-2.2955290409704717e-05,0.00017871054149691008,-1.3184510698100226e-05,-1.7100475934996545e-05,3.3333,4.4667
1.875,-3.125917760585944e-05,0.00019091763834287024,-1.806990055390247e-05,-1.7585188244449503e-05,3.3333,4.4667
1.87890625,-3.759870439002058e-05,0.0001870016731059739,-2.9792285090409676e-05,-2.9792285090409676e-05,3.3333,4.4667
1.8828125,-4.1514669626916887e-05,0.0001611205868986038,-3.125917760585944e-05,-4.004777711146713e-05,3.3333,4.4667
1.88671875,-4.296880655527578e-05,0.00012743308139162284,-1.6603008038452713e-05,-3.809617228656441e-05,3.3333,4.4667
1.890625,-4.883637661707482e-05,0.00012401458405127033,-2.100368558480199e-05,-3.6144567461661683e-05,3.3333,4.4667
1.89453125,-4.980580123598075e-05,0.00014941095794918747,-2.3937470615701507e-05,-3.222860222476537e-05,3.3333,4.4667
1.8984375,-5.078798144197755e-05,7.56709089768826e-05,-2.588907544060423e-05,-2.8810104884412885e-05,3.3333,4.4667
1.90234375,-4.68847717921721e-05,9.667936091554134e-05,-3.4264865735866152e-06,-2.7355967956053992e-05,3.3333,4.4667
1.90625,-3.6144567461661683e-05,0.00018163157094071872,-8.311876429388853e-06,-2.9307572780956717e-05,3.3333,4.4667
1.91015625,-3.858088459601737e-05,0.00018603224848706798,-6.934736065918971e-05,-4.3466274451819615e-05,3.3333,4.4667
1.9140625,-4.248409424582282e-05,9.471500050354774e-05,-4.638730389562826e-05,-5.078798144197755e-05,3.3333,4.4667
1.91796875,-4.101720173037306e-05,0.0001005825705653468,1.6599785159075324e-05,-4.248409424582282e-05,3.3333,4.4667
1.921875,-4.932108892652778e-05,0.00018016467842526894,9.741909727626706e-07,-3.809617228656441e-05,3.3333,4.4667
1.92578125,-5.420647878233003e-05,0.00013622168089723048,-6.360271604486129e-06,-3.3210782430762164e-05,3.3333,4.4667
1.9296875,-4.395098676127257e-05,0.00018114685863126575,-2.7355967956053992e-05,-3.5162387255664886e-05,3.3333,4.4667
1.93359375,-3.418020704966809e-05,0.00013867075361867706,-4.5902591586175306e-05,-4.296880655527578e-05,3.3333,4.4667
1.9375,-3.9563064802014165e-05,8.105376672922866e-05,2.925795797665387e-06,-4.1514669626916887e-05,3.3333,4.4667
1.94140625,-4.3466274451819615e-05,0.00011717758937056538,-5.4691191091783e-05,-4.883637661707482e-05,3.3333,4.4667
1.9453125,-4.1999381936369856e-05,9.863096574044404e-05,-3.418020704966809e-05,-4.296880655527578e-05,3.3333,4.4667
1.94921875,-4.932108892652778e-05,0.00013525225627832458,-1.85673684504463e-05,-2.7840680265506954e-05,3.3333,4.4667
1.953125,-4.785419641107802e-05,0.00015526577242389562,-2.490689523460744e-05,-2.3937470615701507e-05,3.3333,4.4667
1.95703125,-4.101720173037306e-05,0.0001191291941954681,4.767230762188319e-07,-2.9792285090409676e-05,3.3333,4.4667
1.9609375,-4.004777711146713e-05,0.00011327437972075992,-1.3184510698100226e-05,-3.418020704966809e-05,3.3333,4.4667
1.96484375,-3.9065596905470336e-05,9.71640732249943e-05,-7.329696223392062e-06,-3.2726070121309195e-05,3.3333,4.4667
1.96875,-4.004777711146713e-05,8.153847903868165e-05,-2.100368558480199e-05,-3.076170970931561e-05,3.3333,4.4667
1.97265625,-3.9065596905470336e-05,7.90894063172351e-05,-1.563358341954678e-05,-3.2726070121309195e-05,3.3333,4.4667
1.9765625,-4.004777711146713e-05,9.61818930189975e-05,7.811185653467631e-06,-3.369549474021513e-05,3.3333,4.4667
1.98046875,-4.4435699070725546e-05,6.396128002746627e-05,-1.0748193563744542e-05,-3.711399208056761e-05,3.3333,4.4667
1.984375,-5.2254873957427306e-05,2.4410834882124274e-06,-1.6603008038452713e-05,-3.17438899153124e-05,3.3333,4.4667
1.98828125,-4.980580123598075e-05,5.272360780041201e-05,-3.17438899153124e-05,-3.17438899153124e-05,3.3333,4.4667
1.9921875,-4.736948410162506e-05,5.467521262531474e-05,-4.8351664307621856e-05,-3.076170970931561e-05,3.3333,4.4667
1.99609375,-4.883637661707482e-05,1.8053922087434214e-05,-1.0263481254291577e-05,-2.3440002719157675e-05,3.3333,4.4667
2.0,-4.785419641107802e-05,9.081179085374231e-05,-1.4748817486838846e-06,-2.9792285090409676e-05,3.3333,4.4667
2.00390625,-4.4435699070725546e-05,8.153847903868165e-05,-2.2470578100251748e-05,-3.6629279771114646e-05,3.3333,4.4667
2.0078125,-3.9563064802014165e-05,8.202319134813461e-05,-3.5162387255664886e-05,-3.125917760585944e-05,3.3333,4.4667
2.01171875,-4.101720173037306e-05,8.642386889448388e-05,-2.5391607544060397e-05,-2.5391607544060397e-05,3.3333,4.4667
2.015625,-4.296880655527578e-05,8.105376672922866e-05,1.0732215097276296e-05,-2.7840680265506954e-05,3.3333,4.4667
2.01953125,-3.5647099565117855e-05,7.713780149233236e-05,1.4150712437628769e-05,-3.418020704966809e-05,3.3333,4.4667
2.0234375,-2.7840680265506954e-05,8.886018602883956e-05,-1.0748193563744542e-05,-3.3210782430762164e-05,3.3333,4.4667
2.02734375,-3.027699739986264e-05,7.90894063172351e-05,-3.222860222476537e-05,-3.809617228656441e-05,3.3333,4.4667
2.03125,-2.8810104884412885e-05,6.054278268711377e-05,-4.1999381936369856e-05,-4.493316696726937e-05,3.3333,4.4667
2.03515625,-3.3210782430762164e-05,7.616837687342643e-05,-3.5647099565117855e-05,-4.1999381936369856e-05,3.3333,4.4667
2.0390625,-3.809617228656441e-05,9.374557588464182e-05,-3.027699739986264e-05,-3.759870439002058e-05,3.3333,4.4667
2.04296875,-4.004777711146713e-05,8.250790365758758e-05,-1.0748193563744542e-05,-3.6629279771114646e-05,3.3333,4.4667
2.046875,-3.5162387255664886e-05,2.977630662394142e-05,-1.9595940581368438e-06,-3.5162387255664886e-05,3.3333,4.4667
2.05078125,-2.9792285090409676e-05,3.5643876685740466e-05,6.344293138017875e-06,-3.5162387255664886e-05,3.3333,4.4667
2.0546875,-2.0021505378805194e-05,5.5172680521858564e-05,-5.3780913984893315e-06,-4.004777711146713e-05,3.3333,4.4667
2.05859375,-1.905208075989927e-05,6.249438751201651e-05,-2.7355967956053992e-05,-4.1514669626916887e-05,3.3333,4.4667
2.0625,-2.9307572780956717e-05,4.7353505635156804e-05,-2.1973110203707916e-05,-3.3210782430762164e-05,3.3333,4.4667
2.06640625,-3.4677674946211924e-05,3.856490612954911e-05,-1.4166690904097024e-05,-2.588907544060423e-05,3.3333,4.4667
2.0703125,-3.369549474021513e-05,4.686879332570385e-05,-3.027699739986264e-05,-3.027699739986264e-05,3.3333,4.4667
2.07421875,-3.17438899153124e-05,3.075848682993822e-05,-1.85673684504463e-05,-3.222860222476537e-05,3.3333,4.4667
2.078125,-3.809617228656441e-05,4.392688313115158e-06,-4.893379089036372e-06,-3.6144567461661683e-05,3.3333,4.4667
2.08203125,-4.101720173037306e-05,3.6128588995193435e-05,-1.4166690904097024e-05,-3.5162387255664886e-05,3.3333,4.4667
2.0859375,-4.101720173037306e-05,7.811998169832916e-05,-4.541787927672234e-05,-3.027699739986264e-05,3.3333,4.4667
2.08984375,-4.1514669626916887e-05,2.4406204458686218e-05,-8.49601992584115e-05,-3.369549474021513e-05,3.3333,4.4667
2.09375,-4.883637661707482e-05,2.0987707118333743e-05,-9.766013357747745e-06,-3.418020704966809e-05,3.3333,4.4667
2.09765625,-4.883637661707482e-05,8.984236623483636e-05,-1.4748817486838846e-06,-3.9065596905470336e-05,3.3333,4.4667
2.1015625,-4.980580123598075e-05,6.591288485236899e-05,1.9036102293431015e-05,-2.8810104884412885e-05,3.3333,4.4667
2.10546875,-5.127269375143051e-05,1.4150712437628769e-05,2.050299480888077e-05,-2.1973110203707916e-05,3.3333,4.4667
2.109375,-3.6629279771114646e-05,4.6384081016250886e-05,-5.322429857633323e-05,-3.759870439002058e-05,3.3333,4.4667
2.11328125,-3.076170970931561e-05,6.249438751201651e-05,-1.7585188244449503e-05,-4.004777711146713e-05,3.3333,4.4667
2.1171875,-3.2726070121309195e-05,4.588661311970705e-05,3.6128588995193435e-05,-4.3466274451819615e-05,3.3333,4.4667
2.12109375,-3.2726070121309195e-05,1.2199107612726052e-05,1.7084497468528296e-05,-4.736948410162506e-05,3.3333,4.4667
2.125,-3.858088459601737e-05,4.7850973531700646e-05,2.1472419427786702e-05,-2.832539257495992e-05,3.3333,4.4667
2.12890625,-3.6629279771114646e-05,4.930511046005954e-05,7.811185653467631e-06,-2.2955290409704717e-05,3.3333,4.4667
2.1328125,-3.4677674946211924e-05,2.34367798397803e-05,1.4150712437628769e-05,-2.6858500059510164e-05,3.3333,4.4667
2.13671875,-3.5647099565117855e-05,2.392149214923326e-05,-1.5148871110093821e-05,-2.8810104884412885e-05,3.3333,4.4667
2.140625,-4.1999381936369856e-05,-1.4748817486838846e-06,-9.28130104829478e-06,-2.9307572780956717e-05,3.3333,4.4667
2.14453125,-5.177016164797434e-05,-4.893379089036372e-06,-1.953679306935223e-05,-2.832539257495992e-05,3.3333,4.4667
2.1484375,-5.615808360723275e-05,4.877400622568118e-06,-7.617159975280382e-05,-2.7355967956053992e-05,3.3333,4.4667
2.15234375,-6.347979059739067e-05,1.122968299382012e-05,-1.7585188244449503e-05,-8.796588738841819e-06,3.3333,4.4667
2.15625,-7.22556345159075e-05,-3.125917760585944e-05,-1.7100475934996545e-05,2.925795797665387e-06,3.3333,4.4667
2.16015625,-7.567413185625998e-05,-6.055876115358203e-05,-5.273958626688026e-05,-6.844983913939089e-06,3.3333,4.4667
2.1640625,-8.154170191805903e-05,-4.68847717921721e-05,-4.4435699070725546e-05,-8.796588738841819e-06,3.3333,4.4667
2.16796875,-7.812320457770654e-05,-5.2254873957427306e-05,-8.691180408331424e-05,-2.4443063675898174e-06,3.3333,4.4667
2.171875,-8.007480940260927e-05,-1.3184510698100226e-05,-3.858088459601737e-05,4.392688313115158e-06,3.3333,4.4667
2.17578125,-8.055952171206224e-05,2.1969887324330527e-05,-2.2470578100251748e-05,3.8952204165713194e-06,3.3333,4.4667
2.1796875,-8.154170191805903e-05,-2.6858500059510164e-05,-5.859440074158844e-05,-1.9595940581368438e-06,3.3333,4.4667
2.18359375,-8.349330674296174e-05,-1.0263481254291577e-05,-3.125917760585944e-05,-3.4264865735866152e-06,3.3333,4.4667
2.1875,-8.49601992584115e-05,-2.7355967956053992e-05,-4.1514669626916887e-05,-1.465140321354999e-05,3.3333,4.4667
2.19140625,-9.37487987640192e-05,-6.055876115358203e-05,-5.714026381322955e-05,-1.905208075989927e-05,3.3333,4.4667
2.1953125,-8.64143361867704e-05,-1.22150860791943e-05,-1.7585188244449503e-05,-1.5148871110093821e-05,3.3333,4.4667
2.19921875,-6.689828793774316e-05,2.1969887324330527e-05,1.4589032822156298e-06,-1.85673684504463e-05,3.3333,4.4667
2.203125,-6.397725849393451e-05,1.5617604953078527e-05,2.24545996337835e-05,-2.148839789425495e-05,3.3333,4.4667
2.20703125,-6.00612932570382e-05,1.318128781872285e-05,1.7569209777981255e-05,-2.0518973275349026e-05,3.3333,4.4667
2.2109375,-5.714026381322955e-05,1.268381992217901e-05,-3.9111988830395744e-06,-1.6603008038452713e-05,3.3333,4.4667
2.21484375,-5.517590340123595e-05,6.344293138017875e-06,1.9036102293431015e-05,-1.22150860791943e-05,3.3333,4.4667
2.21875,-4.493316696726937e-05,-2.2955290409704717e-05,2.7339989489585747e-05,-1.0748193563744542e-05,3.3333,4.4667
2.22265625,-4.0532489420920096e-05,2.050299480888077e-05,-3.2726070121309195e-05,-1.465140321354999e-05,3.3333,4.4667
2.2265625,-4.1999381936369856e-05,1.0732215097276296e-05,-1.85673684504463e-05,-1.7100475934996545e-05,3.3333,4.4667
2.23046875,-3.759870439002058e-05,1.5132892643625566e-05,2.685527718013277e-05,-2.7840680265506954e-05,3.3333,4.4667
2.234375,-3.809617228656441e-05,2.293931194323646e-05,-1.85673684504463e-05,-3.4677674946211924e-05,3.3333,4.4667
2.23828125,-4.638730389562826e-05,-9.766013357747745e-06,8.295897962920605e-06,-2.3440002719157675e-05,3.3333,4.4667
2.2421875,-4.932108892652778e-05,2.050299480888077e-05,1.366600012817581e-05,-2.100368558480199e-05,3.3333,4.4667
2.24609375,-4.932108892652778e-05,2.4406204458686218e-05,-2.2470578100251748e-05,-2.832539257495992e-05,3.3333,4.4667
2.25,-4.8351664307621856e-05,2.4406204458686218e-05,-2.7840680265506954e-05,-2.832539257495992e-05,3.3333,4.4667
2.25390625,-3.809617228656441e-05,2.9291594314488462e-05,-2.7355967956053992e-05,-3.4677674946211924e-05,3.3333,4.4667
2.2578125,-3.076170970931561e-05,9.265322581826524e-06,-1.465140321354999e-05,-3.858088459601737e-05,3.3333,4.4667
2.26171875,-3.6144567461661683e-05,-1.1730373769741333e-05,-1.1232905873197503e-05,-3.5647099565117855e-05,3.3333,4.4667
2.265625,-4.3466274451819615e-05,3.4105081071183602e-06,-5.322429857633323e-05,-3.4677674946211924e-05,3.3333,4.4667
2.26953125,-4.1514669626916887e-05,-9.28130104829478e-06,-3.711399208056761e-05,-3.2726070121309195e-05,3.3333,4.4667
2.2734375,-4.004777711146713e-05,-2.9417742641336416e-06,-1.22150860791943e-05,-3.418020704966809e-05,3.3333,4.4667
2.27734375,-3.5647099565117855e-05,-5.862803707942291e-06,-2.6858500059510164e-05,-4.296880655527578e-05,3.3333,4.4667
2.28125,-3.2726070121309195e-05,-2.832539257495992e-05,-2.588907544060423e-05,-4.248409424582282e-05,3.3333,4.4667
2.28515625,-3.9563064802014165e-05,-1.0263481254291577e-05,-1.806990055390247e-05,-4.0532489420920096e-05,3.3333,4.4667
2.2890625,-3.858088459601737e-05,1.943615591668603e-06,-4.5902591586175306e-05,-4.785419641107802e-05,3.3333,4.4667
2.29296875,-4.0532489420920096e-05,-1.3681978594644056e-05,-5.4691191091783e-05,-4.395098676127257e-05,3.3333,4.4667
2.296875,-4.932108892652778e-05,-1.7585188244449503e-05,-1.465140321354999e-05,-4.1999381936369856e-05,3.3333,4.4667
2.30078125,-4.883637661707482e-05,-2.5391607544060397e-05,-4.0532489420920096e-05,-4.248409424582282e-05,3.3333,4.4667
2.3046875,-4.296880655527578e-05,-6.54313954222934e-05,-2.3440002719157675e-05,-4.248409424582282e-05,3.3333,4.4667
2.30859375,-3.711399208056761e-05,-3.2726070121309195e-05,-6.360271604486129e-06,-5.030326913252457e-05,3.3333,4.4667
2.3125,-2.9792285090409676e-05,-9.7741385214006e-07,-3.222860222476537e-05,-5.273958626688026e-05,3.3333,4.4667
2.31640625,-2.6373787750057195e-05,-1.0263481254291577e-05,-7.329696223392062e-06,-4.8351664307621856e-05,3.3333,4.4667
2.3203125,-2.8810104884412885e-05,-1.1730373769741333e-05,-1.85673684504463e-05,-4.68847717921721e-05,3.3333,4.4667
2.32421875,-3.369549474021513e-05,9.741909727626706e-07,8.780610272373564e-06,-4.493316696726937e-05,3.3333,4.4667
2.328125,-3.076170970931561e-05,4.0031798644998886e-05,3.808019382009616e-05,-3.4677674946211924e-05,3.3333,4.4667
2.33203125,-2.7355967956053992e-05,1.318128781872285e-05,-2.2470578100251748e-05,-3.711399208056761e-05,3.3333,4.4667
2.3359375,-2.6373787750057195e-05,6.344293138017875e-06,-2.588907544060423e-05,-4.1999381936369856e-05,3.3333,4.4667
2.33984375,-2.2470578100251748e-05,1.5132892643625566e-05,1.318128781872285e-05,-3.9065596905470336e-05,3.3333,4.4667
2.34375,-3.17438899153124e-05,2.050299480888077e-05,8.295897962920605e-06,-3.418020704966809e-05,3.3333,4.4667
2.34765625,-3.2726070121309195e-05,3.417698417029071e-05,-5.127269375143051e-05,-3.4677674946211924e-05,3.3333,4.4667
2.3515625,-2.9307572780956717e-05,7.811185653467631e-06,-9.7741385214006e-07,-3.418020704966809e-05,3.3333,4.4667
2.35546875,-3.4677674946211924e-05,-2.4443063675898174e-06,2.8806882005035503e-05,-2.7840680265506954e-05,3.3333,4.4667
2.359375,-3.027699739986264e-05,2.0987707118333743e-05,-2.2955290409704717e-05,-3.2726070121309195e-05,3.3333,4.4667
2.36328125,-3.17438899153124e-05,1.7084497468528296e-05,8.295897962920605e-06,-3.3210782430762164e-05,3.3333,4.4667
2.3671875,-3.9563064802014165e-05,2.4410834882124274e-06,6.344293138017875e-06,-3.076170970931561e-05,3.3333,4.4667
2.37109375,-3.5647099565117855e-05,-3.9111988830395744e-06,-1.4166690904097024e-05,-3.369549474021513e-05,3.3333,4.4667
2.375,-3.027699739986264e-05,-8.796588738841819e-06,2.925795797665387e-06,-2.4422182925154473e-05,3.3333,4.4667
2.37890625,-3.2726070121309195e-05,1.4589032822156298e-06,-7.814408532845021e-06,-2.3937470615701507e-05,3.3333,4.4667
2.3828125,-3.5647099565117855e-05,-1.0263481254291577e-05,-4.004777711146713e-05,-3.17438899153124e-05,3.3333,4.4667
2.38671875,-3.4677674946211924e-05,-3.759870439002058e-05,-2.100368558480199e-05,-3.076170970931561e-05,3.3333,4.4667
2.390625,-3.6144567461661683e-05,-2.4443063675898174e-06,-5.862803707942291e-06,-3.3210782430762164e-05,3.3333,4.4667
2.39453125,-3.759870439002058e-05,-2.9792285090409676e-05,-8.796588738841819e-06,-3.6629279771114646e-05,3.3333,4.4667
2.3984375,-3.5162387255664886e-05,-2.0518973275349026e-05,1.9036102293431015e-05,-3.125917760585944e-05,3.3333,4.4667
2.40234375,-2.6373787750057195e-05,4.345029598535136e-05,2.925795797665387e-06,-3.418020704966809e-05,3.3333,4.4667
2.40625,-2.490689523460744e-05,9.265322581826524e-06,-2.9417742641336416e-06,-3.5647099565117855e-05,3.3333,4.4667
2.41015625,-2.8810104884412885e-05,-7.329696223392062e-06,-1.3184510698100226e-05,-3.076170970931561e-05,3.3333,4.4667
2.4140625,-2.9792285090409676e-05,4.877400622568118e-06,-2.100368558480199e-05,-3.17438899153124e-05,3.3333,4.4667
2.41796875,-2.832539257495992e-05,-1.0263481254291577e-05,-1.6118295728999747e-05,-3.5647099565117855e-05,3.3333,4.4667
2.421875,-2.9792285090409676e-05,-4.395098676127257e-05,5.8468252414740505e-06,-3.17438899153124e-05,3.3333,4.4667
2.42578125,-2.4422182925154473e-05,-6.844983913939089e-06,-2.588907544060423e-05,-3.418020704966809e-05,3.3333,4.4667
2.4296875,-2.4422182925154473e-05,1.2199107612726052e-05,-3.809617228656441e-05,-3.5162387255664886e-05,3.3333,4.4667
2.43359375,-2.7840680265506954e-05,-4.395911192492533e-06,-2.6858500059510164e-05,-3.418020704966809e-05,3.3333,4.4667
2.4375,-2.832539257495992e-05,1.0247502787823322e-05,3.4105081071183602e-06,-3.369549474021513e-05,3.3333,4.4667
2.44140625,-3.17438899153124e-05,1.7569209777981255e-05,-7.989233234127369e-09,-3.076170970931561e-05,3.3333,4.4667
2.4453125,-3.125917760585944e-05,2.4410834882124274e-06,-2.7355967956053992e-05,-3.759870439002058e-05,3.3333,4.4667
2.44921875,-3.027699739986264e-05,-1.0263481254291577e-05,-1.1730373769741333e-05,-3.9563064802014165e-05,3.3333,4.4667
2.453125,-4.1999381936369856e-05,-2.7840680265506954e-05,-2.5391607544060397e-05,-3.9563064802014165e-05,3.3333,4.4667
2.45703125,-4.296880655527578e-05,-2.3937470615701507e-05,-6.201289808194093e-05,-4.883637661707482e-05,3.3333,4.4667
2.4609375,-3.711399208056761e-05,2.8309414108491665e-05,-1.1730373769741333e-05,-4.3466274451819615e-05,3.3333,4.4667
2.46484375,-4.248409424582282e-05,7.313717756923808e-06,3.4105081071183602e-06,-3.17438899153124e-05,3.3333,4.4667
2.46875,-4.1999381936369856e-05,-1.3681978594644056e-05,-1.563358341954678e-05,-3.17438899153124e-05,3.3333,4.4667
2.47265625,-4.5902591586175306e-05,-1.6118295728999747e-05,-8.311876429388853e-06,-3.222860222476537e-05,3.3333,4.4667
2.4765625,-4.785419641107802e-05,-3.17438899153124e-05,-1.563358341954678e-05,-3.4677674946211924e-05,3.3333,4.4667
2.48046875,-4.4435699070725546e-05,-1.4166690904097024e-05,-2.7355967956053992e-05,-3.711399208056761e-05,3.3333,4.4667
2.484375,-4.1999381936369856e-05,-1.465140321354999e-05,-2.4422182925154473e-05,-3.222860222476537e-05,3.3333,4.4667
2.48828125,-3.759870439002058e-05,-2.148839789425495e-05,-2.6373787750057195e-05,-3.17438899153124e-05,3.3333,4.4667
2.4921875,-3.418020704966809e-05,-1.1232905873197503e-05,-2.9307572780956717e-05,-3.4677674946211924e-05,3.3333,4.4667
2.49609375,-4.004777711146713e-05,-4.736948410162506e-05,5.8468252414740505e-06,-3.125917760585944e-05,3.3333,4.4667
2.5,-3.809617228656441e-05,-6.494668311284045e-05,-5.3780913984893315e-06,-2.3440002719157675e-05,3.3333,4.4667
2.50390625,-2.6858500059510164e-05,-4.638730389562826e-05,-4.3466274451819615e-05,-3.222860222476537e-05,3.3333,4.4667
2.5078125,-2.4422182925154473e-05,-4.0532489420920096e-05,-5.372176647287706e-05,-3.759870439002058e-05,3.3333,4.4667
2.51171875,-2.9792285090409676e-05,-2.3440002719157675e-05,-3.2726070121309195e-05,-2.832539257495992e-05,3.3333,4.4667
2.515625,-3.076170970931561e-05,-1.3681978594644056e-05,-9.28130104829478e-06,-2.3440002719157675e-05,3.3333,4.4667
2.51953125,-2.9792285090409676e-05,-2.4422182925154473e-05,-1.2699798388647266e-05,-2.6373787750057195e-05,3.3333,4.4667
2.5234375,-3.4677674946211924e-05,-1.7100475934996545e-05,-3.369549474021513e-05,-2.490689523460744e-05,3.3333,4.4667
2.52734375,-3.6629279771114646e-05,-2.3440002719157675e-05,-2.5391607544060397e-05,-2.3937470615701507e-05,3.3333,4.4667
2.53125,-3.027699739986264e-05,-5.322429857633323e-05,-1.5148871110093821e-05,-2.7355967956053992e-05,3.3333,4.4667
2.53515625,-2.8810104884412885e-05,-1.3184510698100226e-05,-2.490689523460744e-05,-3.418020704966809e-05,3.3333,4.4667
2.5390625,-2.9307572780956717e-05,5.3621129320210765e-06,-2.9792285090409676e-05,-3.4677674946211924e-05,3.3333,4.4667
2.54296875,-2.588907544060423e-05,-2.7355967956053992e-05,-3.6629279771114646e-05,-2.7840680265506954e-05,3.3333,4.4667
2.546875,-3.027699739986264e-05,-3.711399208056761e-05,-4.3466274451819615e-05,-2.4422182925154473e-05,3.3333,4.4667
2.55078125,-3.4677674946211924e-05,-4.980580123598075e-05,-8.796588738841819e-06,-2.2955290409704717e-05,3.3333,4.4667
2.5546875,-2.8810104884412885e-05,-4.3466274451819615e-05,4.767230762188319e-07,-2.7355967956053992e-05,3.3333,4.4667
2.55859375,-2.490689523460744e-05,-1.6118295728999747e-05,5.8468252414740505e-06,-3.125917760585944e-05,3.3333,4.4667
2.5625,-2.5391607544060397e-05,-2.148839789425495e-05,-2.4443063675898174e-06,-3.3210782430762164e-05,3.3333,4.4667
2.56640625,-2.9307572780956717e-05,-5.078798144197755e-05,-3.759870439002058e-05,-3.5647099565117855e-05,3.3333,4.4667
2.5703125,-3.5162387255664886e-05,-4.395098676127257e-05,-2.3440002719157675e-05,-3.5162387255664886e-05,3.3333,4.4667
2.57421875,-3.858088459601737e-05,-3.076170970931561e-05,-4.395911192492533e-06,-3.858088459601737e-05,3.3333,4.4667
2.578125,-4.5902591586175306e-05,-2.832539257495992e-05,-1.0263481254291577e-05,-3.5647099565117855e-05,3.3333,4.4667
2.58203125,-5.078798144197755e-05,-3.5647099565117855e-05,-2.7840680265506954e-05,-3.5162387255664886e-05,3.3333,4.4667
2.5859375,-4.1999381936369856e-05,-1.3184510698100226e-05,-5.2254873957427306e-05,-4.736948410162506e-05,3.3333,4.4667
2.58984375,-3.759870439002058e-05,-2.2470578100251748e-05,-4.541787927672234e-05,-4.736948410162506e-05,3.3333,4.4667
2.59375,-3.6629279771114646e-05,-4.638730389562826e-05,-3.759870439002058e-05,-4.296880655527578e-05,3.3333,4.4667
2.59765625,-3.5162387255664886e-05,-2.9307572780956717e-05,-3.711399208056761e-05,-4.8351664307621856e-05,3.3333,4.4667
2.6015625,-3.5162387255664886e-05,-2.7840680265506954e-05,-2.588907544060423e-05,-3.9563064802014165e-05,3.3333,4.4667
2.60546875,-3.6144567461661683e-05,-4.638730389562826e-05,-3.759870439002058e-05,-3.076170970931561e-05,3.3333,4.4667
2.609375,-3.9563064802014165e-05,-3.9065596905470336e-05,-2.2955290409704717e-05,-3.17438899153124e-05,3.3333,4.4667
2.61328125,-3.6629279771114646e-05,-3.418020704966809e-05,-1.0263481254291577e-05,-2.8810104884412885e-05,3.3333,4.4667
2.6171875,-3.2726070121309195e-05,-3.5162387255664886e-05,-1.9595940581368438e-06,-2.6373787750057195e-05,3.3333,4.4667
2.62109375,-3.858088459601737e-05,-4.1514669626916887e-05,-1.7585188244449503e-05,-2.6858500059510164e-05,3.3333,4.4667
2.625,-4.493316696726937e-05,-4.68847717921721e-05,-4.785419641107802e-05,-3.027699739986264e-05,3.3333,4.4667
2.62890625,-4.736948410162506e-05,-4.541787927672234e-05,-4.932108892652778e-05,-3.027699739986264e-05,3.3333,4.4667
2.6328125,-3.9563064802014165e-05,-3.369549474021513e-05,-3.6144567461661683e-05,-1.953679306935223e-05,3.3333,4.4667
2.63671875,-3.2726070121309195e-05,-2.3937470615701507e-05,-2.3937470615701507e-05,-1.85673684504463e-05,3.3333,4.4667
2.640625,-2.7355967956053992e-05,-2.6373787750057195e-05,-3.5162387255664886e-05,-2.2470578100251748e-05,3.3333,4.4667
2.64453125,-2.4422182925154473e-05,-3.5162387255664886e-05,-3.222860222476537e-05,-2.6373787750057195e-05,3.3333,4.4667
2.6484375,-2.832539257495992e-05,-2.4422182925154473e-05,-3.759870439002058e-05,-3.17438899153124e-05,3.3333,4.4667
2.65234375,-2.6858500059510164e-05,-2.4422182925154473e-05,-3.809617228656441e-05,-3.3210782430762164e-05,3.3333,4.4667
2.65625,-2.6373787750057195e-05,-3.5162387255664886e-05,-3.6629279771114646e-05,-3.759870439002058e-05,3.3333,4.4667
2.66015625,-3.369549474021513e-05,-2.148839789425495e-05,-5.420647878233003e-05,-3.759870439002058e-05,3.3333,4.4667
2.6640625,-3.2726070121309195e-05,-2.0021505378805194e-05,-5.372176647287706e-05,-3.6629279771114646e-05,3.3333,4.4667
2.66796875,-3.5162387255664886e-05,-1.2699798388647266e-05,-3.711399208056761e-05,-3.418020704966809e-05,3.3333,4.4667
2.671875,-4.493316696726937e-05,-4.893379089036372e-06,-3.076170970931561e-05,-3.222860222476537e-05,3.3333,4.4667
2.67578125,-4.296880655527578e-05,-4.004777711146713e-05,-3.6629279771114646e-05,-3.5647099565117855e-05,3.3333,4.4667
2.6796875,-3.3210782430762164e-05,-2.588907544060423e-05,-2.7355967956053992e-05,-3.076170970931561e-05,3.3333,4.4667
2.68359375,-3.418020704966809e-05,-2.1973110203707916e-05,-3.5647099565117855e-05,-3.3210782430762164e-05,3.3333,4.4667
2.6875,-4.1999381936369856e-05,-3.125917760585944e-05,-5.2254873957427306e-05,-3.9563064802014165e-05,3.3333,4.4667
2.69140625,-4.0532489420920096e-05,-2.5391607544060397e-05,-4.638730389562826e-05,-4.248409424582282e-05,3.3333,4.4667
2.6953125,-3.858088459601737e-05,-4.932108892652778e-05,-3.222860222476537e-05,-4.493316696726937e-05,3.3333,4.4667
2.69921875,-3.5647099565117855e-05,-5.322429857633323e-05,-3.711399208056761e-05,-4.5902591586175306e-05,3.3333,4.4667
2.703125,-3.2726070121309195e-05,-3.369549474021513e-05,-5.030326913252457e-05,-4.5902591586175306e-05,3.3333,4.4667
2.70703125,-3.17438899153124e-05,-3.5647099565117855e-05,-5.420647878233003e-05,-4.101720173037306e-05,3.3333,4.4667
2.7109375,-3.17438899153124e-05,-3.759870439002058e-05,-5.615808360723275e-05,-4.1999381936369856e-05,3.3333,4.4667
2.71484375,-3.125917760585944e-05,-4.1514669626916887e-05,-4.004777711146713e-05,-4.3466274451819615e-05,3.3333,4.4667
2.71875,-3.418020704966809e-05,-5.372176647287706e-05,-4.1514669626916887e-05,-3.5162387255664886e-05,3.3333,4.4667
2.72265625,-3.5162387255664886e-05,-6.201289808194093e-05,-5.2254873957427306e-05,-2.9307572780956717e-05,3.3333,4.4667
2.7265625,-3.027699739986264e-05,-3.9563064802014165e-05,-4.932108892652778e-05,-3.125917760585944e-05,3.3333,4.4667
2.73046875,-3.027699739986264e-05,-4.8351664307621856e-05,-3.2726070121309195e-05,-3.2726070121309195e-05,3.3333,4.4667
2.734375,-2.832539257495992e-05,-8.64143361867704e-05,-2.7840680265506954e-05,-2.8810104884412885e-05,3.3333,4.4667
2.73828125,-2.5391607544060397e-05,-8.886340890821696e-05,-3.9563064802014165e-05,-2.7840680265506954e-05,3.3333,4.4667
2.7421875,-2.7355967956053992e-05,-8.592962387731744e-05,-4.1999381936369856e-05,-3.3210782430762164e-05,3.3333,4.4667
2.74609375,-2.9792285090409676e-05,-8.788122870222016e-05,-5.2254873957427306e-05,-3.6629279771114646e-05,3.3333,4.4667
2.75,-3.2726070121309195e-05,-9.960361323872738e-05,-5.909186863813227e-05,-4.0532489420920096e-05,3.3333,4.4667
2.75390625,-3.5162387255664886e-05,-9.813672072327762e-05,-5.567337129777979e-05,-3.858088459601737e-05,3.3333,4.4667
2.7578125,-3.418020704966809e-05,-8.691180408331424e-05,-4.248409424582282e-05,-3.759870439002058e-05,3.3333,4.4667
2.76171875,-3.2726070121309195e-05,-7.762573668116272e-05,-4.395098676127257e-05,-3.4677674946211924e-05,3.3333,4.4667
2.765625,-3.222860222476537e-05,-8.73965163927672e-05,-7.22556345159075e-05,-3.5162387255664886e-05,3.3333,4.4667
2.76953125,-3.418020704966809e-05,-9.178443835202562e-05,-6.689828793774316e-05,-3.6144567461661683e-05,3.3333,4.4667
2.7734375,-3.5647099565117855e-05,-6.299507828793771e-05,-4.395098676127257e-05,-3.4677674946211924e-05,3.3333,4.4667
2.77734375,-3.9065596905470336e-05,-7.177092220645454e-05,-4.1514669626916887e-05,-4.004777711146713e-05,3.3333,4.4667
2.78125,-3.9563064802014165e-05,-8.8378696598764e-05,-3.5647099565117855e-05,-4.004777711146713e-05,3.3333,4.4667
2.78515625,-3.369549474021513e-05,-6.64135756282902e-05,-3.809617228656441e-05,-3.9065596905470336e-05,3.3333,4.4667
2.7890625,-2.9792285090409676e-05,-6.738300024719613e-05,-6.347979059739067e-05,-3.9563064802014165e-05,3.3333,4.4667
2.79296875,-2.6858500059510164e-05,-7.080149758754861e-05,-5.859440074158844e-05,-3.5647099565117855e-05,3.3333,4.4667
2.796875,-2.4422182925154473e-05,-8.8378696598764e-05,-4.493316696726937e-05,-3.4677674946211924e-05,3.3333,4.4667
2.80078125,-3.027699739986264e-05,-9.471822338292512e-05,-3.858088459601737e-05,-3.711399208056761e-05,3.3333,4.4667
2.8046875,-3.369549474021513e-05,-9.911890092927442e-05,-4.395098676127257e-05,-3.418020704966809e-05,3.3333,4.4667
2.80859375,-3.9563064802014165e-05,-8.983283352712288e-05,-5.177016164797434e-05,-2.9792285090409676e-05,3.3333,4.4667
2.8125,-3.6144567461661683e-05,-5.420647878233003e-05,-5.862803707942291e-06,-2.9307572780956717e-05,3.3333,4.4667
2.81640625,-1.7100475934996545e-05,-4.493316696726937e-05,-6.360271604486129e-06,-3.125917760585944e-05,3.3333,4.4667
2.8203125,-1.465140321354999e-05,-8.397801905241472e-05,-7.080149758754861e-05,-2.6858500059510164e-05,3.3333,4.4667
2.82421875,-2.0021505378805194e-05,-0.00010644060791943233,-8.788122870222016e-05,-2.7355967956053992e-05,3.3333,4.4667
2.828125,-2.100368558480199e-05,-0.00010008832554818033,-8.007480940260927e-05,-2.9792285090409676e-05,3.3333,4.4667
2.83203125,-1.5148871110093821e-05,-9.813672072327762e-05,-9.228190624856944e-05,-2.9792285090409676e-05,3.3333,4.4667
2.8359375,-3.4264865735866152e-06,-0.00010595589560997938,-8.788122870222016e-05,-2.9307572780956717e-05,3.3333,4.4667
2.83984375,1.943615591668603e-06,-0.00012840572888990612,-0.0001079075004348821,-2.4422182925154473e-05,3.3333,4.4667
2.84375,1.943615591668603e-06,-0.0001352427235706111,-0.00014207971825131607,-2.4422182925154473e-05,3.3333,4.4667
2.84765625,-3.9111988830395744e-06,-0.00016063909746852822,-0.00016942769697413592,-3.222860222476537e-05,3.3333,4.4667
2.8515625,-6.360271604486129e-06,-0.00021727390415197983,-0.00018115008151064314,-3.5162387255664886e-05,3.3333,4.4667
2.85546875,2.4410834882124274e-06,-0.00027050296908216976,-0.0001879870761913481,-3.3210782430762164e-05,3.3333,4.4667
2.859375,2.925795797665387e-06,-0.00030565736710460055,-0.00019921199283131147,-2.832539257495992e-05,3.3333,4.4667
2.86328125,5.3621129320210765e-06,-0.00029149866543373763,-0.0002065336998214694,-2.8810104884412885e-05,3.3333,4.4667
2.8671875,1.4150712437628769e-05,-0.00024168809784390016,-0.00021337069450217438,-3.2726070121309195e-05,3.3333,4.4667
2.87109375,1.4150712437628769e-05,-0.00021678919184252686,-0.00020019417303730828,-3.711399208056761e-05,3.3333,4.4667
2.875,1.0732215097276296e-05,-0.0002163044795330739,-0.0002055642752025635,-4.1999381936369856e-05,3.3333,4.4667
2.87890625,3.4105081071183602e-06,-0.00021435287470817117,-0.0002075158800274662,-4.004777711146713e-05,3.3333,4.4667
2.8828125,2.925795797665387e-06,-0.0002241108988326848,-0.00020067888534676124,-4.101720173037306e-05,3.3333,4.4667
2.88671875,5.3621129320210765e-06,-0.0002099521971618219,-0.00021678919184252686,-4.296880655527578e-05,3.3333,4.4667
2.890625,4.767230762188319e-07,-0.00018163479382009607,-0.00018700489598535132,-3.9065596905470336e-05,3.3333,4.4667
2.89453125,-9.766013357747745e-06,-0.00015965691726253146,-0.00015526899530327303,-4.101720173037306e-05,3.3333,4.4667
2.8984375,-9.766013357747745e-06,-0.00014549821559166855,-0.00015185049796292052,-4.8351664307621856e-05,3.3333,4.4667
2.90234375,-1.1730373769741333e-05,-0.00014207971825131607,-0.000149401425241474,-4.932108892652778e-05,3.3333,4.4667
2.90625,-2.100368558480199e-05,-0.00012158148979629203,-0.0001440313230762188,-4.980580123598075e-05,3.3333,4.4667
2.91015625,-1.7585188244449503e-05,-8.73965163927672e-05,-0.00013232169412680245,-5.177016164797434e-05,3.3333,4.4667
2.9140625,-1.465140321354999e-05,-7.518941954680703e-05,-0.0001122954223941405,-4.932108892652778e-05,3.3333,4.4667
2.91796875,-1.85673684504463e-05,-6.299507828793771e-05,-9.960361323872738e-05,-4.8351664307621856e-05,3.3333,4.4667
2.921875,-2.100368558480199e-05,-3.9563064802014165e-05,-0.00010203993037308306,-5.420647878233003e-05,3.3333,4.4667
2.92578125,-2.490689523460744e-05,-2.4422182925154473e-05,-6.54313954222934e-05,-4.932108892652778e-05,3.3333,4.4667
2.9296875,-2.2470578100251748e-05,-1.1730373769741333e-05,-6.055876115358203e-05,-4.1999381936369856e-05,3.3333,4.4667
2.93359375,-2.0518973275349026e-05,-3.4264865735866152e-06,-5.909186863813227e-05,-4.541787927672234e-05,3.3333,4.4667
2.9375,-2.1973110203707916e-05,-7.989233234127369e-09,-4.4435699070725546e-05,-4.638730389562826e-05,3.3333,4.4667
2.94140625,-1.465140321354999e-05,-1.6118295728999747e-05,-5.4691191091783e-05,-4.3466274451819615e-05,3.3333,4.4667
2.9453125,-1.5148871110093821e-05,-1.1730373769741333e-05,-5.4691191091783e-05,-4.541787927672234e-05,3.3333,4.4667
2.94921875,-2.0518973275349026e-05,-3.9111988830395744e-06,-5.030326913252457e-05,-4.296880655527578e-05,3.3333,4.4667
2.953125,-1.905208075989927e-05,4.877400622568118e-06,-4.638730389562826e-05,-4.541787927672234e-05,3.3333,4.4667
2.95703125,-2.490689523460744e-05,1.943615591668603e-06,-4.4435699070725546e-05,-5.2254873957427306e-05,3.3333,4.4667
2.9609375,-2.7355967956053992e-05,-6.844983913939089e-06,-4.395098676127257e-05,-5.030326913252457e-05,3.3333,4.4667
2.96484375,-2.0518973275349026e-05,3.4105081071183602e-06,-5.664279591668571e-05,-5.372176647287706e-05,3.3333,4.4667
2.96875,-1.953679306935223e-05,1.366600012817581e-05,-5.4691191091783e-05,-5.322429857633323e-05,3.3333,4.4667
2.97265625,-2.3937470615701507e-05,1.1714395303273078e-05,-3.5162387255664886e-05,-4.8351664307621856e-05,3.3333,4.4667
2.9765625,-2.3937470615701507e-05,5.8468252414740505e-06,-2.1973110203707916e-05,-4.883637661707482e-05,3.3333,4.4667
2.98046875,-2.3440002719157675e-05,-7.989233234127369e-09,-1.7100475934996545e-05,-4.932108892652778e-05,3.3333,4.4667
2.984375,-2.0021505378805194e-05,1.943615591668603e-06,-2.832539257495992e-05,-4.4435699070725546e-05,3.3333,4.4667
2.98828125,-1.806990055390247e-05,1.943615591668603e-06,-2.6373787750057195e-05,-4.1999381936369856e-05,3.3333,4.4667
2.9921875,-2.3937470615701507e-05,-4.927015426870866e-07,-2.100368558480199e-05,-4.296880655527578e-05,3.3333,4.4667
2.99609375,-2.3440002719157675e-05,3.4105081071183602e-06,-1.563358341954678e-05,-4.5902591586175306e-05,3.3333,4.4667
3.0,-2.148839789425495e-05,9.265322581826524e-06,-2.0021505378805194e-05,-4.68847717921721e-05,3.3333,4.4667
3.00390625,-2.7840680265506954e-05,1.7084497468528296e-05,-3.369549474021513e-05,-4.638730389562826e-05,3.3333,4.4667
3.0078125,-3.125917760585944e-05,1.0732215097276296e-05,-2.9307572780956717e-05,-4.493316696726937e-05,3.3333,4.4667
3.01171875,-2.6373787750057195e-05,1.0732215097276296e-05,-1.465140321354999e-05,-4.4435699070725546e-05,3.3333,4.4667
3.015625,-2.5391607544060397e-05,1.5132892643625566e-05,-1.4748817486838846e-06,-3.9563064802014165e-05,3.3333,4.4667
3.01953125,-2.7355967956053992e-05,1.0247502787823322e-05,-1.9595940581368438e-06,-3.9065596905470336e-05,3.3333,4.4667
3.0234375,-2.5391607544060397e-05,4.877400622568118e-06,-1.5148871110093821e-05,-4.638730389562826e-05,3.3333,4.4667
3.02734375,-2.3937470615701507e-05,-4.893379089036372e-06,-2.8810104884412885e-05,-4.248409424582282e-05,3.3333,4.4667
3.03125,-2.3440002719157675e-05,-4.927015426870866e-07,-1.7585188244449503e-05,-4.3466274451819615e-05,3.3333,4.4667
3.03515625,-2.6373787750057195e-05,3.4105081071183602e-06,-9.28130104829478e-06,-4.736948410162506e-05,3.3333,4.4667
3.0390625,-3.222860222476537e-05,1.7569209777981255e-05,-1.6603008038452713e-05,-4.5902591586175306e-05,3.3333,4.4667
3.04296875,-3.369549474021513e-05,1.5132892643625566e-05,-2.1973110203707916e-05,-4.5902591586175306e-05,3.3333,4.4667
3.046875,-3.17438899153124e-05,9.741909727626706e-07,-2.2955290409704717e-05,-4.4435699070725546e-05,3.3333,4.4667
3.05078125,-3.222860222476537e-05,-2.9417742641336416e-06,-3.17438899153124e-05,-4.101720173037306e-05,3.3333,4.4667
3.0546875,-3.125917760585944e-05,-2.9417742641336416e-06,-2.3937470615701507e-05,-3.759870439002058e-05,3.3333,4.4667
3.05859375,-2.588907544060423e-05,1.7569209777981255e-05,-1.0748193563744542e-05,-3.5647099565117855e-05,3.3333,4.4667
3.0625,-1.6118295728999747e-05,3.6128588995193435e-05,-2.9792285090409676e-05,-4.248409424582282e-05,3.3333,4.4667
3.06640625,-1.806990055390247e-05,3.6128588995193435e-05,-4.4435699070725546e-05,-4.638730389562826e-05,3.3333,4.4667
3.0703125,-2.9307572780956717e-05,3.6128588995193435e-05,-4.296880655527578e-05,-4.3466274451819615e-05,3.3333,4.4667
3.07421875,-2.8810104884412885e-05,2.9291594314488462e-05,-3.076170970931561e-05,-4.3466274451819615e-05,3.3333,4.4667
3.078125,-2.3937470615701507e-05,2.8806882005035503e-05,-3.3210782430762164e-05,-4.248409424582282e-05,3.3333,4.4667
3.08203125,-2.832539257495992e-05,1.61023172625315e-05,-3.5162387255664886e-05,-3.9563064802014165e-05,3.3333,4.4667
3.0859375,-3.2726070121309195e-05,-5.862803707942291e-06,-3.4677674946211924e-05,-3.9065596905470336e-05,3.3333,4.4667
3.08984375,-2.9307572780956717e-05,-8.311876429388853e-06,-2.0021505378805194e-05,-3.858088459601737e-05,3.3333,4.4667
3.09375,-2.6373787750057195e-05,3.8952204165713194e-06,4.877400622568118e-06,-4.0532489420920096e-05,3.3333,4.4667
3.09765625,-2.4422182925154473e-05,1.4589032822156298e-06,-9.7741385214006e-07,-3.6629279771114646e-05,3.3333,4.4667
3.1015625,-2.148839789425495e-05,-1.3184510698100226e-05,-3.3210782430762164e-05,-3.2726070121309195e-05,3.3333,4.4667
3.10546875,-2.2470578100251748e-05,-2.0518973275349026e-05,-3.6629279771114646e-05,-3.222860222476537e-05,3.3333,4.4667
3.109375,-2.4422182925154473e-05,-3.222860222476537e-05,-3.027699739986264e-05,-2.7355967956053992e-05,3.3333,4.4667
3.11328125,-2.9792285090409676e-05,-2.4422182925154473e-05,-3.076170970931561e-05,-2.8810104884412885e-05,3.3333,4.4667
3.1171875,-3.2726070121309195e-05,-1.953679306935223e-05,-2.832539257495992e-05,-2.832539257495992e-05,3.3333,4.4667
3.12109375,-2.832539257495992e-05,-1.7100475934996545e-05,-2.5391607544060397e-05,-2.6858500059510164e-05,3.3333,4.4667
3.125,-2.2955290409704717e-05,-1.1232905873197503e-05,-2.588907544060423e-05,-3.222860222476537e-05,3.3333,4.4667
3.12890625,-1.953679306935223e-05,-2.4443063675898174e-06,-2.490689523460744e-05,-2.9307572780956717e-05,3.3333,4.4667
3.1328125,-1.85673684504463e-05,-5.3780913984893315e-06,-6.360271604486129e-06,-2.5391607544060397e-05,3.3333,4.4667
3.13671875,-2.0021505378805194e-05,-1.3184510698100226e-05,-1.806990055390247e-05,-3.076170970931561e-05,3.3333,4.4667
3.140625,-2.5391607544060397e-05,-1.465140321354999e-05,-3.369549474021513e-05,-3.369549474021513e-05,3.3333,4.4667
3.14453125,-2.6373787750057195e-05,-2.8810104884412885e-05,-4.1514669626916887e-05,-2.832539257495992e-05,3.3333,4.4667
3.1484375,-2.8810104884412885e-05,-3.125917760585944e-05,-5.859440074158844e-05,-3.2726070121309195e-05,3.3333,4.4667
3.15234375,-2.588907544060423e-05,-1.6603008038452713e-05,-5.127269375143051e-05,-3.5647099565117855e-05,3.3333,4.4667
3.15625,-2.7355967956053992e-05,-2.3440002719157675e-05,-3.125917760585944e-05,-2.9792285090409676e-05,3.3333,4.4667
3.16015625,-2.7840680265506954e-05,-4.980580123598075e-05,-2.9307572780956717e-05,-2.100368558480199e-05,3.3333,4.4667
3.1640625,-2.148839789425495e-05,-3.809617228656441e-05,-4.1999381936369856e-05,-1.2699798388647266e-05,3.3333,4.4667
3.16796875,-2.0518973275349026e-05,-2.1973110203707916e-05,-6.104347346303499e-05,-1.5148871110093821e-05,3.3333,4.4667
3.171875,-2.1973110203707916e-05,-3.4677674946211924e-05,-6.104347346303499e-05,-2.2470578100251748e-05,3.3333,4.4667
3.17578125,-2.4422182925154473e-05,-4.395098676127257e-05,-4.68847717921721e-05,-2.490689523460744e-05,3.3333,4.4667
3.1796875,-2.6858500059510164e-05,-2.588907544060423e-05,-4.736948410162506e-05,-2.490689523460744e-05,3.3333,4.4667
3.18359375,-2.8810104884412885e-05,-1.7585188244449503e-05,-5.909186863813227e-05,-2.490689523460744e-05,3.3333,4.4667
3.1875,-2.2955290409704717e-05,-2.588907544060423e-05,-6.983207296864269e-05,-1.7585188244449503e-05,3.3333,4.4667
3.19140625,-2.3440002719157675e-05,-3.369549474021513e-05,-6.299507828793771e-05,-1.0748193563744542e-05,3.3333,4.4667
3.1953125,-2.7355967956053992e-05,-3.027699739986264e-05,-4.68847717921721e-05,-7.814408532845021e-06,3.3333,4.4667
3.19921875,-2.6858500059510164e-05,-2.9307572780956717e-05,-6.347979059739067e-05,-1.4166690904097024e-05,3.3333,4.4667
3.203125,-3.076170970931561e-05,-4.3466274451819615e-05,-8.397801905241472e-05,-1.953679306935223e-05,3.3333,4.4667
3.20703125,-2.9792285090409676e-05,-5.030326913252457e-05,-8.007480940260927e-05,-1.85673684504463e-05,3.3333,4.4667
3.2109375,-2.6373787750057195e-05,-6.152818577248795e-05,-9.423351107347216e-05,-2.148839789425495e-05,3.3333,4.4667
3.21484375,-3.076170970931561e-05,-7.031678527809565e-05,-8.983283352712288e-05,-2.0518973275349026e-05,3.3333,4.4667
3.21875,-2.6373787750057195e-05,-6.592886331883725e-05,-7.031678527809565e-05,-2.0518973275349026e-05,3.3333,4.4667
3.22265625,-1.3681978594644056e-05,-6.347979059739067e-05,-7.470470723735406e-05,-2.6858500059510164e-05,3.3333,4.4667
3.2265625,-1.22150860791943e-05,-7.32378147219043e-05,-0.00010937439295033186,-1.953679306935223e-05,3.3333,4.4667
3.23046875,-1.905208075989927e-05,-8.886340890821696e-05,-0.00013232169412680245,-2.5391607544060397e-05,3.3333,4.4667
3.234375,-2.0518973275349026e-05,-0.00010203993037308306,-0.00010545842771343554,-3.6144567461661683e-05,3.3333,4.4667
3.23828125,-2.4422182925154473e-05,-0.00010595589560997938,-9.033030142366672e-05,-2.0021505378805194e-05,3.3333,4.4667
3.2421875,-2.9307572780956717e-05,-0.00011766552455939571,-0.00011279289029068434,-1.7585188244449503e-05,3.3333,4.4667
3.24609375,-3.17438899153124e-05,-0.00011327760260013729,-0.00012840572888990612,-2.2955290409704717e-05,3.3333,4.4667
3.25,-2.9792285090409676e-05,-0.00010497371540398258,-0.00012938790909590293,-2.5391607544060397e-05,3.3333,4.4667
3.25390625,-2.6373787750057195e-05,-0.00011718081224994276,-0.00012158148979629203,-3.5647099565117855e-05,3.3333,4.4667
3.2578125,-2.588907544060423e-05,-0.00012498723154955366,-0.00010644060791943233,-3.418020704966809e-05,3.3333,4.4667
3.26171875,-2.0518973275349026e-05,-0.00010839221274433506,-0.0001079075004348821,-2.588907544060423e-05,3.3333,4.4667
3.265625,-1.465140321354999e-05,-0.00011718081224994276,-0.00012695159196154726,-2.9792285090409676e-05,3.3333,4.4667
3.26953125,-1.953679306935223e-05,-0.0001303700893018997,-0.00012011459728084227,-3.17438899153124e-05,3.3333,4.4667
3.2734375,-3.125917760585944e-05,-0.00013085480161135267,-0.00011816299245593956,-2.1973110203707916e-05,3.3333,4.4667
3.27734375,-3.759870439002058e-05,-0.0001298726214053559,-0.00012011459728084227,-2.2470578100251748e-05,3.3333,4.4667
3.28125,-2.8810104884412885e-05,-0.00012792101658045315,-0.00011424702721904324,-2.100368558480199e-05,3.3333,4.4667
3.28515625,-2.9307572780956717e-05,-0.00013085480161135267,-0.0001240178069306477,-2.4422182925154473e-05,3.3333,4.4667
3.2890625,-3.858088459601737e-05,-0.00013085480161135267,-0.00013232169412680245,-2.9307572780956717e-05,3.3333,4.4667
3.29296875,-3.6629279771114646e-05,-0.00011766552455939571,-0.00011619863204394596,-2.490689523460744e-05,3.3333,4.4667
3.296875,-2.490689523460744e-05,-0.00010203993037308306,-9.618511589837488e-05,-2.9792285090409676e-05,3.3333,4.4667
3.30078125,-3.027699739986264e-05,-0.00011181071008468754,-9.228190624856944e-05,-2.8810104884412885e-05,3.3333,4.4667
3.3046875,-3.9563064802014165e-05,-0.00011522920742504003,-9.37487987640192e-05,-2.6373787750057195e-05,3.3333,4.4667
3.30859375,-3.9563064802014165e-05,-9.37487987640192e-05,-8.934812121766992e-05,-2.1973110203707916e-05,3.3333,4.4667
3.3125,-4.248409424582282e-05,-7.86079168871595e-05,-6.689828793774316e-05,-1.0748193563744542e-05,3.3333,4.4667
3.31640625,-4.1999381936369856e-05,-7.22556345159075e-05,-5.177016164797434e-05,-1.806990055390247e-05,3.3333,4.4667
3.3203125,-3.5647099565117855e-05,-5.372176647287706e-05,-4.3466274451819615e-05,-2.9792285090409676e-05,3.3333,4.4667
3.32421875,-3.5162387255664886e-05,-4.493316696726937e-05,-4.883637661707482e-05,-2.6858500059510164e-05,3.3333,4.4667
3.328125,-3.6629279771114646e-05,-4.8351664307621856e-05,-4.980580123598075e-05,-2.832539257495992e-05,3.3333,4.4667
3.33203125,-3.6629279771114646e-05,-3.6144567461661683e-05,-3.17438899153124e-05,-3.222860222476537e-05,3.3333,4.4667
3.3359375,-3.2726070121309195e-05,-3.222860222476537e-05,-3.369549474021513e-05,-3.369549474021513e-05,3.3333,4.4667
3.33984375,-3.3210782430762164e-05,-3.809617228656441e-05,-3.6144567461661683e-05,-3.369549474021513e-05,3.3333,4.4667
3.34375,-3.027699739986264e-05,-1.7100475934996545e-05,-3.3210782430762164e-05,-3.5162387255664886e-05,3.3333,4.4667
3.34765625,-2.9307572780956717e-05,-1.0263481254291577e-05,-3.5647099565117855e-05,-3.027699739986264e-05,3.3333,4.4667
3.3515625,-3.222860222476537e-05,-9.28130104829478e-06,-1.22150860791943e-05,-2.7840680265506954e-05,3.3333,4.4667
3.35546875,-2.6858500059510164e-05,3.8952204165713194e-06,5.3621129320210765e-06,-3.076170970931561e-05,3.3333,4.4667
3.359375,-2.3937470615701507e-05,1.122968299382012e-05,-7.329696223392062e-06,-3.6144567461661683e-05,3.3333,4.4667
3.36328125,-2.1973110203707916e-05,1.8053922087434214e-05,-1.7585188244449503e-05,-3.858088459601737e-05,3.3333,4.4667
3.3671875,-2.4422182925154473e-05,2.34367798397803e-05,-1.905208075989927e-05,-3.2726070121309195e-05,3.3333,4.4667
3.37109375,-2.8810104884412885e-05,1.5132892643625566e-05,-1.1730373769741333e-05,-3.3210782430762164e-05,3.3333,4.4667
3.375,-2.6858500059510164e-05,2.0018282499427812e-05,1.61023172625315e-05,-3.3210782430762164e-05,3.3333,4.4667
3.37890625,-2.832539257495992e-05,9.265322581826524e-06,1.2199107612726052e-05,-2.832539257495992e-05,3.3333,4.4667
3.3828125,-3.418020704966809e-05,-4.927015426870866e-07,-1.22150860791943e-05,-3.125917760585944e-05,3.3333,4.4667
3.38671875,-3.418020704966809e-05,-4.395911192492533e-06,-8.796588738841819e-06,-3.5162387255664886e-05,3.3333,4.4667
3.390625,-2.6373787750057195e-05,-7.989233234127369e-09,4.392688313115158e-06,-3.418020704966809e-05,3.3333,4.4667
3.39453125,-2.148839789425495e-05,1.268381992217901e-05,7.313717756923808e-06,-2.7840680265506954e-05,3.3333,4.4667
3.3984375,-2.4422182925154473e-05,1.5132892643625566e-05,4.392688313115158e-06,-2.5391607544060397e-05,3.3333,4.4667
3.40234375,-2.7355967956053992e-05,8.295897962920605e-06,-6.844983913939089e-06,-3.17438899153124e-05,3.3333,4.4667
3.40625,-2.9307572780956717e-05,1.4648180334172607e-05,-1.1730373769741333e-05,-3.2726070121309195e-05,3.3333,4.4667
3.41015625,-2.6858500059510164e-05,3.222537934538798e-05,-3.4264865735866152e-06,-3.2726070121309195e-05,3.3333,4.4667
3.4140625,-2.6858500059510164e-05,1.9036102293431015e-05,1.2199107612726052e-05,-4.101720173037306e-05,3.3333,4.4667
3.41796875,-3.125917760585944e-05,1.9036102293431015e-05,1.4648180334172607e-05,-4.493316696726937e-05,3.3333,4.4667
3.421875,-3.6144567461661683e-05,1.7084497468528296e-05,-9.28130104829478e-06,-4.1999381936369856e-05,3.3333,4.4667
3.42578125,-3.711399208056761e-05,1.0732215097276296e-05,-2.3937470615701507e-05,-3.5162387255664886e-05,3.3333,4.4667
3.4296875,-3.6144567461661683e-05,7.811185653467631e-06,-2.3937470615701507e-05,-3.5647099565117855e-05,3.3333,4.4667
3.43359375,-3.369549474021513e-05,8.780610272373564e-06,-1.953679306935223e-05,-4.541787927672234e-05,3.3333,4.4667
3.4375,-2.832539257495992e-05,3.172791144884415e-05,-9.28130104829478e-06,-4.493316696726937e-05,3.3333,4.4667
3.44140625,-3.4677674946211924e-05,3.9062374026092954e-05,-1.0748193563744542e-05,-4.1514669626916887e-05,3.3333,4.4667
3.4453125,-4.0532489420920096e-05,3.271009165484095e-05,-6.844983913939089e-06,-3.5162387255664886e-05,3.3333,4.4667
3.44921875,-3.5162387255664886e-05,1.4648180334172607e-05,-3.9111988830395744e-06,-2.588907544060423e-05,3.3333,4.4667
3.453125,-3.5162387255664886e-05,1.61023172625315e-05,-7.329696223392062e-06,-2.9792285090409676e-05,3.3333,4.4667
3.45703125,-3.9065596905470336e-05,2.977630662394142e-05,-6.844983913939089e-06,-3.418020704966809e-05,3.3333,4.4667
3.4609375,-3.9065596905470336e-05,6.829005447470848e-06,-1.7100475934996545e-05,-3.6144567461661683e-05,3.3333,4.4667
3.46484375,-4.1999381936369856e-05,-9.7741385214006e-07,-2.3937470615701507e-05,-4.004777711146713e-05,3.3333,4.4667
3.46875,-4.1514669626916887e-05,5.3621129320210765e-06,-3.5162387255664886e-05,-4.101720173037306e-05,3.3333,4.4667
3.47265625,-4.0532489420920096e-05,9.762790478370363e-06,-2.7840680265506954e-05,-3.759870439002058e-05,3.3333,4.4667
3.4765625,-4.004777711146713e-05,5.8468252414740505e-06,-3.9111988830395744e-06,-3.6629279771114646e-05,3.3333,4.4667
3.48046875,-3.6629279771114646e-05,2.925795797665387e-06,-2.1973110203707916e-05,-3.2726070121309195e-05,3.3333,4.4667
3.484375,-3.759870439002058e-05,-6.844983913939089e-06,-4.101720173037306e-05,-3.5647099565117855e-05,3.3333,4.4667
3.48828125,-3.369549474021513e-05,-1.85673684504463e-05,-3.5647099565117855e-05,-3.759870439002058e-05,3.3333,4.4667
3.4921875,-3.4677674946211924e-05,-1.5148871110093821e-05,-3.076170970931561e-05,-3.2726070121309195e-05,3.3333,4.4667
3.49609375,-3.4677674946211924e-05,-1.953679306935223e-05,-2.588907544060423e-05,-2.8810104884412885e-05,3.3333,4.4667
3.5,-2.6858500059510164e-05,-3.858088459601737e-05,-3.125917760585944e-05,-3.027699739986264e-05,3.3333,4.4667
3.50390625,-3.2726070121309195e-05,-4.248409424582282e-05,-5.177016164797434e-05,-3.369549474021513e-05,3.3333,4.4667
3.5078125,-3.759870439002058e-05,-4.248409424582282e-05,-6.299507828793771e-05,-2.5391607544060397e-05,3.3333,4.4667
3.51171875,-3.5162387255664886e-05,-6.152818577248795e-05,-7.22556345159075e-05,-2.148839789425495e-05,3.3333,4.4667
3.515625,-3.6144567461661683e-05,-7.665631206225678e-05,-7.372252703135727e-05,-2.3937470615701507e-05,3.3333,4.4667
3.51953125,-3.4677674946211924e-05,-8.007480940260927e-05,-7.518941954680703e-05,-2.490689523460744e-05,3.3333,4.4667
3.5234375,-3.369549474021513e-05,-7.567413185625998e-05,-0.00010107050575417712,-2.832539257495992e-05,3.3333,4.4667
3.52734375,-2.6858500059510164e-05,-7.031678527809565e-05,-0.0001274363042710002,-3.5162387255664886e-05,3.3333,4.4667
3.53125,-2.832539257495992e-05,-6.397725849393451e-05,-0.00011961712938429843,-3.4677674946211924e-05,3.3333,4.4667
3.53515625,-3.759870439002058e-05,-7.567413185625998e-05,-0.00012108402189974819,-2.6373787750057195e-05,3.3333,4.4667
3.5390625,-3.418020704966809e-05,-8.251112653696494e-05,-0.00015331739047837032,-2.0021505378805194e-05,3.3333,4.4667
3.54296875,-2.9792285090409676e-05,-7.420723934081024e-05,-0.0001591722049530785,-1.22150860791943e-05,3.3333,4.4667
3.546875,-3.222860222476537e-05,-6.836518045319292e-05,-0.0001513657856534676,-1.563358341954678e-05,3.3333,4.4667
3.55078125,-3.4677674946211924e-05,-7.22556345159075e-05,-0.00015722060012817577,-2.0021505378805194e-05,3.3333,4.4667
3.5546875,-3.809617228656441e-05,-9.570040358892192e-05,-0.00015233521027237349,-1.3184510698100226e-05,3.3333,4.4667
3.55859375,-4.296880655527578e-05,-0.00011082852987869073,-0.00013817650860151062,-7.814408532845021e-06,3.3333,4.4667
3.5625,-4.5902591586175306e-05,-0.00011619863204394596,-0.00014306189845731285,-1.1232905873197503e-05,3.3333,4.4667
3.56640625,-4.68847717921721e-05,-0.00012353309462119475,-0.00015428681509727625,-1.4166690904097024e-05,3.3333,4.4667
3.5703125,-4.68847717921721e-05,-0.00013964340111696037,-0.00016063909746852822,-7.329696223392062e-06,3.3333,4.4667
3.57421875,-4.4435699070725546e-05,-0.0001415950059418631,-0.00015185049796292052,-3.9111988830395744e-06,3.3333,4.4667
3.578125,-4.493316696726937e-05,-0.00012158148979629203,-0.00012938790909590293,-9.28130104829478e-06,3.3333,4.4667
3.58203125,-5.567337129777979e-05,-0.00012059930959029523,-0.0001415950059418631,-1.0263481254291577e-05,3.3333,4.4667
3.5859375,-5.517590340123595e-05,-0.0001303700893018997,-0.0001577053124376287,-4.395911192492533e-06,3.3333,4.4667
3.58984375,-4.980580123598075e-05,-0.0001245025192401007,-0.0001591722049530785,-4.395911192492533e-06,3.3333,4.4667
3.59375,-5.273958626688026e-05,-0.0001425771861478599,-0.00015281992258182647,-4.893379089036372e-06,3.3333,4.4667
3.59765625,-5.322429857633323e-05,-0.0001425771861478599,-0.0001264541240650034,-1.9595940581368438e-06,3.3333,4.4667
3.6015625,-5.030326913252457e-05,-0.0001298726214053559,-0.00012890319678644996,-9.28130104829478e-06,3.3333,4.4667
3.60546875,-4.883637661707482e-05,-0.00012498723154955366,-0.00013232169412680245,-1.0263481254291577e-05,3.3333,4.4667
3.609375,-4.980580123598075e-05,-0.0001122954223941405,-0.00012255091441519796,-1.1730373769741333e-05,3.3333,4.4667
3.61328125,-4.638730389562826e-05,-0.00011132599777523458,-0.00012011459728084227,-2.6373787750057195e-05,3.3333,4.4667
3.6171875,-4.395098676127257e-05,-9.666982820782786e-05,-0.00010595589560997938,-3.369549474021513e-05,3.3333,4.4667
3.62109375,-4.883637661707482e-05,-8.349330674296174e-05,-9.813672072327762e-05,-2.148839789425495e-05,3.3333,4.4667
3.625,-4.541787927672234e-05,-8.592962387731744e-05,-9.520293569237809e-05,-1.563358341954678e-05,3.3333,4.4667
3.62890625,-4.638730389562826e-05,-8.788122870222016e-05,-8.251112653696494e-05,-1.0263481254291577e-05,3.3333,4.4667
3.6328125,-4.8351664307621856e-05,-7.909262919661248e-05,-6.347979059739067e-05,-9.28130104829478e-06,3.3333,4.4667
3.63671875,-3.711399208056761e-05,-7.32378147219043e-05,-3.9563064802014165e-05,-1.563358341954678e-05,3.3333,4.4667
3.640625,-4.0532489420920096e-05,-7.177092220645454e-05,-4.248409424582282e-05,-1.6118295728999747e-05,3.3333,4.4667
3.64453125,-3.711399208056761e-05,-6.152818577248795e-05,-5.859440074158844e-05,-1.953679306935223e-05,3.3333,4.4667
3.6484375,-3.2726070121309195e-05,-5.567337129777979e-05,-7.812320457770654e-05,-2.148839789425495e-05,3.3333,4.4667
3.65234375,-3.711399208056761e-05,-6.738300024719613e-05,-7.129896548409245e-05,-2.8810104884412885e-05,3.3333,4.4667
3.65625,-3.5647099565117855e-05,-6.592886331883725e-05,-5.127269375143051e-05,-3.2726070121309195e-05,3.3333,4.4667
3.66015625,-4.004777711146713e-05,-5.762497612268251e-05,-4.5902591586175306e-05,-2.148839789425495e-05,3.3333,4.4667
3.6640625,-3.4677674946211924e-05,-5.372176647287706e-05,-5.273958626688026e-05,-2.6373787750057195e-05,3.3333,4.4667
3.66796875,-3.17438899153124e-05,-4.638730389562826e-05,-5.762497612268251e-05,-3.5162387255664886e-05,3.3333,4.4667
3.671875,-3.809617228656441e-05,-3.809617228656441e-05,-5.859440074158844e-05,-2.9792285090409676e-05,3.3333,4.4667
3.67578125,-3.3210782430762164e-05,-2.100368558480199e-05,-3.2726070121309195e-05,-2.6373787750057195e-05,3.3333,4.4667
3.6796875,-3.076170970931561e-05,-2.3440002719157675e-05,-2.6858500059510164e-05,-3.6144567461661683e-05,3.3333,4.4667
3.68359375,-3.3210782430762164e-05,-2.490689523460744e-05,-3.369549474021513e-05,-4.1514669626916887e-05,3.3333,4.4667
3.6875,-2.8810104884412885e-05,-5.3780913984893315e-06,-2.2955290409704717e-05,-4.248409424582282e-05,3.3333,4.4667
3.69140625,-2.7355967956053992e-05,1.0247502787823322e-05,-1.7100475934996545e-05,-4.638730389562826e-05,3.3333,4.4667
3.6953125,-3.6144567461661683e-05,-8.311876429388853e-06,-4.893379089036372e-06,-4.493316696726937e-05,3.3333,4.4667
3.69921875,-3.759870439002058e-05,-6.360271604486129e-06,1.2199107612726052e-05,-4.3466274451819615e-05,3.3333,4.4667
3.703125,-3.369549474021513e-05,1.9520814602883974e-05,1.122968299382012e-05,-3.9065596905470336e-05,3.3333,4.4667
3.70703125,-3.222860222476537e-05,3.172791144884415e-05,9.741909727626706e-07,-4.1514669626916887e-05,3.3333,4.4667
3.7109375,-3.222860222476537e-05,3.0261018933394393e-05,-1.9595940581368438e-06,-4.493316696726937e-05,3.3333,4.4667
3.71484375,-3.125917760585944e-05,3.271009165484095e-05,1.366600012817581e-05,-4.68847717921721e-05,3.3333,4.4667
3.71875,-2.7840680265506954e-05,3.271009165484095e-05,2.1969887324330527e-05,-4.883637661707482e-05,3.3333,4.4667
3.72265625,-2.0518973275349026e-05,3.075848682993822e-05,7.313717756923808e-06,-3.809617228656441e-05,3.3333,4.4667
3.7265625,-1.953679306935223e-05,6.054278268711377e-05,-6.360271604486129e-06,-3.2726070121309195e-05,3.3333,4.4667
3.73046875,-2.588907544060423e-05,5.6142105140764495e-05,-9.7741385214006e-07,-3.369549474021513e-05,3.3333,4.4667
3.734375,-2.6858500059510164e-05,2.8806882005035503e-05,6.829005447470848e-06,-4.0532489420920096e-05,3.3333,4.4667
3.73828125,-2.100368558480199e-05,2.9291594314488462e-05,6.829005447470848e-06,-4.638730389562826e-05,3.3333,4.4667
3.7421875,-1.4166690904097024e-05,3.172791144884415e-05,9.741909727626706e-07,-4.248409424582282e-05,3.3333,4.4667
3.74609375,-8.796588738841819e-06,3.172791144884415e-05,9.741909727626706e-07,-3.711399208056761e-05,3.3333,4.4667
3.75,-1.1232905873197503e-05,2.5388384664683015e-05,-1.4166690904097024e-05,-3.5162387255664886e-05,3.3333,4.4667
3.75390625,-2.588907544060423e-05,2.293931194323646e-05,-1.22150860791943e-05,-3.4677674946211924e-05,3.3333,4.4667
3.7578125,-3.027699739986264e-05,1.318128781872285e-05,-3.4264865735866152e-06,-3.4677674946211924e-05,3.3333,4.4667
3.76171875,-2.588907544060423e-05,5.3621129320210765e-06,-2.3440002719157675e-05,-3.4677674946211924e-05,3.3333,4.4667
3.765625,-2.3937470615701507e-05,2.4410834882124274e-06,-3.9563064802014165e-05,-3.418020704966809e-05,3.3333,4.4667
3.76953125,-2.2470578100251748e-05,-1.4166690904097024e-05,-4.3466274451819615e-05,-2.832539257495992e-05,3.3333,4.4667
3.7734375,-1.806990055390247e-05,-2.6373787750057195e-05,-4.493316696726937e-05,-2.4422182925154473e-05,3.3333,4.4667
3.77734375,-1.3681978594644056e-05,-2.2470578100251748e-05,-4.1999381936369856e-05,-2.1973110203707916e-05,3.3333,4.4667
3.78125,-1.0748193563744542e-05,-3.125917760585944e-05,-5.567337129777979e-05,-1.905208075989927e-05,3.3333,4.4667
3.78515625,-1.7100475934996545e-05,-5.2254873957427306e-05,-7.518941954680703e-05,-2.1973110203707916e-05,3.3333,4.4667
3.7890625,-2.3440002719157675e-05,-6.201289808194093e-05,-8.788122870222016e-05,-2.490689523460744e-05,3.3333,4.4667
3.79296875,-2.5391607544060397e-05,-6.152818577248795e-05,-7.518941954680703e-05,-2.0518973275349026e-05,3.3333,4.4667
3.796875,-1.85673684504463e-05,-7.080149758754861e-05,-7.470470723735406e-05,-2.5391607544060397e-05,3.3333,4.4667
3.80078125,-1.6118295728999747e-05,-6.00612932570382e-05,-9.862143303273058e-05,-3.027699739986264e-05,3.3333,4.4667
3.8046875,-2.588907544060423e-05,-5.664279591668571e-05,-9.911890092927442e-05,-2.2955290409704717e-05,3.3333,4.4667
3.80859375,-3.369549474021513e-05,-9.570040358892192e-05,-0.00010887692505378802,-1.806990055390247e-05,3.3333,4.4667
3.8125,-4.296880655527578e-05,-0.00011279289029068434,-0.0001069253202288853,-1.3681978594644056e-05,3.3333,4.4667
3.81640625,-4.101720173037306e-05,-0.00010155521806363009,-9.325133086747536e-05,-1.5148871110093821e-05,3.3333,4.4667
3.8203125,-2.4422182925154473e-05,-9.471822338292512e-05,-0.00010595589560997938,-1.7585188244449503e-05,3.3333,4.4667
3.82421875,-2.9307572780956717e-05,-0.0001044890030945296,-0.00013329111874570837,-1.6118295728999747e-05,3.3333,4.4667
3.828125,-3.6144567461661683e-05,-0.00011913241707484547,-0.00014306189845731285,-1.22150860791943e-05,3.3333,4.4667
3.83203125,-3.6144567461661683e-05,-0.0001240178069306477,-0.00011474449511558706,-1.3184510698100226e-05,3.3333,4.4667
3.8359375,-3.809617228656441e-05,-0.00012206620210574499,-8.8378696598764e-05,-8.311876429388853e-06,3.3333,4.4667
3.83984375,-3.5162387255664886e-05,-0.0001122954223941405,-0.0001044890030945296,-3.4264865735866152e-06,3.3333,4.4667
3.84375,-3.6629279771114646e-05,-0.0001166960999404898,-0.00012158148979629203,-7.329696223392062e-06,3.3333,4.4667
3.84765625,-3.4677674946211924e-05,-0.00011913241707484547,-0.00012596941175555045,-1.563358341954678e-05,3.3333,4.4667
3.8515625,-2.7840680265506954e-05,-0.0001166960999404898,-0.0001274363042710002,-1.1232905873197503e-05,3.3333,4.4667
3.85546875,-2.7355967956053992e-05,-0.00011913241707484547,-0.00011619863204394596,-1.465140321354999e-05,3.3333,4.4667
3.859375,-2.9307572780956717e-05,-0.00011034381756923778,-0.00011132599777523458,-2.5391607544060397e-05,3.3333,4.4667
3.86328125,-2.5391607544060397e-05,-0.00010155521806363009,-0.0001079075004348821,-1.953679306935223e-05,3.3333,4.4667
3.8671875,-3.222860222476537e-05,-0.00010350682288853282,-0.00010350682288853282,-1.22150860791943e-05,3.3333,4.4667
3.87109375,-3.222860222476537e-05,-9.228190624856944e-05,-9.178443835202562e-05,-9.28130104829478e-06,3.3333,4.4667
3.875,-2.490689523460744e-05,-6.201289808194093e-05,-6.836518045319292e-05,-1.85673684504463e-05,3.3333,4.4667
3.87890625,-2.3440002719157675e-05,-4.248409424582282e-05,-7.372252703135727e-05,-2.9307572780956717e-05,3.3333,4.4667
3.8828125,-2.8810104884412885e-05,-5.4691191091783e-05,-8.397801905241472e-05,-3.2726070121309195e-05,3.3333,4.4667
3.88671875,-3.9065596905470336e-05,-5.714026381322955e-05,-8.49601992584115e-05,-3.858088459601737e-05,3.3333,4.4667
3.890625,-3.759870439002058e-05,-4.8351664307621856e-05,-7.420723934081024e-05,-3.809617228656441e-05,3.3333,4.4667
3.89453125,-4.004777711146713e-05,-4.395098676127257e-05,-5.957658094758523e-05,-3.418020704966809e-05,3.3333,4.4667
3.8984375,-5.030326913252457e-05,-4.0532489420920096e-05,-5.859440074158844e-05,-4.101720173037306e-05,3.3333,4.4667
3.90234375,-4.785419641107802e-05,-3.125917760585944e-05,-5.273958626688026e-05,-4.980580123598075e-05,3.3333,4.4667
3.90625,-3.6629279771114646e-05,-1.7585188244449503e-05,-5.273958626688026e-05,-4.296880655527578e-05,3.3333,4.4667
3.91015625,-3.5162387255664886e-05,-1.22150860791943e-05,-4.101720173037306e-05,-3.9065596905470336e-05,3.3333,4.4667
3.9140625,-3.5162387255664886e-05,-3.9111988830395744e-06,-2.0518973275349026e-05,-4.4435699070725546e-05,3.3333,4.4667
3.91796875,-3.418020704966809e-05,-1.9595940581368438e-06,-6.844983913939089e-06,-4.8351664307621856e-05,3.3333,4.4667
3.921875,-3.418020704966809e-05,6.829005447470848e-06,-1.3681978594644056e-05,-5.127269375143051e-05,3.3333,4.4667
3.92578125,-3.9065596905470336e-05,2.1969887324330527e-05,-1.0263481254291577e-05,-5.127269375143051e-05,3.3333,4.4667
3.9296875,-4.101720173037306e-05,3.808019382009616e-05,1.0732215097276296e-05,-4.785419641107802e-05,3.3333,4.4667
3.93359375,-3.5647099565117855e-05,4.246811577935456e-05,2.34367798397803e-05,-4.785419641107802e-05,3.3333,4.4667
3.9375,-2.9307572780956717e-05,4.540190081025409e-05,3.709801361409936e-05,-4.883637661707482e-05,3.3333,4.4667
3.94140625,-2.832539257495992e-05,4.19834034699016e-05,2.977630662394142e-05,-5.2254873957427306e-05,3.3333,4.4667
3.9453125,-3.076170970931561e-05,3.5643876685740466e-05,1.318128781872285e-05,-5.127269375143051e-05,3.3333,4.4667
3.94921875,-3.418020704966809e-05,4.345029598535136e-05,1.5617604953078527e-05,-5.177016164797434e-05,3.3333,4.4667
3.953125,-4.1999381936369856e-05,4.101397885099567e-05,3.172791144884415e-05,-5.372176647287706e-05,3.3333,4.4667
3.95703125,-4.296880655527578e-05,3.66133013046464e-05,3.66133013046464e-05,-5.322429857633323e-05,3.3333,4.4667
3.9609375,-4.101720173037306e-05,3.417698417029071e-05,3.075848682993822e-05,-5.714026381322955e-05,3.3333,4.4667
3.96484375,-4.3466274451819615e-05,3.319480396429391e-05,5.8468252414740505e-06,-6.299507828793771e-05,3.3333,4.4667
3.96875,-4.101720173037306e-05,4.7353505635156804e-05,1.0732215097276296e-05,-6.446197080338747e-05,3.3333,4.4667
3.97265625,-3.711399208056761e-05,5.077200297550929e-05,3.5643876685740466e-05,-6.00612932570382e-05,3.3333,4.4667
3.9765625,-3.6144567461661683e-05,4.443247619134816e-05,3.856490612954911e-05,-5.322429857633323e-05,3.3333,4.4667
3.98046875,-3.9065596905470336e-05,4.930511046005954e-05,2.8806882005035503e-05,-5.127269375143051e-05,3.3333,4.4667
3.984375,-4.0532489420920096e-05,4.491718850080111e-05,1.4648180334172607e-05,-4.785419641107802e-05,3.3333,4.4667
3.98828125,-4.541787927672234e-05,3.075848682993822e-05,9.265322581826524e-06,-4.736948410162506e-05,3.3333,4.4667
