timestamp,TP9,AF7,AF8,TP10,Valence,Arousal
0.0,-3.420008073548473e-06,-4.639044869153886e-05,-3.1252445110246416e-05,9.759673350118262e-06,5.9286,3.3571
0.00390625,1.1224082397192347e-05,-5.713522513160904e-05,-2.5394808921950086e-05,1.4584670359350156e-06,5.9286,3.3571
0.0078125,7.810016334782957e-06,-6.397202239871823e-05,-9.520986035553519e-05,-4.4440791676203544e-05,5.9286,3.3571
0.01171875,-4.884417120622558e-06,-6.054929119401845e-05,-0.00013768638786297395,-5.322724595864804e-05,5.9286,3.3571
0.015625,-2.7838379047837023e-05,-8.007185677424275e-05,-0.00011376192999923701,-4.541128761272601e-05,5.9286,3.3571
0.01953125,-4.492603964446478e-05,-7.860744772716867e-05,-8.349458797894254e-05,-3.760399440909436e-05,5.9286,3.3571
0.0234375,-4.053281250324252e-05,-3.076719714198518e-05,-4.3461630597390694e-05,-1.9043259623102145e-05,5.9286,3.3571
0.02734375,-3.711008129854275e-05,-1.4164784513618663e-05,-5.127758894331272e-05,-3.5645672251468666e-05,5.9286,3.3571
0.03125,-1.12359664194705e-05,-1.855801165484091e-05,-6.397202239871823e-05,-4.883401881742578e-05,5.9286,3.3571
0.03515625,-9.277644261844806e-06,-2.148682974898908e-05,-5.1762836911573955e-05,-4.492603964446478e-05,5.9286,3.3571
0.0390625,-2.8323627016098256e-05,-3.418126320439458e-05,-5.5670816084534965e-05,-5.517690297398335e-05,5.9286,3.3571
0.04296875,-2.3445151906614776e-05,-1.318562343480582e-05,-4.785485773861294e-05,-4.785485773861294e-05,5.9286,3.3571
0.046875,-8.307148325322338e-06,1.3182404554818048e-05,-2.2465990827801922e-05,-3.6139585362020283e-05,5.9286,3.3571
0.05078125,-1.7578850576028068e-05,4.442890765392539e-05,-3.91392118410009e-06,-3.516042428320743e-05,5.9286,3.3571
0.0546875,-3.516042428320743e-05,8.886375731898985e-05,-1.9537172733653762e-05,-2.6859217969024172e-05,5.9286,3.3571
0.05859375,-4.053281250324252e-05,4.7851638858625174e-05,-4.639044869153886e-05,-2.588005689021133e-05,5.9286,3.3571
0.0625,-4.590520072327763e-05,-4.399169152361324e-06,-6.15284522728313e-05,-3.5645672251468666e-05,5.9286,3.3571
0.06640625,-3.711008129854275e-05,-8.307148325322338e-06,-5.713522513160904e-05,-4.0038899392690916e-05,5.9286,3.3571
0.0703125,-2.4909560953688853e-05,1.6111222648966218e-05,-3.5645672251468666e-05,-3.5645672251468666e-05,5.9286,3.3571
0.07421875,-1.855801165484091e-05,2.2454106805523778e-05,-1.0742053308918884e-05,-2.6373970000762936e-05,5.9286,3.3571
0.078125,-1.5629193560692748e-05,-7.81323521477072e-06,-1.7578850576028068e-05,-2.148682974898908e-05,5.9286,3.3571
0.08203125,-1.5629193560692748e-05,-4.492603964446478e-05,-3.760399440909436e-05,-3.076719714198518e-05,5.9286,3.3571
0.0859375,-8.307148325322338e-06,-1.611444152895398e-05,-3.516042428320743e-05,-2.148682974898908e-05,5.9286,3.3571
0.08984375,-1.2215127498283343e-05,1.2688491444266432e-05,-3.076719714198518e-05,-2.3445151906614776e-05,5.9286,3.3571
0.09375,-2.9788036063172332e-05,-1.6608354639505592e-05,-4.297638262912946e-05,-4.590520072327763e-05,5.9286,3.3571
0.09765625,-3.5645672251468666e-05,-2.588005689021133e-05,-4.0038899392690916e-05,-4.492603964446478e-05,5.9286,3.3571
0.1015625,-2.880887498435949e-05,-4.6875696659800094e-05,-3.711008129854275e-05,-3.516042428320743e-05,5.9286,3.3571
0.10546875,-2.7344465937285405e-05,-3.711008129854275e-05,-3.857449034561683e-05,-3.076719714198518e-05,5.9286,3.3571
0.109375,-4.785485773861294e-05,-5.9420111390693366e-09,-3.076719714198518e-05,-4.394687856565193e-05,5.9286,3.3571
0.11328125,-4.6875696659800094e-05,2.391851585259786e-05,-1.5629193560692748e-05,-5.95701301152056e-05,5.9286,3.3571
0.1171875,-3.6139585362020283e-05,-1.025680534065765e-05,-2.148682974898908e-05,-5.762047309987028e-05,5.9286,3.3571
0.12109375,-4.101806047150376e-05,-6.054929119401845e-05,-5.224808487983519e-05,-5.0783675832761104e-05,5.9286,3.3571
0.125,-3.711008129854275e-05,-6.690084049286639e-05,-4.590520072327763e-05,-3.1252445110246416e-05,5.9286,3.3571
0.12890625,-4.6875696659800094e-05,-2.4909560953688853e-05,-3.321076726787211e-05,-1.5143945592431513e-05,5.9286,3.3571
0.1328125,-6.054929119401845e-05,9.732190676737815e-07,-2.295123879606316e-05,-2.198074285954069e-05,5.9286,3.3571
0.13671875,-6.933574547646295e-05,-2.3445151906614776e-05,-2.6373970000762936e-05,-2.0022420701914995e-05,5.9286,3.3571
0.140625,-5.61560640527962e-05,-4.541128761272601e-05,-4.394687856565193e-05,-1.6608354639505592e-05,5.9286,3.3571
0.14453125,-2.393039987487601e-05,-3.760399440909436e-05,-4.151197358205537e-05,-3.1252445110246416e-05,5.9286,3.3571
0.1484375,-2.934760105287239e-06,-1.709360260776683e-05,-3.369601523613335e-05,-4.199722155031661e-05,5.9286,3.3571
0.15234375,-1.8072763686579675e-05,-2.393039987487601e-05,-3.369601523613335e-05,-4.394687856565193e-05,5.9286,3.3571
0.15625,-3.711008129854275e-05,-4.541128761272601e-05,-4.3461630597390694e-05,-3.857449034561683e-05,5.9286,3.3571
0.16015625,-2.198074285954069e-05,-4.9804514753948254e-05,-5.2741997990386805e-05,-3.174635822079803e-05,5.9286,3.3571
0.1640625,-4.399169152361324e-06,-8.056576988479437e-05,-4.639044869153886e-05,-3.6624833330281516e-05,5.9286,3.3571
0.16796875,-1.4703510582131542e-06,-8.64234060730907e-05,-2.295123879606316e-05,-3.418126320439458e-05,5.9286,3.3571
0.171875,-1.709360260776683e-05,-3.2231606189059266e-05,-2.7344465937285405e-05,-3.6624833330281516e-05,5.9286,3.3571
0.17578125,-4.151197358205537e-05,-3.369601523613335e-05,-3.711008129854275e-05,-5.224808487983519e-05,5.9286,3.3571
0.1796875,-4.7369609770351704e-05,-7.519338166475927e-05,-3.6139585362020283e-05,-3.80892423773556e-05,5.9286,3.3571
0.18359375,-4.9804514753948254e-05,-8.64234060730907e-05,-2.6859217969024172e-05,-2.0022420701914995e-05,5.9286,3.3571
0.1875,-6.494251833524068e-05,-5.224808487983519e-05,-3.0273284031433576e-05,-2.9788036063172332e-05,5.9286,3.3571
0.19140625,-4.9804514753948254e-05,-3.516042428320743e-05,-5.713522513160904e-05,-3.418126320439458e-05,5.9286,3.3571
0.1953125,-2.295123879606316e-05,-5.95701301152056e-05,-5.127758894331272e-05,-3.174635822079803e-05,5.9286,3.3571
0.19921875,-1.611444152895398e-05,-8.837306308842602e-05,-3.711008129854275e-05,-3.321076726787211e-05,5.9286,3.3571
0.203125,-2.2465990827801922e-05,-8.10510178530556e-05,-3.2231606189059266e-05,-3.369601523613335e-05,5.9286,3.3571
0.20703125,-5.2741997990386805e-05,-4.3461630597390694e-05,-3.2231606189059266e-05,-3.418126320439458e-05,5.9286,3.3571
0.2109375,-4.297638262912946e-05,-3.2716854157320506e-05,-4.9804514753948254e-05,-2.6859217969024172e-05,5.9286,3.3571
0.21484375,-1.0742053308918884e-05,-3.857449034561683e-05,-5.420640703746088e-05,-2.6859217969024172e-05,5.9286,3.3571
0.21875,-2.0507668670176228e-05,-8.251542690012967e-05,-4.394687856565193e-05,-4.053281250324252e-05,5.9286,3.3571
0.22265625,-2.0507668670176228e-05,-0.00010497547571679254,-3.760399440909436e-05,-4.639044869153886e-05,5.9286,3.3571
0.2265625,-2.4415647843137242e-05,-6.054929119401845e-05,-4.101806047150376e-05,-2.7838379047837023e-05,5.9286,3.3571
0.23046875,-2.93027880949111e-05,-4.9804514753948254e-05,-6.201370024109253e-05,-1.9043259623102145e-05,5.9286,3.3571
0.234375,-2.148682974898908e-05,-6.347810928816662e-05,-4.883401881742578e-05,-2.9788036063172332e-05,5.9286,3.3571
0.23828125,-2.7838379047837023e-05,-6.494251833524068e-05,-2.6859217969024172e-05,-2.7344465937285405e-05,5.9286,3.3571
0.2421875,-3.9553651424429677e-05,-7.812219975890744e-05,-3.369601523613335e-05,-2.7344465937285405e-05,5.9286,3.3571
0.24609375,-3.711008129854275e-05,-5.9084882146944365e-05,-4.297638262912946e-05,-2.4415647843137242e-05,5.9286,3.3571
0.25,-1.4650032481879896e-05,-2.6859217969024172e-05,-4.9804514753948254e-05,-2.7344465937285405e-05,5.9286,3.3571
0.25390625,-2.100158178072784e-05,-3.076719714198518e-05,-4.785485773861294e-05,-2.9788036063172332e-05,5.9286,3.3571
0.2578125,-3.516042428320743e-05,-6.445727036697945e-05,-5.224808487983519e-05,-2.148682974898908e-05,5.9286,3.3571
0.26171875,-3.711008129854275e-05,-0.00010204665762264437,-4.151197358205537e-05,-1.12359664194705e-05,5.9286,3.3571
0.265625,-4.297638262912946e-05,-0.00010156140965438314,-6.054929119401845e-05,-5.9420111390693366e-09,5.9286,3.3571
0.26953125,-4.0038899392690916e-05,-5.224808487983519e-05,-8.251542690012967e-05,3.416789193560703e-06,5.9286,3.3571
0.2734375,-4.3461630597390694e-05,-6.836524953994047e-05,-9.326020334019987e-05,6.345607287708872e-06,5.9286,3.3571
0.27734375,-5.9084882146944365e-05,-0.00010888345488975354,-0.00010449022774853131,2.9228760830090863e-06,5.9286,3.3571
0.28125,-6.592167941405354e-05,-0.0001098626159685664,-9.911783952849621e-05,9.274425381857029e-06,5.9286,3.3571
0.28515625,-6.250761335164415e-05,-0.00013232266478522924,-0.00010204665762264437,2.2454106805523778e-05,5.9286,3.3571
0.2890625,-7.519338166475927e-05,-0.0001259711154863813,-0.00010595463679560538,3.5642453371480896e-05,5.9286,3.3571
0.29296875,-7.469946855420766e-05,-9.765343048142212e-05,-0.0001259711154863813,4.2479250638590074e-05,5.9286,3.3571
0.296875,-5.224808487983519e-05,-0.0001274355245334554,-0.00012450670643930723,2.7341247057297635e-05,5.9286,3.3571
0.30078125,-6.933574547646295e-05,-0.00013280791275349047,-9.326020334019987e-05,8.789177413595794e-06,5.9286,3.3571
0.3046875,-8.983747213550009e-05,-0.00012792077250171663,-0.00011181227298390171,1.7575631696040288e-05,5.9286,3.3571
0.30859375,-6.738608846112762e-05,-0.0001596611887113756,-0.00015526796157015334,4.6378564669260706e-05,5.9286,3.3571
0.3125,-6.104320430457007e-05,-0.00016405441585259784,-0.00018749362574807356,5.126570492103457e-05,5.9286,3.3571
0.31640625,-5.5670816084534965e-05,-0.0001513599823971923,-0.00018115074159151594,4.344974657511254e-05,5.9286,3.3571
0.3203125,-3.5645672251468666e-05,-0.00014892507741359577,-0.00014648150728770884,4.6378564669260706e-05,5.9286,3.3571
0.32421875,-3.5645672251468666e-05,-0.00013085825573815518,-0.00012450670643930723,4.2479250638590074e-05,5.9286,3.3571
0.328125,-3.6624833330281516e-05,-9.033138524605172e-05,-8.544424499427785e-05,2.343326788433663e-05,5.9286,3.3571
0.33203125,-1.9537172733653762e-05,-5.371249392690927e-05,-6.982965858701457e-05,2.343326788433663e-05,5.9286,3.3571
0.3359375,-1.1721214387731734e-05,-9.569510832379642e-05,-0.00011572025215686273,2.441242896314948e-05,5.9286,3.3571
0.33984375,-2.198074285954069e-05,-0.00013427232180056455,-0.00013622197881589987,1.2203243476005197e-05,5.9286,3.3571
0.34375,-3.174635822079803e-05,-0.00011962823132982375,-0.00010253190559090561,6.830855255970107e-06,5.9286,3.3571
0.34765625,-5.2741997990386805e-05,-9.472461238727396e-05,-9.37454513084611e-05,-9.771557372396415e-06,5.9286,3.3571
0.3515625,-6.347810928816662e-05,-5.322724595864804e-05,-8.4465083915465e-05,-2.93027880949111e-05,5.9286,3.3571
0.35546875,-5.713522513160904e-05,-1.8072763686579675e-05,-3.369601523613335e-05,-1.3679536545357428e-05,5.9286,3.3571
0.359375,-5.2741997990386805e-05,-2.3445151906614776e-05,-2.880887498435949e-05,-2.198074285954069e-05,5.9286,3.3571
0.36328125,-3.9553651424429677e-05,-2.148682974898908e-05,-4.834010570687418e-05,-3.5645672251468666e-05,5.9286,3.3571
0.3671875,-4.101806047150376e-05,5.851694177157256e-06,-2.393039987487601e-05,-3.321076726787211e-05,5.9286,3.3571
0.37109375,-5.61560640527962e-05,4.589331670099947e-05,-7.81323521477072e-06,-4.101806047150376e-05,5.9286,3.3571
0.375,-6.0064043225757215e-05,1.4152900491340517e-05,-1.2215127498283343e-05,-4.4440791676203544e-05,5.9286,3.3571
0.37890625,-5.664131202105744e-05,-3.46751763149462e-05,-1.8072763686579675e-05,-4.9804514753948254e-05,5.9286,3.3571
0.3828125,-3.9553651424429677e-05,-3.2231606189059266e-05,-1.9537172733653762e-05,-6.640692738231477e-05,5.9286,3.3571
0.38671875,-3.418126320439458e-05,1.9523801464866182e-06,1.0738834428931112e-05,-6.250761335164415e-05,5.9286,3.3571
0.390625,-5.1762836911573955e-05,5.273011396810865e-05,3.4663292292668046e-05,-4.7369609770351704e-05,5.9286,3.3571
0.39453125,-5.2741997990386805e-05,6.590979539177539e-05,4.2964498606851307e-05,-5.810572106813152e-05,5.9286,3.3571
0.3984375,-4.0038899392690916e-05,2.978481718318457e-05,4.491415562218662e-05,-7.469946855420766e-05,5.9286,3.3571
0.40234375,-4.590520072327763e-05,-3.91392118410009e-06,3.514854026092928e-05,-8.4465083915465e-05,5.9286,3.3571
0.40625,-4.9804514753948254e-05,1.0738834428931112e-05,2.9290904072632955e-05,-7.226456357061112e-05,5.9286,3.3571
0.41015625,-2.8323627016098256e-05,4.491415562218662e-05,2.7341247057297635e-05,-6.494251833524068e-05,5.9286,3.3571
0.4140625,-1.12359664194705e-05,3.368413121385521e-05,1.8060879664301524e-05,-7.56786296330205e-05,5.9286,3.3571
0.41796875,-1.12359664194705e-05,-8.792396293583571e-06,3.710686241855498e-05,-7.128540249179827e-05,5.9286,3.3571
0.421875,-2.7344465937285405e-05,-2.0022420701914995e-05,4.98012958739605e-05,-6.445727036697945e-05,5.9286,3.3571
0.42578125,-1.9043259623102145e-05,-1.4650032481879896e-05,8.789177413595794e-06,-7.274981153887235e-05,5.9286,3.3571
0.4296875,-2.4415647843137242e-05,1.659647061722745e-05,-1.2700375466544585e-05,-7.56786296330205e-05,5.9286,3.3571
0.43359375,-6.54364314457923e-05,3.2219722166781125e-05,8.789177413595794e-06,-6.347810928816662e-05,5.9286,3.3571
0.4375,-6.397202239871823e-05,1.6111222648966218e-05,3.3198883245593976e-05,-5.713522513160904e-05,5.9286,3.3571
0.44140625,-2.3445151906614776e-05,-1.9537172733653762e-05,2.5382924899671948e-05,-6.885049750820172e-05,5.9286,3.3571
0.4453125,4.387285130083171e-06,-2.4415647843137242e-05,-5.9420111390693366e-09,-8.007185677424275e-05,5.9286,3.3571
0.44921875,-4.399169152361324e-06,2.0019201821927225e-05,-4.884417120622558e-06,-8.056576988479437e-05,5.9286,3.3571
0.453125,-1.4164784513618663e-05,2.0504449790188458e-05,3.416789193560703e-06,-7.030624141298541e-05,5.9286,3.3571
0.45703125,3.416789193560703e-06,2.343326788433663e-05,5.851694177157256e-06,-4.931926678568702e-05,5.9286,3.3571
0.4609375,1.3667652523079283e-05,-4.911899794003033e-07,1.025358646066988e-05,-5.4691655005722115e-05,5.9286,3.3571
0.46484375,-5.863578199435409e-06,-4.590520072327763e-05,1.8060879664301524e-05,-6.787133642938887e-05,5.9286,3.3571
0.46875,-3.80892423773556e-05,-6.348826167696635e-06,-4.911899794003033e-07,-6.397202239871823e-05,5.9286,3.3571
0.47265625,-3.2231606189059266e-05,4.0520928480964386e-05,-8.307148325322338e-06,-5.61560640527962e-05,5.9286,3.3571
0.4765625,-2.93027880949111e-05,2.0019201821927225e-05,6.345607287708872e-06,-5.1762836911573955e-05,5.9286,3.3571
0.48046875,-6.15284522728313e-05,3.416789193560703e-06,3.2219722166781125e-05,-4.151197358205537e-05,5.9286,3.3571
0.484375,-5.762047309987028e-05,1.4646813601892133e-05,1.4152900491340517e-05,-4.101806047150376e-05,5.9286,3.3571
0.48828125,-1.5143945592431513e-05,2.7341247057297635e-05,-1.709360260776683e-05,-4.834010570687418e-05,5.9286,3.3571
0.4921875,-1.12359664194705e-05,1.4152900491340517e-05,-1.955599026474388e-06,-6.690084049286639e-05,5.9286,3.3571
0.49609375,3.416789193560703e-06,-4.884417120622558e-06,4.881198240634788e-06,-7.616387760128173e-05,5.9286,3.3571
0.5,4.881198240634788e-06,-3.369601523613335e-05,2.9228760830090863e-06,-4.883401881742578e-05,5.9286,3.3571
0.50390625,-2.6859217969024172e-05,-3.369601523613335e-05,8.295264303044192e-06,-3.076719714198518e-05,5.9286,3.3571
0.5078125,-1.709360260776683e-05,-4.884417120622558e-06,-2.3445151906614776e-05,-4.394687856565193e-05,5.9286,3.3571
0.51171875,-4.541128761272601e-05,2.2454106805523778e-05,-2.0507668670176228e-05,-6.54364314457923e-05,5.9286,3.3571
0.515625,-6.592167941405354e-05,1.4152900491340517e-05,-2.934760105287239e-06,-6.640692738231477e-05,5.9286,3.3571
0.51953125,-9.771557372396415e-06,-4.6875696659800094e-05,-3.369601523613335e-05,-7.17706504600595e-05,5.9286,3.3571
0.5234375,2.1968858837262545e-05,-7.714303868009459e-05,-4.883401881742578e-05,-6.787133642938887e-05,5.9286,3.3571
0.52734375,9.759673350118262e-06,-4.931926678568702e-05,-3.1252445110246416e-05,-5.810572106813152e-05,5.9286,3.3571
0.53125,1.9523801464866182e-06,-4.399169152361324e-06,-1.8072763686579675e-05,-5.810572106813152e-05,5.9286,3.3571
0.53515625,-1.12359664194705e-05,1.4584670359350156e-06,-1.3679536545357428e-05,-3.5645672251468666e-05,5.9286,3.3571
0.5390625,-3.0273284031433576e-05,-2.5394808921950086e-05,-2.0507668670176228e-05,-2.93027880949111e-05,5.9286,3.3571
0.54296875,-4.492603964446478e-05,-3.46751763149462e-05,-1.318562343480582e-05,-4.248246951857784e-05,5.9286,3.3571
0.546875,-5.371249392690927e-05,-7.327987246509487e-06,-9.764379476615374e-07,-3.80892423773556e-05,5.9286,3.3571
0.55078125,-3.760399440909436e-05,3.2219722166781125e-05,-1.9043259623102145e-05,-5.371249392690927e-05,5.9286,3.3571
0.5546875,-1.2215127498283343e-05,1.9525288711375608e-05,-1.9043259623102145e-05,-5.859963417868313e-05,5.9286,3.3571
0.55859375,-2.100158178072784e-05,-1.8072763686579675e-05,-1.9043259623102145e-05,-4.199722155031661e-05,5.9286,3.3571
0.5625,-4.590520072327763e-05,-3.5645672251468666e-05,-3.5645672251468666e-05,-5.5670816084534965e-05,5.9286,3.3571
0.56640625,-2.4415647843137242e-05,-3.369601523613335e-05,-2.198074285954069e-05,-5.810572106813152e-05,5.9286,3.3571
0.5703125,-7.327987246509487e-06,-1.955599026474388e-06,-2.393039987487601e-05,-3.321076726787211e-05,5.9286,3.3571
0.57421875,-3.516042428320743e-05,1.9525288711375608e-05,-2.0022420701914995e-05,-2.148682974898908e-05,5.9286,3.3571
0.578125,-7.616387760128173e-05,-1.2215127498283343e-05,-1.955599026474388e-06,-2.198074285954069e-05,5.9286,3.3571
0.58203125,-6.299286131990538e-05,-4.639044869153886e-05,-1.611444152895398e-05,-3.369601523613335e-05,5.9286,3.3571
0.5859375,-4.394687856565193e-05,-1.025680534065765e-05,-2.7838379047837023e-05,-4.101806047150376e-05,5.9286,3.3571
0.58984375,-3.076719714198518e-05,2.5382924899671948e-05,-1.6608354639505592e-05,-3.174635822079803e-05,5.9286,3.3571
0.59375,9.732190676737815e-07,-4.911899794003033e-07,-2.0022420701914995e-05,-3.6624833330281516e-05,5.9286,3.3571
0.59765625,-1.611444152895398e-05,-4.248246951857784e-05,-5.420640703746088e-05,-4.834010570687418e-05,5.9286,3.3571
0.6015625,-3.760399440909436e-05,-7.372897261768519e-05,-5.664131202105744e-05,-4.883401881742578e-05,5.9286,3.3571
0.60546875,-9.764379476615374e-07,-3.9553651424429677e-05,-1.6608354639505592e-05,-3.076719714198518e-05,5.9286,3.3571
0.609375,2.0504449790188458e-05,6.345607287708872e-06,-7.81323521477072e-06,-3.91392118410009e-06,5.9286,3.3571
0.61328125,4.881198240634788e-06,2.391851585259786e-05,-4.101806047150376e-05,-1.2700375466544585e-05,5.9286,3.3571
0.6171875,-2.880887498435949e-05,-1.611444152895398e-05,-6.690084049286639e-05,-4.883401881742578e-05,5.9286,3.3571
0.62109375,-4.639044869153886e-05,-6.982965858701457e-05,-5.9084882146944365e-05,-5.95701301152056e-05,5.9286,3.3571
0.625,-5.0783675832761104e-05,-4.541128761272601e-05,-4.248246951857784e-05,-3.6624833330281516e-05,5.9286,3.3571
0.62890625,-5.029842786449987e-05,2.148361086900131e-05,-2.0507668670176228e-05,-2.100158178072784e-05,5.9286,3.3571
0.6328125,-2.93027880949111e-05,4.442890765392539e-05,9.274425381857029e-06,-3.6624833330281516e-05,5.9286,3.3571
0.63671875,-4.0038899392690916e-05,1.4646813601892133e-05,8.295264303044192e-06,-5.517690297398335e-05,5.9286,3.3571
0.640625,-5.029842786449987e-05,-4.3461630597390694e-05,-2.7838379047837023e-05,-4.785485773861294e-05,5.9286,3.3571
0.64453125,-1.611444152895398e-05,-4.931926678568702e-05,-3.2231606189059266e-05,-3.0273284031433576e-05,5.9286,3.3571
0.6484375,2.6847333946746018e-05,-2.6373970000762936e-05,-5.0783675832761104e-05,-2.7344465937285405e-05,5.9286,3.3571
0.65234375,1.2688491444266432e-05,-2.588005689021133e-05,-8.203017893186844e-05,-4.248246951857784e-05,5.9286,3.3571
0.65625,-1.025680534065765e-05,-3.174635822079803e-05,-7.421422058594643e-05,-4.3461630597390694e-05,5.9286,3.3571
0.66015625,-6.348826167696635e-06,-5.5670816084534965e-05,-4.590520072327763e-05,-2.393039987487601e-05,5.9286,3.3571
0.6640625,1.4584670359350156e-06,-6.592167941405354e-05,-6.836524953994047e-05,-3.46751763149462e-05,5.9286,3.3571
0.66796875,1.9525288711375608e-05,-3.80892423773556e-05,-9.423069927672234e-05,-5.224808487983519e-05,5.9286,3.3571
0.671875,-1.4650032481879896e-05,-2.5394808921950086e-05,-8.544424499427785e-05,-4.9804514753948254e-05,5.9286,3.3571
0.67578125,-3.076719714198518e-05,-5.762047309987028e-05,-9.081663321431295e-05,-4.785485773861294e-05,5.9286,3.3571
0.6796875,1.2203243476005197e-05,-9.618902143434804e-05,-9.37454513084611e-05,-4.931926678568702e-05,5.9286,3.3571
0.68359375,1.659647061722745e-05,-9.081663321431295e-05,-9.911783952849621e-05,-5.420640703746088e-05,5.9286,3.3571
0.6875,1.7575631696040288e-05,-4.9804514753948254e-05,-0.00011913431821927213,-4.883401881742578e-05,5.9286,3.3571
0.69140625,-2.449512137026005e-06,-2.4909560953688853e-05,-0.00010595463679560538,-4.101806047150376e-05,5.9286,3.3571
0.6953125,-5.322724595864804e-05,-6.445727036697945e-05,-0.00010351106666971846,-4.834010570687418e-05,5.9286,3.3571
0.69921875,-3.857449034561683e-05,-8.935222416723886e-05,-0.00010643988476386661,-4.7369609770351704e-05,5.9286,3.3571
0.703125,3.124922623025865e-05,-7.030624141298541e-05,-9.667426940260927e-05,-4.297638262912946e-05,5.9286,3.3571
0.70703125,6.884727862821395e-05,-3.9068403456168444e-05,-7.080015452353703e-05,-3.321076726787211e-05,5.9286,3.3571
0.7109375,7.421100170595866e-05,3.417804432440681e-05,-4.931926678568702e-05,-1.6608354639505592e-05,5.9286,3.3571
0.71484375,6.493929945525292e-05,4.150008955977724e-05,-2.8323627016098256e-05,-1.4164784513618663e-05,5.9286,3.3571
0.71875,3.124922623025865e-05,-1.6608354639505592e-05,-4.4440791676203544e-05,-3.2716854157320506e-05,5.9286,3.3571
0.72265625,-8.307148325322338e-06,-3.6624833330281516e-05,-6.250761335164415e-05,-3.760399440909436e-05,5.9286,3.3571
0.7265625,-2.393039987487601e-05,-1.12359664194705e-05,-4.248246951857784e-05,-2.9788036063172332e-05,5.9286,3.3571
0.73046875,2.9228760830090863e-06,1.5132061570153368e-05,-4.6875696659800094e-05,-4.199722155031661e-05,5.9286,3.3571
0.734375,-1.318562343480582e-05,2.437628114747852e-06,-6.104320430457007e-05,-5.61560640527962e-05,5.9286,3.3571
0.73828125,-4.297638262912946e-05,-8.307148325322338e-06,-7.128540249179827e-05,-4.9804514753948254e-05,5.9286,3.3571
0.7421875,-2.393039987487601e-05,-4.834010570687418e-05,-7.469946855420766e-05,-5.1762836911573955e-05,5.9286,3.3571
0.74609375,-1.1721214387731734e-05,-4.4440791676203544e-05,-7.762828664835582e-05,-4.4440791676203544e-05,5.9286,3.3571
0.75,-2.449512137026005e-06,5.366446208896022e-06,-4.6875696659800094e-05,-2.588005689021133e-05,5.9286,3.3571
0.75390625,4.879710994125332e-07,9.759673350118262e-06,-4.3461630597390694e-05,-2.6373970000762936e-05,5.9286,3.3571
0.7578125,2.437628114747852e-06,1.7575631696040288e-05,-4.590520072327763e-05,-1.611444152895398e-05,5.9286,3.3571
0.76171875,1.56173095384146e-05,-5.863578199435409e-06,-3.6139585362020283e-05,-1.7578850576028068e-05,5.9286,3.3571
0.765625,3.902037161821937e-06,-4.248246951857784e-05,-4.297638262912946e-05,-2.7838379047837023e-05,5.9286,3.3571
0.76953125,-1.6608354639505592e-05,-7.327987246509487e-06,-4.297638262912946e-05,-2.7344465937285405e-05,5.9286,3.3571
0.7734375,-3.5645672251468666e-05,2.880565610437172e-05,-1.9043259623102145e-05,-1.3679536545357428e-05,5.9286,3.3571
0.77734375,-4.9804514753948254e-05,1.5132061570153368e-05,-9.764379476615374e-07,-1.9043259623102145e-05,5.9286,3.3571
0.78125,-3.9068403456168444e-05,-3.5645672251468666e-05,-3.1252445110246416e-05,-4.9804514753948254e-05,5.9286,3.3571
0.78515625,-6.842739278248253e-06,-3.174635822079803e-05,-6.104320430457007e-05,-6.494251833524068e-05,5.9286,3.3571
0.7890625,-1.855801165484091e-05,1.3667652523079283e-05,-5.95701301152056e-05,-5.762047309987028e-05,5.9286,3.3571
0.79296875,-8.056576988479437e-05,3.710686241855498e-05,-3.418126320439458e-05,-2.295123879606316e-05,5.9286,3.3571
0.796875,-7.274981153887235e-05,2.0019201821927225e-05,-2.393039987487601e-05,-1.025680534065765e-05,5.9286,3.3571
0.80078125,-1.3679536545357428e-05,-5.322724595864804e-05,-4.151197358205537e-05,-2.880887498435949e-05,5.9286,3.3571
0.8046875,2.9290904072632955e-05,-6.494251833524068e-05,-4.931926678568702e-05,-2.393039987487601e-05,5.9286,3.3571
0.80859375,2.6847333946746018e-05,-4.399169152361324e-06,-5.0783675832761104e-05,-1.9043259623102145e-05,5.9286,3.3571
0.8125,9.732190676737815e-07,8.295264303044192e-06,-6.933574547646295e-05,-3.1252445110246416e-05,5.9286,3.3571
0.81640625,4.879710994125332e-07,-5.9420111390693366e-09,-4.883401881742578e-05,-3.516042428320743e-05,5.9286,3.3571
0.8203125,-9.764379476615374e-07,2.9228760830090863e-06,-2.8323627016098256e-05,-2.7344465937285405e-05,5.9286,3.3571
0.82421875,-1.611444152895398e-05,-2.4415647843137242e-05,-3.760399440909436e-05,-2.7344465937285405e-05,5.9286,3.3571
0.828125,-3.46751763149462e-05,-4.492603964446478e-05,-5.4691655005722115e-05,-4.3461630597390694e-05,5.9286,3.3571
0.83203125,-2.7344465937285405e-05,-2.5394808921950086e-05,-6.445727036697945e-05,-4.492603964446478e-05,5.9286,3.3571
0.8359375,-2.100158178072784e-05,-6.348826167696635e-06,-4.0038899392690916e-05,-3.1252445110246416e-05,5.9286,3.3571
0.83984375,-4.931926678568702e-05,-3.9553651424429677e-05,-1.5629193560692748e-05,-2.588005689021133e-05,5.9286,3.3571
0.84375,-4.9804514753948254e-05,-4.297638262912946e-05,-1.5143945592431513e-05,-2.3445151906614776e-05,5.9286,3.3571
0.84765625,-4.9804514753948254e-05,-1.611444152895398e-05,-3.760399440909436e-05,-2.0507668670176228e-05,5.9286,3.3571
0.8515625,-2.7838379047837023e-05,-2.5394808921950086e-05,-6.250761335164415e-05,-2.198074285954069e-05,5.9286,3.3571
0.85546875,-1.5629193560692748e-05,-3.321076726787211e-05,-7.17706504600595e-05,-2.93027880949111e-05,5.9286,3.3571
0.859375,-2.295123879606316e-05,-7.860744772716867e-05,-7.56786296330205e-05,-2.93027880949111e-05,5.9286,3.3571
0.86328125,1.1717995507743964e-05,-5.2741997990386805e-05,-4.297638262912946e-05,-2.148682974898908e-05,5.9286,3.3571
0.8671875,6.345607287708872e-06,-3.6624833330281516e-05,-2.7838379047837023e-05,-3.9553651424429677e-05,5.9286,3.3571
0.87109375,-3.6139585362020283e-05,-4.541128761272601e-05,-5.95701301152056e-05,-5.0783675832761104e-05,5.9286,3.3571
0.875,-2.588005689021133e-05,-4.7369609770351704e-05,-5.4691655005722115e-05,-2.880887498435949e-05,5.9286,3.3571
0.87890625,1.4584670359350156e-06,-8.397983594720377e-05,-4.199722155031661e-05,-2.0507668670176228e-05,5.9286,3.3571
0.8828125,1.4584670359350156e-06,-9.326020334019987e-05,-5.664131202105744e-05,-2.4415647843137242e-05,5.9286,3.3571
0.88671875,-1.12359664194705e-05,-6.299286131990538e-05,-4.3461630597390694e-05,-2.2465990827801922e-05,5.9286,3.3571
0.890625,-3.321076726787211e-05,-2.0022420701914995e-05,-3.9553651424429677e-05,-1.8072763686579675e-05,5.9286,3.3571
0.89453125,-1.2215127498283343e-05,-1.611444152895398e-05,-3.516042428320743e-05,-9.277644261844806e-06,5.9286,3.3571
0.8984375,1.4646813601892133e-05,-6.15284522728313e-05,-4.834010570687418e-05,-8.792396293583571e-06,5.9286,3.3571
0.90234375,-4.399169152361324e-06,-7.812219975890744e-05,-8.203017893186844e-05,-2.3445151906614776e-05,5.9286,3.3571
0.90625,-7.81323521477072e-06,-0.00010399631463797969,-7.90926956954299e-05,-3.076719714198518e-05,5.9286,3.3571
0.91015625,-4.053281250324252e-05,-0.00010838954177920194,-7.812219975890744e-05,-8.307148325322338e-06,5.9286,3.3571
0.9140625,-5.420640703746088e-05,-7.372897261768519e-05,-8.592949296253909e-05,2.437628114747852e-06,5.9286,3.3571
0.91796875,-1.0742053308918884e-05,-0.00011083311190508886,-9.960308749675744e-05,-2.0507668670176228e-05,5.9286,3.3571
0.921875,1.9523801464866182e-06,-0.00016064034979018844,-0.00012011347929808498,-2.2465990827801922e-05,5.9286,3.3571
0.92578125,-1.9043259623102145e-05,-0.0001220631363134203,-0.00011718466120393681,-9.771557372396415e-06,5.9286,3.3571
0.9296875,-2.0507668670176228e-05,-6.738608846112762e-05,-9.326020334019987e-05,8.295264303044192e-06,5.9286,3.3571
0.93359375,-1.955599026474388e-06,-9.276629022964826e-05,-0.00011327668203097578,7.316103224231341e-06,5.9286,3.3571
0.9375,-3.2231606189059266e-05,-0.00011522633904631112,-0.0001186490702510109,-7.81323521477072e-06,5.9286,3.3571
0.94140625,-5.810572106813152e-05,-0.00012939384669108107,-0.00010936870285801478,9.274425381857029e-06,5.9286,3.3571
0.9453125,-2.7838379047837023e-05,-0.00017187037419851987,-0.00016308391991607535,1.8060879664301524e-05,5.9286,3.3571
0.94921875,-6.348826167696635e-06,-0.0001616195108690013,-0.00018115074159151594,1.2203243476005197e-05,5.9286,3.3571
0.953125,-4.399169152361324e-06,-0.00014598759417715722,-0.00016259000680552376,2.880565610437172e-05,5.9286,3.3571
0.95703125,-4.399169152361324e-06,-0.00018749362574807356,-0.00014501709824063475,4.98012958739605e-05,5.9286,3.3571
0.9609375,-2.93027880949111e-05,-0.0001943304230151827,-0.0001508747344289311,2.391851585259786e-05,5.9286,3.3571
0.96484375,-6.54364314457923e-05,-0.0001909163569527733,-0.00016356916788433658,4.198533752803847e-05,5.9286,3.3571
0.96875,-5.127758894331272e-05,-0.00019725924110933085,-0.00016698323394674598,8.05625510048066e-05,5.9286,3.3571
0.97265625,-3.516042428320743e-05,-0.0001332931607217517,-0.00016551882489967192,6.981777456473642e-05,5.9286,3.3571
0.9765625,-5.95701301152056e-05,-0.00011962823132982375,-0.00015721761858548865,6.249572932936599e-05,5.9286,3.3571
0.98046875,-8.592949296253909e-05,-0.000149410325381857,-0.00013964471002059965,5.8102502188143745e-05,5.9286,3.3571
0.984375,-0.00010399631463797969,-0.00011376192999923701,-0.0001098626159685664,4.1014841591516004e-05,5.9286,3.3571
0.98828125,-0.00010156140965438314,-7.958660880598152e-05,-8.153626582131684e-05,2.8320408136110486e-05,5.9286,3.3571
0.9921875,-9.081663321431295e-05,-4.9804514753948254e-05,-6.54364314457923e-05,1.9525288711375608e-05,5.9286,3.3571
0.99609375,-8.495899702601662e-05,-2.8323627016098256e-05,-3.760399440909436e-05,9.274425381857029e-06,5.9286,3.3571
1.0,-8.935222416723886e-05,-5.762047309987028e-05,-1.4650032481879896e-05,1.7081718585488687e-05,5.9286,3.3571
1.00390625,-0.00010449022774853131,-5.1762836911573955e-05,-1.8072763686579675e-05,2.782649502555887e-05,5.9286,3.3571
1.0078125,-0.00011815515714045928,-1.709360260776683e-05,9.274425381857029e-06,2.1968858837262545e-05,5.9286,3.3571
1.01171875,-0.00011279143406271455,2.1968858837262545e-05,5.0780456952773334e-05,1.4152900491340517e-05,5.9286,3.3571
1.015625,-8.983747213550009e-05,4.0520928480964386e-05,5.0780456952773334e-05,4.879710994125332e-07,5.9286,3.3571
1.01953125,-8.153626582131684e-05,2.2454106805523778e-05,4.150008955977724e-05,-1.7578850576028068e-05,5.9286,3.3571
1.0234375,-0.00010058224857557029,2.8320408136110486e-05,3.808602349736783e-05,-2.5394808921950086e-05,5.9286,3.3571
1.02734375,-9.667426940260927e-05,7.079693564354926e-05,4.6378564669260706e-05,-1.3679536545357428e-05,5.9286,3.3571
1.03125,-9.813867844968337e-05,9.277173649195089e-05,6.786811754940109e-05,-1.025680534065765e-05,5.9286,3.3571
1.03515625,-0.0001274355245334554,6.786811754940109e-05,7.861289398947128e-05,-1.9537172733653762e-05,5.9286,3.3571
1.0390625,-0.00014257352811474782,6.201048136110476e-05,9.520664147554743e-05,-4.248246951857784e-05,5.9286,3.3571
1.04296875,-8.397983594720377e-05,8.544102611429008e-05,7.66545718318456e-05,-7.226456357061112e-05,5.9286,3.3571
1.046875,-3.1252445110246416e-05,8.837850935072861e-05,4.6872477779812324e-05,-7.080015452353703e-05,5.9286,3.3571
1.05078125,-2.393039987487601e-05,9.47213935072862e-05,4.7357725748073564e-05,-4.394687856565193e-05,5.9286,3.3571
1.0546875,-1.12359664194705e-05,7.470491481651026e-05,4.1014841591516004e-05,-4.199722155031661e-05,5.9286,3.3571
1.05859375,-5.863578199435409e-06,4.442890765392539e-05,4.2964498606851307e-05,-6.0064043225757215e-05,5.9286,3.3571
1.0625,-1.0742053308918884e-05,8.642018719310294e-05,6.249572932936599e-05,-5.420640703746088e-05,5.9286,3.3571
1.06640625,-1.12359664194705e-05,0.00010888023600976578,4.442890765392539e-05,-4.7369609770351704e-05,5.9286,3.3571
1.0703125,-9.771557372396415e-06,6.590979539177539e-05,2.9290904072632955e-05,-4.931926678568702e-05,5.9286,3.3571
1.07421875,-4.151197358205537e-05,3.808602349736783e-05,2.978481718318457e-05,-5.517690297398335e-05,5.9286,3.3571
1.078125,-4.931926678568702e-05,1.9040040743114375e-05,4.1014841591516004e-05,-5.5670816084534965e-05,5.9286,3.3571
1.08203125,-4.297638262912946e-05,1.9040040743114375e-05,4.6378564669260706e-05,-5.371249392690927e-05,5.9286,3.3571
1.0859375,-4.394687856565193e-05,4.882213479514765e-05,2.9290904072632955e-05,-5.322724595864804e-05,5.9286,3.3571
1.08984375,-4.4440791676203544e-05,5.614418003051806e-05,2.343326788433663e-05,-5.713522513160904e-05,5.9286,3.3571
1.09375,-5.9084882146944365e-05,5.5173684093995585e-05,3.368413121385521e-05,-6.15284522728313e-05,5.9286,3.3571
1.09765625,-8.885831105668725e-05,6.396013837644008e-05,3.661294930800336e-05,-4.590520072327763e-05,5.9286,3.3571
1.1015625,-8.592949296253909e-05,5.8102502188143745e-05,6.151656825055315e-05,-3.0273284031433576e-05,5.9286,3.3571
1.10546875,-4.297638262912946e-05,3.710686241855498e-05,3.759211038681621e-05,-4.931926678568702e-05,5.9286,3.3571
1.109375,-9.764379476615374e-07,3.368413121385521e-05,6.345607287708872e-06,-6.885049750820172e-05,5.9286,3.3571
1.11328125,1.4152900491340517e-05,2.343326788433663e-05,1.1717995507743964e-05,-5.9084882146944365e-05,5.9286,3.3571
1.1171875,-3.420008073548473e-06,-3.9068403456168444e-05,7.316103224231341e-06,-5.713522513160904e-05,5.9286,3.3571
1.12109375,-3.076719714198518e-05,-4.834010570687418e-05,2.148361086900131e-05,-5.859963417868313e-05,5.9286,3.3571
1.125,-4.394687856565193e-05,-5.3783302311741744e-06,2.0504449790188458e-05,-4.0038899392690916e-05,5.9286,3.3571
1.12890625,-5.713522513160904e-05,2.6847333946746018e-05,9.759673350118262e-06,-3.5645672251468666e-05,5.9286,3.3571
1.1328125,-5.322724595864804e-05,3.417804432440681e-05,-4.911899794003033e-07,-5.029842786449987e-05,5.9286,3.3571
1.13671875,-4.4440791676203544e-05,3.5642453371480896e-05,-7.81323521477072e-06,-5.517690297398335e-05,5.9286,3.3571
1.140625,-5.2741997990386805e-05,4.394365968566416e-05,1.3667652523079283e-05,-4.590520072327763e-05,5.9286,3.3571
1.14453125,-5.713522513160904e-05,6.396013837644008e-05,1.1717995507743964e-05,-4.834010570687418e-05,5.9286,3.3571
1.1484375,-5.762047309987028e-05,0.00011767535543450065,7.316103224231341e-06,-5.127758894331272e-05,5.9286,3.3571
1.15234375,-1.1721214387731734e-05,0.00011180905410391395,2.6847333946746018e-05,-3.6624833330281516e-05,5.9286,3.3571
1.15625,1.659647061722745e-05,5.0780456952773334e-05,2.0504449790188458e-05,-3.711008129854275e-05,5.9286,3.3571
1.16015625,4.387285130083171e-06,1.1224082397192347e-05,2.148361086900131e-05,-4.883401881742578e-05,5.9286,3.3571
1.1640625,-1.855801165484091e-05,2.441242896314948e-05,8.789177413595794e-06,-4.7369609770351704e-05,5.9286,3.3571
1.16796875,-4.931926678568702e-05,7.519016278477149e-05,1.3667652523079283e-05,-3.516042428320743e-05,5.9286,3.3571
1.171875,-3.711008129854275e-05,8.544102611429008e-05,2.9290904072632955e-05,-3.369601523613335e-05,5.9286,3.3571
1.17578125,-1.12359664194705e-05,5.614418003051806e-05,3.124922623025865e-05,-3.516042428320743e-05,5.9286,3.3571
1.1796875,-1.4164784513618663e-05,-3.420008073548473e-06,6.345607287708872e-06,-2.9788036063172332e-05,5.9286,3.3571
1.18359375,-2.7344465937285405e-05,-4.053281250324252e-05,6.345607287708872e-06,-2.7344465937285405e-05,5.9286,3.3571
1.1875,-4.394687856565193e-05,-5.3783302311741744e-06,1.3667652523079283e-05,-2.9788036063172332e-05,5.9286,3.3571
1.19140625,-3.46751763149462e-05,4.2964498606851307e-05,2.9228760830090863e-06,-3.418126320439458e-05,5.9286,3.3571
1.1953125,-3.1252445110246416e-05,7.316103224231341e-06,-1.955599026474388e-06,-3.80892423773556e-05,5.9286,3.3571
1.19921875,-3.0273284031433576e-05,-4.883401881742578e-05,-1.5629193560692748e-05,-4.053281250324252e-05,5.9286,3.3571
1.203125,-1.4650032481879896e-05,-3.760399440909436e-05,-3.91392118410009e-06,-3.1252445110246416e-05,5.9286,3.3571
1.20703125,-3.80892423773556e-05,-3.2231606189059266e-05,9.759673350118262e-06,-2.588005689021133e-05,5.9286,3.3571
1.2109375,-5.224808487983519e-05,-5.863578199435409e-06,6.830855255970107e-06,-2.8323627016098256e-05,5.9286,3.3571
1.21484375,-3.174635822079803e-05,1.4646813601892133e-05,-5.3783302311741744e-06,-2.2465990827801922e-05,5.9286,3.3571
1.21875,-2.7838379047837023e-05,-1.8072763686579675e-05,-1.611444152895398e-05,-2.4909560953688853e-05,5.9286,3.3571
1.22265625,-3.321076726787211e-05,-3.0273284031433576e-05,-1.6608354639505592e-05,-4.785485773861294e-05,5.9286,3.3571
1.2265625,-3.9068403456168444e-05,-2.880887498435949e-05,-3.6624833330281516e-05,-6.104320430457007e-05,5.9286,3.3571
1.23046875,-3.711008129854275e-05,6.345607287708872e-06,-4.3461630597390694e-05,-4.834010570687418e-05,5.9286,3.3571
1.234375,-2.148682974898908e-05,7.810016334782957e-06,-1.3679536545357428e-05,-4.151197358205537e-05,5.9286,3.3571
1.23828125,-2.6859217969024172e-05,-5.322724595864804e-05,-4.884417120622558e-06,-3.760399440909436e-05,5.9286,3.3571
1.2421875,-4.834010570687418e-05,-8.690865404135194e-05,-1.3679536545357428e-05,-3.2231606189059266e-05,5.9286,3.3571
1.24609375,-4.394687856565193e-05,-4.785485773861294e-05,-2.295123879606316e-05,-3.0273284031433576e-05,5.9286,3.3571
1.25,-2.588005689021133e-05,-2.588005689021133e-05,-1.955599026474388e-06,-4.248246951857784e-05,5.9286,3.3571
1.25390625,-2.148682974898908e-05,-4.492603964446478e-05,3.902037161821937e-06,-4.931926678568702e-05,5.9286,3.3571
1.2578125,-3.516042428320743e-05,-6.201370024109253e-05,-3.46751763149462e-05,-4.3461630597390694e-05,5.9286,3.3571
1.26171875,-3.711008129854275e-05,-7.812219975890744e-05,-4.394687856565193e-05,-4.4440791676203544e-05,5.9286,3.3571
1.265625,-2.880887498435949e-05,-6.787133642938887e-05,-4.590520072327763e-05,-3.418126320439458e-05,5.9286,3.3571
1.26953125,-3.2716854157320506e-05,-3.6139585362020283e-05,-4.590520072327763e-05,-3.2716854157320506e-05,5.9286,3.3571
1.2734375,-4.639044869153886e-05,-4.101806047150376e-05,-3.9068403456168444e-05,-3.857449034561683e-05,5.9286,3.3571
1.27734375,-5.762047309987028e-05,-8.544424499427785e-05,-4.7369609770351704e-05,-4.199722155031661e-05,5.9286,3.3571
1.28125,-6.250761335164415e-05,-9.228104226138702e-05,-3.321076726787211e-05,-4.151197358205537e-05,5.9286,3.3571
1.28515625,-5.029842786449987e-05,-6.982965858701457e-05,-1.4650032481879896e-05,-3.46751763149462e-05,5.9286,3.3571
1.2890625,-3.46751763149462e-05,-4.785485773861294e-05,-1.2215127498283343e-05,-4.101806047150376e-05,5.9286,3.3571
1.29296875,-2.295123879606316e-05,-4.248246951857784e-05,-1.4164784513618663e-05,-3.0273284031433576e-05,5.9286,3.3571
1.296875,-5.9420111390693366e-09,-3.174635822079803e-05,-1.611444152895398e-05,-1.2215127498283343e-05,5.9286,3.3571
1.30078125,3.416789193560703e-06,-6.299286131990538e-05,-3.0273284031433576e-05,-3.2716854157320506e-05,5.9286,3.3571
1.3046875,-2.880887498435949e-05,-8.203017893186844e-05,-3.369601523613335e-05,-4.883401881742578e-05,5.9286,3.3571
1.30859375,-5.61560640527962e-05,-4.883401881742578e-05,-1.12359664194705e-05,-4.3461630597390694e-05,5.9286,3.3571
1.3125,-3.321076726787211e-05,-3.9068403456168444e-05,-1.2215127498283343e-05,-3.760399440909436e-05,5.9286,3.3571
1.31640625,-2.198074285954069e-05,-7.030624141298541e-05,-3.369601523613335e-05,-3.5645672251468666e-05,5.9286,3.3571
1.3203125,-3.6624833330281516e-05,-8.10510178530556e-05,-1.7578850576028068e-05,-3.2716854157320506e-05,5.9286,3.3571
1.32421875,-2.93027880949111e-05,-7.519338166475927e-05,1.3667652523079283e-05,-1.6608354639505592e-05,5.9286,3.3571
1.328125,-1.8072763686579675e-05,-7.030624141298541e-05,-9.771557372396415e-06,-2.3445151906614776e-05,5.9286,3.3571
1.33203125,-2.0022420701914995e-05,-6.494251833524068e-05,-3.6624833330281516e-05,-4.4440791676203544e-05,5.9286,3.3571
1.3359375,-1.9537172733653762e-05,-6.299286131990538e-05,-2.6859217969024172e-05,-4.199722155031661e-05,5.9286,3.3571
1.33984375,-3.0273284031433576e-05,-6.299286131990538e-05,4.881198240634788e-06,-2.4415647843137242e-05,5.9286,3.3571
1.34375,-5.61560640527962e-05,-9.618902143434804e-05,9.759673350118262e-06,-1.8072763686579675e-05,5.9286,3.3571
1.34765625,-7.56786296330205e-05,-6.640692738231477e-05,-1.2700375466544585e-05,-4.492603964446478e-05,5.9286,3.3571
1.3515625,-5.371249392690927e-05,-4.492603964446478e-05,-2.9788036063172332e-05,-4.9804514753948254e-05,5.9286,3.3571
1.35546875,-2.148682974898908e-05,-4.9804514753948254e-05,-4.639044869153886e-05,-2.8323627016098256e-05,5.9286,3.3571
1.359375,-3.857449034561683e-05,-8.007185677424275e-05,-5.859963417868313e-05,-3.516042428320743e-05,5.9286,3.3571
1.36328125,-4.492603964446478e-05,-0.00011474109107804989,-5.2741997990386805e-05,-3.46751763149462e-05,5.9286,3.3571
1.3671875,-2.93027880949111e-05,-6.933574547646295e-05,-2.0022420701914995e-05,-2.295123879606316e-05,5.9286,3.3571
1.37109375,-1.4164784513618663e-05,-4.3461630597390694e-05,-3.0273284031433576e-05,-2.8323627016098256e-05,5.9286,3.3571
1.375,-9.771557372396415e-06,-2.588005689021133e-05,-2.0022420701914995e-05,-2.7838379047837023e-05,5.9286,3.3571
1.37890625,-3.46751763149462e-05,-4.883401881742578e-05,-2.100158178072784e-05,-1.611444152895398e-05,5.9286,3.3571
1.3828125,-5.1762836911573955e-05,-7.421422058594643e-05,-4.7369609770351704e-05,-2.0022420701914995e-05,5.9286,3.3571
1.38671875,-4.0038899392690916e-05,-4.3461630597390694e-05,-3.711008129854275e-05,-3.9553651424429677e-05,5.9286,3.3571
1.390625,-1.9537172733653762e-05,-3.1252445110246416e-05,-1.6608354639505592e-05,-4.4440791676203544e-05,5.9286,3.3571
1.39453125,-9.771557372396415e-06,-5.762047309987028e-05,-8.307148325322338e-06,-3.9553651424429677e-05,5.9286,3.3571
1.3984375,-1.4650032481879896e-05,-0.00011132702501564048,-4.639044869153886e-05,-4.297638262912946e-05,5.9286,3.3571
1.40234375,-2.7344465937285405e-05,-0.00011572025215686273,-4.6875696659800094e-05,-4.151197358205537e-05,5.9286,3.3571
1.40625,-3.0273284031433576e-05,-7.958660880598152e-05,-1.3679536545357428e-05,-4.4440791676203544e-05,5.9286,3.3571
1.41015625,-3.418126320439458e-05,-2.198074285954069e-05,6.830855255970107e-06,-3.321076726787211e-05,5.9286,3.3571
1.4140625,-2.4909560953688853e-05,-2.3445151906614776e-05,-6.842739278248253e-06,-2.148682974898908e-05,5.9286,3.3571
1.41796875,-3.418126320439458e-05,-5.61560640527962e-05,-2.6373970000762936e-05,-2.588005689021133e-05,5.9286,3.3571
1.421875,-7.128540249179827e-05,-5.810572106813152e-05,-1.8072763686579675e-05,-3.760399440909436e-05,5.9286,3.3571
1.42578125,-6.397202239871823e-05,-4.883401881742578e-05,-2.9788036063172332e-05,-4.101806047150376e-05,5.9286,3.3571
1.4296875,-2.5394808921950086e-05,-3.46751763149462e-05,-1.2700375466544585e-05,-2.393039987487601e-05,5.9286,3.3571
1.43359375,-9.277644261844806e-06,-2.4415647843137242e-05,-1.318562343480582e-05,-3.2716854157320506e-05,5.9286,3.3571
1.4375,-8.307148325322338e-06,-4.199722155031661e-05,-2.880887498435949e-05,-5.1762836911573955e-05,5.9286,3.3571
1.44140625,-3.174635822079803e-05,-8.592949296253909e-05,-3.9553651424429677e-05,-5.0783675832761104e-05,5.9286,3.3571
1.4453125,-6.933574547646295e-05,-4.639044869153886e-05,-5.420640703746088e-05,-4.7369609770351704e-05,5.9286,3.3571
1.44921875,-5.0783675832761104e-05,-4.101806047150376e-05,-5.1762836911573955e-05,-4.785485773861294e-05,5.9286,3.3571
1.453125,-2.0507668670176228e-05,-4.931926678568702e-05,-2.880887498435949e-05,-4.0038899392690916e-05,5.9286,3.3571
1.45703125,-2.7838379047837023e-05,-4.101806047150376e-05,-1.9043259623102145e-05,-2.4415647843137242e-05,5.9286,3.3571
1.4609375,-3.1252445110246416e-05,-8.153626582131684e-05,-2.0022420701914995e-05,-3.321076726787211e-05,5.9286,3.3571
1.46484375,-1.8072763686579675e-05,-7.128540249179827e-05,-1.4703510582131542e-06,-3.760399440909436e-05,5.9286,3.3571
1.46875,-1.7578850576028068e-05,-3.5645672251468666e-05,-1.025680534065765e-05,-2.9788036063172332e-05,5.9286,3.3571
1.47265625,-3.369601523613335e-05,-3.1252445110246416e-05,-2.880887498435949e-05,-2.7344465937285405e-05,5.9286,3.3571
1.4765625,-6.397202239871823e-05,-5.61560640527962e-05,-7.327987246509487e-06,-2.880887498435949e-05,5.9286,3.3571
1.48046875,-8.153626582131684e-05,-5.9084882146944365e-05,-3.420008073548473e-06,-2.880887498435949e-05,5.9286,3.3571
1.484375,-4.7369609770351704e-05,-5.713522513160904e-05,-1.3679536545357428e-05,-3.46751763149462e-05,5.9286,3.3571
1.48828125,-2.4909560953688853e-05,-4.101806047150376e-05,-1.611444152895398e-05,-2.7838379047837023e-05,5.9286,3.3571
1.4921875,-2.295123879606316e-05,-3.369601523613335e-05,-4.248246951857784e-05,-3.2716854157320506e-05,5.9286,3.3571
1.49609375,-1.4164784513618663e-05,-3.46751763149462e-05,-6.494251833524068e-05,-4.541128761272601e-05,5.9286,3.3571
1.5,-2.0507668670176228e-05,-2.880887498435949e-05,-5.2741997990386805e-05,-4.7369609770351704e-05,5.9286,3.3571
1.50390625,-2.93027880949111e-05,-5.9084882146944365e-05,-4.639044869153886e-05,-5.029842786449987e-05,5.9286,3.3571
1.5078125,-3.321076726787211e-05,-5.713522513160904e-05,-4.101806047150376e-05,-4.4440791676203544e-05,5.9286,3.3571
1.51171875,-4.248246951857784e-05,-1.12359664194705e-05,-2.7838379047837023e-05,-2.4415647843137242e-05,5.9286,3.3571
1.515625,-4.492603964446478e-05,-2.4909560953688853e-05,-2.880887498435949e-05,-1.4164784513618663e-05,5.9286,3.3571
1.51953125,-3.6139585362020283e-05,-7.762828664835582e-05,-4.7369609770351704e-05,-2.7838379047837023e-05,5.9286,3.3571
1.5234375,-2.4909560953688853e-05,-7.714303868009459e-05,-5.664131202105744e-05,-4.151197358205537e-05,5.9286,3.3571
1.52734375,-2.4415647843137242e-05,-2.4909560953688853e-05,-5.859963417868313e-05,-4.101806047150376e-05,5.9286,3.3571
1.53125,-3.6624833330281516e-05,-9.771557372396415e-06,-3.6624833330281516e-05,-3.1252445110246416e-05,5.9286,3.3571
1.53515625,-3.760399440909436e-05,-2.8323627016098256e-05,-3.2231606189059266e-05,-2.6373970000762936e-05,5.9286,3.3571
1.5390625,-4.9804514753948254e-05,-3.076719714198518e-05,-2.9788036063172332e-05,-2.295123879606316e-05,5.9286,3.3571
1.54296875,-7.469946855420766e-05,-5.859963417868313e-05,-1.709360260776683e-05,-2.8323627016098256e-05,5.9286,3.3571
1.546875,-4.834010570687418e-05,-5.517690297398335e-05,-1.5143945592431513e-05,-2.7838379047837023e-05,5.9286,3.3571
1.55078125,-9.277644261844806e-06,-3.80892423773556e-05,7.316103224231341e-06,-6.348826167696635e-06,5.9286,3.3571
1.5546875,-2.8323627016098256e-05,-4.297638262912946e-05,-8.792396293583571e-06,-1.9043259623102145e-05,5.9286,3.3571
1.55859375,-6.397202239871823e-05,-5.420640703746088e-05,-5.371249392690927e-05,-5.420640703746088e-05,5.9286,3.3571
1.5625,-6.054929119401845e-05,-6.592167941405354e-05,-5.9084882146944365e-05,-4.297638262912946e-05,5.9286,3.3571
1.56640625,-1.4650032481879896e-05,-6.494251833524068e-05,-3.6139585362020283e-05,-2.4909560953688853e-05,5.9286,3.3571
1.5703125,5.851694177157256e-06,-2.588005689021133e-05,-4.199722155031661e-05,-4.0038899392690916e-05,5.9286,3.3571
1.57421875,-7.327987246509487e-06,-2.449512137026005e-06,-5.517690297398335e-05,-5.420640703746088e-05,5.9286,3.3571
1.578125,-1.9043259623102145e-05,-4.492603964446478e-05,-3.321076726787211e-05,-4.297638262912946e-05,5.9286,3.3571
1.58203125,-3.5645672251468666e-05,-7.812219975890744e-05,-3.46751763149462e-05,-3.9068403456168444e-05,5.9286,3.3571
1.5859375,-4.101806047150376e-05,-6.494251833524068e-05,-4.785485773861294e-05,-3.80892423773556e-05,5.9286,3.3571
1.58984375,-4.151197358205537e-05,-4.639044869153886e-05,-5.371249392690927e-05,-2.9788036063172332e-05,5.9286,3.3571
1.59375,-4.4440791676203544e-05,-2.0022420701914995e-05,-4.541128761272601e-05,-2.148682974898908e-05,5.9286,3.3571
1.59765625,-4.6875696659800094e-05,-3.9553651424429677e-05,-1.5629193560692748e-05,-1.7578850576028068e-05,5.9286,3.3571
1.6015625,-4.590520072327763e-05,-6.250761335164415e-05,-3.076719714198518e-05,-2.6373970000762936e-05,5.9286,3.3571
1.60546875,-5.859963417868313e-05,-6.787133642938887e-05,-3.857449034561683e-05,-3.1252445110246416e-05,5.9286,3.3571
1.609375,-6.54364314457923e-05,-3.857449034561683e-05,-4.883401881742578e-05,-3.174635822079803e-05,5.9286,3.3571
1.61328125,-2.9788036063172332e-05,-7.81323521477072e-06,-5.224808487983519e-05,-2.93027880949111e-05,5.9286,3.3571
1.6171875,-6.348826167696635e-06,-3.6624833330281516e-05,-3.174635822079803e-05,-2.6373970000762936e-05,5.9286,3.3571
1.62109375,-4.0038899392690916e-05,-6.299286131990538e-05,-4.053281250324252e-05,-3.5645672251468666e-05,5.9286,3.3571
1.625,-6.250761335164415e-05,-6.640692738231477e-05,-1.7578850576028068e-05,-3.418126320439458e-05,5.9286,3.3571
1.62890625,-6.738608846112762e-05,-5.0783675832761104e-05,-4.399169152361324e-06,-1.9537172733653762e-05,5.9286,3.3571
1.6328125,-4.9804514753948254e-05,-2.3445151906614776e-05,5.366446208896022e-06,-1.855801165484091e-05,5.9286,3.3571
1.63671875,-2.93027880949111e-05,-4.101806047150376e-05,7.316103224231341e-06,-4.0038899392690916e-05,5.9286,3.3571
1.640625,-3.711008129854275e-05,-8.007185677424275e-05,-3.5645672251468666e-05,-4.590520072327763e-05,5.9286,3.3571
1.64453125,-2.393039987487601e-05,-8.983747213550009e-05,-5.420640703746088e-05,-2.9788036063172332e-05,5.9286,3.3571
1.6484375,-3.420008073548473e-06,-3.418126320439458e-05,-3.6624833330281516e-05,-2.6373970000762936e-05,5.9286,3.3571
1.65234375,9.732190676737815e-07,-4.911899794003033e-07,-1.4650032481879896e-05,-4.590520072327763e-05,5.9286,3.3571
1.65625,-5.863578199435409e-06,-2.8323627016098256e-05,-2.148682974898908e-05,-6.15284522728313e-05,5.9286,3.3571
1.66015625,-2.4415647843137242e-05,-6.054929119401845e-05,-6.54364314457923e-05,-5.1762836911573955e-05,5.9286,3.3571
1.6640625,-6.054929119401845e-05,-6.445727036697945e-05,-8.300067486839092e-05,-3.369601523613335e-05,5.9286,3.3571
1.66796875,-5.9084882146944365e-05,-4.0038899392690916e-05,-6.54364314457923e-05,-2.6859217969024172e-05,5.9286,3.3571
1.671875,-2.8323627016098256e-05,-3.418126320439458e-05,-5.2741997990386805e-05,-2.3445151906614776e-05,5.9286,3.3571
1.67578125,-9.771557372396415e-06,-5.420640703746088e-05,-6.347810928816662e-05,-3.1252445110246416e-05,5.9286,3.3571
1.6796875,1.4584670359350156e-06,-8.007185677424275e-05,-5.371249392690927e-05,-3.46751763149462e-05,5.9286,3.3571
1.68359375,3.416789193560703e-06,-6.690084049286639e-05,-5.61560640527962e-05,-3.516042428320743e-05,5.9286,3.3571
1.6875,-6.842739278248253e-06,-3.857449034561683e-05,-4.785485773861294e-05,-4.297638262912946e-05,5.9286,3.3571
1.69140625,-2.934760105287239e-06,-3.91392118410009e-06,-3.6624833330281516e-05,-3.760399440909436e-05,5.9286,3.3571
1.6953125,9.274425381857029e-06,-2.198074285954069e-05,-5.029842786449987e-05,-3.46751763149462e-05,5.9286,3.3571
1.69921875,-1.8072763686579675e-05,-4.3461630597390694e-05,-5.5670816084534965e-05,-4.248246951857784e-05,5.9286,3.3571
1.703125,-3.321076726787211e-05,-5.95701301152056e-05,-5.5670816084534965e-05,-4.053281250324252e-05,5.9286,3.3571
1.70703125,-3.418126320439458e-05,-5.664131202105744e-05,-3.6139585362020283e-05,-3.9068403456168444e-05,5.9286,3.3571
1.7109375,-1.3679536545357428e-05,-3.760399440909436e-05,-4.053281250324252e-05,-5.61560640527962e-05,5.9286,3.3571
1.71484375,3.271363527733274e-05,-4.0038899392690916e-05,-6.690084049286639e-05,-6.104320430457007e-05,5.9286,3.3571
1.71875,4.150008955977724e-05,-4.7369609770351704e-05,-8.837306308842602e-05,-5.1762836911573955e-05,5.9286,3.3571
1.72265625,5.37092750469215e-05,-6.054929119401845e-05,-8.056576988479437e-05,-5.420640703746088e-05,5.9286,3.3571
1.7265625,6.590979539177539e-05,-3.2716854157320506e-05,-6.15284522728313e-05,-5.4691655005722115e-05,5.9286,3.3571
1.73046875,3.90565194338903e-05,-1.025680534065765e-05,-6.494251833524068e-05,-5.762047309987028e-05,5.9286,3.3571
1.734375,1.2688491444266432e-05,-3.174635822079803e-05,-8.397983594720377e-05,-6.445727036697945e-05,5.9286,3.3571
1.73828125,9.274425381857029e-06,-4.834010570687418e-05,-7.372897261768519e-05,-6.347810928816662e-05,5.9286,3.3571
1.7421875,2.0504449790188458e-05,-4.492603964446478e-05,-5.371249392690927e-05,-5.95701301152056e-05,5.9286,3.3571
1.74609375,2.2454106805523778e-05,-4.053281250324252e-05,-6.494251833524068e-05,-5.713522513160904e-05,5.9286,3.3571
1.75,3.417804432440681e-05,-3.711008129854275e-05,-5.5670816084534965e-05,-5.9084882146944365e-05,5.9286,3.3571
1.75390625,2.6362085978484785e-05,-2.4415647843137242e-05,-3.711008129854275e-05,-5.713522513160904e-05,5.9286,3.3571
1.7578125,1.6111222648966218e-05,-3.0273284031433576e-05,-4.834010570687418e-05,-5.322724595864804e-05,5.9286,3.3571
1.76171875,4.540806873273824e-05,-4.3461630597390694e-05,-5.61560640527962e-05,-5.762047309987028e-05,5.9286,3.3571
1.765625,3.3198883245593976e-05,-7.421422058594643e-05,-6.787133642938887e-05,-6.592167941405354e-05,5.9286,3.3571
1.76953125,2.437628114747852e-06,-4.297638262912946e-05,-6.690084049286639e-05,-6.201370024109253e-05,5.9286,3.3571
1.7734375,2.441242896314948e-05,-1.0742053308918884e-05,-3.9068403456168444e-05,-5.4691655005722115e-05,5.9286,3.3571
1.77734375,3.514854026092928e-05,-1.611444152895398e-05,-4.590520072327763e-05,-5.713522513160904e-05,5.9286,3.3571
1.78125,1.9525288711375608e-05,-1.611444152895398e-05,-5.9084882146944365e-05,-5.859963417868313e-05,5.9286,3.3571
1.78515625,1.9525288711375608e-05,-4.4440791676203544e-05,-5.224808487983519e-05,-5.371249392690927e-05,5.9286,3.3571
1.7890625,1.3182404554818048e-05,-3.46751763149462e-05,-4.590520072327763e-05,-4.7369609770351704e-05,5.9286,3.3571
1.79296875,8.789177413595794e-06,-2.198074285954069e-05,-4.297638262912946e-05,-3.760399440909436e-05,5.9286,3.3571
1.796875,-5.9420111390693366e-09,-2.4909560953688853e-05,-3.46751763149462e-05,-3.5645672251468666e-05,5.9286,3.3571
1.80078125,-1.025680534065765e-05,-3.711008129854275e-05,-9.771557372396415e-06,-2.880887498435949e-05,5.9286,3.3571
1.8046875,-2.4415647843137242e-05,-4.884417120622558e-06,-1.12359664194705e-05,-2.7838379047837023e-05,5.9286,3.3571
1.80859375,-2.8323627016098256e-05,2.6847333946746018e-05,-3.46751763149462e-05,-3.6139585362020283e-05,5.9286,3.3571
1.8125,-1.3679536545357428e-05,-2.198074285954069e-05,-6.347810928816662e-05,-4.639044869153886e-05,5.9286,3.3571
1.81640625,4.881198240634788e-06,-4.199722155031661e-05,-5.9084882146944365e-05,-5.517690297398335e-05,5.9286,3.3571
1.8203125,9.274425381857029e-06,-4.3461630597390694e-05,-4.151197358205537e-05,-4.6875696659800094e-05,5.9286,3.3571
1.82421875,-4.911899794003033e-07,-6.738608846112762e-05,-4.0038899392690916e-05,-3.369601523613335e-05,5.9286,3.3571
1.828125,-8.307148325322338e-06,-6.690084049286639e-05,-3.174635822079803e-05,-2.6859217969024172e-05,5.9286,3.3571
1.83203125,-3.0273284031433576e-05,-2.4909560953688853e-05,-2.7344465937285405e-05,-2.5394808921950086e-05,5.9286,3.3571
1.8359375,-2.0507668670176228e-05,-1.7578850576028068e-05,-3.516042428320743e-05,-2.7344465937285405e-05,5.9286,3.3571
1.83984375,9.732190676737815e-07,-4.6875696659800094e-05,-3.1252445110246416e-05,-3.418126320439458e-05,5.9286,3.3571
1.84375,-9.764379476615374e-07,-3.711008129854275e-05,-3.516042428320743e-05,-3.369601523613335e-05,5.9286,3.3571
1.84765625,4.387285130083171e-06,-3.2716854157320506e-05,-2.6373970000762936e-05,-3.2716854157320506e-05,5.9286,3.3571
1.8515625,-5.3783302311741744e-06,-4.590520072327763e-05,-1.4703510582131542e-06,-3.2716854157320506e-05,5.9286,3.3571
1.85546875,-5.1762836911573955e-05,-2.148682974898908e-05,-2.3445151906614776e-05,-2.93027880949111e-05,5.9286,3.3571
1.859375,-4.3461630597390694e-05,-4.0038899392690916e-05,-5.859963417868313e-05,-2.6859217969024172e-05,5.9286,3.3571
1.86328125,-1.0742053308918884e-05,-6.494251833524068e-05,-5.5670816084534965e-05,-3.2231606189059266e-05,5.9286,3.3571
1.8671875,-3.6624833330281516e-05,-1.7578850576028068e-05,-3.418126320439458e-05,-3.9068403456168444e-05,5.9286,3.3571
1.87109375,-3.9553651424429677e-05,-9.764379476615374e-07,-1.9537172733653762e-05,-3.0273284031433576e-05,5.9286,3.3571
1.875,-4.399169152361324e-06,-3.80892423773556e-05,-2.0507668670176228e-05,-2.4415647843137242e-05,5.9286,3.3571
1.87890625,1.4152900491340517e-05,-6.54364314457923e-05,-2.100158178072784e-05,-2.9788036063172332e-05,5.9286,3.3571
1.8828125,2.9228760830090863e-06,-8.397983594720377e-05,-2.5394808921950086e-05,-4.053281250324252e-05,5.9286,3.3571
1.88671875,-3.076719714198518e-05,-6.494251833524068e-05,-5.863578199435409e-06,-3.9553651424429677e-05,5.9286,3.3571
1.890625,-4.590520072327763e-05,-7.81323521477072e-06,1.9040040743114375e-05,-3.1252445110246416e-05,5.9286,3.3571
1.89453125,-1.7578850576028068e-05,-7.327987246509487e-06,-8.307148325322338e-06,-4.053281250324252e-05,5.9286,3.3571
1.8984375,1.1717995507743964e-05,-7.762828664835582e-05,-3.80892423773556e-05,-4.297638262912946e-05,5.9286,3.3571
1.90234375,9.759673350118262e-06,-9.326020334019987e-05,-5.95701301152056e-05,-4.151197358205537e-05,5.9286,3.3571
1.90625,-1.3679536545357428e-05,-7.421422058594643e-05,-8.10510178530556e-05,-4.4440791676203544e-05,5.9286,3.3571
1.91015625,-2.0507668670176228e-05,-7.665779071183335e-05,-9.081663321431295e-05,-4.785485773861294e-05,5.9286,3.3571
1.9140625,-1.4703510582131542e-06,-9.71595173708705e-05,-6.885049750820172e-05,-4.6875696659800094e-05,5.9286,3.3571
1.91796875,-2.934760105287239e-06,-0.00011181227298390171,-4.834010570687418e-05,-4.248246951857784e-05,5.9286,3.3571
1.921875,-4.6875696659800094e-05,-0.00010302581870145722,-5.95701301152056e-05,-3.46751763149462e-05,5.9286,3.3571
1.92578125,-3.6624833330281516e-05,-7.616387760128173e-05,-7.616387760128173e-05,-3.9068403456168444e-05,5.9286,3.3571
1.9296875,1.855479277485314e-05,-6.690084049286639e-05,-9.813867844968337e-05,-5.029842786449987e-05,5.9286,3.3571
1.93359375,1.4152900491340517e-05,-6.054929119401845e-05,-9.813867844968337e-05,-4.883401881742578e-05,5.9286,3.3571
1.9375,-1.2700375466544585e-05,-5.859963417868313e-05,-8.349458797894254e-05,-4.394687856565193e-05,5.9286,3.3571
1.94140625,9.759673350118262e-06,-4.248246951857784e-05,-7.665779071183335e-05,-2.4909560953688853e-05,5.9286,3.3571
1.9453125,3.9550432544441913e-05,-3.076719714198518e-05,-5.4691655005722115e-05,-1.4164784513618663e-05,5.9286,3.3571
1.94921875,3.173447419851989e-05,-4.6875696659800094e-05,-5.95701301152056e-05,-3.2716854157320506e-05,5.9286,3.3571
1.953125,1.025358646066988e-05,-3.9553651424429677e-05,-8.690865404135194e-05,-5.1762836911573955e-05,5.9286,3.3571
1.95703125,-1.0742053308918884e-05,-7.860744772716867e-05,-8.007185677424275e-05,-5.371249392690927e-05,5.9286,3.3571
1.9609375,-2.393039987487601e-05,-9.472461238727396e-05,-6.885049750820172e-05,-5.322724595864804e-05,5.9286,3.3571
1.96484375,-3.418126320439458e-05,-5.4691655005722115e-05,-5.0783675832761104e-05,-5.127758894331272e-05,5.9286,3.3571
1.96875,-4.541128761272601e-05,-2.0022420701914995e-05,-3.2231606189059266e-05,-4.199722155031661e-05,5.9286,3.3571
1.97265625,-3.369601523613335e-05,7.316103224231341e-06,-4.492603964446478e-05,-4.248246951857784e-05,5.9286,3.3571
1.9765625,-2.148682974898908e-05,-1.6608354639505592e-05,-3.857449034561683e-05,-4.541128761272601e-05,5.9286,3.3571
1.98046875,-1.025680534065765e-05,-3.9553651424429677e-05,-2.7344465937285405e-05,-3.80892423773556e-05,5.9286,3.3571
1.984375,-8.307148325322338e-06,-2.6859217969024172e-05,-5.9084882146944365e-05,-3.711008129854275e-05,5.9286,3.3571
1.98828125,-2.100158178072784e-05,-1.8072763686579675e-05,-6.0064043225757215e-05,-4.151197358205537e-05,5.9286,3.3571
1.9921875,-4.053281250324252e-05,2.437628114747852e-06,-5.224808487983519e-05,-4.7369609770351704e-05,5.9286,3.3571
1.99609375,-5.664131202105744e-05,2.9228760830090863e-06,-6.836524953994047e-05,-4.931926678568702e-05,5.9286,3.3571
2.0,-4.151197358205537e-05,-2.6859217969024172e-05,-4.151197358205537e-05,-3.516042428320743e-05,5.9286,3.3571
2.00390625,-2.880887498435949e-05,-1.5143945592431513e-05,-2.295123879606316e-05,-2.7344465937285405e-05,5.9286,3.3571
2.0078125,-2.100158178072784e-05,1.9525288711375608e-05,-3.076719714198518e-05,-3.321076726787211e-05,5.9286,3.3571
2.01171875,-2.2465990827801922e-05,1.4152900491340517e-05,-3.1252445110246416e-05,-3.516042428320743e-05,5.9286,3.3571
2.015625,-2.880887498435949e-05,9.759673350118262e-06,-4.199722155031661e-05,-3.5645672251468666e-05,5.9286,3.3571
2.01953125,-2.6373970000762936e-05,7.810016334782957e-06,-3.46751763149462e-05,-3.9068403456168444e-05,5.9286,3.3571
2.0234375,-1.855801165484091e-05,4.881198240634788e-06,-1.2215127498283343e-05,-3.369601523613335e-05,5.9286,3.3571
2.02734375,-1.5629193560692748e-05,3.514854026092928e-05,6.345607287708872e-06,-2.9788036063172332e-05,5.9286,3.3571
2.03125,-2.7838379047837023e-05,5.37092750469215e-05,1.4584670359350156e-06,-3.174635822079803e-05,5.9286,3.3571
2.03515625,-3.076719714198518e-05,1.7081718585488687e-05,-1.2215127498283343e-05,-3.6624833330281516e-05,5.9286,3.3571
2.0390625,-2.393039987487601e-05,1.4646813601892133e-05,-1.9043259623102145e-05,-4.4440791676203544e-05,5.9286,3.3571
2.04296875,-3.80892423773556e-05,1.6111222648966218e-05,-3.46751763149462e-05,-5.029842786449987e-05,5.9286,3.3571
2.046875,-5.61560640527962e-05,1.1717995507743964e-05,-2.8323627016098256e-05,-4.785485773861294e-05,5.9286,3.3571
2.05078125,-3.076719714198518e-05,5.908166326695661e-05,-1.7578850576028068e-05,-3.46751763149462e-05,5.9286,3.3571
2.0546875,-2.7344465937285405e-05,3.9550432544441913e-05,-2.393039987487601e-05,-3.076719714198518e-05,5.9286,3.3571
2.05859375,-2.3445151906614776e-05,1.0738834428931112e-05,-2.8323627016098256e-05,-4.101806047150376e-05,5.9286,3.3571
2.0625,-1.709360260776683e-05,2.343326788433663e-05,-3.2231606189059266e-05,-4.883401881742578e-05,5.9286,3.3571
2.06640625,-1.2700375466544585e-05,2.441242896314948e-05,-3.321076726787211e-05,-4.3461630597390694e-05,5.9286,3.3571
2.0703125,-2.934760105287239e-06,4.150008955977724e-05,-3.0273284031433576e-05,-3.0273284031433576e-05,5.9286,3.3571
2.07421875,-7.327987246509487e-06,3.124922623025865e-05,-3.076719714198518e-05,-3.1252445110246416e-05,5.9286,3.3571
2.078125,-1.5143945592431513e-05,-5.3783302311741744e-06,-1.5143945592431513e-05,-3.418126320439458e-05,5.9286,3.3571
2.08203125,-5.1762836911573955e-05,5.366446208896022e-06,-1.7578850576028068e-05,-2.8323627016098256e-05,5.9286,3.3571
2.0859375,-5.517690297398335e-05,1.6111222648966218e-05,-2.393039987487601e-05,-3.2716854157320506e-05,5.9286,3.3571
2.08984375,-4.0038899392690916e-05,2.880565610437172e-05,-1.0742053308918884e-05,-3.2716854157320506e-05,5.9286,3.3571
2.09375,-4.4440791676203544e-05,5.273011396810865e-05,-4.399169152361324e-06,-2.7344465937285405e-05,5.9286,3.3571
2.09765625,-2.6373970000762936e-05,2.391851585259786e-05,-1.611444152895398e-05,-3.46751763149462e-05,5.9286,3.3571
2.1015625,-4.884417120622558e-06,-1.9537172733653762e-05,-3.516042428320743e-05,-3.321076726787211e-05,5.9286,3.3571
2.10546875,7.316103224231341e-06,-1.9043259623102145e-05,-4.7369609770351704e-05,-3.516042428320743e-05,5.9286,3.3571
2.109375,8.295264303044192e-06,-1.2700375466544585e-05,-4.053281250324252e-05,-3.760399440909436e-05,5.9286,3.3571
2.11328125,-7.327987246509487e-06,1.3667652523079283e-05,-3.46751763149462e-05,-3.174635822079803e-05,5.9286,3.3571
2.1171875,-2.3445151906614776e-05,7.810016334782957e-06,-3.1252445110246416e-05,-3.076719714198518e-05,5.9286,3.3571
2.12109375,-2.5394808921950086e-05,-5.029842786449987e-05,-3.418126320439458e-05,-3.0273284031433576e-05,5.9286,3.3571
2.125,-2.393039987487601e-05,-4.4440791676203544e-05,-5.863578199435409e-06,-3.46751763149462e-05,5.9286,3.3571
2.12890625,-3.369601523613335e-05,-8.307148325322338e-06,-3.91392118410009e-06,-3.6624833330281516e-05,5.9286,3.3571
2.1328125,-3.760399440909436e-05,-5.9420111390693366e-09,-3.2231606189059266e-05,-2.93027880949111e-05,5.9286,3.3571
2.13671875,-2.9788036063172332e-05,-1.855801165484091e-05,-4.248246951857784e-05,-3.076719714198518e-05,5.9286,3.3571
2.140625,-2.9788036063172332e-05,-1.3679536545357428e-05,-4.9804514753948254e-05,-3.760399440909436e-05,5.9286,3.3571
2.14453125,-5.127758894331272e-05,-1.318562343480582e-05,-5.9084882146944365e-05,-4.151197358205537e-05,5.9286,3.3571
2.1484375,-5.371249392690927e-05,-8.792396293583571e-06,-5.029842786449987e-05,-3.418126320439458e-05,5.9286,3.3571
2.15234375,-4.3461630597390694e-05,1.3667652523079283e-05,-3.711008129854275e-05,-3.076719714198518e-05,5.9286,3.3571
2.15625,-5.762047309987028e-05,-4.911899794003033e-07,-3.369601523613335e-05,-3.6624833330281516e-05,5.9286,3.3571
2.16015625,-5.9084882146944365e-05,-6.348826167696635e-06,-2.2465990827801922e-05,-3.857449034561683e-05,5.9286,3.3571
2.1640625,-2.5394808921950086e-05,-5.3783302311741744e-06,-2.7344465937285405e-05,-3.516042428320743e-05,5.9286,3.3571
2.16796875,-1.3679536545357428e-05,-2.934760105287239e-06,-4.3461630597390694e-05,-3.5645672251468666e-05,5.9286,3.3571
2.171875,-2.9788036063172332e-05,1.5132061570153368e-05,-5.0783675832761104e-05,-4.297638262912946e-05,5.9286,3.3571
2.17578125,-3.5645672251468666e-05,5.366446208896022e-06,-5.4691655005722115e-05,-4.248246951857784e-05,5.9286,3.3571
2.1796875,-2.5394808921950086e-05,-6.348826167696635e-06,-4.834010570687418e-05,-3.760399440909436e-05,5.9286,3.3571
2.18359375,-1.5143945592431513e-05,-7.327987246509487e-06,-3.369601523613335e-05,-3.711008129854275e-05,5.9286,3.3571
2.1875,-2.588005689021133e-05,-5.3783302311741744e-06,-5.4691655005722115e-05,-3.6624833330281516e-05,5.9286,3.3571
2.19140625,-2.880887498435949e-05,1.9525288711375608e-05,-4.590520072327763e-05,-2.880887498435949e-05,5.9286,3.3571
2.1953125,-1.9537172733653762e-05,2.2454106805523778e-05,-2.148682974898908e-05,-2.7344465937285405e-05,5.9286,3.3571
2.19921875,-3.46751763149462e-05,-2.6859217969024172e-05,-1.9043259623102145e-05,-3.076719714198518e-05,5.9286,3.3571
2.203125,-5.420640703746088e-05,-2.4909560953688853e-05,-1.709360260776683e-05,-2.93027880949111e-05,5.9286,3.3571
2.20703125,-3.80892423773556e-05,-8.792396293583571e-06,-1.12359664194705e-05,-3.2716854157320506e-05,5.9286,3.3571
2.2109375,-2.2465990827801922e-05,2.0019201821927225e-05,-1.025680534065765e-05,-4.3461630597390694e-05,5.9286,3.3571
2.21484375,-3.46751763149462e-05,4.003568051270315e-05,-3.6624833330281516e-05,-4.297638262912946e-05,5.9286,3.3571
2.21875,-3.9553651424429677e-05,1.025358646066988e-05,-2.295123879606316e-05,-4.492603964446478e-05,5.9286,3.3571
2.22265625,-3.0273284031433576e-05,7.316103224231341e-06,-7.327987246509487e-06,-4.541128761272601e-05,5.9286,3.3571
2.2265625,-2.880887498435949e-05,2.978481718318457e-05,-1.709360260776683e-05,-3.2231606189059266e-05,5.9286,3.3571
2.23046875,-3.46751763149462e-05,5.273011396810865e-05,-1.611444152895398e-05,-3.5645672251468666e-05,5.9286,3.3571
2.234375,-3.0273284031433576e-05,6.151656825055315e-05,2.9228760830090863e-06,-4.101806047150376e-05,5.9286,3.3571
2.23828125,-2.6373970000762936e-05,3.368413121385521e-05,-1.955599026474388e-06,-3.516042428320743e-05,5.9286,3.3571
2.2421875,-3.711008129854275e-05,-8.792396293583571e-06,-3.91392118410009e-06,-3.418126320439458e-05,5.9286,3.3571
2.24609375,-3.1252445110246416e-05,-2.934760105287239e-06,2.343326788433663e-05,-3.857449034561683e-05,5.9286,3.3571
2.25,-9.771557372396415e-06,3.0270065151445806e-05,2.8320408136110486e-05,-4.199722155031661e-05,5.9286,3.3571
2.25390625,-1.5629193560692748e-05,3.0755313119707035e-05,5.366446208896022e-06,-4.394687856565193e-05,5.9286,3.3571
2.2578125,-3.321076726787211e-05,2.6847333946746018e-05,1.8060879664301524e-05,-4.394687856565193e-05,5.9286,3.3571
2.26171875,-4.931926678568702e-05,2.9290904072632955e-05,1.5132061570153368e-05,-4.101806047150376e-05,5.9286,3.3571
2.265625,-6.250761335164415e-05,1.9525288711375608e-05,-1.2215127498283343e-05,-3.516042428320743e-05,5.9286,3.3571
2.26953125,-5.859963417868313e-05,3.2219722166781125e-05,-1.2215127498283343e-05,-3.760399440909436e-05,5.9286,3.3571
2.2734375,-5.713522513160904e-05,3.368413121385521e-05,-2.393039987487601e-05,-4.053281250324252e-05,5.9286,3.3571
2.27734375,-5.859963417868313e-05,2.0019201821927225e-05,-1.5143945592431513e-05,-3.418126320439458e-05,5.9286,3.3571
2.28125,-2.5394808921950086e-05,-5.9420111390693366e-09,-2.449512137026005e-06,-3.418126320439458e-05,5.9286,3.3571
2.28515625,7.316103224231341e-06,5.366446208896022e-06,-2.393039987487601e-05,-4.297638262912946e-05,5.9286,3.3571
2.2890625,4.879710994125332e-07,3.271363527733274e-05,-1.1721214387731734e-05,-4.101806047150376e-05,5.9286,3.3571
2.29296875,-1.4650032481879896e-05,2.2948019916075395e-05,-9.771557372396415e-06,-3.46751763149462e-05,5.9286,3.3571
2.296875,-2.4909560953688853e-05,-2.0022420701914995e-05,-1.9537172733653762e-05,-3.076719714198518e-05,5.9286,3.3571
2.30078125,-2.6859217969024172e-05,-2.588005689021133e-05,-8.792396293583571e-06,-2.6859217969024172e-05,5.9286,3.3571
2.3046875,-4.199722155031661e-05,4.879710994125332e-07,-5.863578199435409e-06,-2.0022420701914995e-05,5.9286,3.3571
2.30859375,-4.590520072327763e-05,2.6362085978484785e-05,-4.399169152361324e-06,-1.4650032481879896e-05,5.9286,3.3571
2.3125,-2.7838379047837023e-05,5.273011396810865e-05,-9.771557372396415e-06,-1.9043259623102145e-05,5.9286,3.3571
2.31640625,-3.46751763149462e-05,2.0504449790188458e-05,1.4584670359350156e-06,-2.9788036063172332e-05,5.9286,3.3571
2.3203125,-2.93027880949111e-05,-1.611444152895398e-05,9.759673350118262e-06,-3.516042428320743e-05,5.9286,3.3571
2.32421875,-4.151197358205537e-05,5.366446208896022e-06,-1.709360260776683e-05,-3.760399440909436e-05,5.9286,3.3571
2.328125,-7.812219975890744e-05,4.491415562218662e-05,-3.0273284031433576e-05,-3.711008129854275e-05,5.9286,3.3571
2.33203125,-4.394687856565193e-05,5.273011396810865e-05,-2.393039987487601e-05,-3.516042428320743e-05,5.9286,3.3571
2.3359375,-6.348826167696635e-06,2.880565610437172e-05,-2.148682974898908e-05,-3.80892423773556e-05,5.9286,3.3571
2.33984375,-2.198074285954069e-05,-2.0507668670176228e-05,-3.0273284031433576e-05,-3.80892423773556e-05,5.9286,3.3571
2.34375,-1.855801165484091e-05,-5.371249392690927e-05,-1.855801165484091e-05,-3.1252445110246416e-05,5.9286,3.3571
2.34765625,-1.12359664194705e-05,-1.5629193560692748e-05,-1.1721214387731734e-05,-3.1252445110246416e-05,5.9286,3.3571
2.3515625,-2.7344465937285405e-05,1.5132061570153368e-05,-1.7578850576028068e-05,-3.46751763149462e-05,5.9286,3.3571
2.35546875,-4.394687856565193e-05,1.5132061570153368e-05,-6.348826167696635e-06,-3.369601523613335e-05,5.9286,3.3571
2.359375,-4.3461630597390694e-05,1.5132061570153368e-05,-1.0742053308918884e-05,-3.516042428320743e-05,5.9286,3.3571
2.36328125,-3.418126320439458e-05,7.316103224231341e-06,-3.46751763149462e-05,-3.5645672251468666e-05,5.9286,3.3571
2.3671875,-3.174635822079803e-05,2.0504449790188458e-05,-3.5645672251468666e-05,-3.516042428320743e-05,5.9286,3.3571
2.37109375,-2.198074285954069e-05,3.417804432440681e-05,-1.7578850576028068e-05,-3.2231606189059266e-05,5.9286,3.3571
2.375,-3.076719714198518e-05,-1.955599026474388e-06,-8.307148325322338e-06,-2.880887498435949e-05,5.9286,3.3571
2.37890625,-4.394687856565193e-05,-9.771557372396415e-06,-1.1721214387731734e-05,-3.1252445110246416e-05,5.9286,3.3571
2.3828125,-2.7838379047837023e-05,5.851694177157256e-06,-1.611444152895398e-05,-3.5645672251468666e-05,5.9286,3.3571
2.38671875,-2.393039987487601e-05,-2.449512137026005e-06,-3.418126320439458e-05,-3.9553651424429677e-05,5.9286,3.3571
2.390625,-5.859963417868313e-05,-3.420008073548473e-06,-2.0507668670176228e-05,-4.3461630597390694e-05,5.9286,3.3571
2.39453125,-6.250761335164415e-05,-9.764379476615374e-07,3.902037161821937e-06,-4.199722155031661e-05,5.9286,3.3571
2.3984375,-3.174635822079803e-05,-8.307148325322338e-06,-3.369601523613335e-05,-3.2231606189059266e-05,5.9286,3.3571
2.40234375,-1.611444152895398e-05,-2.4909560953688853e-05,-6.347810928816662e-05,-2.8323627016098256e-05,5.9286,3.3571
2.40625,-9.771557372396415e-06,-2.393039987487601e-05,-4.883401881742578e-05,-3.076719714198518e-05,5.9286,3.3571
2.41015625,-7.327987246509487e-06,4.879710994125332e-07,-4.7369609770351704e-05,-3.1252445110246416e-05,5.9286,3.3571
2.4140625,-1.5629193560692748e-05,-7.327987246509487e-06,-4.101806047150376e-05,-3.076719714198518e-05,5.9286,3.3571
2.41796875,-1.5143945592431513e-05,-2.7838379047837023e-05,-1.4650032481879896e-05,-3.711008129854275e-05,5.9286,3.3571
2.421875,-1.7578850576028068e-05,-3.80892423773556e-05,-2.0507668670176228e-05,-3.857449034561683e-05,5.9286,3.3571
2.42578125,-4.248246951857784e-05,-1.1721214387731734e-05,-4.3461630597390694e-05,-3.5645672251468666e-05,5.9286,3.3571
2.4296875,-6.933574547646295e-05,2.1968858837262545e-05,-4.785485773861294e-05,-3.369601523613335e-05,5.9286,3.3571
2.43359375,-6.0064043225757215e-05,-2.934760105287239e-06,-4.151197358205537e-05,-3.174635822079803e-05,5.9286,3.3571
2.4375,-2.6859217969024172e-05,-2.0022420701914995e-05,-2.9788036063172332e-05,-3.2231606189059266e-05,5.9286,3.3571
2.44140625,-1.025680534065765e-05,-4.248246951857784e-05,-3.2231606189059266e-05,-2.8323627016098256e-05,5.9286,3.3571
2.4453125,-9.764379476615374e-07,-3.760399440909436e-05,-4.785485773861294e-05,-2.8323627016098256e-05,5.9286,3.3571
2.44921875,-8.307148325322338e-06,-1.611444152895398e-05,-5.0783675832761104e-05,-3.0273284031433576e-05,5.9286,3.3571
2.453125,-2.8323627016098256e-05,-4.884417120622558e-06,-5.029842786449987e-05,-3.2231606189059266e-05,5.9286,3.3571
2.45703125,-2.2465990827801922e-05,-2.0022420701914995e-05,-5.420640703746088e-05,-3.711008129854275e-05,5.9286,3.3571
2.4609375,-1.8072763686579675e-05,-5.810572106813152e-05,-5.4691655005722115e-05,-3.46751763149462e-05,5.9286,3.3571
2.46484375,-3.2716854157320506e-05,-4.394687856565193e-05,-4.199722155031661e-05,-2.4415647843137242e-05,5.9286,3.3571
2.46875,-3.516042428320743e-05,-2.934760105287239e-06,-2.6373970000762936e-05,-1.12359664194705e-05,5.9286,3.3571
2.47265625,-4.0038899392690916e-05,3.0270065151445806e-05,-2.6373970000762936e-05,-1.709360260776683e-05,5.9286,3.3571
2.4765625,-5.762047309987028e-05,6.830855255970107e-06,-2.393039987487601e-05,-3.076719714198518e-05,5.9286,3.3571
2.48046875,-4.7369609770351704e-05,-1.6608354639505592e-05,-2.148682974898908e-05,-3.711008129854275e-05,5.9286,3.3571
2.484375,-1.6608354639505592e-05,-1.318562343480582e-05,-2.198074285954069e-05,-4.6875696659800094e-05,5.9286,3.3571
2.48828125,-9.764379476615374e-07,-4.884417120622558e-06,-3.46751763149462e-05,-4.3461630597390694e-05,5.9286,3.3571
2.4921875,7.316103224231341e-06,1.9523801464866182e-06,-5.713522513160904e-05,-3.516042428320743e-05,5.9286,3.3571
2.49609375,4.879710994125332e-07,-1.2700375466544585e-05,-5.1762836911573955e-05,-3.0273284031433576e-05,5.9286,3.3571
2.5,-2.295123879606316e-05,-2.148682974898908e-05,-4.151197358205537e-05,-2.198074285954069e-05,5.9286,3.3571
2.50390625,-5.810572106813152e-05,-3.2716854157320506e-05,-4.492603964446478e-05,-2.198074285954069e-05,5.9286,3.3571
2.5078125,-7.665779071183335e-05,-4.101806047150376e-05,-4.883401881742578e-05,-3.46751763149462e-05,5.9286,3.3571
2.51171875,-5.420640703746088e-05,-3.369601523613335e-05,-2.148682974898908e-05,-3.174635822079803e-05,5.9286,3.3571
2.515625,-1.025680534065765e-05,-3.1252445110246416e-05,-2.2465990827801922e-05,-2.3445151906614776e-05,5.9286,3.3571
2.51953125,1.56173095384146e-05,-5.762047309987028e-05,-4.639044869153886e-05,-3.2716854157320506e-05,5.9286,3.3571
2.5234375,4.387285130083171e-06,-6.933574547646295e-05,-6.054929119401845e-05,-4.297638262912946e-05,5.9286,3.3571
2.52734375,-4.399169152361324e-06,1.6111222648966218e-05,-4.053281250324252e-05,-4.4440791676203544e-05,5.9286,3.3571
2.53125,-8.792396293583571e-06,2.0504449790188458e-05,-3.80892423773556e-05,-4.834010570687418e-05,5.9286,3.3571
2.53515625,-4.9804514753948254e-05,-5.224808487983519e-05,-6.15284522728313e-05,-4.4440791676203544e-05,5.9286,3.3571
2.5390625,-6.347810928816662e-05,-6.787133642938887e-05,-3.1252445110246416e-05,-3.6139585362020283e-05,5.9286,3.3571
2.54296875,-2.148682974898908e-05,-8.10510178530556e-05,-3.46751763149462e-05,-3.6624833330281516e-05,5.9286,3.3571
2.546875,-4.884417120622558e-06,-4.590520072327763e-05,-5.420640703746088e-05,-3.516042428320743e-05,5.9286,3.3571
2.55078125,-1.2700375466544585e-05,-9.764379476615374e-07,-5.224808487983519e-05,-2.8323627016098256e-05,5.9286,3.3571
2.5546875,-2.5394808921950086e-05,-1.025680534065765e-05,-6.54364314457923e-05,-2.148682974898908e-05,5.9286,3.3571
2.55859375,-3.076719714198518e-05,-1.855801165484091e-05,-4.248246951857784e-05,-2.0022420701914995e-05,5.9286,3.3571
2.5625,-2.7344465937285405e-05,-6.494251833524068e-05,-2.8323627016098256e-05,-2.393039987487601e-05,5.9286,3.3571
2.56640625,-3.760399440909436e-05,-7.616387760128173e-05,-5.1762836911573955e-05,-3.2716854157320506e-05,5.9286,3.3571
2.5703125,-5.371249392690927e-05,-3.46751763149462e-05,-4.199722155031661e-05,-2.7344465937285405e-05,5.9286,3.3571
2.57421875,-4.883401881742578e-05,-1.7578850576028068e-05,-3.6624833330281516e-05,-2.0507668670176228e-05,5.9286,3.3571
2.578125,-3.760399440909436e-05,-2.7344465937285405e-05,-4.931926678568702e-05,-2.93027880949111e-05,5.9286,3.3571
2.58203125,-2.0022420701914995e-05,-4.834010570687418e-05,-5.859963417868313e-05,-3.516042428320743e-05,5.9286,3.3571
2.5859375,-2.148682974898908e-05,-2.6373970000762936e-05,-4.931926678568702e-05,-4.199722155031661e-05,5.9286,3.3571
2.58984375,-2.198074285954069e-05,-6.842739278248253e-06,-4.101806047150376e-05,-4.101806047150376e-05,5.9286,3.3571
2.59375,-8.307148325322338e-06,-1.709360260776683e-05,-5.1762836911573955e-05,-2.9788036063172332e-05,5.9286,3.3571
2.59765625,-1.709360260776683e-05,-2.2465990827801922e-05,-5.420640703746088e-05,-4.199722155031661e-05,5.9286,3.3571
2.6015625,-8.307148325322338e-06,-1.4164784513618663e-05,-4.3461630597390694e-05,-6.0064043225757215e-05,5.9286,3.3571
2.60546875,-1.2700375466544585e-05,9.732190676737815e-07,-2.7838379047837023e-05,-4.785485773861294e-05,5.9286,3.3571
2.609375,-3.5645672251468666e-05,1.9525288711375608e-05,-3.174635822079803e-05,-2.880887498435949e-05,5.9286,3.3571
2.61328125,-7.226456357061112e-05,3.902037161821937e-06,-3.076719714198518e-05,-2.0507668670176228e-05,5.9286,3.3571
2.6171875,-9.228104226138702e-05,-3.6139585362020283e-05,-1.4650032481879896e-05,-2.2465990827801922e-05,5.9286,3.3571
2.62109375,-5.5670816084534965e-05,-6.299286131990538e-05,-2.148682974898908e-05,-2.880887498435949e-05,5.9286,3.3571
2.625,-1.7578850576028068e-05,-8.007185677424275e-05,-4.053281250324252e-05,-3.6139585362020283e-05,5.9286,3.3571
2.62890625,4.879710994125332e-07,-1.9537172733653762e-05,-2.4415647843137242e-05,-4.053281250324252e-05,5.9286,3.3571
2.6328125,1.659647061722745e-05,3.857127146562906e-05,-1.5629193560692748e-05,-4.4440791676203544e-05,5.9286,3.3571
2.63671875,5.366446208896022e-06,-2.5394808921950086e-05,-3.857449034561683e-05,-5.127758894331272e-05,5.9286,3.3571
2.640625,-2.4909560953688853e-05,-7.274981153887235e-05,-4.541128761272601e-05,-3.9068403456168444e-05,5.9286,3.3571
2.64453125,-3.174635822079803e-05,-4.541128761272601e-05,-6.250761335164415e-05,-3.6624833330281516e-05,5.9286,3.3571
2.6484375,-1.6608354639505592e-05,-1.6608354639505592e-05,-6.299286131990538e-05,-5.95701301152056e-05,5.9286,3.3571
2.65234375,-9.277644261844806e-06,-1.5629193560692748e-05,-4.834010570687418e-05,-6.347810928816662e-05,5.9286,3.3571
2.65625,-1.1721214387731734e-05,-3.174635822079803e-05,-4.4440791676203544e-05,-4.541128761272601e-05,5.9286,3.3571
2.66015625,-1.4703510582131542e-06,-5.127758894331272e-05,-5.664131202105744e-05,-5.4691655005722115e-05,5.9286,3.3571
2.6640625,2.437628114747852e-06,-4.101806047150376e-05,-6.933574547646295e-05,-6.397202239871823e-05,5.9286,3.3571
2.66796875,1.4584670359350156e-06,-4.399169152361324e-06,-5.2741997990386805e-05,-6.299286131990538e-05,5.9286,3.3571
2.671875,-5.863578199435409e-06,8.789177413595794e-06,-3.857449034561683e-05,-6.982965858701457e-05,5.9286,3.3571
2.67578125,-1.2700375466544585e-05,-3.420008073548473e-06,-5.224808487983519e-05,-7.030624141298541e-05,5.9286,3.3571
2.6796875,-9.277644261844806e-06,-2.0022420701914995e-05,-4.931926678568702e-05,-7.080015452353703e-05,5.9286,3.3571
2.68359375,-2.4909560953688853e-05,-1.855801165484091e-05,-3.6139585362020283e-05,-6.299286131990538e-05,5.9286,3.3571
2.6875,-3.9553651424429677e-05,-8.792396293583571e-06,-4.248246951857784e-05,-5.5670816084534965e-05,5.9286,3.3571
2.69140625,-1.9537172733653762e-05,-1.0742053308918884e-05,-8.307148325322338e-06,-5.371249392690927e-05,5.9286,3.3571
2.6953125,-1.4650032481879896e-05,7.810016334782957e-06,-1.318562343480582e-05,-5.95701301152056e-05,5.9286,3.3571
2.69921875,-3.1252445110246416e-05,1.3182404554818048e-05,-6.054929119401845e-05,-6.347810928816662e-05,5.9286,3.3571
2.703125,-2.9788036063172332e-05,-1.5143945592431513e-05,-5.371249392690927e-05,-5.5670816084534965e-05,5.9286,3.3571
2.70703125,-2.934760105287239e-06,-1.1721214387731734e-05,-4.248246951857784e-05,-5.420640703746088e-05,5.9286,3.3571
2.7109375,-1.12359664194705e-05,2.098969775844969e-05,-3.857449034561683e-05,-4.248246951857784e-05,5.9286,3.3571
2.71484375,-2.100158178072784e-05,2.7341247057297635e-05,-1.3679536545357428e-05,-2.2465990827801922e-05,5.9286,3.3571
2.71875,3.416789193560703e-06,-9.764379476615374e-07,-5.3783302311741744e-06,-3.5645672251468666e-05,5.9286,3.3571
2.72265625,6.830855255970107e-06,-4.931926678568702e-05,-1.12359664194705e-05,-4.9804514753948254e-05,5.9286,3.3571
2.7265625,9.732190676737815e-07,-4.9804514753948254e-05,-3.857449034561683e-05,-3.80892423773556e-05,5.9286,3.3571
2.73046875,-2.198074285954069e-05,-1.709360260776683e-05,-4.931926678568702e-05,-4.151197358205537e-05,5.9286,3.3571
2.734375,-3.46751763149462e-05,-1.4650032481879896e-05,-4.0038899392690916e-05,-4.834010570687418e-05,5.9286,3.3571
2.73828125,-2.5394808921950086e-05,-2.7344465937285405e-05,-3.2231606189059266e-05,-4.639044869153886e-05,5.9286,3.3571
2.7421875,-4.541128761272601e-05,-3.760399440909436e-05,-3.1252445110246416e-05,-4.541128761272601e-05,5.9286,3.3571
2.74609375,-6.592167941405354e-05,-2.100158178072784e-05,-4.639044869153886e-05,-4.053281250324252e-05,5.9286,3.3571
2.75,-5.859963417868313e-05,2.098969775844969e-05,-2.7838379047837023e-05,-4.199722155031661e-05,5.9286,3.3571
2.75390625,-2.6859217969024172e-05,2.0019201821927225e-05,-6.842739278248253e-06,-4.248246951857784e-05,5.9286,3.3571
2.7578125,-2.934760105287239e-06,-2.449512137026005e-06,-2.7838379047837023e-05,-4.199722155031661e-05,5.9286,3.3571
2.76171875,-3.420008073548473e-06,-2.100158178072784e-05,-3.174635822079803e-05,-4.883401881742578e-05,5.9286,3.3571
2.765625,-3.076719714198518e-05,-1.9043259623102145e-05,-7.327987246509487e-06,-4.639044869153886e-05,5.9286,3.3571
2.76953125,-6.299286131990538e-05,2.437628114747852e-06,-3.420008073548473e-06,-3.6139585362020283e-05,5.9286,3.3571
2.7734375,-3.760399440909436e-05,4.6872477779812324e-05,-1.6608354639505592e-05,-3.5645672251468666e-05,5.9286,3.3571
2.77734375,-9.771557372396415e-06,3.759211038681621e-05,-1.7578850576028068e-05,-3.516042428320743e-05,5.9286,3.3571
2.78125,-3.2231606189059266e-05,-2.0507668670176228e-05,-2.93027880949111e-05,-4.394687856565193e-05,5.9286,3.3571
2.78515625,-3.46751763149462e-05,-1.855801165484091e-05,-3.2716854157320506e-05,-5.61560640527962e-05,5.9286,3.3571
2.7890625,-1.7578850576028068e-05,4.7357725748073564e-05,5.366446208896022e-06,-5.371249392690927e-05,5.9286,3.3571
2.79296875,-2.6859217969024172e-05,5.224486599984742e-05,2.343326788433663e-05,-3.6624833330281516e-05,5.9286,3.3571
2.796875,-4.297638262912946e-05,-2.93027880949111e-05,-1.709360260776683e-05,-1.6608354639505592e-05,5.9286,3.3571
2.80078125,-7.274981153887235e-05,-1.6608354639505592e-05,-2.4909560953688853e-05,-2.295123879606316e-05,5.9286,3.3571
2.8046875,-0.00016210475883726252,-2.934760105287239e-06,-3.711008129854275e-05,-3.711008129854275e-05,5.9286,3.3571
2.80859375,-0.0001816359895597772,-3.076719714198518e-05,-6.104320430457007e-05,5.366446208896022e-06,5.9286,3.3571
2.8125,-0.0001298790946593423,-1.9043259623102145e-05,-5.322724595864804e-05,5.8102502188143745e-05,5.9286,3.3571
2.81640625,-9.130188118257419e-05,-0.00010106749654383152,-0.00010009700060730906,5.028654384222173e-05,5.9286,3.3571
2.8203125,-4.297638262912946e-05,-0.00019872365015640497,-0.00013768638786297395,3.4663292292668046e-05,5.9286,3.3571
2.82421875,-7.226456357061112e-05,-0.00018993719587396046,-0.0001581967796643015,3.0755313119707035e-05,5.9286,3.3571
2.828125,-0.0001332931607217517,-0.00016698323394674598,-0.00017528444026092927,4.98012958739605e-05,5.9286,3.3571
2.83203125,-8.983747213550009e-05,-0.00020800401754940108,-0.0001821212375280384,3.90565194338903e-05,5.9286,3.3571
2.8359375,-4.053281250324252e-05,-0.0002607400735286488,-0.00021971928992599372,5.366446208896022e-06,5.9286,3.3571
2.83984375,-6.836524953994047e-05,-0.00028270620923476,-0.0002456020699473564,-2.449512137026005e-06,5.9286,3.3571
2.84375,-0.00010009700060730906,-0.00026024616041809716,-0.0002138616537376974,7.316103224231341e-06,5.9286,3.3571
2.84765625,-0.00011718466120393681,-0.0002016524682505531,-0.00016845630813611045,2.343326788433663e-05,5.9286,3.3571
2.8515625,-0.00012695027656519416,-0.0001743139443244068,-0.0001723556221667811,3.612770133974213e-05,5.9286,3.3571
2.85546875,-0.00012889993358052948,-0.00018700837777981227,-0.00016405441585259784,4.442890765392539e-05,5.9286,3.3571
2.859375,-0.00012841468561226825,-0.00015038948646066983,-0.0001298790946593423,3.173447419851989e-05,5.9286,3.3571
2.86328125,-0.00012548586751812008,-0.00012011347929808498,-0.00010741904584267947,2.8320408136110486e-05,5.9286,3.3571
2.8671875,-0.0001347575697688258,-0.0001166907480933852,-9.326020334019987e-05,2.8320408136110486e-05,5.9286,3.3571
2.87109375,-0.0001220631363134203,-6.0064043225757215e-05,-6.690084049286639e-05,2.0019201821927225e-05,5.9286,3.3571
2.875,-7.56786296330205e-05,-4.394687856565193e-05,-4.931926678568702e-05,1.1224082397192347e-05,5.9286,3.3571
2.87890625,-4.785485773861294e-05,-7.860744772716867e-05,-7.519338166475927e-05,9.274425381857029e-06,5.9286,3.3571
2.8828125,-5.029842786449987e-05,-0.00010888345488975354,-6.836524953994047e-05,1.1224082397192347e-05,5.9286,3.3571
2.88671875,-6.738608846112762e-05,-0.00011083311190508886,-4.3461630597390694e-05,7.316103224231341e-06,5.9286,3.3571
2.890625,-7.860744772716867e-05,-9.911783952849621e-05,-3.760399440909436e-05,7.316103224231341e-06,5.9286,3.3571
2.89453125,-8.153626582131684e-05,-7.812219975890744e-05,-1.611444152895398e-05,9.274425381857029e-06,5.9286,3.3571
2.8984375,-6.836524953994047e-05,-7.372897261768519e-05,-2.148682974898908e-05,3.416789193560703e-06,5.9286,3.3571
2.90234375,-4.053281250324252e-05,-8.788781512016479e-05,-3.760399440909436e-05,9.732190676737815e-07,5.9286,3.3571
2.90625,-5.713522513160904e-05,-5.664131202105744e-05,7.316103224231341e-06,2.437628114747852e-06,5.9286,3.3571
2.91015625,-6.592167941405354e-05,-5.127758894331272e-05,-5.863578199435409e-06,-6.842739278248253e-06,5.9286,3.3571
2.9140625,-3.5645672251468666e-05,-5.224808487983519e-05,-4.883401881742578e-05,-1.025680534065765e-05,5.9286,3.3571
2.91796875,-4.883401881742578e-05,-1.8072763686579675e-05,-2.393039987487601e-05,-5.863578199435409e-06,5.9286,3.3571
2.921875,-7.274981153887235e-05,-4.3461630597390694e-05,-3.9553651424429677e-05,-1.318562343480582e-05,5.9286,3.3571
2.92578125,-4.151197358205537e-05,-7.812219975890744e-05,-4.053281250324252e-05,-1.2215127498283343e-05,5.9286,3.3571
2.9296875,-2.100158178072784e-05,-6.982965858701457e-05,-2.2465990827801922e-05,-1.025680534065765e-05,5.9286,3.3571
2.93359375,-3.80892423773556e-05,-4.9804514753948254e-05,-2.9788036063172332e-05,-1.6608354639505592e-05,5.9286,3.3571
2.9375,-5.224808487983519e-05,-3.857449034561683e-05,-3.711008129854275e-05,-1.7578850576028068e-05,5.9286,3.3571
2.94140625,-3.9553651424429677e-05,-5.95701301152056e-05,-4.6875696659800094e-05,-2.393039987487601e-05,5.9286,3.3571
2.9453125,-4.248246951857784e-05,-4.883401881742578e-05,-4.7369609770351704e-05,-2.5394808921950086e-05,5.9286,3.3571
2.94921875,-5.762047309987028e-05,-2.8323627016098256e-05,-2.5394808921950086e-05,-1.9043259623102145e-05,5.9286,3.3571
2.953125,-3.80892423773556e-05,-1.9537172733653762e-05,-2.295123879606316e-05,-2.4415647843137242e-05,5.9286,3.3571
2.95703125,-3.46751763149462e-05,-3.46751763149462e-05,-3.760399440909436e-05,-3.0273284031433576e-05,5.9286,3.3571
2.9609375,-4.7369609770351704e-05,-6.250761335164415e-05,-5.371249392690927e-05,-2.93027880949111e-05,5.9286,3.3571
2.96484375,-5.4691655005722115e-05,-5.420640703746088e-05,-2.393039987487601e-05,-2.100158178072784e-05,5.9286,3.3571
2.96875,-3.369601523613335e-05,-3.369601523613335e-05,-1.5629193560692748e-05,-1.8072763686579675e-05,5.9286,3.3571
2.97265625,-2.3445151906614776e-05,-1.611444152895398e-05,-4.6875696659800094e-05,-2.8323627016098256e-05,5.9286,3.3571
2.9765625,-4.3461630597390694e-05,-6.15284522728313e-05,-5.1762836911573955e-05,-4.053281250324252e-05,5.9286,3.3571
2.98046875,-2.3445151906614776e-05,-8.495899702601662e-05,-4.9804514753948254e-05,-3.9068403456168444e-05,5.9286,3.3571
2.984375,-1.4650032481879896e-05,-7.080015452353703e-05,-1.9537172733653762e-05,-1.7578850576028068e-05,5.9286,3.3571
2.98828125,-4.639044869153886e-05,-4.4440791676203544e-05,-2.2465990827801922e-05,-1.6608354639505592e-05,5.9286,3.3571
2.9921875,-5.859963417868313e-05,-3.91392118410009e-06,-2.6859217969024172e-05,-2.393039987487601e-05,5.9286,3.3571
2.99609375,-5.2741997990386805e-05,-2.7344465937285405e-05,-1.4650032481879896e-05,-1.709360260776683e-05,5.9286,3.3571
3.0,-5.95701301152056e-05,-4.0038899392690916e-05,-2.9788036063172332e-05,-2.393039987487601e-05,5.9286,3.3571
3.00390625,-5.859963417868313e-05,-3.711008129854275e-05,-2.5394808921950086e-05,-3.6624833330281516e-05,5.9286,3.3571
3.0078125,-3.9068403456168444e-05,-5.029842786449987e-05,-2.100158178072784e-05,-3.369601523613335e-05,5.9286,3.3571
3.01171875,-1.8072763686579675e-05,-3.418126320439458e-05,-2.4909560953688853e-05,-2.0507668670176228e-05,5.9286,3.3571
3.015625,1.4584670359350156e-06,-4.6875696659800094e-05,-2.7344465937285405e-05,-9.771557372396415e-06,5.9286,3.3571
3.01953125,-2.449512137026005e-06,-8.495899702601662e-05,-4.101806047150376e-05,-1.0742053308918884e-05,5.9286,3.3571
3.0234375,-1.0742053308918884e-05,-5.61560640527962e-05,-1.5143945592431513e-05,-5.9420111390693366e-09,5.9286,3.3571
3.02734375,1.2688491444266432e-05,-3.174635822079803e-05,-5.9420111390693366e-09,1.025358646066988e-05,5.9286,3.3571
3.03125,-2.2465990827801922e-05,-5.95701301152056e-05,-3.857449034561683e-05,-1.9043259623102145e-05,5.9286,3.3571
3.03515625,-5.0783675832761104e-05,-6.592167941405354e-05,-4.053281250324252e-05,-3.6139585362020283e-05,5.9286,3.3571
3.0390625,-5.127758894331272e-05,-6.933574547646295e-05,-3.418126320439458e-05,-4.0038899392690916e-05,5.9286,3.3571
3.04296875,-4.590520072327763e-05,-7.128540249179827e-05,-2.93027880949111e-05,-4.3461630597390694e-05,5.9286,3.3571
3.046875,-1.9537172733653762e-05,-7.469946855420766e-05,-3.2716854157320506e-05,-3.9553651424429677e-05,5.9286,3.3571
3.05078125,-1.6608354639505592e-05,-7.958660880598152e-05,-8.397983594720377e-05,-4.0038899392690916e-05,5.9286,3.3571
3.0546875,-4.590520072327763e-05,-6.0064043225757215e-05,-5.713522513160904e-05,-3.2716854157320506e-05,5.9286,3.3571
3.05859375,-4.883401881742578e-05,-5.224808487983519e-05,-3.076719714198518e-05,-3.5645672251468666e-05,5.9286,3.3571
3.0625,-2.6859217969024172e-05,-2.2465990827801922e-05,-6.885049750820172e-05,-4.0038899392690916e-05,5.9286,3.3571
3.06640625,-3.80892423773556e-05,-2.0022420701914995e-05,-6.104320430457007e-05,-2.3445151906614776e-05,5.9286,3.3571
3.0703125,-3.857449034561683e-05,-3.516042428320743e-05,-2.100158178072784e-05,-1.611444152895398e-05,5.9286,3.3571
3.07421875,-5.371249392690927e-05,-3.0273284031433576e-05,-1.611444152895398e-05,-2.7838379047837023e-05,5.9286,3.3571
3.078125,-6.397202239871823e-05,-3.80892423773556e-05,-2.6859217969024172e-05,-3.6624833330281516e-05,5.9286,3.3571
3.08203125,-4.492603964446478e-05,-5.762047309987028e-05,-1.2215127498283343e-05,-3.516042428320743e-05,5.9286,3.3571
3.0859375,-5.859963417868313e-05,-2.393039987487601e-05,-3.1252445110246416e-05,-3.321076726787211e-05,5.9286,3.3571
3.08984375,-4.3461630597390694e-05,-3.420008073548473e-06,-3.516042428320743e-05,-2.8323627016098256e-05,5.9286,3.3571
3.09375,5.851694177157256e-06,-3.516042428320743e-05,-3.9553651424429677e-05,-2.393039987487601e-05,5.9286,3.3571
3.09765625,1.4152900491340517e-05,-4.101806047150376e-05,-5.517690297398335e-05,-2.880887498435949e-05,5.9286,3.3571
3.1015625,3.416789193560703e-06,-2.9788036063172332e-05,-2.93027880949111e-05,-3.9068403456168444e-05,5.9286,3.3571
3.10546875,-2.198074285954069e-05,-1.9537172733653762e-05,-5.3783302311741744e-06,-2.4909560953688853e-05,5.9286,3.3571
3.109375,-1.6608354639505592e-05,-4.590520072327763e-05,-2.880887498435949e-05,-1.025680534065765e-05,5.9286,3.3571
3.11328125,-1.2215127498283343e-05,-4.6875696659800094e-05,-3.9553651424429677e-05,-1.2700375466544585e-05,5.9286,3.3571
3.1171875,-4.883401881742578e-05,-3.5645672251468666e-05,-3.0273284031433576e-05,-1.5143945592431513e-05,5.9286,3.3571
3.12109375,-6.592167941405354e-05,-7.421422058594643e-05,-7.372897261768519e-05,-2.393039987487601e-05,5.9286,3.3571
3.125,-8.690865404135194e-05,-0.00010741904584267947,-7.665779071183335e-05,-3.9553651424429677e-05,5.9286,3.3571
3.12890625,-7.372897261768519e-05,-5.224808487983519e-05,-5.127758894331272e-05,-2.8323627016098256e-05,5.9286,3.3571
3.1328125,-5.713522513160904e-05,-2.0022420701914995e-05,-6.54364314457923e-05,-1.9537172733653762e-05,5.9286,3.3571
3.13671875,-9.081663321431295e-05,-7.421422058594643e-05,-4.590520072327763e-05,-3.321076726787211e-05,5.9286,3.3571
3.140625,-9.813867844968337e-05,-0.00010692513273212784,-4.053281250324252e-05,-1.9043259623102145e-05,5.9286,3.3571
3.14453125,-8.788781512016479e-05,-9.423069927672234e-05,-6.15284522728313e-05,-1.2700375466544585e-05,5.9286,3.3571
3.1484375,-7.860744772716867e-05,-5.713522513160904e-05,-6.0064043225757215e-05,-1.6608354639505592e-05,5.9286,3.3571
3.15234375,-4.834010570687418e-05,-3.711008129854275e-05,-3.0273284031433576e-05,-1.5143945592431513e-05,5.9286,3.3571
3.15625,-1.9537172733653762e-05,-5.95701301152056e-05,-2.588005689021133e-05,-1.2215127498283343e-05,5.9286,3.3571
3.16015625,-2.7344465937285405e-05,-0.00010790429381094071,-6.0064043225757215e-05,-2.0507668670176228e-05,5.9286,3.3571
3.1640625,-5.664131202105744e-05,-0.0001259711154863813,-7.17706504600595e-05,-3.516042428320743e-05,5.9286,3.3571
3.16796875,-5.95701301152056e-05,-8.885831105668725e-05,-4.639044869153886e-05,-4.199722155031661e-05,5.9286,3.3571
3.171875,-5.664131202105744e-05,-5.859963417868313e-05,-2.7344465937285405e-05,-4.590520072327763e-05,5.9286,3.3571
3.17578125,-6.054929119401845e-05,-8.153626582131684e-05,-2.5394808921950086e-05,-4.101806047150376e-05,5.9286,3.3571
3.1796875,-3.174635822079803e-05,-9.520986035553519e-05,-3.6139585362020283e-05,-3.369601523613335e-05,5.9286,3.3571
3.18359375,-3.9068403456168444e-05,-7.274981153887235e-05,-4.3461630597390694e-05,-3.80892423773556e-05,5.9286,3.3571
3.1875,-6.787133642938887e-05,-3.80892423773556e-05,-5.0783675832761104e-05,-3.6624833330281516e-05,5.9286,3.3571
3.19140625,-4.834010570687418e-05,-2.393039987487601e-05,-6.104320430457007e-05,-4.785485773861294e-05,5.9286,3.3571
3.1953125,-1.9043259623102145e-05,-3.2716854157320506e-05,-6.054929119401845e-05,-5.713522513160904e-05,5.9286,3.3571
3.19921875,-8.792396293583571e-06,-4.492603964446478e-05,-6.738608846112762e-05,-4.639044869153886e-05,5.9286,3.3571
3.203125,-2.4909560953688853e-05,-6.104320430457007e-05,-6.0064043225757215e-05,-5.371249392690927e-05,5.9286,3.3571
3.20703125,-4.394687856565193e-05,-5.371249392690927e-05,-2.100158178072784e-05,-3.6139585362020283e-05,5.9286,3.3571
3.2109375,-2.9788036063172332e-05,-1.12359664194705e-05,7.810016334782957e-06,-2.3445151906614776e-05,5.9286,3.3571
3.21484375,-3.418126320439458e-05,-2.2465990827801922e-05,-6.842739278248253e-06,-3.174635822079803e-05,5.9286,3.3571
3.21875,-2.880887498435949e-05,-6.592167941405354e-05,-2.295123879606316e-05,-2.7344465937285405e-05,5.9286,3.3571
3.22265625,-2.934760105287239e-06,-6.787133642938887e-05,-2.148682974898908e-05,-4.590520072327763e-05,5.9286,3.3571
3.2265625,-3.9553651424429677e-05,-7.030624141298541e-05,-1.7578850576028068e-05,-5.029842786449987e-05,5.9286,3.3571
3.23046875,-7.469946855420766e-05,-5.859963417868313e-05,-1.2700375466544585e-05,-3.1252445110246416e-05,5.9286,3.3571
3.234375,-5.762047309987028e-05,-2.0507668670176228e-05,-1.6608354639505592e-05,-2.8323627016098256e-05,5.9286,3.3571
3.23828125,-3.076719714198518e-05,-4.4440791676203544e-05,-5.127758894331272e-05,-4.4440791676203544e-05,5.9286,3.3571
3.2421875,-2.393039987487601e-05,-7.762828664835582e-05,-5.029842786449987e-05,-3.760399440909436e-05,5.9286,3.3571
3.24609375,-6.348826167696635e-06,-4.7369609770351704e-05,-3.1252445110246416e-05,-3.1252445110246416e-05,5.9286,3.3571
3.25,4.879710994125332e-07,-2.0022420701914995e-05,-1.9043259623102145e-05,-5.2741997990386805e-05,5.9286,3.3571
3.25390625,-2.0022420701914995e-05,-3.9068403456168444e-05,-1.12359664194705e-05,-5.029842786449987e-05,5.9286,3.3571
3.2578125,-9.277644261844806e-06,-4.053281250324252e-05,-3.1252445110246416e-05,-1.9043259623102145e-05,5.9286,3.3571
3.26171875,-1.12359664194705e-05,-5.224808487983519e-05,-4.492603964446478e-05,-1.2700375466544585e-05,5.9286,3.3571
3.265625,-3.0273284031433576e-05,-6.738608846112762e-05,-3.857449034561683e-05,-3.369601523613335e-05,5.9286,3.3571
3.26953125,-3.6624833330281516e-05,-4.297638262912946e-05,-2.7344465937285405e-05,-4.7369609770351704e-05,5.9286,3.3571
3.2734375,-2.588005689021133e-05,-4.053281250324252e-05,-2.93027880949111e-05,-3.516042428320743e-05,5.9286,3.3571
3.27734375,-1.7578850576028068e-05,-5.95701301152056e-05,-3.2716854157320506e-05,-2.9788036063172332e-05,5.9286,3.3571
3.28125,-2.8323627016098256e-05,-4.834010570687418e-05,-6.842739278248253e-06,-2.6373970000762936e-05,5.9286,3.3571
3.28515625,-4.053281250324252e-05,-1.3679536545357428e-05,-1.4164784513618663e-05,-1.2215127498283343e-05,5.9286,3.3571
3.2890625,-3.1252445110246416e-05,-1.0742053308918884e-05,-5.322724595864804e-05,-2.7838379047837023e-05,5.9286,3.3571
3.29296875,-2.4909560953688853e-05,-2.100158178072784e-05,-4.199722155031661e-05,-3.9553651424429677e-05,5.9286,3.3571
3.296875,-2.7838379047837023e-05,-4.399169152361324e-06,-1.9043259623102145e-05,-1.4650032481879896e-05,5.9286,3.3571
3.30078125,-2.393039987487601e-05,-1.2700375466544585e-05,-2.198074285954069e-05,-1.2700375466544585e-05,5.9286,3.3571
3.3046875,-1.7578850576028068e-05,-3.857449034561683e-05,-2.5394808921950086e-05,-4.297638262912946e-05,5.9286,3.3571
3.30859375,-2.3445151906614776e-05,-2.880887498435949e-05,-2.9788036063172332e-05,-5.371249392690927e-05,5.9286,3.3571
3.3125,-1.318562343480582e-05,-3.760399440909436e-05,-4.151197358205537e-05,-3.2231606189059266e-05,5.9286,3.3571
3.31640625,-2.3445151906614776e-05,-5.517690297398335e-05,-4.7369609770351704e-05,-2.588005689021133e-05,5.9286,3.3571
3.3203125,-4.639044869153886e-05,-9.520986035553519e-05,-6.397202239871823e-05,-3.91392118410009e-06,5.9286,3.3571
3.32421875,-5.029842786449987e-05,-0.00010838954177920194,-7.762828664835582e-05,1.3182404554818048e-05,5.9286,3.3571
3.328125,-5.95701301152056e-05,-8.397983594720377e-05,-7.323505950713358e-05,9.759673350118262e-06,5.9286,3.3571
3.33203125,-5.420640703746088e-05,-8.885831105668725e-05,-7.812219975890744e-05,2.098969775844969e-05,5.9286,3.3571
3.3359375,-4.541128761272601e-05,-9.276629022964826e-05,-7.90926956954299e-05,3.173447419851989e-05,5.9286,3.3571
3.33984375,-4.639044869153886e-05,-8.544424499427785e-05,-9.472461238727396e-05,3.90565194338903e-05,5.9286,3.3571
3.34375,-8.935222416723886e-05,-9.326020334019987e-05,-0.000124021458471046,1.7575631696040288e-05,5.9286,3.3571
3.34765625,-0.00010106749654383152,-7.958660880598152e-05,-0.0001274355245334554,3.0755313119707035e-05,5.9286,3.3571
3.3515625,-7.128540249179827e-05,-0.00010106749654383152,-0.00010790429381094071,7.909814195773251e-05,5.9286,3.3571
3.35546875,-5.664131202105744e-05,-0.00013036434262760354,-0.00013427232180056455,8.984291839780271e-05,5.9286,3.3571
3.359375,-4.541128761272601e-05,-0.00013915946205233842,-0.0001352514828793774,9.716496363317313e-05,5.9286,3.3571
3.36328125,-3.2231606189059266e-05,-0.00013818030097352557,-0.00013378707383230335,9.374223242847336e-05,5.9286,3.3571
3.3671875,-5.664131202105744e-05,-9.520986035553519e-05,-0.0001743139443244068,7.128218361181049e-05,5.9286,3.3571
3.37109375,-7.080015452353703e-05,-0.00010449022774853131,-0.00015575320953841457,7.031168767528802e-05,5.9286,3.3571
3.375,-6.494251833524068e-05,-0.0001352514828793774,-0.0001435526891935607,5.956691123521784e-05,5.9286,3.3571
3.37890625,-5.0783675832761104e-05,-0.00015575320953841457,-0.00014989557335011824,3.808602349736783e-05,5.9286,3.3571
3.3828125,-3.2231606189059266e-05,-0.00017577835337148086,-0.00014892507741359577,3.3198883245593976e-05,5.9286,3.3571
3.38671875,-1.0742053308918884e-05,-0.00014159436703593497,-0.00013378707383230335,2.5382924899671948e-05,5.9286,3.3571
3.390625,3.710686241855498e-05,-0.00011522633904631112,-0.00012841468561226825,1.6111222648966218e-05,5.9286,3.3571
3.39453125,2.880565610437172e-05,-0.0001259711154863813,-0.00013622197881589987,1.0738834428931112e-05,5.9286,3.3571
3.3984375,1.4584670359350156e-06,-0.00013085825573815518,-0.00011913431821927213,1.1717995507743964e-05,5.9286,3.3571
3.40234375,-8.307148325322338e-06,-0.00012450670643930723,-0.0001313435037064164,5.851694177157256e-06,5.9286,3.3571
3.40625,-2.7344465937285405e-05,-8.397983594720377e-05,-0.00011962823132982375,-1.5143945592431513e-05,5.9286,3.3571
3.41015625,-2.5394808921950086e-05,-5.2741997990386805e-05,-0.00010692513273212784,-3.516042428320743e-05,5.9286,3.3571
3.4140625,9.274425381857029e-06,-4.639044869153886e-05,-0.00010106749654383152,-4.101806047150376e-05,5.9286,3.3571
3.41796875,3.5642453371480896e-05,-2.0022420701914995e-05,-5.762047309987028e-05,-5.0783675832761104e-05,5.9286,3.3571
3.421875,1.9040040743114375e-05,-1.6608354639505592e-05,-4.883401881742578e-05,-5.9084882146944365e-05,5.9286,3.3571
3.42578125,-5.863578199435409e-06,-4.399169152361324e-06,-6.836524953994047e-05,-6.397202239871823e-05,5.9286,3.3571
3.4296875,7.316103224231341e-06,5.956691123521784e-05,-2.5394808921950086e-05,-7.665779071183335e-05,5.9286,3.3571
3.43359375,1.1717995507743964e-05,6.933252659647519e-05,1.3667652523079283e-05,-6.982965858701457e-05,5.9286,3.3571
3.4375,-1.318562343480582e-05,4.442890765392539e-05,1.9523801464866182e-06,-6.690084049286639e-05,5.9286,3.3571
3.44140625,-3.369601523613335e-05,6.103132028229191e-05,2.148361086900131e-05,-7.17706504600595e-05,5.9286,3.3571
3.4453125,-2.4415647843137242e-05,6.688895647058825e-05,3.2219722166781125e-05,-6.933574547646295e-05,5.9286,3.3571
3.44921875,-1.955599026474388e-06,9.374223242847336e-05,3.710686241855498e-05,-7.616387760128173e-05,5.9286,3.3571
3.453125,1.855479277485314e-05,9.765021160143436e-05,8.789177413595794e-06,-8.592949296253909e-05,5.9286,3.3571
3.45703125,1.855479277485314e-05,5.761725421988251e-05,4.881198240634788e-06,-7.323505950713358e-05,5.9286,3.3571
3.4609375,4.879710994125332e-07,4.2479250638590074e-05,4.150008955977724e-05,-5.762047309987028e-05,5.9286,3.3571
3.46484375,-2.198074285954069e-05,5.8102502188143745e-05,2.1968858837262545e-05,-8.056576988479437e-05,5.9286,3.3571
3.46875,-2.5394808921950086e-05,6.884727862821395e-05,3.0755313119707035e-05,-8.935222416723886e-05,5.9286,3.3571
3.47265625,-1.8072763686579675e-05,7.861289398947128e-05,2.0019201821927225e-05,-6.397202239871823e-05,5.9286,3.3571
3.4765625,-2.4909560953688853e-05,9.032816636606394e-05,1.659647061722745e-05,-6.494251833524068e-05,5.9286,3.3571
3.48046875,-2.4415647843137242e-05,8.349136909895477e-05,7.421100170595866e-05,-6.54364314457923e-05,5.9286,3.3571
3.484375,-3.418126320439458e-05,5.126570492103457e-05,8.739934827191578e-05,-5.420640703746088e-05,5.9286,3.3571
3.48828125,-4.297638262912946e-05,6.103132028229191e-05,5.8102502188143745e-05,-6.054929119401845e-05,5.9286,3.3571
3.4921875,-1.318562343480582e-05,7.128218361181049e-05,5.37092750469215e-05,-6.592167941405354e-05,5.9286,3.3571
3.49609375,-1.855801165484091e-05,5.5173684093995585e-05,4.7357725748073564e-05,-5.5670816084534965e-05,5.9286,3.3571
3.5,-3.760399440909436e-05,3.271363527733274e-05,2.0504449790188458e-05,-5.224808487983519e-05,5.9286,3.3571
3.50390625,-2.148682974898908e-05,1.56173095384146e-05,3.271363527733274e-05,-5.95701301152056e-05,5.9286,3.3571
3.5078125,-1.025680534065765e-05,4.491415562218662e-05,4.6872477779812324e-05,-5.95701301152056e-05,5.9286,3.3571
3.51171875,-1.7578850576028068e-05,0.00012303907851224537,3.612770133974213e-05,-5.95701301152056e-05,5.9286,3.3571
3.515625,-1.9043259623102145e-05,0.00012206858257572289,3.271363527733274e-05,-6.15284522728313e-05,5.9286,3.3571
3.51953125,-3.2231606189059266e-05,3.4663292292668046e-05,3.759211038681621e-05,-5.61560640527962e-05,5.9286,3.3571
3.5234375,-3.9068403456168444e-05,3.2219722166781125e-05,2.6847333946746018e-05,-5.1762836911573955e-05,5.9286,3.3571
3.52734375,-8.792396293583571e-06,6.103132028229191e-05,4.394365968566416e-05,-5.029842786449987e-05,5.9286,3.3571
3.53125,-6.348826167696635e-06,7.909814195773251e-05,6.201048136110476e-05,-3.46751763149462e-05,5.9286,3.3571
3.53515625,-2.0507668670176228e-05,5.273011396810865e-05,-3.2716854157320506e-05,-4.151197358205537e-05,5.9286,3.3571
3.5390625,-5.863578199435409e-06,4.98012958739605e-05,-3.9553651424429677e-05,-6.15284522728313e-05,5.9286,3.3571
3.54296875,-3.91392118410009e-06,6.933252659647519e-05,3.0270065151445806e-05,-5.029842786449987e-05,5.9286,3.3571
3.546875,-3.418126320439458e-05,3.417804432440681e-05,2.8320408136110486e-05,-2.8323627016098256e-05,5.9286,3.3571
3.55078125,-4.7369609770351704e-05,1.9040040743114375e-05,4.344974657511254e-05,-3.6624833330281516e-05,5.9286,3.3571
3.5546875,-4.248246951857784e-05,2.441242896314948e-05,4.1014841591516004e-05,-5.1762836911573955e-05,5.9286,3.3571
3.55859375,-3.516042428320743e-05,3.3198883245593976e-05,4.8336886826886414e-05,-4.492603964446478e-05,5.9286,3.3571
3.5625,-1.955599026474388e-06,4.150008955977724e-05,3.368413121385521e-05,-4.492603964446478e-05,5.9286,3.3571
3.56640625,9.274425381857029e-06,5.17509528892958e-05,-1.709360260776683e-05,-5.420640703746088e-05,5.9286,3.3571
3.5703125,-2.5394808921950086e-05,6.0052159203479074e-05,-2.449512137026005e-06,-4.541128761272601e-05,5.9286,3.3571
3.57421875,-2.93027880949111e-05,7.470491481651026e-05,2.2948019916075395e-05,-3.076719714198518e-05,5.9286,3.3571
3.578125,-1.2215127498283343e-05,5.956691123521784e-05,5.366446208896022e-06,-2.7344465937285405e-05,5.9286,3.3571
3.58203125,-2.148682974898908e-05,2.098969775844969e-05,2.9228760830090863e-06,-4.6875696659800094e-05,5.9286,3.3571
3.5859375,-1.9537172733653762e-05,-1.5629193560692748e-05,-1.955599026474388e-06,-4.785485773861294e-05,5.9286,3.3571
3.58984375,-1.4703510582131542e-06,-9.771557372396415e-06,-1.9537172733653762e-05,-4.7369609770351704e-05,5.9286,3.3571
3.59375,-5.3783302311741744e-06,7.616932386358437e-05,5.851694177157256e-06,-4.394687856565193e-05,5.9286,3.3571
3.59765625,2.437628114747852e-06,5.956691123521784e-05,2.437628114747852e-06,-2.880887498435949e-05,5.9286,3.3571
3.6015625,-9.771557372396415e-06,4.387285130083171e-06,-4.931926678568702e-05,-2.6373970000762936e-05,5.9286,3.3571
3.60546875,-3.9553651424429677e-05,2.2948019916075395e-05,-2.3445151906614776e-05,-3.418126320439458e-05,5.9286,3.3571
3.609375,-4.248246951857784e-05,4.150008955977724e-05,-2.934760105287239e-06,-3.2716854157320506e-05,5.9286,3.3571
3.61328125,-2.6373970000762936e-05,3.857127146562906e-05,-9.771557372396415e-06,-3.418126320439458e-05,5.9286,3.3571
3.6171875,-1.2700375466544585e-05,6.835336551766232e-05,9.732190676737815e-07,-4.199722155031661e-05,5.9286,3.3571
3.62109375,2.148361086900131e-05,1.659647061722745e-05,9.732190676737815e-07,-4.639044869153886e-05,5.9286,3.3571
3.625,8.295264303044192e-06,-4.199722155031661e-05,-3.076719714198518e-05,-2.4909560953688853e-05,5.9286,3.3571
3.62890625,-3.516042428320743e-05,5.712334110933091e-05,-3.857449034561683e-05,-2.0507668670176228e-05,5.9286,3.3571
3.6328125,-2.9788036063172332e-05,7.128218361181049e-05,-1.611444152895398e-05,-2.393039987487601e-05,5.9286,3.3571
3.63671875,-3.857449034561683e-05,6.054607231403068e-05,2.1968858837262545e-05,4.879710994125332e-07,5.9286,3.3571
3.640625,-3.369601523613335e-05,2.8320408136110486e-05,2.0504449790188458e-05,-1.318562343480582e-05,5.9286,3.3571
3.64453125,-3.6624833330281516e-05,-2.4415647843137242e-05,-1.2215127498283343e-05,-1.8072763686579675e-05,5.9286,3.3571
3.6484375,-2.4415647843137242e-05,3.808602349736783e-05,2.6847333946746018e-05,-1.709360260776683e-05,5.9286,3.3571
3.65234375,-2.6859217969024172e-05,4.882213479514765e-05,2.6362085978484785e-05,-2.100158178072784e-05,5.9286,3.3571
3.65625,-6.54364314457923e-05,2.8320408136110486e-05,1.6111222648966218e-05,-9.277644261844806e-06,5.9286,3.3571
3.66015625,-8.495899702601662e-05,3.0755313119707035e-05,1.3667652523079283e-05,-5.3783302311741744e-06,5.9286,3.3571
3.6640625,-7.714303868009459e-05,5.908166326695661e-05,3.173447419851989e-05,-1.6608354639505592e-05,5.9286,3.3571
3.66796875,-5.224808487983519e-05,4.7851638858625174e-05,3.271363527733274e-05,-2.393039987487601e-05,5.9286,3.3571
3.671875,-5.859963417868313e-05,3.4663292292668046e-05,-4.911899794003033e-07,-2.4909560953688853e-05,5.9286,3.3571
3.67578125,-9.179579429312579e-05,0.00011621094638742658,2.098969775844969e-05,-7.327987246509487e-06,5.9286,3.3571
3.6796875,-3.321076726787211e-05,6.786811754940109e-05,8.295264303044192e-06,-1.5629193560692748e-05,5.9286,3.3571
3.68359375,4.879710994125332e-07,7.316103224231341e-06,-3.516042428320743e-05,-3.076719714198518e-05,5.9286,3.3571
3.6875,-5.713522513160904e-05,9.179257541313801e-05,-6.842739278248253e-06,-2.588005689021133e-05,5.9286,3.3571
3.69140625,-9.37454513084611e-05,0.00012890537984283206,2.6362085978484785e-05,-9.771557372396415e-06,5.9286,3.3571
3.6953125,-6.201370024109253e-05,9.716496363317313e-05,9.759673350118262e-06,-2.5394808921950086e-05,5.9286,3.3571
3.69921875,-9.033138524605172e-05,0.00011083855816739148,1.2203243476005197e-05,-2.198074285954069e-05,5.9286,3.3571
3.703125,-8.203017893186844e-05,6.590979539177539e-05,3.416789193560703e-06,-1.4703510582131542e-06,5.9286,3.3571
3.70703125,-3.516042428320743e-05,1.8060879664301524e-05,-3.711008129854275e-05,-2.8323627016098256e-05,5.9286,3.3571
3.7109375,-5.322724595864804e-05,6.151656825055315e-05,2.978481718318457e-05,-2.880887498435949e-05,5.9286,3.3571
3.71484375,-2.393039987487601e-05,6.298097729762722e-05,5.761725421988251e-05,-1.6608354639505592e-05,5.9286,3.3571
3.71875,-2.0507668670176228e-05,-3.321076726787211e-05,-6.445727036697945e-05,7.316103224231341e-06,5.9286,3.3571
3.72265625,-4.639044869153886e-05,-1.855801165484091e-05,-2.7838379047837023e-05,-2.295123879606316e-05,5.9286,3.3571
3.7265625,-3.418126320439458e-05,4.882213479514765e-05,2.7341247057297635e-05,-4.6875696659800094e-05,5.9286,3.3571
3.73046875,-3.2231606189059266e-05,3.2219722166781125e-05,-2.198074285954069e-05,-2.148682974898908e-05,5.9286,3.3571
3.734375,-9.771557372396415e-06,-6.842739278248253e-06,-2.6373970000762936e-05,-2.7344465937285405e-05,5.9286,3.3571
3.73828125,-6.054929119401845e-05,-2.449512137026005e-06,4.387285130083171e-06,-3.6624833330281516e-05,5.9286,3.3571
3.7421875,-0.00010156140965438314,3.3198883245593976e-05,1.3182404554818048e-05,-6.348826167696635e-06,5.9286,3.3571
3.74609375,-1.6608354639505592e-05,1.3182404554818048e-05,-7.469946855420766e-05,-1.9537172733653762e-05,5.9286,3.3571
3.75,4.387285130083171e-06,3.857127146562906e-05,-2.0022420701914995e-05,-2.880887498435949e-05,5.9286,3.3571
3.75390625,-4.6875696659800094e-05,5.908166326695661e-05,5.858775015640498e-05,-2.449512137026005e-06,5.9286,3.3571
3.7578125,-4.883401881742578e-05,7.519016278477149e-05,2.5382924899671948e-05,-8.307148325322338e-06,5.9286,3.3571
3.76171875,-6.201370024109253e-05,6.054607231403068e-05,-4.151197358205537e-05,-2.449512137026005e-06,5.9286,3.3571
3.765625,-5.762047309987028e-05,1.5132061570153368e-05,-2.6859217969024172e-05,-1.9537172733653762e-05,5.9286,3.3571
3.76953125,-6.15284522728313e-05,4.198533752803847e-05,3.514854026092928e-05,3.902037161821937e-06,5.9286,3.3571
3.7734375,-2.295123879606316e-05,3.661294930800336e-05,-1.1721214387731734e-05,-2.3445151906614776e-05,5.9286,3.3571
3.77734375,-3.420008073548473e-06,-7.327987246509487e-06,-3.9553651424429677e-05,-4.931926678568702e-05,5.9286,3.3571
3.78125,-7.372897261768519e-05,2.5382924899671948e-05,2.0019201821927225e-05,1.6111222648966218e-05,5.9286,3.3571
3.78515625,-4.639044869153886e-05,4.2479250638590074e-05,3.173447419851989e-05,4.881198240634788e-06,5.9286,3.3571
3.7890625,1.5132061570153368e-05,-4.399169152361324e-06,-2.2465990827801922e-05,-5.517690297398335e-05,5.9286,3.3571
3.79296875,1.0738834428931112e-05,-3.46751763149462e-05,-9.667426940260927e-05,-6.933574547646295e-05,5.9286,3.3571
3.796875,-4.492603964446478e-05,4.882213479514765e-05,-6.15284522728313e-05,-1.5143945592431513e-05,5.9286,3.3571
3.80078125,-3.516042428320743e-05,2.391851585259786e-05,-9.771557372396415e-06,2.098969775844969e-05,5.9286,3.3571
3.8046875,-5.664131202105744e-05,-3.516042428320743e-05,-3.6624833330281516e-05,-1.2700375466544585e-05,5.9286,3.3571
3.80859375,-5.810572106813152e-05,1.9040040743114375e-05,-3.6139585362020283e-05,-6.250761335164415e-05,5.9286,3.3571
3.8125,-4.0038899392690916e-05,6.345607287708872e-06,-2.2465990827801922e-05,-4.053281250324252e-05,5.9286,3.3571
3.81640625,-3.0273284031433576e-05,-4.931926678568702e-05,-3.369601523613335e-05,-1.6608354639505592e-05,5.9286,3.3571
3.8203125,-5.0783675832761104e-05,-3.2716854157320506e-05,-4.834010570687418e-05,-7.81323521477072e-06,5.9286,3.3571
3.82421875,-2.7344465937285405e-05,-2.5394808921950086e-05,-3.6624833330281516e-05,-2.2465990827801922e-05,5.9286,3.3571
3.828125,2.782649502555887e-05,-1.5143945592431513e-05,-1.5143945592431513e-05,-2.588005689021133e-05,5.9286,3.3571
3.83203125,-5.859963417868313e-05,2.782649502555887e-05,-2.4415647843137242e-05,-8.307148325322338e-06,5.9286,3.3571
3.8359375,-4.541128761272601e-05,4.387285130083171e-06,-1.4164784513618663e-05,-2.4909560953688853e-05,5.9286,3.3571
3.83984375,6.830855255970107e-06,-2.6373970000762936e-05,-4.053281250324252e-05,4.387285130083171e-06,5.9286,3.3571
3.84375,-6.494251833524068e-05,6.830855255970107e-06,-2.7344465937285405e-05,-2.0022420701914995e-05,5.9286,3.3571
3.84765625,-4.101806047150376e-05,4.879710994125332e-07,2.9228760830090863e-06,-9.130188118257419e-05,5.9286,3.3571
3.8515625,-4.639044869153886e-05,8.295264303044192e-06,-5.863578199435409e-06,-5.95701301152056e-05,5.9286,3.3571
3.85546875,-6.347810928816662e-05,-4.053281250324252e-05,-4.399169152361324e-06,-2.295123879606316e-05,5.9286,3.3571
3.859375,-4.785485773861294e-05,-0.00010253190559090561,-5.224808487983519e-05,-1.4703510582131542e-06,5.9286,3.3571
3.86328125,-4.0038899392690916e-05,-9.423069927672234e-05,-5.420640703746088e-05,-1.611444152895398e-05,5.9286,3.3571
3.8671875,-2.6859217969024172e-05,-2.588005689021133e-05,-1.5143945592431513e-05,-4.101806047150376e-05,5.9286,3.3571
3.87109375,-1.3679536545357428e-05,-5.859963417868313e-05,-1.9537172733653762e-05,-4.7369609770351704e-05,5.9286,3.3571
3.875,-4.785485773861294e-05,-7.56786296330205e-05,1.4152900491340517e-05,-1.12359664194705e-05,5.9286,3.3571
3.87890625,-3.321076726787211e-05,-0.00010888345488975354,-6.982965858701457e-05,1.9040040743114375e-05,5.9286,3.3571
3.8828125,-3.2231606189059266e-05,-0.00011962823132982375,-8.788781512016479e-05,-2.6859217969024172e-05,5.9286,3.3571
3.88671875,-5.0783675832761104e-05,-3.1252445110246416e-05,5.858775015640498e-05,-3.369601523613335e-05,5.9286,3.3571
3.890625,-1.4703510582131542e-06,-1.709360260776683e-05,5.126570492103457e-05,-4.394687856565193e-05,5.9286,3.3571
3.89453125,1.8060879664301524e-05,-0.00012304229739223315,-5.517690297398335e-05,-8.397983594720377e-05,5.9286,3.3571
3.8984375,-6.640692738231477e-05,-0.00014257352811474782,-6.592167941405354e-05,-4.492603964446478e-05,5.9286,3.3571
3.90234375,-8.788781512016479e-05,-0.000149410325381857,-2.295123879606316e-05,-3.46751763149462e-05,5.9286,3.3571
3.90625,5.851694177157256e-06,-0.0002211836989730678,-4.834010570687418e-05,-4.0038899392690916e-05,5.9286,3.3571
3.91015625,-2.6373970000762936e-05,-0.00011815515714045928,-3.91392118410009e-06,-1.611444152895398e-05,5.9286,3.3571
3.9140625,-6.445727036697945e-05,-4.883401881742578e-05,-1.12359664194705e-05,-4.151197358205537e-05,5.9286,3.3571
3.91796875,-5.4691655005722115e-05,-9.326020334019987e-05,-1.7578850576028068e-05,-5.517690297398335e-05,5.9286,3.3571
3.921875,-3.80892423773556e-05,-0.0001420882801464866,-0.00010302581870145722,-1.611444152895398e-05,5.9286,3.3571
3.92578125,-1.8072763686579675e-05,-9.520986035553519e-05,-6.250761335164415e-05,-4.7369609770351704e-05,5.9286,3.3571
3.9296875,4.879710994125332e-07,-9.37454513084611e-05,-9.771557372396415e-06,-7.080015452353703e-05,5.9286,3.3571
3.93359375,-2.198074285954069e-05,-0.00010838954177920194,-5.0783675832761104e-05,-1.611444152895398e-05,5.9286,3.3571
3.9375,-4.199722155031661e-05,-0.00012011347929808498,3.2219722166781125e-05,-4.399169152361324e-06,5.9286,3.3571
3.94140625,-6.842739278248253e-06,-0.00018505005562218662,-2.7344465937285405e-05,1.3667652523079283e-05,5.9286,3.3571
3.9453125,-7.327987246509487e-06,-0.00014989557335011824,-7.519338166475927e-05,-9.277644261844806e-06,5.9286,3.3571
3.94921875,-5.371249392690927e-05,-0.00011132702501564048,-3.80892423773556e-05,-5.2741997990386805e-05,5.9286,3.3571
3.953125,-5.713522513160904e-05,-0.00011766990917219805,-2.393039987487601e-05,-2.393039987487601e-05,5.9286,3.3571
3.95703125,-2.6373970000762936e-05,-0.0001547827136018921,4.387285130083171e-06,-4.639044869153886e-05,5.9286,3.3571
3.9609375,-3.857449034561683e-05,-0.000210447587675288,-6.347810928816662e-05,-3.418126320439458e-05,5.9286,3.3571
3.96484375,-0.00010204665762264437,-0.00015869069277485312,-7.958660880598152e-05,1.659647061722745e-05,5.9286,3.3571
3.96875,-7.274981153887235e-05,-7.469946855420766e-05,-1.2215127498283343e-05,-3.711008129854275e-05,5.9286,3.3571
3.97265625,5.851694177157256e-06,-0.00015331830455481802,-3.321076726787211e-05,-4.297638262912946e-05,5.9286,3.3571
3.9765625,-2.148682974898908e-05,-0.00013866554894178683,-7.17706504600595e-05,-3.46751763149462e-05,5.9286,3.3571
3.98046875,-3.2716854157320506e-05,-0.0001508747344289311,-2.148682974898908e-05,-6.104320430457007e-05,5.9286,3.3571
3.984375,-3.2231606189059266e-05,-0.0002270500003036545,-7.421422058594643e-05,-7.327987246509487e-06,5.9286,3.3571
3.98828125,-5.713522513160904e-05,-0.00013182875167467765,-4.4440791676203544e-05,-4.785485773861294e-05,5.9286,3.3571
3.9921875,-3.6139585362020283e-05,-0.0001313435037064164,4.2479250638590074e-05,-5.420640703746088e-05,5.9286,3.3571
3.99609375,-2.449512137026005e-06,-0.00018895803479514761,-3.076719714198518e-05,-1.7578850576028068e-05,5.9286,3.3571
4.0,-2.0022420701914995e-05,-0.00022069845100480657,-6.397202239871823e-05,-2.3445151906614776e-05,5.9286,3.3571
4.00390625,-4.834010570687418e-05,-0.00019384517504692148,-1.318562343480582e-05,-1.4650032481879896e-05,5.9286,3.3571
4.0078125,-6.787133642938887e-05,-0.00014598759417715722,-3.2716854157320506e-05,9.759673350118262e-06,5.9286,3.3571
4.01171875,-6.15284522728313e-05,-0.0001977531542198825,-8.056576988479437e-05,-1.318562343480582e-05,5.9286,3.3571
