timestamp,TP9,AF7,AF8,TP10,Valence,Arousal
0.0,4.053429604486153e-05,4.49224555321584e-05,0.0001718499687022202,-9.271314135957865e-06,3.2667,5.3333
0.00390625,6.006160576333258e-05,4.640345935912109e-05,0.0001821072915037766,-1.2205895793087649e-05,3.2667,5.3333
0.0078125,8.496441085374228e-05,2.394156798352027e-05,0.00015281632692607005,-8.777646193636968e-06,3.2667,5.3333
0.01171875,0.00010010356108491646,2.9317063355458924e-05,0.00016600823138475623,6.361504037537201e-06,3.2667,5.3333
0.015625,0.00013671726680704966,4.7857037189288174e-05,0.0001865228769878691,9.860086655985469e-07,3.2667,5.3333
0.01953125,0.00017626555418631267,-1.948572991531236e-06,0.0001362235988647288,-6.336732478828097e-06,3.2667,5.3333
0.0234375,0.00022363025065232317,-1.85413010528725e-05,0.00011814986697642481,2.4670124925612384e-06,3.2667,5.3333
0.02734375,0.00025780304265964754,2.0513318384069592e-05,0.00015525724064087892,8.30874981002519e-06,3.2667,5.3333
0.03125,0.0002954040842664225,6.361504037537201e-06,0.00013962442246738383,8.30874981002519e-06,3.2667,5.3333
0.03515625,0.0003461696043350881,-2.5370374254978244e-05,0.00012547260812085148,2.9332544380865355e-06,3.2667,5.3333
0.0390625,0.0004140489464042115,-1.3165805680933842e-05,0.0001459872537239643,-3.895818764019211e-06,3.2667,5.3333
0.04296875,0.000497067438704509,2.4928903868162065e-05,0.00016208631384298467,-2.9084828793774163e-06,3.2667,5.3333
0.046875,0.0005575966136324102,3.469255872739758e-05,0.0001723436366445411,-1.948572991531236e-06,3.2667,5.3333
0.05078125,0.0006166722107301442,3.419889078507668e-05,0.0001694090549874113,-1.948572991531236e-06,3.2667,5.3333
0.0546875,0.0006933552977706569,5.0297950904097064e-05,0.0001694090549874113,-5.843064536507199e-06,3.2667,5.3333
0.05859375,0.0007700109588143739,4.2015299871824234e-05,0.0001723436366445411,-1.85413010528725e-05,3.2667,5.3333
0.0625,0.000832981047457084,3.027697324330512e-05,0.00015624457652552073,-2.441046436713205e-05,3.2667,5.3333
0.06640625,0.0008745040066056306,8.802417752346087e-06,0.00015182899104142824,-1.7553965168230704e-05,3.2667,5.3333
0.0703125,0.0009233222809018082,3.027697324330512e-05,0.0001845482052185855,-7.790310308995174e-06,3.2667,5.3333
0.07421875,0.0009638579041657129,9.083357416800184e-05,0.00018260095944609751,-4.389486706340107e-06,3.2667,5.3333
0.078125,0.0009858261275989928,9.57154015976196e-05,0.00017966637778896774,-9.61237106889442e-07,3.2667,5.3333
0.08203125,0.0009995117,7.717542776379035e-05,0.00019335195018997482,5.374168152895408e-06,3.2667,5.3333
0.0859375,0.000999018032057679,6.787801485008011e-05,0.0001962865318471046,-4.389486706340107e-06,3.2667,5.3333
0.08984375,0.0009980306961730372,5.9101695875486387e-05,0.0001957928639047837,-8.777646193636968e-06,3.2667,5.3333
0.09375,0.0009960834504005494,5.7154450102998406e-05,0.00018943003264820327,-4.389486706340107e-06,3.2667,5.3333
0.09765625,0.0009858261275989928,5.76206920485237e-05,0.00017722546407415886,-6.336732478828097e-06,3.2667,5.3333
0.1015625,0.0009574950729091326,5.6167114218356615e-05,0.0001860292090455482,-7.296642366674277e-06,3.2667,5.3333
0.10546875,0.0009433432585626001,8.740532456855116e-05,0.0001957928639047837,-5.843064536507199e-06,3.2667,5.3333
0.109375,0.0009179467855298696,9.182091005264363e-05,0.0001957928639047837,4.923407232776497e-07,3.2667,5.3333
0.11328125,0.0008735166707209888,9.960989314259557e-05,0.00021581384156557567,2.6098777752352474e-08,3.2667,5.3333
0.1171875,0.0008486138656305791,0.00010449172057221333,0.00021921466516823074,-3.4021508216983135e-06,3.2667,5.3333
0.12109375,0.000831033801684596,9.182091005264363e-05,0.0001977401096772717,2.9332544380865355e-06,3.2667,5.3333
0.125,0.0008139474056809339,8.30171650812543e-05,0.00014549358578164342,4.923407232776497e-07,3.2667,5.3333
0.12890625,0.0007763463640741588,8.545807879606319e-05,0.0001718499687022202,-1.454905049210339e-06,3.2667,5.3333
0.1328125,0.0007329035851499199,8.693908262302588e-05,0.00020799743247882808,1.973344550240341e-06,3.2667,5.3333
0.13671875,0.0007294753355504692,0.0001088798800595102,0.00016894281304188604,-1.454905049210339e-06,3.2667,5.3333
0.140625,0.0007036126205722134,0.00012303169440604258,0.00015182899104142824,-3.895818764019211e-06,3.2667,5.3333
0.14453125,0.0006562479241062028,0.00013378268514991989,0.00015525724064087892,-6.336732478828097e-06,3.2667,5.3333
0.1484375,0.0006201004603295948,0.00010059722902723736,0.00014694716361181046,-1.7087723222705404e-05,3.2667,5.3333
0.15234375,0.0005868875782101167,6.447719124742505e-05,0.0001073988762325475,2.6098777752352474e-08,3.2667,5.3333
0.15625,0.0005722420959212634,0.0001073988762325475,0.00010937354800183109,1.1243331467154973e-05,3.2667,5.3333
0.16015625,0.0005380693039139391,0.00014549358578164342,0.00013671726680704966,5.374168152895408e-06,3.2667,5.3333
0.1640625,0.0005082846713939116,9.914365119707028e-05,0.0001303544355504692,2.004707643854431e-05,3.2667,5.3333
0.16796875,0.00046873638401464867,5.567344627603572e-05,0.00012596627606317236,3.515880067292288e-05,3.2667,5.3333
0.171875,0.00044528715675440605,2.8329727470817133e-05,9.083357416800184e-05,3.515880067292288e-05,3.2667,5.3333
0.17578125,0.00044333991098191805,2.687614964065004e-05,7.473451404898147e-05,3.515880067292288e-05,3.2667,5.3333
0.1796875,0.0004150362822888533,8.449816890821699e-05,8.740532456855116e-05,3.809338233005266e-05,3.2667,5.3333
0.18359375,0.0004125953685740444,0.00011864353491874573,7.912267353627834e-05,2.3447900041199374e-05,3.2667,5.3333
0.1875,0.0004272408508628977,4.248154181734952e-05,2.7369817582970937e-05,1.467158106660564e-05,3.2667,5.3333
0.19140625,0.0004365108377798123,-4.687235574273287e-05,-1.1218559908445854e-05,2.1500654268711387e-05,3.2667,5.3333
0.1953125,0.00041454261434653236,-4.443144202792399e-05,-3.074586962691691e-05,2.5888813756008246e-05,3.2667,5.3333
0.19921875,0.0004247999371480888,-3.269311539940489e-05,-6.247774791943234e-05,1.4177913124284742e-05,3.2667,5.3333
0.203125,0.0004340699240650035,-6.445241968871594e-05,-0.00011571160769970243,9.860086655985469e-07,3.2667,5.3333
0.20703125,0.00041648986011902036,-9.569063003891047e-05,-0.0001577008087937743,-6.8304004211489935e-06,3.2667,5.3333
0.2109375,0.0004301754325200275,-0.0001303570899885557,-0.000178709122339208,9.860086655985469e-07,3.2667,5.3333
0.21484375,0.0004355235018951705,-0.000146949818049897,-0.00021776374177615013,4.414258265049227e-06,3.2667,5.3333
0.21875,0.0004565318154406043,-0.00015427255919432363,-0.00020067734577248797,-1.454905049210339e-06,3.2667,5.3333
0.22265625,0.0004531035658411536,-0.00019774276411535816,-0.00020213092360265504,1.6125158896772732e-05,3.2667,5.3333
0.2265625,0.00045409090172579536,-0.0001679581315953307,-0.00021532282806134128,1.1243331467154973e-05,3.2667,5.3333
0.23046875,0.0004760591251590753,-0.00016307630416571294,-0.0002275273966353857,4.414258265049227e-06,3.2667,5.3333
0.234375,0.00046923005195696955,-0.0001909136909132524,-0.0002504829559533074,4.414258265049227e-06,3.2667,5.3333
0.23828125,0.0004809409525886931,-0.00013817349907530325,-0.0002475483742961776,-1.454905049210339e-06,3.2667,5.3333
0.2421875,0.000499014684476997,-0.00015183164547951473,-0.0002538837795559625,-2.9084828793774163e-06,3.2667,5.3333
0.24609375,0.000500961930249485,-0.0001454962402197299,-0.00020067734577248797,-1.023122402380406e-05,3.2667,5.3333
0.25,0.0004950927669352254,-9.130247055161363e-05,-0.0001577008087937743,-1.80476331105516e-05,3.2667,5.3333
0.25390625,0.00048777002579079886,-9.763787581139849e-05,-0.00019042002297093154,-2.3916796424811153e-05,3.2667,5.3333
0.2578125,0.0004887573616754406,-4.8819601515220853e-05,-0.0001577008087937743,-3.464036117189286e-05,3.2667,5.3333
0.26171875,0.0004785000388738842,-2.9758533742275118e-05,-0.00012596893050125885,-3.9549614598306245e-05,3.2667,5.3333
0.265625,0.00046774904813000687,-5.515500677500572e-05,-0.00015281898136415654,-2.292946054016936e-05,3.2667,5.3333
0.26953125,0.0004726308755596246,-2.098221476768138e-05,-0.00011472427181506062,-2.9292291796749822e-05,3.2667,5.3333
0.2734375,0.00046923005195696955,-2.414814937056519e-06,-8.20050576379034e-05,-4.7832265630579055e-05,3.2667,5.3333
0.27734375,0.0004535972337834745,-4.389486706340107e-06,-4.733859768825817e-05,-4.199052831311511e-05,3.2667,5.3333
0.28125,0.0004365108377798123,8.449816890821699e-05,1.2230667351796767e-05,-4.34441061432822e-05,3.2667,5.3333
0.28515625,0.000439939087379263,0.00010399805262989243,1.955340849622341e-05,-3.9055946655985336e-05,3.2667,5.3333
0.2890625,0.0004277345188052186,7.764166970931564e-05,2.9317063355458924e-05,-3.5627697056534655e-05,3.2667,5.3333
0.29296875,0.0004272408508628977,8.789899251087206e-05,1.3190577239642948e-05,-5.222042511787592e-05,3.2667,5.3333
0.296875,0.0004096607869169146,8.644541468070498e-05,2.687614964065004e-05,-5.663601060196839e-05,3.2667,5.3333
0.30078125,0.00036912516365300986,0.00014404000795147632,9.083357416800184e-05,-4.733859768825817e-05,3.2667,5.3333
0.3046875,0.0003491041859922179,0.00015182899104142824,9.67027374822614e-05,-4.832593357289997e-05,3.2667,5.3333
0.30859375,0.00034471602650492104,0.00012791352183566033,0.00011082712583199818,-4.832593357289997e-05,3.2667,5.3333
0.3125,0.0003495978539345388,0.00016650189932707713,0.0001362235988647288,-4.637868780041199e-05,3.2667,5.3333
0.31640625,0.00032858954038910505,0.00022118933693751432,0.00015182899104142824,-6.297141586175325e-05,3.2667,5.3333
0.3203125,0.0003066213169558251,0.0002465583839734493,0.0001845482052185855,-6.491866163424123e-05,3.2667,5.3333
0.32421875,0.0003012458215838865,0.00021581384156557567,0.00017283730458686198,-5.1754183172350646e-05,3.2667,5.3333
0.328125,0.0002934568384939346,0.00023240656962691692,0.00020799743247882808,-5.808958843213548e-05,3.2667,5.3333
0.33203125,0.0002773303523781186,0.0002455984740856031,0.00021825475528038451,-5.271409306019683e-05,3.2667,5.3333
0.3359375,0.00026317853803158617,0.0002597502884321355,0.0001982337776195926,-4.149686037079422e-05,3.2667,5.3333
0.33984375,0.0002626848700892653,0.0002612038662623026,0.00023141923374227512,-5.954316626230257e-05,3.2667,5.3333
0.34375,0.00022947198796978714,0.00021921466516823074,0.00023095299179674982,-4.34441061432822e-05,3.2667,5.3333
0.34765625,0.00023191290168459602,0.00028075860197756923,0.00026317853803158617,-3.5627697056534655e-05,3.2667,5.3333
0.3515625,0.0002240964925978485,0.00029197583466697186,0.0002870940072373541,-3.368045128404668e-05,3.2667,5.3333
0.35546875,0.00018114738161593044,0.000248039387800412,0.00025388112511787593,-2.731762002746623e-05,3.2667,5.3333
0.359375,0.00017478455035934996,0.00025388112511787593,0.00025437479306019686,-3.710870088349736e-05,3.2667,5.3333
0.36328125,0.00018698911893339436,0.0002636447799771115,0.000246092142027924,-2.8304955912108027e-05,3.2667,5.3333
0.3671875,0.00018260095944609751,0.00027831768826276035,0.00026317853803158617,-3.074586962691691e-05,3.2667,5.3333
0.37109375,0.0001679554771572442,0.00023827573294117648,0.0002929631705516136,-1.7553965168230704e-05,3.2667,5.3333
0.375,0.00013962442246738383,0.00022996565591210805,0.000287587675179675,-5.843064536507199e-06,3.2667,5.3333
0.37890625,0.00013718350875257496,0.0002636447799771115,0.0002724485249485008,-6.8304004211489935e-06,3.2667,5.3333
0.3828125,0.00015037541321126114,0.0002329002375692378,0.00026463211586175324,-9.764982078278763e-06,3.2667,5.3333
0.38671875,0.00012157811657587549,0.00021482650568093383,0.0002597502884321355,-1.948572991531236e-06,3.2667,5.3333
0.390625,8.740532456855116e-05,0.00020456918287937745,0.00024411747025864043,1.7578736726939823e-05,3.2667,5.3333
0.39453125,8.496441085374228e-05,0.00018992370059052414,0.00023386014745708402,1.6618826839093628e-05,3.2667,5.3333
0.3984375,9.327448788281073e-05,0.00019480552802014192,0.00023339390551155873,2.1006986326390488e-05,3.2667,5.3333
0.40234375,8.984623828336005e-05,0.0001757718862439918,0.00022508382848249027,3.1757977070267814e-05,3.2667,5.3333
0.40625,7.424084610666057e-05,0.00018896379070267795,0.00020701009659418633,2.882339541313803e-05,3.2667,5.3333
0.41015625,6.250251947814146e-05,0.00016894281304188604,0.00020945101030899518,3.419889078507668e-05,3.2667,5.3333
0.4140625,4.9831708958571765e-05,0.0001200971127489128,0.00022947198796978714,3.6639804499885566e-05,3.2667,5.3333
0.41796875,5.4219868445868634e-05,0.00012401903029068438,0.00021677375145342183,3.809338233005266e-05,3.2667,5.3333
0.421875,4.248154181734952e-05,0.00012253802646372167,0.0001855355411032273,5.0297950904097064e-05,3.2667,5.3333
0.42578125,3.7599714387731754e-05,0.00011521528531929505,0.000170890058814374,4.739079524376289e-05,3.2667,5.3333
0.4296875,3.858705027237355e-05,0.00011620262120393684,0.0001757718862439918,4.2975209759670416e-05,3.2667,5.3333
0.43359375,3.271788695811399e-05,0.00011326803954680706,0.00017917270984664683,4.933804101625087e-05,3.2667,5.3333
0.4375,2.4928903868162065e-05,0.00011425537543144885,0.00017527821830167086,6.104894164797437e-05,3.2667,5.3333
0.44140625,1.5137823012130937e-05,0.00012401903029068438,0.00017429088241702908,6.348985536278326e-05,3.2667,5.3333
0.4453125,1.5631490954451833e-05,0.00012939452566262304,0.00017821279995880064,5.959536381780729e-05,3.2667,5.3333
0.44921875,-2.414814937056519e-06,9.426182376745252e-05,0.00015330999486839095,6.398352330510415e-05,3.2667,5.3333
0.453125,3.92059032272833e-06,6.299618742046236e-05,0.0001205907806912337,6.398352330510415e-05,3.2667,5.3333
0.45703125,1.0255995582513178e-05,7.424084610666057e-05,0.0001357299309224079,6.642443701991303e-05,3.2667,5.3333
0.4609375,-4.855728651865405e-06,7.13062644495308e-05,0.00013866451257953767,6.787801485008011e-05,3.2667,5.3333
0.46484375,-4.675691645685447e-07,8.400450096589609e-05,0.00011765619903410394,6.154260959029528e-05,3.2667,5.3333
0.46875,-1.1218559908445854e-05,9.132724211032274e-05,0.00010983978994735639,6.299618742046236e-05,3.2667,5.3333
0.47265625,-9.764982078278763e-06,7.668175982146945e-05,0.0001073988762325475,6.203627753261618e-05,3.2667,5.3333
0.4765625,-1.4153141565575638e-05,6.691810496223393e-05,9.864998325474939e-05,6.203627753261618e-05,3.2667,5.3333
0.48046875,-2.3916796424811153e-05,5.1285286788738856e-05,8.156358725108723e-05,6.006160576333258e-05,3.2667,5.3333
0.484375,-2.147588271000228e-05,3.713347244220647e-05,4.884437307392997e-05,6.494343319295035e-05,3.2667,5.3333
0.48828125,-7.790310308995174e-06,3.515880067292288e-05,5.273886461890594e-05,7.08125965072099e-05,3.2667,5.3333
0.4921875,-1.454905049210339e-06,3.225164501258871e-05,8.789899251087206e-05,7.13062644495308e-05,3.2667,5.3333
0.49609375,-8.283978251316072e-06,5.76206920485237e-05,8.740532456855116e-05,6.886535073472192e-05,3.2667,5.3333
0.5,-2.9084828793774163e-06,6.787801485008011e-05,6.0555273705653484e-05,6.837168279240101e-05,3.2667,5.3333
0.50390625,-1.0724891966124956e-05,5.273886461890594e-05,4.1521631929503325e-05,7.17999323918517e-05,3.2667,5.3333
0.5078125,-1.659405528038451e-05,4.54161234744793e-05,6.006160576333258e-05,6.691810496223393e-05,3.2667,5.3333
0.51171875,-4.855728651865405e-06,3.7599714387731754e-05,6.837168279240101e-05,7.325351022201877e-05,3.2667,5.3333
0.515625,-1.7553965168230704e-05,4.933804101625087e-05,5.079161884641796e-05,7.13062644495308e-05,3.2667,5.3333
0.51953125,-2.5370374254978244e-05,3.1757977070267814e-05,4.2015299871824234e-05,5.76206920485237e-05,3.2667,5.3333
0.5234375,-2.7811287969787114e-05,1.8566072611581615e-05,4.7857037189288174e-05,5.666078216067751e-05,3.2667,5.3333
0.52734375,-2.3423128482490254e-05,3.1757977070267814e-05,5.227262267338065e-05,6.691810496223393e-05,3.2667,5.3333
0.53125,-1.659405528038451e-05,4.445621358663311e-05,5.959536381780729e-05,6.543710113527124e-05,3.2667,5.3333
0.53515625,-3.0252201684596e-05,6.203627753261618e-05,6.494343319295035e-05,6.593076907759214e-05,3.2667,5.3333
0.5390625,-3.710870088349736e-05,3.713347244220647e-05,5.1285286788738856e-05,6.0555273705653484e-05,3.2667,5.3333
0.54296875,-3.5627697056534655e-05,2.0513318384069592e-05,4.004062810254064e-05,5.3232532561226836e-05,3.2667,5.3333
0.546875,-4.100319242847331e-05,3.469255872739758e-05,4.5909791416800194e-05,6.006160576333258e-05,3.2667,5.3333
0.55078125,-4.588501985809108e-05,4.346887770199132e-05,5.3232532561226836e-05,5.959536381780729e-05,3.2667,5.3333
0.5546875,-3.9549614598306245e-05,4.346887770199132e-05,4.3962545644312214e-05,6.0555273705653484e-05,3.2667,5.3333
0.55859375,-4.050952448615243e-05,2.7836059528496233e-05,4.004062810254064e-05,5.860802793316549e-05,3.2667,5.3333
0.5625,-5.614234265964751e-05,2.3447900041199374e-05,5.177895473105975e-05,5.372620050354773e-05,3.2667,5.3333
0.56640625,-5.1754183172350646e-05,4.739079524376289e-05,6.104894164797437e-05,5.6167114218356615e-05,3.2667,5.3333
0.5703125,-5.222042511787592e-05,5.6167114218356615e-05,4.9831708958571765e-05,5.860802793316549e-05,3.2667,5.3333
0.57421875,-6.834691123369191e-05,3.713347244220647e-05,4.5909791416800194e-05,5.8114359990844595e-05,3.2667,5.3333
0.578125,-6.590599751888302e-05,1.6618826839093628e-05,4.49224555321584e-05,5.0297950904097064e-05,3.2667,5.3333
0.58203125,-7.128149289082167e-05,1.2696909297322051e-05,3.271788695811399e-05,5.079161884641796e-05,3.2667,5.3333
0.5859375,-7.566965237811854e-05,3.713347244220647e-05,4.346887770199132e-05,5.177895473105975e-05,3.2667,5.3333
0.58984375,-6.88405791760128e-05,5.567344627603572e-05,5.227262267338065e-05,4.6897127301441986e-05,3.2667,5.3333
0.59375,-8.348606146486608e-05,4.884437307392997e-05,3.5652468615243774e-05,4.2975209759670416e-05,3.2667,5.3333
0.59765625,-0.00010057245746852825,3.809338233005266e-05,2.443523592584117e-05,4.102796398718243e-05,3.2667,5.3333
0.6015625,-0.00010057245746852825,5.079161884641796e-05,2.5395145813687347e-05,4.6897127301441986e-05,3.2667,5.3333
0.60546875,-9.275604838178071e-05,3.321155490043489e-05,3.419889078507668e-05,4.835070513160907e-05,3.2667,5.3333
0.609375,-8.932779878233003e-05,9.296085694666985e-06,4.835070513160907e-05,4.835070513160907e-05,3.2667,5.3333
0.61328125,-0.00010496061695582512,1.6618826839093628e-05,3.027697324330512e-05,3.9574386157015345e-05,3.2667,5.3333
0.6171875,-0.00011620527564202333,2.1006986326390488e-05,1.467158106660564e-05,3.0770641185626015e-05,3.2667,5.3333
0.62109375,-0.0001083888665552758,3.1757977070267814e-05,1.6125158896772732e-05,3.5652468615243774e-05,3.2667,5.3333
0.625,-0.00010789519861295488,3.6639804499885566e-05,4.2975209759670416e-05,4.248154181734952e-05,3.2667,5.3333
0.62890625,-0.00011620527564202333,4.6897127301441986e-05,5.177895473105975e-05,3.5652468615243774e-05,3.2667,5.3333
0.6328125,-0.00011033611232776377,3.7599714387731754e-05,4.248154181734952e-05,3.419889078507668e-05,3.2667,5.3333
0.63671875,-0.0001196060992446784,3.5652468615243774e-05,4.54161234744793e-05,3.858705027237355e-05,3.2667,5.3333
0.640625,-0.00012254068090180816,4.5909791416800194e-05,3.126430912794692e-05,3.713347244220647e-05,3.2667,5.3333
0.64453125,-0.00010789519861295488,4.445621358663311e-05,3.5652468615243774e-05,3.614613655756467e-05,3.2667,5.3333
0.6484375,-0.00010934877644312197,4.5909791416800194e-05,4.933804101625087e-05,3.5652468615243774e-05,3.2667,5.3333
0.65234375,-0.00011423060387273975,3.9574386157015345e-05,5.227262267338065e-05,4.053429604486153e-05,3.2667,5.3333
0.65625,-0.00011765885347219043,3.469255872739758e-05,4.933804101625087e-05,3.7599714387731754e-05,3.2667,5.3333
0.66015625,-0.00010251970324101623,4.54161234744793e-05,4.739079524376289e-05,3.7599714387731754e-05,3.2667,5.3333
0.6640625,-9.324971632410163e-05,2.9317063355458924e-05,3.809338233005266e-05,3.614613655756467e-05,3.2667,5.3333
0.66796875,-0.00010545428489814602,1.973344550240341e-06,6.398352330510415e-05,4.004062810254064e-05,3.2667,5.3333
0.671875,-0.00010007878952620734,1.8566072611581615e-05,7.961634147859924e-05,3.126430912794692e-05,3.2667,5.3333
0.67578125,-8.932779878233003e-05,5.867836095216304e-06,3.858705027237355e-05,2.4928903868162065e-05,3.2667,5.3333
0.6796875,-8.153881569237811e-05,-2.3916796424811153e-05,2.882339541313803e-05,2.1500654268711387e-05,3.2667,5.3333
0.68359375,-7.07878249485008e-05,-6.491866163424123e-05,-1.80476331105516e-05,1.7578736726939823e-05,3.2667,5.3333
0.6875,-5.222042511787592e-05,-8.886155683680474e-05,-6.247774791943234e-05,2.2954232098878478e-05,3.2667,5.3333
0.69140625,-4.199052831311511e-05,-9.667796592355228e-05,-9.080880260929274e-05,-4.675691645685447e-07,3.2667,5.3333
0.6953125,-2.9758533742275118e-05,-7.956414392309451e-05,-9.275604838178071e-05,-4.389486706340107e-06,3.2667,5.3333
0.69921875,6.361504037537201e-06,-0.00011033611232776377,-0.00010007878952620734,1.7578736726939823e-05,3.2667,5.3333
0.703125,1.0749663524834076e-05,-0.0002075064189745937,-0.00013817349907530325,1.6618826839093628e-05,3.2667,5.3333
0.70703125,2.443523592584117e-05,-0.0002480420422384985,-0.00018115003605401693,1.7578736726939823e-05,3.2667,5.3333
0.7109375,3.908071821469445e-05,-0.00025144286584115354,-0.00022898097446555276,2.882339541313803e-05,3.2667,5.3333
0.71484375,3.515880067292288e-05,-0.00025094919789883267,-0.00022215190126344703,3.126430912794692e-05,3.2667,5.3333
0.71875,2.443523592584117e-05,-0.0002646347702998398,-0.0002260738188052186,4.248154181734952e-05,3.2667,5.3333
0.72265625,3.4269223804074326e-06,-0.0002621938565850309,-0.00024118554303959717,5.959536381780729e-05,3.2667,5.3333
0.7265625,-4.675691645685447e-07,-0.0002568183612130922,-0.00022898097446555276,5.5179778333714816e-05,3.2667,5.3333
0.73046875,-9.764982078278763e-06,-0.0002534175376104371,-0.00022508648292057676,5.177895473105975e-05,3.2667,5.3333
0.734375,-1.999487888303959e-05,-0.00026562210618448154,-0.00021628273794918742,6.691810496223393e-05,3.2667,5.3333
0.73828125,-1.3165805680933842e-05,-0.00025094919789883267,-0.00020457183731746392,6.348985536278326e-05,3.2667,5.3333
0.7421875,-2.5370374254978244e-05,-0.00023729105149462116,-0.00021532282806134128,6.494343319295035e-05,3.2667,5.3333
0.74609375,-3.5627697056534655e-05,-0.00022558015086289763,-0.00017528087273975738,7.473451404898147e-05,3.2667,5.3333
0.75,-3.8562278713664454e-05,-0.0002226455692057679,-0.00015232531342183566,7.618809187914856e-05,3.2667,5.3333
0.75390625,-5.222042511787592e-05,-0.00022313923714808878,-0.0001723462910826276,7.226617433737698e-05,3.2667,5.3333
0.7578125,-7.029415700617988e-05,-0.00018504452759899288,-0.00014206799062027923,6.787801485008011e-05,3.2667,5.3333
0.76171875,-7.07878249485008e-05,-0.00011913985729915311,-9.275604838178071e-05,5.76206920485237e-05,3.2667,5.3333
0.765625,-7.909790197756922e-05,-0.00010350703912565802,-7.177516083314259e-05,5.1285286788738856e-05,3.2667,5.3333
0.76953125,-0.00010007878952620734,-0.00011082978027008467,-6.247774791943234e-05,5.177895473105975e-05,3.2667,5.3333
0.7734375,-0.0001083888665552758,-6.9800489063859e-05,-3.269311539940489e-05,3.6639804499885566e-05,3.2667,5.3333
0.77734375,-0.00011423060387273975,-5.614234265964751e-05,-1.0724891966124956e-05,2.9810731297779824e-05,3.2667,5.3333
0.78125,-0.00011423060387273975,-3.318678334172577e-05,-1.365947362325474e-05,3.419889078507668e-05,3.2667,5.3333
0.78515625,-0.00012254068090180816,8.30874981002519e-06,1.807240466926072e-05,2.394156798352027e-05,3.2667,5.3333
0.7890625,-0.00012791617627374682,1.3190577239642948e-05,5.0297950904097064e-05,1.8566072611581615e-05,3.2667,5.3333
0.79296875,-0.0001083888665552758,2.9810731297779824e-05,6.886535073472192e-05,1.9059740553902514e-05,3.2667,5.3333
0.796875,-0.00011228335810025177,6.982526062256811e-05,0.00011570895326161594,9.296085694666985e-06,3.2667,5.3333
0.80078125,-0.00011423060387273975,0.00010155713891508355,0.00014305267206683451,1.0255995582513178e-05,3.2667,5.3333
0.8046875,-0.00011423060387273975,0.00012303169440604258,0.00015037541321126114,1.0255995582513178e-05,3.2667,5.3333
0.80859375,-0.00011327069398489356,0.0001572044864133669,0.00017478455035934996,-4.389486706340107e-06,3.2667,5.3333
0.8125,-0.00012108710307164111,0.00016257998178530555,0.00019384561813229573,-1.948572991531236e-06,3.2667,5.3333
0.81640625,-0.00013378533958800638,0.00015624457652552073,0.0001982337776195926,2.4670124925612384e-06,3.2667,5.3333
0.8203125,-0.00013474524947585257,0.0001362235988647288,0.00018797645481803617,1.973344550240341e-06,3.2667,5.3333
0.82421875,-0.00015331264930647744,0.00012401903029068438,0.00019872744556191348,-1.948572991531236e-06,3.2667,5.3333
0.828125,-0.00015331264930647744,0.00013718350875257496,0.0002089573423666743,1.973344550240341e-06,3.2667,5.3333
0.83203125,-0.00013866716701762416,0.00014988174526894027,0.0001699027229297322,3.4269223804074326e-06,3.2667,5.3333
0.8359375,-0.00015380631724879834,0.00015769815435568783,0.00015330999486839095,4.923407232776497e-07,3.2667,5.3333
0.83984375,-0.00016307630416571294,0.00014892183538109407,0.00016356731766994738,5.867836095216304e-06,3.2667,5.3333
0.84375,-0.00016452988199588001,0.0001581918222980087,0.00016356731766994738,4.9079262073701245e-06,3.2667,5.3333
0.84765625,-0.00016502354993820097,0.0001694090549874113,0.0001757718862439918,9.296085694666985e-06,3.2667,5.3333
0.8515625,-0.00016746446365300982,0.00017673179613183796,0.00016746180921492333,7.3488399221789955e-06,3.2667,5.3333
0.85546875,-0.00016258263622339204,0.000170890058814374,0.00016162007189745938,-6.8304004211489935e-06,3.2667,5.3333
0.859375,-0.00015964805456626232,0.00015086908115358207,0.00016894281304188604,-2.414814937056519e-06,3.2667,5.3333
0.86328125,-0.00015183164547951473,0.00016162007189745938,0.00016696814127260245,2.4670124925612384e-06,3.2667,5.3333
0.8671875,-0.00013866716701762416,0.00015525724064087892,0.0001679554771572442,4.414258265049227e-06,3.2667,5.3333
0.87109375,-0.00013230433576104372,0.0001464809216662852,0.0002118919240238041,1.2696909297322051e-05,3.2667,5.3333
0.875,-0.00012742250833142594,0.00016551456344243536,0.00021825475528038451,1.1736999409475871e-05,3.2667,5.3333
0.87890625,-0.0001440152363927672,0.0001694090549874113,0.00017966637778896774,2.9332544380865355e-06,3.2667,5.3333
0.8828125,-0.0001547662271366445,0.00015330999486839095,0.00018847012276035707,7.3488399221789955e-06,3.2667,5.3333
0.88671875,-0.00013085075793087663,0.0001445062498970016,0.00018943003264820327,2.1994322211032283e-05,3.2667,5.3333
0.890625,-0.00012009976718699932,0.00014159909423666744,0.00019724644173495077,2.0513318384069592e-05,3.2667,5.3333
0.89453125,-0.00012498159461661704,0.0001459872537239643,0.0002260711643671321,1.2230667351796767e-05,3.2667,5.3333
0.8984375,-0.00013866716701762416,0.0001449999178393225,0.0001982337776195926,9.789753636987882e-06,3.2667,5.3333
0.90234375,-0.0001313444258731975,0.0001449999178393225,0.00014110542629434654,4.9079262073701245e-06,3.2667,5.3333
0.90625,-0.0001181525214145113,0.00012303169440604258,0.00015281632692607005,6.361504037537201e-06,3.2667,5.3333
0.91015625,-0.0001332916716456855,0.00011570895326161594,0.000170890058814374,1.0255995582513178e-05,3.2667,5.3333
0.9140625,-0.00012692884038910504,0.00012157811657587549,0.00015330999486839095,1.3190577239642948e-05,3.2667,5.3333
0.91796875,-0.00012840984421606772,0.0001088798800595102,0.00013718350875257496,1.6618826839093628e-05,3.2667,5.3333
0.921875,-0.00012890351215838862,0.00012253802646372167,0.0001323016813229572,1.8566072611581615e-05,3.2667,5.3333
0.92578125,-0.00010690786272831309,7.08125965072099e-05,0.00011570895326161594,1.3190577239642948e-05,3.2667,5.3333
0.9296875,-9.423705220874342e-05,2.443523592584117e-05,9.914365119707028e-05,7.3488399221789955e-06,3.2667,5.3333
0.93359375,-7.665698826276033e-05,2.3447900041199374e-05,9.815631531242848e-05,1.467158106660564e-05,3.2667,5.3333
0.9375,-8.493963929503317e-05,4.923407232776497e-07,5.959536381780729e-05,1.807240466926072e-05,3.2667,5.3333
0.94140625,-7.860423403524833e-05,-8.777646193636968e-06,1.807240466926072e-05,1.3190577239642948e-05,3.2667,5.3333
0.9453125,-5.419509688715951e-05,-5.0766847287708854e-05,-1.659405528038451e-05,7.3488399221789955e-06,3.2667,5.3333
0.94921875,-3.4174119226367564e-05,-8.886155683680474e-05,-5.46613388326848e-05,1.3684245181963844e-05,3.2667,5.3333
0.953125,-2.243579259784846e-05,-0.00010545428489814602,-6.491866163424123e-05,1.6125158896772732e-05,3.2667,5.3333
0.95703125,-8.283978251316072e-06,-0.0001327980037033646,-8.836788889448385e-05,1.2230667351796767e-05,3.2667,5.3333
0.9609375,7.3488399221789955e-06,-0.0001679581315953307,-0.0001332916716456855,2.1006986326390488e-05,3.2667,5.3333
0.96484375,2.394156798352027e-05,-0.00019187360080109863,-0.00016845179953765165,4.053429604486153e-05,3.2667,5.3333
0.96875,3.858705027237355e-05,-0.00020407816937514301,-0.00017673445056992442,4.640345935912109e-05,3.2667,5.3333
0.97265625,2.9317063355458924e-05,-0.00019431451451590754,-0.00015331264930647744,4.004062810254064e-05,3.2667,5.3333
0.9765625,2.443523592584117e-05,-0.0001801627001693751,-0.00016063539045090407,3.5652468615243774e-05,3.2667,5.3333
0.98046875,3.027697324330512e-05,-0.000178709122339208,-0.0001586881446784161,3.809338233005266e-05,3.2667,5.3333
0.984375,2.394156798352027e-05,-0.0001723462910826276,-0.00012158077101396198,2.394156798352027e-05,3.2667,5.3333
0.98828125,7.815081867704294e-06,-0.00015331264930647744,-0.00011033611232776377,1.7578736726939823e-05,3.2667,5.3333
0.9921875,-5.3493965941863025e-06,-0.00011082978027008467,-8.688688506752114e-05,2.6382481698329142e-05,3.2667,5.3333
0.99609375,-3.4021508216983135e-06,-0.00011033611232776377,-8.493963929503317e-05,2.004707643854431e-05,3.2667,5.3333
1.0,-9.271314135957865e-06,-9.667796592355228e-05,-8.688688506752114e-05,2.6382481698329142e-05,3.2667,5.3333
1.00390625,-2.441046436713205e-05,-3.4174119226367564e-05,-4.34441061432822e-05,1.807240466926072e-05,3.2667,5.3333
1.0078125,-1.85413010528725e-05,-3.513402911421377e-05,-3.368045128404668e-05,1.1736999409475871e-05,3.2667,5.3333
1.01171875,-4.443144202792399e-05,-1.4646809507896534e-05,-2.441046436713205e-05,1.0255995582513178e-05,3.2667,5.3333
1.015625,-5.515500677500572e-05,3.419889078507668e-05,1.0749663524834076e-05,-2.9084828793774163e-06,3.2667,5.3333
1.01953125,-4.977951140306706e-05,3.515880067292288e-05,2.4670124925612384e-06,1.479676607919444e-06,3.2667,5.3333
1.0234375,-6.834691123369191e-05,5.471353638818953e-05,2.1006986326390488e-05,-4.675691645685447e-07,3.2667,5.3333
1.02734375,-8.104514775005719e-05,6.886535073472192e-05,7.275984227969789e-05,3.4269223804074326e-06,3.2667,5.3333
1.03125,-9.51969620965896e-05,9.327448788281073e-05,9.228715199816893e-05,1.1736999409475871e-05,3.2667,5.3333
1.03515625,-9.470329415426868e-05,0.00010449172057221333,0.00010106347097276265,6.855171979858099e-06,3.2667,5.3333
1.0390625,-9.958512158388646e-05,8.984623828336005e-05,9.083357416800184e-05,7.3488399221789955e-06,3.2667,5.3333
1.04296875,-0.00011132344821240556,0.00010449172057221333,9.52217336552987e-05,-3.895818764019211e-06,3.2667,5.3333
1.046875,-0.00012596893050125885,0.00011132079377431909,0.00011132079377431909,-4.389486706340107e-06,3.2667,5.3333
1.05078125,-0.00013622625330281528,8.937999633783474e-05,0.00012939452566262304,9.860086655985469e-07,3.2667,5.3333
1.0546875,-0.0001303570899885557,0.00011376170748912795,0.00015525724064087892,9.860086655985469e-07,3.2667,5.3333
1.05859375,-0.00012646259844357975,0.00014988174526894027,0.00014255900412451364,9.860086655985469e-07,3.2667,5.3333
1.0625,-0.00011864618935683222,0.0001596454001281758,0.00013671726680704966,4.923407232776497e-07,3.2667,5.3333
1.06640625,-0.00012352801678644997,0.00015281632692607005,0.00015037541321126114,5.867836095216304e-06,3.2667,5.3333
1.0703125,-0.0001332916716456855,0.00014694716361181046,0.00015037541321126114,2.4670124925612384e-06,3.2667,5.3333
1.07421875,-0.00012692884038910504,0.00015330999486839095,0.00016844914509956513,4.414258265049227e-06,3.2667,5.3333
1.078125,-0.0001318106678187228,0.00015232265898374917,0.00015624457652552073,1.3190577239642948e-05,3.2667,5.3333
1.08203125,-0.0001303570899885557,0.00013523626298008698,0.00011669628914625774,9.789753636987882e-06,3.2667,5.3333
1.0859375,-0.00012791617627374682,0.00011082712583199818,0.00013084810349279013,4.414258265049227e-06,3.2667,5.3333
1.08984375,-0.0001318106678187228,0.00013523626298008698,0.00015917915818265048,7.815081867704294e-06,3.2667,5.3333
1.09375,-0.00012547526255893797,0.00016063273601281758,0.00016356731766994738,1.2230667351796767e-05,3.2667,5.3333
1.09765625,-0.00011913985729915311,0.00016502089550011448,0.00015281632692607005,1.0749663524834076e-05,3.2667,5.3333
1.1015625,-0.00011667151758754863,0.0001723436366445411,0.0001323016813229572,1.4177913124284742e-05,3.2667,5.3333
1.10546875,-0.00012936975410391392,0.00016894281304188604,0.00012547260812085148,9.789753636987882e-06,3.2667,5.3333
1.109375,-0.0001318106678187228,0.00013817084463721676,0.00012547260812085148,1.3190577239642948e-05,3.2667,5.3333
1.11328125,-0.00011472427181506062,0.0001362235988647288,0.00013378268514991989,2.1994322211032283e-05,3.2667,5.3333
1.1171875,-0.00011327069398489356,0.00016502089550011448,0.0001327953492652781,2.1994322211032283e-05,3.2667,5.3333
1.12109375,-0.00011178969015793086,0.00016746180921492333,0.00012741985389333945,2.0513318384069592e-05,3.2667,5.3333
1.125,-0.00011132344821240556,0.00015769815435568783,0.00012352536234836348,2.687614964065004e-05,3.2667,5.3333
1.12890625,-0.00010789519861295488,0.0001586854902403296,0.00011376170748912795,2.1500654268711387e-05,3.2667,5.3333
1.1328125,-0.00010984244438544288,0.00016257998178530555,0.00010495796251773861,1.2230667351796767e-05,3.2667,5.3333
1.13671875,-0.00010251970324101623,0.00015136274909590298,9.716897942778669e-05,2.1500654268711387e-05,3.2667,5.3333
1.140625,-0.00010251970324101623,0.00012986076760814833,8.400450096589609e-05,2.443523592584117e-05,3.2667,5.3333
1.14453125,-0.00011376436192721445,0.00010545163046005952,7.17999323918517e-05,1.955340849622341e-05,3.2667,5.3333
1.1484375,-0.00010350703912565802,9.62090695399405e-05,7.764166970931564e-05,2.0513318384069592e-05,3.2667,5.3333
1.15234375,-9.667796592355228e-05,0.00013084810349279013,0.0001073988762325475,2.248799015335318e-05,3.2667,5.3333
1.15625,-9.080880260929274e-05,0.00014842816743877317,0.00010106347097276265,1.7112494781414524e-05,3.2667,5.3333
1.16015625,-9.423705220874342e-05,0.00011620262120393684,6.691810496223393e-05,2.1500654268711387e-05,3.2667,5.3333
1.1640625,-9.958512158388646e-05,0.00012253802646372167,5.273886461890594e-05,2.004707643854431e-05,3.2667,5.3333
1.16796875,-8.493963929503317e-05,0.000133289017207599,4.640345935912109e-05,2.9810731297779824e-05,3.2667,5.3333
1.171875,-8.249872558022429e-05,0.00013523626298008698,5.8114359990844595e-05,3.321155490043489e-05,3.2667,5.3333
1.17578125,-7.322873866330965e-05,0.00011814986697642481,4.739079524376289e-05,1.1736999409475871e-05,3.2667,5.3333
1.1796875,-6.834691123369191e-05,0.00011033345788967728,3.858705027237355e-05,1.6125158896772732e-05,3.2667,5.3333
1.18359375,-6.9800489063859e-05,0.00012645994400549326,5.079161884641796e-05,2.6382481698329142e-05,3.2667,5.3333
1.1875,-6.1024170089265254e-05,0.00011864353491874573,3.370522284275579e-05,2.443523592584117e-05,3.2667,5.3333
1.19140625,-6.053050214694437e-05,0.00010545163046005952,3.126430912794692e-05,1.4177913124284742e-05,3.2667,5.3333
1.1953125,-5.858325637445639e-05,0.00011425537543144885,4.2015299871824234e-05,1.807240466926072e-05,3.2667,5.3333
1.19921875,-6.395875174639505e-05,9.52217336552987e-05,2.248799015335318e-05,1.7578736726939823e-05,3.2667,5.3333
1.203125,-6.297141586175325e-05,4.346887770199132e-05,1.6618826839093628e-05,1.6125158896772732e-05,3.2667,5.3333
1.20703125,-3.9055946655985336e-05,6.250251947814146e-05,2.394156798352027e-05,2.1500654268711387e-05,3.2667,5.3333
1.2109375,-3.5627697056534655e-05,9.083357416800184e-05,2.0513318384069592e-05,2.5395145813687347e-05,3.2667,5.3333
1.21484375,-4.34441061432822e-05,8.839266045319295e-05,9.296085694666985e-06,2.3447900041199374e-05,3.2667,5.3333
1.21875,-4.931326945754176e-05,9.327448788281073e-05,1.1243331467154973e-05,2.248799015335318e-05,3.2667,5.3333
1.22265625,-4.489768397344929e-05,8.496441085374228e-05,3.92059032272833e-06,2.1994322211032283e-05,3.2667,5.3333
1.2265625,-4.199052831311511e-05,5.666078216067751e-05,-1.2205895793087649e-05,3.126430912794692e-05,3.2667,5.3333
1.23046875,-4.34441061432822e-05,4.640345935912109e-05,2.1006986326390488e-05,3.1757977070267814e-05,3.2667,5.3333
1.234375,-3.269311539940489e-05,3.1757977070267814e-05,2.1994322211032283e-05,2.9810731297779824e-05,3.2667,5.3333
1.23828125,-3.074586962691691e-05,4.102796398718243e-05,1.1736999409475871e-05,2.1500654268711387e-05,3.2667,5.3333
1.2421875,-3.710870088349736e-05,6.299618742046236e-05,4.414258265049227e-06,1.3684245181963844e-05,3.2667,5.3333
1.24609375,-3.8068610771343544e-05,2.6382481698329142e-05,-2.3423128482490254e-05,1.5137823012130937e-05,3.2667,5.3333
1.25,-2.3423128482490254e-05,1.467158106660564e-05,-6.8304004211489935e-06,1.6125158896772732e-05,3.2667,5.3333
1.25390625,-2.243579259784846e-05,5.1285286788738856e-05,1.9059740553902514e-05,2.1006986326390488e-05,3.2667,5.3333
1.2578125,-2.9758533742275118e-05,4.2975209759670416e-05,9.296085694666985e-06,3.1757977070267814e-05,3.2667,5.3333
1.26171875,-2.0488546825360486e-05,3.5652468615243774e-05,-1.365947362325474e-05,3.5652468615243774e-05,3.2667,5.3333
1.265625,-1.5606719395742713e-05,4.004062810254064e-05,4.9079262073701245e-06,4.053429604486153e-05,3.2667,5.3333
1.26953125,-1.1712227850766751e-05,3.5652468615243774e-05,3.469255872739758e-05,3.6639804499885566e-05,3.2667,5.3333
1.2734375,-1.2205895793087649e-05,4.053429604486153e-05,3.1757977070267814e-05,1.5137823012130937e-05,3.2667,5.3333
1.27734375,-2.292946054016936e-05,2.5395145813687347e-05,1.7112494781414524e-05,1.7578736726939823e-05,3.2667,5.3333
1.28125,-3.074586962691691e-05,1.6125158896772732e-05,1.4177913124284742e-05,2.004707643854431e-05,3.2667,5.3333
1.28515625,-2.4876706312657345e-05,1.6618826839093628e-05,1.3190577239642948e-05,2.1994322211032283e-05,3.2667,5.3333
1.2890625,-1.0724891966124956e-05,1.955340849622341e-05,1.467158106660564e-05,3.1757977070267814e-05,3.2667,5.3333
1.29296875,-1.7553965168230704e-05,3.0770641185626015e-05,2.8329727470817133e-05,2.6382481698329142e-05,3.2667,5.3333
1.296875,-2.3423128482490254e-05,2.004707643854431e-05,2.1994322211032283e-05,2.2954232098878478e-05,3.2667,5.3333
1.30078125,-1.0724891966124956e-05,6.361504037537201e-06,1.4177913124284742e-05,2.7836059528496233e-05,3.2667,5.3333
1.3046875,-1.6100387338063613e-05,-6.336732478828097e-06,2.1006986326390488e-05,3.908071821469445e-05,3.2667,5.3333
1.30859375,-1.659405528038451e-05,-2.9084828793774163e-06,4.445621358663311e-05,2.443523592584117e-05,3.2667,5.3333
1.3125,-1.1712227850766751e-05,2.7836059528496233e-05,5.9101695875486387e-05,1.4177913124284742e-05,3.2667,5.3333
1.31640625,-7.296642366674277e-06,3.271788695811399e-05,4.346887770199132e-05,2.3447900041199374e-05,3.2667,5.3333
1.3203125,-1.4646809507896534e-05,1.807240466926072e-05,3.6639804499885566e-05,2.5888813756008246e-05,3.2667,5.3333
1.32421875,-2.6851378081940936e-05,2.1006986326390488e-05,2.1994322211032283e-05,2.9317063355458924e-05,3.2667,5.3333
1.328125,-2.5370374254978244e-05,2.9317063355458924e-05,3.0770641185626015e-05,2.7836059528496233e-05,3.2667,5.3333
1.33203125,-2.8304955912108027e-05,2.1994322211032283e-05,4.739079524376289e-05,3.5652468615243774e-05,3.2667,5.3333
1.3359375,-2.3916796424811153e-05,1.3190577239642948e-05,2.7836059528496233e-05,2.6382481698329142e-05,3.2667,5.3333
1.33984375,-1.85413010528725e-05,1.9059740553902514e-05,2.248799015335318e-05,2.3447900041199374e-05,3.2667,5.3333
1.34375,-1.5113051453421817e-05,1.8566072611581615e-05,1.8566072611581615e-05,2.394156798352027e-05,3.2667,5.3333
1.34765625,-1.952863693751429e-05,2.0513318384069592e-05,3.6639804499885566e-05,3.4269223804074326e-06,3.2667,5.3333
1.3515625,-2.1969550652323177e-05,4.053429604486153e-05,5.3232532561226836e-05,1.1736999409475871e-05,3.2667,5.3333
1.35546875,-1.7087723222705404e-05,3.1757977070267814e-05,3.5652468615243774e-05,2.7836059528496233e-05,3.2667,5.3333
1.359375,-2.3916796424811153e-05,1.973344550240341e-06,1.5631490954451833e-05,2.7836059528496233e-05,3.2667,5.3333
1.36328125,-2.441046436713205e-05,7.3488399221789955e-06,2.9317063355458924e-05,2.0513318384069592e-05,3.2667,5.3333
1.3671875,-2.5370374254978244e-05,3.713347244220647e-05,4.248154181734952e-05,2.394156798352027e-05,3.2667,5.3333
1.37109375,-2.292946054016936e-05,4.7857037189288174e-05,4.9831708958571765e-05,2.4928903868162065e-05,3.2667,5.3333
1.375,-1.5113051453421817e-05,5.860802793316549e-05,4.739079524376289e-05,2.8329727470817133e-05,3.2667,5.3333
1.37890625,-2.8304955912108027e-05,4.445621358663311e-05,4.2975209759670416e-05,3.370522284275579e-05,3.2667,5.3333
1.3828125,-3.219944745708397e-05,1.6618826839093628e-05,3.5652468615243774e-05,3.0770641185626015e-05,3.2667,5.3333
1.38671875,-2.292946054016936e-05,6.361504037537201e-06,1.3190577239642948e-05,2.394156798352027e-05,3.2667,5.3333
1.390625,-7.296642366674277e-06,2.248799015335318e-05,2.5395145813687347e-05,2.394156798352027e-05,3.2667,5.3333
1.39453125,-7.790310308995174e-06,3.126430912794692e-05,1.807240466926072e-05,2.6382481698329142e-05,3.2667,5.3333
1.3984375,-1.2205895793087649e-05,2.4928903868162065e-05,-2.9084828793774163e-06,3.225164501258871e-05,3.2667,5.3333
1.40234375,-6.336732478828097e-06,3.126430912794692e-05,2.1500654268711387e-05,2.1500654268711387e-05,3.2667,5.3333
1.40625,-1.1218559908445854e-05,6.006160576333258e-05,3.9574386157015345e-05,1.5137823012130937e-05,3.2667,5.3333
1.41015625,-1.4153141565575638e-05,1.7578736726939823e-05,1.5137823012130937e-05,2.5888813756008246e-05,3.2667,5.3333
1.4140625,-1.2205895793087649e-05,-2.8304955912108027e-05,-9.61237106889442e-07,2.004707643854431e-05,3.2667,5.3333
1.41796875,-2.441046436713205e-05,-2.8304955912108027e-05,-1.1712227850766751e-05,2.1006986326390488e-05,3.2667,5.3333
1.421875,-2.9292291796749822e-05,-2.098221476768138e-05,-3.5627697056534655e-05,4.004062810254064e-05,3.2667,5.3333
1.42578125,-2.7811287969787114e-05,-9.61237106889442e-07,-1.9034968995193395e-05,4.5909791416800194e-05,3.2667,5.3333
1.4296875,-2.292946054016936e-05,1.1736999409475871e-05,9.296085694666985e-06,4.248154181734952e-05,3.2667,5.3333
1.43359375,-1.4646809507896534e-05,5.867836095216304e-06,-1.5113051453421817e-05,4.2015299871824234e-05,3.2667,5.3333
1.4375,-9.764982078278763e-06,1.5137823012130937e-05,-1.1218559908445854e-05,2.443523592584117e-05,3.2667,5.3333
1.44140625,-2.292946054016936e-05,2.7369817582970937e-05,2.394156798352027e-05,2.7369817582970937e-05,3.2667,5.3333
1.4453125,-3.074586962691691e-05,-4.675691645685447e-07,3.0770641185626015e-05,3.370522284275579e-05,3.2667,5.3333
1.44921875,-1.952863693751429e-05,-2.147588271000228e-05,1.0749663524834076e-05,3.419889078507668e-05,3.2667,5.3333
1.453125,-1.5606719395742713e-05,-1.1712227850766751e-05,-1.6100387338063613e-05,3.225164501258871e-05,3.2667,5.3333
1.45703125,-1.2205895793087649e-05,1.1243331467154973e-05,3.92059032272833e-06,3.908071821469445e-05,3.2667,5.3333
1.4609375,-1.5606719395742713e-05,2.9810731297779824e-05,-1.454905049210339e-06,3.271788695811399e-05,3.2667,5.3333
1.46484375,-1.85413010528725e-05,2.4670124925612384e-06,-2.441046436713205e-05,3.908071821469445e-05,3.2667,5.3333
1.46875,-1.023122402380406e-05,1.955340849622341e-05,2.1994322211032283e-05,4.7857037189288174e-05,3.2667,5.3333
1.47265625,-6.8304004211489935e-06,4.445621358663311e-05,5.0297950904097064e-05,2.7836059528496233e-05,3.2667,5.3333
1.4765625,-4.675691645685447e-07,3.370522284275579e-05,1.955340849622341e-05,2.687614964065004e-05,3.2667,5.3333
1.48046875,-6.8304004211489935e-06,2.687614964065004e-05,-6.336732478828097e-06,3.225164501258871e-05,3.2667,5.3333
1.484375,-1.1218559908445854e-05,1.7578736726939823e-05,1.5137823012130937e-05,3.271788695811399e-05,3.2667,5.3333
1.48828125,9.860086655985469e-07,3.5652468615243774e-05,2.9810731297779824e-05,3.0770641185626015e-05,3.2667,5.3333
1.4921875,-2.9084828793774163e-06,4.9831708958571765e-05,2.443523592584117e-05,3.9574386157015345e-05,3.2667,5.3333
1.49609375,-8.283978251316072e-06,3.9574386157015345e-05,1.6125158896772732e-05,3.7599714387731754e-05,3.2667,5.3333
1.5,-1.2672137738612945e-05,4.346887770199132e-05,9.860086655985469e-07,2.1500654268711387e-05,3.2667,5.3333
1.50390625,-1.4646809507896534e-05,3.614613655756467e-05,4.414258265049227e-06,8.802417752346087e-06,3.2667,5.3333
1.5078125,-6.8304004211489935e-06,1.973344550240341e-06,1.0255995582513178e-05,2.3447900041199374e-05,3.2667,5.3333
1.51171875,1.973344550240341e-06,2.394156798352027e-05,2.687614964065004e-05,4.445621358663311e-05,3.2667,5.3333
1.515625,2.6098777752352474e-08,4.739079524376289e-05,3.0770641185626015e-05,2.687614964065004e-05,3.2667,5.3333
1.51953125,-2.9084828793774163e-06,2.443523592584117e-05,1.4177913124284742e-05,2.9810731297779824e-05,3.2667,5.3333
1.5234375,-2.9084828793774163e-06,2.1994322211032283e-05,2.248799015335318e-05,2.7836059528496233e-05,3.2667,5.3333
1.52734375,-1.1218559908445854e-05,2.6382481698329142e-05,3.027697324330512e-05,2.1994322211032283e-05,3.2667,5.3333
1.53125,-9.764982078278763e-06,4.1521631929503325e-05,1.955340849622341e-05,1.807240466926072e-05,3.2667,5.3333
1.53515625,-1.4646809507896534e-05,3.1757977070267814e-05,1.3684245181963844e-05,5.6167114218356615e-05,3.2667,5.3333
1.5390625,-2.586404219729914e-05,-9.61237106889442e-07,9.860086655985469e-07,4.835070513160907e-05,3.2667,5.3333
1.54296875,9.860086655985469e-07,2.1006986326390488e-05,1.3190577239642948e-05,7.815081867704294e-06,3.2667,5.3333
1.546875,1.6125158896772732e-05,6.982526062256811e-05,3.5652468615243774e-05,1.467158106660564e-05,3.2667,5.3333
1.55078125,1.6125158896772732e-05,5.567344627603572e-05,3.469255872739758e-05,2.7836059528496233e-05,3.2667,5.3333
1.5546875,8.802417752346087e-06,3.271788695811399e-05,3.027697324330512e-05,4.54161234744793e-05,3.2667,5.3333
1.55859375,5.867836095216304e-06,7.815081867704294e-06,1.9059740553902514e-05,3.0770641185626015e-05,3.2667,5.3333
1.5625,1.3190577239642948e-05,-3.710870088349736e-05,-4.675691645685447e-07,2.4928903868162065e-05,3.2667,5.3333
1.56640625,1.7578736726939823e-05,-3.4174119226367564e-05,-1.023122402380406e-05,3.5652468615243774e-05,3.2667,5.3333
1.5703125,2.2954232098878478e-05,-4.832593357289997e-05,-2.9758533742275118e-05,3.7599714387731754e-05,3.2667,5.3333
1.57421875,2.3447900041199374e-05,-0.00010057245746852825,-7.909790197756922e-05,4.2975209759670416e-05,3.2667,5.3333
1.578125,5.0297950904097064e-05,-9.470329415426868e-05,-9.667796592355228e-05,3.1757977070267814e-05,3.2667,5.3333
1.58203125,6.837168279240101e-05,-0.00011033611232776377,-0.00012009976718699932,3.027697324330512e-05,3.2667,5.3333
1.5859375,6.738434690775922e-05,-0.00012303434884412907,-0.000145002572277409,2.443523592584117e-05,3.2667,5.3333
1.58984375,8.789899251087206e-05,-0.00013085075793087663,-0.0001425616585626001,1.5631490954451833e-05,3.2667,5.3333
1.59375,8.595174673838409e-05,-0.0001801627001693751,-0.00017478720479743645,2.1994322211032283e-05,3.2667,5.3333
1.59765625,0.00010155713891508355,-0.0001987301,-0.00021776374177615013,5.4219868445868634e-05,3.2667,5.3333
1.6015625,0.00013671726680704966,-0.0002485082841840238,-0.0002582993650400549,4.54161234744793e-05,3.2667,5.3333
1.60546875,0.000133289017207599,-0.0002949130707621881,-0.0002870966616754406,6.203627753261618e-05,3.2667,5.3333
1.609375,0.00012596627606317236,-0.0002714638435019455,-0.00028855023950560767,7.862900559395744e-05,3.2667,5.3333
1.61328125,0.00011864353491874573,-0.00028122749836118104,-0.00030174214396429385,5.6167114218356615e-05,3.2667,5.3333
1.6171875,9.914365119707028e-05,-0.00029686031653467616,-0.0003232166994552529,9.914365119707028e-05,3.2667,5.3333
1.62109375,9.766264737010758e-05,-0.0002705039336140993,-0.00029735398447699703,7.813533765163655e-05,3.2667,5.3333
1.625,0.00010545163046005952,-0.0002568183612130922,-0.0002568183612130922,3.515880067292288e-05,3.2667,5.3333
1.62890625,9.960989314259557e-05,-0.00023339655994964522,-0.00023973196520943007,8.595174673838409e-05,3.2667,5.3333
1.6328125,9.864998325474939e-05,-0.00020018367783016707,-0.00022020465549095898,7.618809187914856e-05,3.2667,5.3333
1.63671875,0.00010010356108491646,-0.00017039904531013963,-0.00021581649600366216,5.1285286788738856e-05,3.2667,5.3333
1.640625,8.449816890821699e-05,-0.00013913340896314945,-0.0002080000869169146,5.7154450102998406e-05,3.2667,5.3333
1.64453125,6.93590186770428e-05,-0.00014598990816205078,-0.00016647712776836807,7.13062644495308e-05,3.2667,5.3333
1.6484375,5.567344627603572e-05,-0.00015183164547951473,-0.00014012074484779125,5.860802793316549e-05,3.2667,5.3333
1.65234375,4.5909791416800194e-05,-0.00010446694901350423,-8.397972940718698e-05,1.807240466926072e-05,3.2667,5.3333
1.65625,4.6897127301441986e-05,-7.956414392309451e-05,-4.977951140306706e-05,1.6125158896772732e-05,3.2667,5.3333
1.66015625,2.394156798352027e-05,-7.273507072098877e-05,-7.909790197756922e-05,4.7857037189288174e-05,3.2667,5.3333
1.6640625,2.443523592584117e-05,-2.0488546825360486e-05,-4.2950438200961316e-05,3.5652468615243774e-05,3.2667,5.3333
1.66796875,1.5137823012130937e-05,-8.777646193636968e-06,-7.296642366674277e-06,5.372620050354773e-05,3.2667,5.3333
1.671875,9.296085694666985e-06,2.6098777752352474e-08,-6.336732478828097e-06,3.713347244220647e-05,3.2667,5.3333
1.67578125,1.8566072611581615e-05,3.9574386157015345e-05,1.3190577239642948e-05,1.5631490954451833e-05,3.2667,5.3333
1.6796875,-4.675691645685447e-07,4.6897127301441986e-05,3.321155490043489e-05,3.515880067292288e-05,3.2667,5.3333
1.68359375,-2.9084828793774163e-06,3.6639804499885566e-05,3.858705027237355e-05,1.0255995582513178e-05,3.2667,5.3333
1.6875,-6.8304004211489935e-06,6.642443701991303e-05,4.7857037189288174e-05,-1.454905049210339e-06,3.2667,5.3333
1.69140625,-1.365947362325474e-05,9.278081994048983e-05,6.0555273705653484e-05,1.1243331467154973e-05,3.2667,5.3333
1.6953125,-2.098221476768138e-05,7.912267353627834e-05,9.083357416800184e-05,2.5395145813687347e-05,3.2667,5.3333
1.69921875,-2.586404219729914e-05,0.00010155713891508355,0.00011570895326161594,-5.3493965941863025e-06,3.2667,5.3333
1.703125,-3.368045128404668e-05,8.789899251087206e-05,7.424084610666057e-05,1.1243331467154973e-05,3.2667,5.3333
1.70703125,-2.9292291796749822e-05,0.00012303169440604258,0.00013084810349279013,-1.85413010528725e-05,3.2667,5.3333
1.7109375,-3.074586962691691e-05,0.0001699027229297322,0.00018065371367360951,-4.855728651865405e-06,3.2667,5.3333
1.71484375,-3.464036117189286e-05,0.00012840718977798123,0.00013523626298008698,1.3190577239642948e-05,3.2667,5.3333
1.71875,-3.710870088349736e-05,0.00010545163046005952,8.595174673838409e-05,2.394156798352027e-05,3.2667,5.3333
1.72265625,-4.443144202792399e-05,0.00014110542629434654,6.447719124742505e-05,6.855171979858099e-06,3.2667,5.3333
1.7265625,-4.2950438200961316e-05,0.0001493880773266194,0.0001088798800595102,-3.4021508216983135e-06,3.2667,5.3333
1.73046875,-3.513402911421377e-05,0.00011277437160448616,0.00012890085772030216,4.248154181734952e-05,3.2667,5.3333
1.734375,-3.12395375692378e-05,0.00010350438468757154,0.00010155713891508355,-1.80476331105516e-05,3.2667,5.3333
1.73828125,-3.464036117189286e-05,0.00011669628914625774,9.815631531242848e-05,-9.271314135957865e-06,3.2667,5.3333
1.7421875,-3.8068610771343544e-05,0.00012890085772030216,5.860802793316549e-05,1.0749663524834076e-05,3.2667,5.3333
1.74609375,-3.173320551155871e-05,0.00012840718977798123,6.250251947814146e-05,-4.389486706340107e-06,3.2667,5.3333
1.75,-3.464036117189286e-05,0.00012108444863355459,5.0297950904097064e-05,8.30874981002519e-06,3.2667,5.3333
1.75390625,-3.5627697056534655e-05,0.00014061175835202564,4.5909791416800194e-05,9.860086655985469e-07,3.2667,5.3333
1.7578125,-1.659405528038451e-05,0.00017821279995880064,0.00021726741939574276,-4.931326945754176e-05,3.2667,5.3333
1.76171875,-2.3916796424811153e-05,0.00017771913201647976,0.0002455984740856031,-2.586404219729914e-05,3.2667,5.3333
1.765625,-2.292946054016936e-05,0.00015037541321126114,6.006160576333258e-05,-9.271314135957865e-06,3.2667,5.3333
1.76953125,-2.4876706312657345e-05,0.00010643896634470131,-4.8819601515220853e-05,3.0770641185626015e-05,3.2667,5.3333
1.7734375,-2.586404219729914e-05,0.00012890085772030216,5.3232532561226836e-05,6.855171979858099e-06,3.2667,5.3333
1.77734375,-1.948572991531236e-06,0.00016356731766994738,0.0002992985758113985,-5.56486747173266e-05,3.2667,5.3333
1.78125,-3.9055946655985336e-05,8.400450096589609e-05,-7.712323020828563e-05,8.449816890821699e-05,3.2667,5.3333
1.78515625,-2.879862385442891e-05,0.00010251704880292975,-0.00026318119246967266,1.7578736726939823e-05,3.2667,5.3333
1.7890625,2.9332544380865355e-06,0.00013915818052185854,6.855171979858099e-06,-6.247774791943234e-05,3.2667,5.3333
1.79296875,1.5137823012130937e-05,0.00015673824446784163,0.00018797645481803617,-8.104514775005719e-05,3.2667,5.3333
1.796875,2.9332544380865355e-06,0.00016650189932707713,0.0004223590234332799,-4.8819601515220853e-05,3.2667,5.3333
1.80078125,-2.6357710139620036e-05,0.00011082712583199818,0.0003891461413138018,1.2696909297322051e-05,3.2667,5.3333
1.8046875,-2.098221476768138e-05,0.00011570895326161594,0.0003183322175875486,1.973344550240341e-06,3.2667,5.3333
1.80859375,-1.80476331105516e-05,0.00014011809040970476,0.00026756669751888305,7.815081867704294e-06,3.2667,5.3333
1.8125,-1.952863693751429e-05,0.00010155713891508355,0.00020701009659418633,4.54161234744793e-05,3.2667,5.3333
1.81640625,-1.4153141565575638e-05,8.888632839551386e-05,-0.0001083888665552758,6.361504037537201e-06,3.2667,5.3333
1.8203125,-1.85413010528725e-05,0.0001449999178393225,7.618809187914856e-05,-3.5627697056534655e-05,3.2667,5.3333
1.82421875,-2.9292291796749822e-05,7.717542776379035e-05,0.00010350438468757154,6.738434690775922e-05,3.2667,5.3333
1.828125,-1.365947362325474e-05,2.6382481698329142e-05,-0.00014939073176470586,6.837168279240101e-05,3.2667,5.3333
1.83203125,5.867836095216304e-06,6.0555273705653484e-05,0.00011960344480659191,-2.3423128482490254e-05,3.2667,5.3333
1.8359375,1.0749663524834076e-05,3.6639804499885566e-05,0.00017673179613183796,-5.56486747173266e-05,3.2667,5.3333
1.83984375,1.9059740553902514e-05,1.1736999409475871e-05,0.00010205080685740444,-6.336732478828097e-06,3.2667,5.3333
1.84375,3.1757977070267814e-05,-2.441046436713205e-05,2.394156798352027e-05,3.92059032272833e-06,3.2667,5.3333
1.84765625,3.858705027237355e-05,-4.393777408560311e-05,4.2015299871824234e-05,-1.80476331105516e-05,3.2667,5.3333
1.8515625,6.0555273705653484e-05,-4.637868780041199e-05,7.3488399221789955e-06,1.973344550240341e-06,3.2667,5.3333
1.85546875,6.738434690775922e-05,-9.179613849393453e-05,-7.224140277866786e-05,2.004707643854431e-05,3.2667,5.3333
1.859375,7.275984227969789e-05,-0.00013622625330281528,-0.00011423060387273975,2.8329727470817133e-05,3.2667,5.3333
1.86328125,8.839266045319295e-05,-0.0001830972818265049,-0.00017039904531013963,4.49224555321584e-05,3.2667,5.3333
1.8671875,9.47280657129778e-05,-0.000218257409718471,-0.00020262459154497594,3.419889078507668e-05,3.2667,5.3333
1.87109375,0.00010594529840238042,-0.00021628273794918742,-0.0001987301,4.1521631929503325e-05,3.2667,5.3333
1.875,0.00010106347097276265,-0.00022360547909361405,-0.00021727007383382925,5.471353638818953e-05,3.2667,5.3333
1.87890625,9.52217336552987e-05,-0.00023290289200732434,-0.00025780569709773403,5.8114359990844595e-05,3.2667,5.3333
1.8828125,8.496441085374228e-05,-0.00024412012469672692,-0.00026414110235751885,7.325351022201877e-05,3.2667,5.3333
1.88671875,9.376815582513162e-05,-0.0002470547063538567,-0.00023583747366445407,7.764166970931564e-05,3.2667,5.3333
1.890625,9.376815582513162e-05,-0.00022558015086289763,-0.00022947464240787366,6.886535073472192e-05,3.2667,5.3333
1.89453125,7.226617433737698e-05,-0.00020506550525978485,-0.00021532282806134128,7.325351022201877e-05,3.2667,5.3333
1.8984375,6.447719124742505e-05,-0.00020361192742961775,-0.0001972490961730373,7.912267353627834e-05,3.2667,5.3333
1.90234375,7.717542776379035e-05,-0.0001987301,-0.00019335460462806134,6.104894164797437e-05,3.2667,5.3333
1.90625,7.961634147859924e-05,-0.00017577454068207828,-0.00018065636811169603,5.6167114218356615e-05,3.2667,5.3333
1.91015625,5.567344627603572e-05,-0.0001586881446784161,-0.0001586881446784161,6.250251947814146e-05,3.2667,5.3333
1.9140625,3.419889078507668e-05,-0.00013474524947585257,-0.00012890351215838862,5.471353638818953e-05,3.2667,5.3333
1.91796875,3.0770641185626015e-05,-0.00013474524947585257,-0.0001313444258731975,5.5179778333714816e-05,3.2667,5.3333
1.921875,2.9317063355458924e-05,-0.00012986342204623482,-0.00011620527564202333,4.49224555321584e-05,3.2667,5.3333
1.92578125,3.5652468615243774e-05,-7.909790197756922e-05,-7.761689815060654e-05,3.908071821469445e-05,3.2667,5.3333
1.9296875,3.271788695811399e-05,-4.53913519157702e-05,-5.0766847287708854e-05,4.640345935912109e-05,3.2667,5.3333
1.93359375,4.9079262073701245e-06,-4.24567702586404e-05,-4.199052831311511e-05,4.2975209759670416e-05,3.2667,5.3333
1.9375,-1.1218559908445854e-05,-2.5370374254978244e-05,-3.9055946655985336e-05,3.225164501258871e-05,3.2667,5.3333
1.94140625,-2.1969550652323177e-05,-6.336732478828097e-06,-9.61237106889442e-07,3.321155490043489e-05,3.2667,5.3333
1.9453125,-1.999487888303959e-05,1.955340849622341e-05,1.807240466926072e-05,3.0770641185626015e-05,3.2667,5.3333
1.94921875,-3.219944745708397e-05,3.809338233005266e-05,2.9317063355458924e-05,2.3447900041199374e-05,3.2667,5.3333
1.953125,-3.513402911421377e-05,4.053429604486153e-05,4.640345935912109e-05,1.9059740553902514e-05,3.2667,5.3333
1.95703125,-3.219944745708397e-05,5.666078216067751e-05,5.177895473105975e-05,1.467158106660564e-05,3.2667,5.3333
1.9609375,-3.5627697056534655e-05,7.13062644495308e-05,6.250251947814146e-05,1.467158106660564e-05,3.2667,5.3333
1.96484375,-2.292946054016936e-05,7.424084610666057e-05,5.8114359990844595e-05,8.30874981002519e-06,3.2667,5.3333
1.96875,-4.637868780041199e-05,9.376815582513162e-05,7.813533765163655e-05,1.0255995582513178e-05,3.2667,5.3333
1.97265625,-5.515500677500572e-05,0.00011765619903410394,0.00010205080685740444,1.5631490954451833e-05,3.2667,5.3333
1.9765625,-4.588501985809108e-05,0.00011765619903410394,0.00010399805262989243,1.6125158896772732e-05,3.2667,5.3333
1.98046875,-4.637868780041199e-05,0.00010251704880292975,0.00010983978994735639,1.7112494781414524e-05,3.2667,5.3333
1.984375,-5.75959204898146e-05,9.132724211032274e-05,0.00010251704880292975,1.5631490954451833e-05,3.2667,5.3333
1.98828125,-5.808958843213548e-05,0.00011521528531929505,0.00012448527223620967,1.807240466926072e-05,3.2667,5.3333
1.9921875,-4.7832265630579055e-05,0.0001464809216662852,0.000133289017207599,1.4177913124284742e-05,3.2667,5.3333
1.99609375,-4.588501985809108e-05,0.00014110542629434654,0.00011521528531929505,9.789753636987882e-06,3.2667,5.3333
2.0,-3.6121364998855564e-05,0.00012692618595101855,0.0001205907806912337,1.0749663524834076e-05,3.2667,5.3333
2.00390625,-4.34441061432822e-05,0.0001327953492652781,0.00011570895326161594,1.2230667351796767e-05,3.2667,5.3333
2.0078125,-4.443144202792399e-05,0.00012939452566262304,0.00010693263428702221,8.802417752346087e-06,3.2667,5.3333
2.01171875,-3.074586962691691e-05,0.00012401903029068438,0.0001191372028610666,3.4269223804074326e-06,3.2667,5.3333
2.015625,-3.4174119226367564e-05,0.00012791352183566033,0.00011765619903410394,9.789753636987882e-06,3.2667,5.3333
2.01953125,-3.4174119226367564e-05,0.00013427635309224082,0.00012692618595101855,9.789753636987882e-06,3.2667,5.3333
2.0234375,-3.5627697056534655e-05,0.0001327953492652781,0.0001318354393774319,4.9079262073701245e-06,3.2667,5.3333
2.02734375,-2.6357710139620036e-05,0.00013474259503776608,0.00012547260812085148,1.4177913124284742e-05,3.2667,5.3333
2.03125,-2.147588271000228e-05,0.00014694716361181046,0.00012741985389333945,1.0255995582513178e-05,3.2667,5.3333
2.03515625,-2.8304955912108027e-05,0.0001303544355504692,0.00011960344480659191,-3.895818764019211e-06,3.2667,5.3333
2.0390625,-2.9758533742275118e-05,0.00011716253109178302,0.00012741985389333945,6.855171979858099e-06,3.2667,5.3333
2.04296875,-2.8304955912108027e-05,0.00012253802646372167,0.00013866451257953767,2.1994322211032283e-05,3.2667,5.3333
2.046875,-2.6357710139620036e-05,0.00012547260812085148,0.00013671726680704966,2.248799015335318e-05,3.2667,5.3333
2.05078125,-2.6851378081940936e-05,0.0001327953492652781,0.00013718350875257496,2.443523592584117e-05,3.2667,5.3333
2.0546875,-1.999487888303959e-05,0.00012692618595101855,0.00013671726680704966,2.7836059528496233e-05,3.2667,5.3333
2.05859375,-1.4153141565575638e-05,0.000133289017207599,0.00013671726680704966,2.6382481698329142e-05,3.2667,5.3333
2.0625,-2.1969550652323177e-05,0.00012692618595101855,0.00012157811657587549,2.443523592584117e-05,3.2667,5.3333
2.06640625,-2.731762002746623e-05,0.00012352536234836348,0.0001362235988647288,3.225164501258871e-05,3.2667,5.3333
2.0703125,-1.5606719395742713e-05,0.00012401903029068438,0.00015136274909590298,2.9810731297779824e-05,3.2667,5.3333
2.07421875,-1.023122402380406e-05,0.0001191372028610666,0.0001327953492652781,2.443523592584117e-05,3.2667,5.3333
2.078125,-9.764982078278763e-06,0.00011425537543144885,0.00011521528531929505,2.687614964065004e-05,3.2667,5.3333
2.08203125,-1.0724891966124956e-05,0.00010106347097276265,9.132724211032274e-05,2.5888813756008246e-05,3.2667,5.3333
2.0859375,-1.4153141565575638e-05,0.00011277437160448616,9.52217336552987e-05,2.8329727470817133e-05,3.2667,5.3333
2.08984375,-1.3165805680933842e-05,0.00012157811657587549,0.00010495796251773861,2.7369817582970937e-05,3.2667,5.3333
2.09375,-1.0724891966124956e-05,9.960989314259557e-05,9.864998325474939e-05,3.1757977070267814e-05,3.2667,5.3333
2.09765625,-2.0488546825360486e-05,8.496441085374228e-05,0.00010693263428702221,2.7369817582970937e-05,3.2667,5.3333
2.1015625,-1.4646809507896534e-05,0.00010059722902723736,0.00010301071674525064,3.271788695811399e-05,3.2667,5.3333
2.10546875,2.6098777752352474e-08,9.716897942778669e-05,8.545807879606319e-05,4.102796398718243e-05,3.2667,5.3333
2.109375,-5.843064536507199e-06,8.888632839551386e-05,7.473451404898147e-05,3.469255872739758e-05,3.2667,5.3333
2.11328125,-2.414814937056519e-06,9.766264737010758e-05,7.275984227969789e-05,2.9810731297779824e-05,3.2667,5.3333
2.1171875,-9.271314135957865e-06,8.449816890821699e-05,6.0555273705653484e-05,2.3447900041199374e-05,3.2667,5.3333
2.12109375,-1.9034968995193395e-05,8.644541468070498e-05,5.5179778333714816e-05,2.248799015335318e-05,3.2667,5.3333
2.125,-1.1218559908445854e-05,8.400450096589609e-05,7.668175982146945e-05,2.687614964065004e-05,3.2667,5.3333
2.12890625,-1.2672137738612945e-05,6.93590186770428e-05,8.449816890821699e-05,2.2954232098878478e-05,3.2667,5.3333
2.1328125,-2.441046436713205e-05,6.494343319295035e-05,6.398352330510415e-05,2.687614964065004e-05,3.2667,5.3333
2.13671875,-3.12395375692378e-05,4.933804101625087e-05,4.640345935912109e-05,2.4928903868162065e-05,3.2667,5.3333
2.140625,-2.098221476768138e-05,4.1521631929503325e-05,4.2015299871824234e-05,2.443523592584117e-05,3.2667,5.3333
2.14453125,1.973344550240341e-06,5.1285286788738856e-05,6.006160576333258e-05,3.126430912794692e-05,3.2667,5.3333
2.1484375,1.479676607919444e-06,6.787801485008011e-05,5.9101695875486387e-05,2.9317063355458924e-05,3.2667,5.3333
2.15234375,-4.855728651865405e-06,7.668175982146945e-05,6.203627753261618e-05,3.126430912794692e-05,3.2667,5.3333
2.15625,1.973344550240341e-06,6.398352330510415e-05,5.567344627603572e-05,3.271788695811399e-05,3.2667,5.3333
2.16015625,7.3488399221789955e-06,6.154260959029528e-05,3.7599714387731754e-05,3.271788695811399e-05,3.2667,5.3333
2.1640625,6.855171979858099e-06,4.640345935912109e-05,5.76206920485237e-05,3.0770641185626015e-05,3.2667,5.3333
2.16796875,3.4269223804074326e-06,4.884437307392997e-05,5.860802793316549e-05,3.271788695811399e-05,3.2667,5.3333
2.171875,9.860086655985469e-07,5.76206920485237e-05,6.348985536278326e-05,3.271788695811399e-05,3.2667,5.3333
2.17578125,2.6098777752352474e-08,4.640345935912109e-05,6.398352330510415e-05,3.225164501258871e-05,3.2667,5.3333
2.1796875,9.860086655985469e-07,3.713347244220647e-05,4.004062810254064e-05,3.225164501258871e-05,3.2667,5.3333
2.18359375,1.1243331467154973e-05,4.053429604486153e-05,4.5909791416800194e-05,3.1757977070267814e-05,3.2667,5.3333
2.1875,2.394156798352027e-05,6.104894164797437e-05,6.006160576333258e-05,3.271788695811399e-05,3.2667,5.3333
2.19140625,6.855171979858099e-06,5.5179778333714816e-05,4.933804101625087e-05,3.271788695811399e-05,3.2667,5.3333
2.1953125,-4.855728651865405e-06,4.346887770199132e-05,3.908071821469445e-05,3.5652468615243774e-05,3.2667,5.3333
2.19921875,1.2696909297322051e-05,5.567344627603572e-05,4.933804101625087e-05,3.6639804499885566e-05,3.2667,5.3333
2.203125,1.9059740553902514e-05,4.2975209759670416e-05,3.7599714387731754e-05,3.271788695811399e-05,3.2667,5.3333
2.20703125,1.7112494781414524e-05,4.248154181734952e-05,4.1521631929503325e-05,2.9810731297779824e-05,3.2667,5.3333
2.2109375,1.6125158896772732e-05,3.9574386157015345e-05,5.0297950904097064e-05,2.882339541313803e-05,3.2667,5.3333
2.21484375,2.004707643854431e-05,2.248799015335318e-05,3.469255872739758e-05,3.809338233005266e-05,3.2667,5.3333
2.21875,2.0513318384069592e-05,3.5652468615243774e-05,4.445621358663311e-05,4.346887770199132e-05,3.2667,5.3333
2.22265625,2.1994322211032283e-05,3.126430912794692e-05,4.053429604486153e-05,4.2015299871824234e-05,3.2667,5.3333
2.2265625,2.004707643854431e-05,4.004062810254064e-05,3.271788695811399e-05,3.908071821469445e-05,3.2667,5.3333
2.23046875,1.2230667351796767e-05,4.884437307392997e-05,4.9831708958571765e-05,3.370522284275579e-05,3.2667,5.3333
2.234375,2.0513318384069592e-05,3.713347244220647e-05,3.908071821469445e-05,3.908071821469445e-05,3.2667,5.3333
2.23828125,3.515880067292288e-05,2.8329727470817133e-05,1.5631490954451833e-05,3.713347244220647e-05,3.2667,5.3333
2.2421875,3.321155490043489e-05,2.004707643854431e-05,3.0770641185626015e-05,3.419889078507668e-05,3.2667,5.3333
2.24609375,2.9317063355458924e-05,3.469255872739758e-05,4.884437307392997e-05,4.3962545644312214e-05,3.2667,5.3333
2.25,3.809338233005266e-05,4.2975209759670416e-05,4.2015299871824234e-05,3.7599714387731754e-05,3.2667,5.3333
2.25390625,3.1757977070267814e-05,2.8329727470817133e-05,3.6639804499885566e-05,3.515880067292288e-05,3.2667,5.3333
2.2578125,1.4177913124284742e-05,4.004062810254064e-05,4.2015299871824234e-05,3.9574386157015345e-05,3.2667,5.3333
2.26171875,2.004707643854431e-05,2.5888813756008246e-05,3.225164501258871e-05,3.713347244220647e-05,3.2667,5.3333
2.265625,1.8566072611581615e-05,2.4670124925612384e-06,2.882339541313803e-05,4.004062810254064e-05,3.2667,5.3333
2.26953125,1.1736999409475871e-05,3.271788695811399e-05,4.004062810254064e-05,4.248154181734952e-05,3.2667,5.3333
2.2734375,2.1994322211032283e-05,4.5909791416800194e-05,3.6639804499885566e-05,3.9574386157015345e-05,3.2667,5.3333
2.27734375,2.1500654268711387e-05,3.809338233005266e-05,2.5888813756008246e-05,3.809338233005266e-05,3.2667,5.3333
2.28125,2.9317063355458924e-05,3.5652468615243774e-05,1.467158106660564e-05,3.515880067292288e-05,3.2667,5.3333
2.28515625,2.3447900041199374e-05,4.004062810254064e-05,2.8329727470817133e-05,3.321155490043489e-05,3.2667,5.3333
2.2890625,8.30874981002519e-06,3.515880067292288e-05,4.7857037189288174e-05,3.0770641185626015e-05,3.2667,5.3333
2.29296875,2.4928903868162065e-05,3.225164501258871e-05,4.739079524376289e-05,3.1757977070267814e-05,3.2667,5.3333
2.296875,3.419889078507668e-05,5.3232532561226836e-05,2.4928903868162065e-05,3.321155490043489e-05,3.2667,5.3333
2.30078125,3.1757977070267814e-05,4.248154181734952e-05,2.0513318384069592e-05,3.027697324330512e-05,3.2667,5.3333
2.3046875,3.126430912794692e-05,1.8566072611581615e-05,2.1500654268711387e-05,2.9810731297779824e-05,3.2667,5.3333
2.30859375,4.053429604486153e-05,3.419889078507668e-05,1.8566072611581615e-05,2.9317063355458924e-05,3.2667,5.3333
2.3125,2.6382481698329142e-05,2.9810731297779824e-05,3.7599714387731754e-05,2.7836059528496233e-05,3.2667,5.3333
2.31640625,5.374168152895408e-06,1.1736999409475871e-05,4.004062810254064e-05,2.4928903868162065e-05,3.2667,5.3333
2.3203125,1.1243331467154973e-05,2.7836059528496233e-05,3.908071821469445e-05,3.321155490043489e-05,3.2667,5.3333
2.32421875,2.9332544380865355e-06,3.271788695811399e-05,3.614613655756467e-05,2.9810731297779824e-05,3.2667,5.3333
2.328125,1.2230667351796767e-05,3.126430912794692e-05,3.419889078507668e-05,2.1500654268711387e-05,3.2667,5.3333
2.33203125,3.614613655756467e-05,4.102796398718243e-05,3.713347244220647e-05,2.882339541313803e-05,3.2667,5.3333
2.3359375,3.908071821469445e-05,3.1757977070267814e-05,2.1500654268711387e-05,2.9317063355458924e-05,3.2667,5.3333
2.33984375,3.225164501258871e-05,2.248799015335318e-05,2.1500654268711387e-05,2.9810731297779824e-05,3.2667,5.3333
2.34375,2.004707643854431e-05,1.7112494781414524e-05,1.4177913124284742e-05,2.7836059528496233e-05,3.2667,5.3333
2.34765625,2.2954232098878478e-05,3.370522284275579e-05,1.8566072611581615e-05,2.394156798352027e-05,3.2667,5.3333
2.3515625,2.2954232098878478e-05,3.6639804499885566e-05,4.102796398718243e-05,2.6382481698329142e-05,3.2667,5.3333
2.35546875,1.807240466926072e-05,2.1006986326390488e-05,3.271788695811399e-05,2.687614964065004e-05,3.2667,5.3333
2.359375,1.467158106660564e-05,3.027697324330512e-05,2.3447900041199374e-05,2.8329727470817133e-05,3.2667,5.3333
2.36328125,1.1243331467154973e-05,3.370522284275579e-05,2.4928903868162065e-05,2.7836059528496233e-05,3.2667,5.3333
2.3671875,1.7578736726939823e-05,3.370522284275579e-05,3.0770641185626015e-05,2.687614964065004e-05,3.2667,5.3333
2.37109375,2.9810731297779824e-05,2.443523592584117e-05,2.687614964065004e-05,2.6382481698329142e-05,3.2667,5.3333
2.375,2.8329727470817133e-05,2.248799015335318e-05,3.419889078507668e-05,2.3447900041199374e-05,3.2667,5.3333
2.37890625,1.467158106660564e-05,4.004062810254064e-05,2.7836059528496233e-05,2.6382481698329142e-05,3.2667,5.3333
2.3828125,2.4670124925612384e-06,2.248799015335318e-05,8.30874981002519e-06,3.1757977070267814e-05,3.2667,5.3333
2.38671875,1.7112494781414524e-05,3.858705027237355e-05,3.6639804499885566e-05,2.7836059528496233e-05,3.2667,5.3333
2.390625,3.1757977070267814e-05,6.299618742046236e-05,5.666078216067751e-05,2.7836059528496233e-05,3.2667,5.3333
2.39453125,3.126430912794692e-05,2.2954232098878478e-05,2.394156798352027e-05,2.9810731297779824e-05,3.2667,5.3333
2.3984375,2.882339541313803e-05,-1.948572991531236e-06,7.815081867704294e-06,2.443523592584117e-05,3.2667,5.3333
2.40234375,2.9317063355458924e-05,3.469255872739758e-05,2.687614964065004e-05,1.955340849622341e-05,3.2667,5.3333
2.40625,4.54161234744793e-05,4.3962545644312214e-05,1.3190577239642948e-05,1.7112494781414524e-05,3.2667,5.3333
2.41015625,4.6897127301441986e-05,3.027697324330512e-05,9.296085694666985e-06,1.5137823012130937e-05,3.2667,5.3333
2.4140625,3.7599714387731754e-05,3.027697324330512e-05,2.7369817582970937e-05,5.867836095216304e-06,3.2667,5.3333
2.41796875,2.1500654268711387e-05,1.3190577239642948e-05,-5.843064536507199e-06,6.855171979858099e-06,3.2667,5.3333
2.421875,2.1006986326390488e-05,3.321155490043489e-05,4.923407232776497e-07,1.3190577239642948e-05,3.2667,5.3333
2.42578125,4.835070513160907e-05,5.079161884641796e-05,4.102796398718243e-05,7.815081867704294e-06,3.2667,5.3333
2.4296875,4.54161234744793e-05,3.858705027237355e-05,4.5909791416800194e-05,7.815081867704294e-06,3.2667,5.3333
2.43359375,3.6639804499885566e-05,4.884437307392997e-05,4.2015299871824234e-05,1.2230667351796767e-05,3.2667,5.3333
2.4375,2.9317063355458924e-05,4.2975209759670416e-05,3.7599714387731754e-05,1.5137823012130937e-05,3.2667,5.3333
2.44140625,2.7836059528496233e-05,3.713347244220647e-05,3.271788695811399e-05,1.3190577239642948e-05,3.2667,5.3333
2.4453125,3.809338233005266e-05,3.908071821469445e-05,2.9317063355458924e-05,1.1736999409475871e-05,3.2667,5.3333
2.44921875,3.6639804499885566e-05,4.5909791416800194e-05,4.2975209759670416e-05,1.5631490954451833e-05,3.2667,5.3333
2.453125,3.419889078507668e-05,5.6167114218356615e-05,4.7857037189288174e-05,1.7112494781414524e-05,3.2667,5.3333
2.45703125,4.54161234744793e-05,4.346887770199132e-05,2.3447900041199374e-05,1.3684245181963844e-05,3.2667,5.3333
2.4609375,3.858705027237355e-05,4.445621358663311e-05,1.2230667351796767e-05,1.7578736726939823e-05,3.2667,5.3333
2.46484375,3.126430912794692e-05,5.0297950904097064e-05,4.248154181734952e-05,2.1500654268711387e-05,3.2667,5.3333
2.46875,4.884437307392997e-05,5.0297950904097064e-05,5.3232532561226836e-05,1.955340849622341e-05,3.2667,5.3333
2.47265625,4.1521631929503325e-05,4.6897127301441986e-05,3.908071821469445e-05,1.8566072611581615e-05,3.2667,5.3333
2.4765625,2.3447900041199374e-05,3.7599714387731754e-05,2.8329727470817133e-05,1.8566072611581615e-05,3.2667,5.3333
2.48046875,3.225164501258871e-05,4.5909791416800194e-05,1.467158106660564e-05,1.807240466926072e-05,3.2667,5.3333
2.484375,3.713347244220647e-05,4.933804101625087e-05,2.004707643854431e-05,1.467158106660564e-05,3.2667,5.3333
2.48828125,4.004062810254064e-05,4.54161234744793e-05,3.469255872739758e-05,2.0513318384069592e-05,3.2667,5.3333
2.4921875,3.469255872739758e-05,4.2975209759670416e-05,4.346887770199132e-05,2.3447900041199374e-05,3.2667,5.3333
2.49609375,2.1500654268711387e-05,5.079161884641796e-05,5.227262267338065e-05,1.7112494781414524e-05,3.2667,5.3333
2.5,1.6618826839093628e-05,6.738434690775922e-05,4.2975209759670416e-05,2.004707643854431e-05,3.2667,5.3333
2.50390625,3.92059032272833e-06,5.7154450102998406e-05,2.9317063355458924e-05,2.5395145813687347e-05,3.2667,5.3333
2.5078125,1.4177913124284742e-05,3.271788695811399e-05,4.5909791416800194e-05,2.9317063355458924e-05,3.2667,5.3333
2.51171875,2.9810731297779824e-05,3.1757977070267814e-05,3.809338233005266e-05,2.6382481698329142e-05,3.2667,5.3333
2.515625,2.2954232098878478e-05,5.0297950904097064e-05,2.2954232098878478e-05,2.443523592584117e-05,3.2667,5.3333
2.51953125,2.5888813756008246e-05,4.248154181734952e-05,3.1757977070267814e-05,2.1500654268711387e-05,3.2667,5.3333
2.5234375,2.7836059528496233e-05,3.908071821469445e-05,3.713347244220647e-05,1.6618826839093628e-05,3.2667,5.3333
2.52734375,2.9317063355458924e-05,4.49224555321584e-05,4.248154181734952e-05,1.807240466926072e-05,3.2667,5.3333
2.53125,2.882339541313803e-05,3.126430912794692e-05,2.9810731297779824e-05,2.1006986326390488e-05,3.2667,5.3333
2.53515625,2.5395145813687347e-05,3.321155490043489e-05,2.5888813756008246e-05,2.1994322211032283e-05,3.2667,5.3333
2.5390625,2.394156798352027e-05,4.2975209759670416e-05,3.370522284275579e-05,2.7369817582970937e-05,3.2667,5.3333
2.54296875,3.225164501258871e-05,4.1521631929503325e-05,3.370522284275579e-05,2.7369817582970937e-05,3.2667,5.3333
2.546875,2.6382481698329142e-05,3.515880067292288e-05,4.933804101625087e-05,2.5888813756008246e-05,3.2667,5.3333
2.55078125,1.2230667351796767e-05,3.027697324330512e-05,5.1285286788738856e-05,2.6382481698329142e-05,3.2667,5.3333
2.5546875,1.955340849622341e-05,4.2015299871824234e-05,3.614613655756467e-05,2.6382481698329142e-05,3.2667,5.3333
2.55859375,2.5395145813687347e-05,4.004062810254064e-05,2.394156798352027e-05,2.9317063355458924e-05,3.2667,5.3333
2.5625,2.5888813756008246e-05,3.6639804499885566e-05,3.370522284275579e-05,2.687614964065004e-05,3.2667,5.3333
2.56640625,2.1994322211032283e-05,4.346887770199132e-05,4.739079524376289e-05,2.394156798352027e-05,3.2667,5.3333
2.5703125,1.467158106660564e-05,4.053429604486153e-05,4.835070513160907e-05,2.687614964065004e-05,3.2667,5.3333
2.57421875,3.469255872739758e-05,4.102796398718243e-05,4.54161234744793e-05,2.7369817582970937e-05,3.2667,5.3333
2.578125,3.321155490043489e-05,3.271788695811399e-05,5.0297950904097064e-05,2.7369817582970937e-05,3.2667,5.3333
2.58203125,1.467158106660564e-05,2.6382481698329142e-05,5.567344627603572e-05,2.8329727470817133e-05,3.2667,5.3333
2.5859375,1.955340849622341e-05,4.102796398718243e-05,5.227262267338065e-05,2.248799015335318e-05,3.2667,5.3333
2.58984375,2.5888813756008246e-05,4.933804101625087e-05,6.203627753261618e-05,2.0513318384069592e-05,3.2667,5.3333
2.59375,2.7836059528496233e-05,4.5909791416800194e-05,6.691810496223393e-05,2.5395145813687347e-05,3.2667,5.3333
2.59765625,2.5395145813687347e-05,4.1521631929503325e-05,4.5909791416800194e-05,2.8329727470817133e-05,3.2667,5.3333
2.6015625,2.8329727470817133e-05,4.004062810254064e-05,3.5652468615243774e-05,3.1757977070267814e-05,3.2667,5.3333
2.60546875,2.6382481698329142e-05,3.908071821469445e-05,4.004062810254064e-05,2.9317063355458924e-05,3.2667,5.3333
2.609375,2.0513318384069592e-05,5.1285286788738856e-05,4.884437307392997e-05,2.8329727470817133e-05,3.2667,5.3333
2.61328125,2.687614964065004e-05,5.471353638818953e-05,5.273886461890594e-05,2.7369817582970937e-05,3.2667,5.3333
2.6171875,2.687614964065004e-05,3.908071821469445e-05,6.447719124742505e-05,2.5888813756008246e-05,3.2667,5.3333
2.62109375,3.321155490043489e-05,3.9574386157015345e-05,5.7154450102998406e-05,2.5888813756008246e-05,3.2667,5.3333
2.625,3.419889078507668e-05,3.7599714387731754e-05,4.54161234744793e-05,2.882339541313803e-05,3.2667,5.3333
2.62890625,2.004707643854431e-05,4.739079524376289e-05,6.348985536278326e-05,3.321155490043489e-05,3.2667,5.3333
2.6328125,2.3447900041199374e-05,4.640345935912109e-05,6.250251947814146e-05,2.882339541313803e-05,3.2667,5.3333
2.63671875,3.126430912794692e-05,2.1500654268711387e-05,3.713347244220647e-05,2.687614964065004e-05,3.2667,5.3333
2.640625,2.8329727470817133e-05,3.321155490043489e-05,3.7599714387731754e-05,2.6382481698329142e-05,3.2667,5.3333
2.64453125,2.5395145813687347e-05,5.177895473105975e-05,3.126430912794692e-05,2.882339541313803e-05,3.2667,5.3333
2.6484375,2.8329727470817133e-05,3.321155490043489e-05,3.0770641185626015e-05,3.469255872739758e-05,3.2667,5.3333
2.65234375,2.394156798352027e-05,2.004707643854431e-05,3.809338233005266e-05,2.9317063355458924e-05,3.2667,5.3333
2.65625,2.248799015335318e-05,2.7369817582970937e-05,2.9810731297779824e-05,2.7369817582970937e-05,3.2667,5.3333
2.66015625,1.5631490954451833e-05,4.053429604486153e-05,2.7836059528496233e-05,3.0770641185626015e-05,3.2667,5.3333
2.6640625,2.394156798352027e-05,4.346887770199132e-05,2.9317063355458924e-05,2.9317063355458924e-05,3.2667,5.3333
2.66796875,4.7857037189288174e-05,3.225164501258871e-05,3.5652468615243774e-05,3.858705027237355e-05,3.2667,5.3333
2.671875,4.835070513160907e-05,1.955340849622341e-05,3.6639804499885566e-05,4.54161234744793e-05,3.2667,5.3333
2.67578125,4.3962545644312214e-05,1.2230667351796767e-05,2.1500654268711387e-05,2.9810731297779824e-05,3.2667,5.3333
2.6796875,4.7857037189288174e-05,6.361504037537201e-06,-1.4153141565575638e-05,2.1500654268711387e-05,3.2667,5.3333
2.68359375,6.447719124742505e-05,-2.5370374254978244e-05,-4.199052831311511e-05,1.7112494781414524e-05,3.2667,5.3333
2.6875,8.449816890821699e-05,-7.517598443579766e-05,-5.663601060196839e-05,1.6618826839093628e-05,3.2667,5.3333
2.69140625,9.716897942778669e-05,-9.569063003891047e-05,-9.813154375371936e-05,1.5137823012130937e-05,3.2667,5.3333
2.6953125,0.00012547260812085148,-0.00010202603529869534,-0.00013474524947585257,1.1736999409475871e-05,3.2667,5.3333
2.69921875,0.0001479344994964523,-0.0001601417225085832,-0.00017626820862439916,1.5137823012130937e-05,3.2667,5.3333
2.703125,0.00017821279995880064,-0.00021727007383382925,-0.00023240922406500339,2.6382481698329142e-05,3.2667,5.3333
2.70703125,0.00021776108733806364,-0.0002548711154406042,-0.0002729448473289082,2.248799015335318e-05,3.2667,5.3333
2.7109375,0.00020945101030899518,-0.0002700102656717784,-0.0002914848211627374,1.7578736726939823e-05,3.2667,5.3333
2.71484375,0.00020799743247882808,-0.0002743984251590753,-0.00030467672562142366,4.3962545644312214e-05,3.2667,5.3333
2.71875,0.00021433283773861296,-0.00033053944059967954,-0.0003452123488853284,5.6167114218356615e-05,3.2667,5.3333
2.72265625,0.00020262193710688943,-0.00032615128111238267,-0.0003461722587731746,6.006160576333258e-05,3.2667,5.3333
2.7265625,0.00020311560504921036,-0.00030272947984893566,-0.00031444038048065916,7.226617433737698e-05,3.2667,5.3333
2.73046875,0.00020555651876401923,-0.0003110121308812085,-0.0002978476524193179,7.961634147859924e-05,3.2667,5.3333
2.734375,0.00019431186007782102,-0.0002978476524193179,-0.0002914848211627374,8.496441085374228e-05,3.2667,5.3333
2.73828125,0.0001801600457312886,-0.00028320217013046465,-0.0002914848211627374,7.764166970931564e-05,3.2667,5.3333
2.7421875,0.00016551456344243536,-0.0002592592749279011,-0.0002670756840146486,7.226617433737698e-05,3.2667,5.3333
2.74609375,0.0001572044864133669,-0.00021921731960631723,-0.00022508648292057676,8.156358725108723e-05,3.2667,5.3333
2.75,0.00013767717669489586,-0.00017135895519798577,-0.00019335460462806134,7.520075599450677e-05,3.2667,5.3333
2.75390625,0.0001073988762325475,-0.00011472427181506062,-0.00015819447673609522,6.543710113527124e-05,3.2667,5.3333
2.7578125,0.00010059722902723736,-8.299239352254519e-05,-0.00012596893050125885,6.447719124742505e-05,3.2667,5.3333
2.76171875,0.00012791352183566033,-8.299239352254519e-05,-9.862521169604028e-05,5.4219868445868634e-05,3.2667,5.3333
2.765625,0.0001088798800595102,-6.590599751888302e-05,-6.785324329137099e-05,5.1285286788738856e-05,3.2667,5.3333
2.76953125,7.473451404898147e-05,-1.952863693751429e-05,-3.710870088349736e-05,5.079161884641796e-05,3.2667,5.3333
2.7734375,6.543710113527124e-05,-4.855728651865405e-06,-1.1712227850766751e-05,4.2015299871824234e-05,3.2667,5.3333
2.77734375,4.9831708958571765e-05,-1.948572991531236e-06,8.30874981002519e-06,3.6639804499885566e-05,3.2667,5.3333
2.78125,4.54161234744793e-05,2.9317063355458924e-05,2.004707643854431e-05,3.225164501258871e-05,3.2667,5.3333
2.78515625,3.908071821469445e-05,6.006160576333258e-05,3.9574386157015345e-05,2.443523592584117e-05,3.2667,5.3333
2.7890625,3.126430912794692e-05,7.374717816433968e-05,7.374717816433968e-05,2.248799015335318e-05,3.2667,5.3333
2.79296875,1.0749663524834076e-05,8.30171650812543e-05,8.545807879606319e-05,2.394156798352027e-05,3.2667,5.3333
2.796875,-3.4021508216983135e-06,0.00011814986697642481,7.374717816433968e-05,2.1006986326390488e-05,3.2667,5.3333
2.80078125,4.414258265049227e-06,0.00011033345788967728,8.888632839551386e-05,1.7578736726939823e-05,3.2667,5.3333
2.8046875,-6.336732478828097e-06,8.20572551934081e-05,0.00012986076760814833,1.6125158896772732e-05,3.2667,5.3333
2.80859375,-1.9034968995193395e-05,0.0001078925441748684,0.0001474408315541314,1.807240466926072e-05,3.2667,5.3333
2.8125,-1.952863693751429e-05,0.00012791352183566033,0.0001493880773266194,1.6618826839093628e-05,3.2667,5.3333
2.81640625,-3.269311539940489e-05,0.0001362235988647288,0.00015281632692607005,1.467158106660564e-05,3.2667,5.3333
2.8203125,-2.9758533742275118e-05,0.0001459872537239643,0.00013962442246738383,1.2230667351796767e-05,3.2667,5.3333
2.82421875,-1.999487888303959e-05,0.0001586854902403296,0.00014354634000915542,1.0749663524834076e-05,3.2667,5.3333
2.828125,-1.80476331105516e-05,0.00014011809040970476,0.00013915818052185854,1.1243331467154973e-05,3.2667,5.3333
2.83203125,-4.050952448615243e-05,0.000133289017207599,0.00014694716361181046,1.6618826839093628e-05,3.2667,5.3333
2.8359375,-4.443144202792399e-05,0.00013866451257953767,0.00016452722755779355,2.248799015335318e-05,3.2667,5.3333
2.83984375,-3.464036117189286e-05,0.000133289017207599,0.0001596454001281758,2.5395145813687347e-05,3.2667,5.3333
2.84375,-4.100319242847331e-05,0.00014061175835202564,0.0001464809216662852,2.1994322211032283e-05,3.2667,5.3333
2.84765625,-5.222042511787592e-05,0.00013767717669489586,0.00014206533618219274,2.1994322211032283e-05,3.2667,5.3333
2.8515625,-5.46613388326848e-05,0.00015232265898374917,0.0001479344994964523,2.2954232098878478e-05,3.2667,5.3333
2.85546875,-4.199052831311511e-05,0.00017138372675669489,0.00014842816743877317,1.807240466926072e-05,3.2667,5.3333
2.859375,-4.443144202792399e-05,0.00015624457652552073,0.00014061175835202564,2.4928903868162065e-05,3.2667,5.3333
2.86328125,-3.661503294117645e-05,0.00013718350875257496,0.00014404000795147632,2.7369817582970937e-05,3.2667,5.3333
2.8671875,-4.001585654383152e-05,0.00012352536234836348,0.00014694716361181046,2.2954232098878478e-05,3.2667,5.3333
2.87109375,-3.8068610771343544e-05,0.00011716253109178302,0.00013718350875257496,2.5395145813687347e-05,3.2667,5.3333
2.875,-3.318678334172577e-05,0.00012303169440604258,0.0001303544355504692,2.9810731297779824e-05,3.2667,5.3333
2.87890625,-4.001585654383152e-05,0.0001362235988647288,0.0001357299309224079,2.8329727470817133e-05,3.2667,5.3333
2.8828125,-3.318678334172577e-05,0.00014011809040970476,0.0001445062498970016,2.687614964065004e-05,3.2667,5.3333
2.88671875,-4.637868780041199e-05,0.00013866451257953767,0.00015086908115358207,2.9317063355458924e-05,3.2667,5.3333
2.890625,-2.9292291796749822e-05,0.00014404000795147632,0.00014255900412451364,2.687614964065004e-05,3.2667,5.3333
2.89453125,-3.895818764019211e-06,0.00012497894017853055,0.00012645994400549326,2.7369817582970937e-05,3.2667,5.3333
2.8984375,-1.952863693751429e-05,0.00011620262120393684,0.00010495796251773861,2.7836059528496233e-05,3.2667,5.3333
2.90234375,-2.6357710139620036e-05,0.00011228070366216525,9.960989314259557e-05,3.027697324330512e-05,3.2667,5.3333
2.90625,-2.441046436713205e-05,0.00010983978994735639,0.00012791352183566033,2.9810731297779824e-05,3.2667,5.3333
2.91015625,-1.952863693751429e-05,0.0001200971127489128,0.00013378268514991989,2.7369817582970937e-05,3.2667,5.3333
2.9140625,-9.764982078278763e-06,0.00010937354800183109,0.00012547260812085148,3.027697324330512e-05,3.2667,5.3333
2.91796875,-9.271314135957865e-06,9.960989314259557e-05,0.00010205080685740444,3.0770641185626015e-05,3.2667,5.3333
2.921875,-1.365947362325474e-05,0.00011864353491874573,0.00010155713891508355,3.126430912794692e-05,3.2667,5.3333
2.92578125,-1.6100387338063613e-05,0.00012939452566262304,0.00012108444863355459,3.419889078507668e-05,3.2667,5.3333
2.9296875,-7.296642366674277e-06,0.0001083862121171893,0.0001191372028610666,3.713347244220647e-05,3.2667,5.3333
2.93359375,4.923407232776497e-07,9.52217336552987e-05,0.00011864353491874573,2.9810731297779824e-05,3.2667,5.3333
2.9375,1.479676607919444e-06,9.716897942778669e-05,0.00011376170748912795,3.225164501258871e-05,3.2667,5.3333
2.94140625,1.0749663524834076e-05,8.937999633783474e-05,0.00010545163046005952,3.469255872739758e-05,3.2667,5.3333
2.9453125,-2.414814937056519e-06,8.937999633783474e-05,9.376815582513162e-05,3.225164501258871e-05,3.2667,5.3333
2.94921875,2.9332544380865355e-06,9.52217336552987e-05,9.914365119707028e-05,3.0770641185626015e-05,3.2667,5.3333
2.953125,1.6125158896772732e-05,9.67027374822614e-05,0.00010983978994735639,3.027697324330512e-05,3.2667,5.3333
2.95703125,1.467158106660564e-05,8.30171650812543e-05,7.862900559395744e-05,3.225164501258871e-05,3.2667,5.3333
2.9609375,1.2696909297322051e-05,6.642443701991303e-05,6.398352330510415e-05,2.5888813756008246e-05,3.2667,5.3333
2.96484375,1.7112494781414524e-05,7.424084610666057e-05,9.327448788281073e-05,2.5888813756008246e-05,3.2667,5.3333
2.96875,1.807240466926072e-05,8.984623828336005e-05,0.00010155713891508355,3.419889078507668e-05,3.2667,5.3333
2.97265625,8.802417752346087e-06,7.275984227969789e-05,7.912267353627834e-05,3.5652468615243774e-05,3.2667,5.3333
2.9765625,4.9079262073701245e-06,6.154260959029528e-05,7.862900559395744e-05,3.614613655756467e-05,3.2667,5.3333
2.98046875,-2.414814937056519e-06,6.886535073472192e-05,8.449816890821699e-05,2.9810731297779824e-05,3.2667,5.3333
2.984375,-3.895818764019211e-06,6.837168279240101e-05,8.156358725108723e-05,2.7836059528496233e-05,3.2667,5.3333
2.98828125,2.0513318384069592e-05,0.00010106347097276265,0.00010937354800183109,2.7836059528496233e-05,3.2667,5.3333
2.9921875,2.687614964065004e-05,0.00010155713891508355,0.00011669628914625774,2.8329727470817133e-05,3.2667,5.3333
2.99609375,1.467158106660564e-05,5.6167114218356615e-05,6.93590186770428e-05,3.419889078507668e-05,3.2667,5.3333
3.0,-4.675691645685447e-07,3.908071821469445e-05,3.908071821469445e-05,3.713347244220647e-05,3.2667,5.3333
3.00390625,5.867836095216304e-06,2.882339541313803e-05,2.9317063355458924e-05,3.6639804499885566e-05,3.2667,5.3333
3.0078125,3.4269223804074326e-06,3.0770641185626015e-05,2.3447900041199374e-05,3.614613655756467e-05,3.2667,5.3333
3.01171875,2.9332544380865355e-06,2.8329727470817133e-05,2.7369817582970937e-05,3.469255872739758e-05,3.2667,5.3333
3.015625,2.4670124925612384e-06,6.361504037537201e-06,3.0770641185626015e-05,3.809338233005266e-05,3.2667,5.3333
3.01953125,-4.855728651865405e-06,1.4177913124284742e-05,3.7599714387731754e-05,3.271788695811399e-05,3.2667,5.3333
3.0234375,3.4269223804074326e-06,3.908071821469445e-05,4.6897127301441986e-05,2.882339541313803e-05,3.2667,5.3333
3.02734375,8.802417752346087e-06,5.7154450102998406e-05,5.7154450102998406e-05,3.271788695811399e-05,3.2667,5.3333
3.03125,3.92059032272833e-06,5.372620050354773e-05,6.154260959029528e-05,3.225164501258871e-05,3.2667,5.3333
3.03515625,-9.61237106889442e-07,5.7154450102998406e-05,6.0555273705653484e-05,2.9810731297779824e-05,3.2667,5.3333
3.0390625,-4.855728651865405e-06,4.2015299871824234e-05,4.2975209759670416e-05,2.7369817582970937e-05,3.2667,5.3333
3.04296875,2.443523592584117e-05,1.479676607919444e-06,2.1006986326390488e-05,2.5395145813687347e-05,3.2667,5.3333
3.046875,3.1757977070267814e-05,3.1757977070267814e-05,3.321155490043489e-05,3.027697324330512e-05,3.2667,5.3333
3.05078125,1.0749663524834076e-05,5.273886461890594e-05,5.7154450102998406e-05,3.614613655756467e-05,3.2667,5.3333
3.0546875,1.3190577239642948e-05,4.5909791416800194e-05,5.372620050354773e-05,2.882339541313803e-05,3.2667,5.3333
3.05859375,1.6618826839093628e-05,5.567344627603572e-05,3.614613655756467e-05,2.8329727470817133e-05,3.2667,5.3333
3.0625,1.467158106660564e-05,5.079161884641796e-05,4.248154181734952e-05,3.515880067292288e-05,3.2667,5.3333
3.06640625,7.3488399221789955e-06,5.3232532561226836e-05,5.177895473105975e-05,3.271788695811399e-05,3.2667,5.3333
3.0703125,1.4177913124284742e-05,3.9574386157015345e-05,4.6897127301441986e-05,2.9317063355458924e-05,3.2667,5.3333
3.07421875,1.2230667351796767e-05,2.9810731297779824e-05,5.567344627603572e-05,3.515880067292288e-05,3.2667,5.3333
3.078125,1.2230667351796767e-05,4.248154181734952e-05,4.640345935912109e-05,3.321155490043489e-05,3.2667,5.3333
3.08203125,2.7369817582970937e-05,4.835070513160907e-05,3.469255872739758e-05,3.419889078507668e-05,3.2667,5.3333
3.0859375,3.126430912794692e-05,5.0297950904097064e-05,5.0297950904097064e-05,3.027697324330512e-05,3.2667,5.3333
3.08984375,2.2954232098878478e-05,5.8114359990844595e-05,5.4219868445868634e-05,2.8329727470817133e-05,3.2667,5.3333
3.09375,1.2230667351796767e-05,4.1521631929503325e-05,4.3962545644312214e-05,3.1757977070267814e-05,3.2667,5.3333
3.09765625,2.9317063355458924e-05,2.8329727470817133e-05,3.515880067292288e-05,2.4928903868162065e-05,3.2667,5.3333
3.1015625,2.687614964065004e-05,4.739079524376289e-05,3.858705027237355e-05,2.4928903868162065e-05,3.2667,5.3333
3.10546875,1.2230667351796767e-05,3.271788695811399e-05,5.471353638818953e-05,3.271788695811399e-05,3.2667,5.3333
3.109375,1.3190577239642948e-05,2.882339541313803e-05,5.0297950904097064e-05,3.515880067292288e-05,3.2667,5.3333
3.11328125,6.361504037537201e-06,4.6897127301441986e-05,5.860802793316549e-05,3.6639804499885566e-05,3.2667,5.3333
3.1171875,1.3684245181963844e-05,4.102796398718243e-05,4.7857037189288174e-05,3.809338233005266e-05,3.2667,5.3333
3.12109375,2.3447900041199374e-05,5.6167114218356615e-05,3.027697324330512e-05,3.6639804499885566e-05,3.2667,5.3333
3.125,2.7836059528496233e-05,6.447719124742505e-05,3.225164501258871e-05,3.6639804499885566e-05,3.2667,5.3333
3.12890625,2.2954232098878478e-05,3.469255872739758e-05,4.2975209759670416e-05,3.370522284275579e-05,3.2667,5.3333
3.1328125,7.3488399221789955e-06,2.443523592584117e-05,4.54161234744793e-05,3.027697324330512e-05,3.2667,5.3333
3.13671875,2.5395145813687347e-05,2.8329727470817133e-05,3.469255872739758e-05,2.9810731297779824e-05,3.2667,5.3333
3.140625,3.271788695811399e-05,2.9810731297779824e-05,3.7599714387731754e-05,2.7836059528496233e-05,3.2667,5.3333
3.14453125,2.248799015335318e-05,4.2975209759670416e-05,5.0297950904097064e-05,3.321155490043489e-05,3.2667,5.3333
3.1484375,2.882339541313803e-05,3.908071821469445e-05,5.273886461890594e-05,3.271788695811399e-05,3.2667,5.3333
3.15234375,1.807240466926072e-05,3.0770641185626015e-05,4.933804101625087e-05,3.225164501258871e-05,3.2667,5.3333
3.15625,1.9059740553902514e-05,4.004062810254064e-05,5.76206920485237e-05,3.908071821469445e-05,3.2667,5.3333
3.16015625,2.4928903868162065e-05,3.858705027237355e-05,4.346887770199132e-05,3.858705027237355e-05,3.2667,5.3333
3.1640625,3.419889078507668e-05,5.471353638818953e-05,3.614613655756467e-05,3.809338233005266e-05,3.2667,5.3333
3.16796875,3.0770641185626015e-05,4.7857037189288174e-05,5.079161884641796e-05,3.908071821469445e-05,3.2667,5.3333
3.171875,2.2954232098878478e-05,2.443523592584117e-05,3.614613655756467e-05,3.6639804499885566e-05,3.2667,5.3333
3.17578125,4.445621358663311e-05,2.1500654268711387e-05,2.6382481698329142e-05,3.419889078507668e-05,3.2667,5.3333
3.1796875,4.6897127301441986e-05,2.9810731297779824e-05,2.3447900041199374e-05,3.6639804499885566e-05,3.2667,5.3333
3.18359375,3.809338233005266e-05,3.027697324330512e-05,3.614613655756467e-05,3.370522284275579e-05,3.2667,5.3333
3.1875,3.271788695811399e-05,4.004062810254064e-05,5.5179778333714816e-05,2.9810731297779824e-05,3.2667,5.3333
3.19140625,4.835070513160907e-05,5.471353638818953e-05,3.5652468615243774e-05,2.9810731297779824e-05,3.2667,5.3333
3.1953125,5.177895473105975e-05,3.7599714387731754e-05,1.807240466926072e-05,2.7836059528496233e-05,3.2667,5.3333
3.19921875,3.7599714387731754e-05,2.7836059528496233e-05,3.126430912794692e-05,2.5395145813687347e-05,3.2667,5.3333
3.203125,3.858705027237355e-05,2.9810731297779824e-05,5.860802793316549e-05,3.0770641185626015e-05,3.2667,5.3333
3.20703125,4.739079524376289e-05,3.6639804499885566e-05,4.5909791416800194e-05,3.419889078507668e-05,3.2667,5.3333
3.2109375,4.640345935912109e-05,4.2015299871824234e-05,1.3190577239642948e-05,3.0770641185626015e-05,3.2667,5.3333
3.21484375,3.515880067292288e-05,2.4928903868162065e-05,1.4177913124284742e-05,2.9317063355458924e-05,3.2667,5.3333
3.21875,3.027697324330512e-05,2.443523592584117e-05,2.3447900041199374e-05,3.271788695811399e-05,3.2667,5.3333
3.22265625,3.713347244220647e-05,4.9831708958571765e-05,3.0770641185626015e-05,3.126430912794692e-05,3.2667,5.3333
3.2265625,2.5395145813687347e-05,4.2015299871824234e-05,3.614613655756467e-05,3.515880067292288e-05,3.2667,5.3333
3.23046875,2.9810731297779824e-05,1.955340849622341e-05,2.7369817582970937e-05,3.1757977070267814e-05,3.2667,5.3333
3.234375,4.2975209759670416e-05,2.0513318384069592e-05,2.0513318384069592e-05,2.394156798352027e-05,3.2667,5.3333
3.23828125,4.346887770199132e-05,1.6125158896772732e-05,2.1500654268711387e-05,2.7369817582970937e-05,3.2667,5.3333
3.2421875,2.8329727470817133e-05,2.443523592584117e-05,1.8566072611581615e-05,3.225164501258871e-05,3.2667,5.3333
3.24609375,2.687614964065004e-05,3.321155490043489e-05,2.9317063355458924e-05,3.515880067292288e-05,3.2667,5.3333
3.25,4.248154181734952e-05,1.6618826839093628e-05,4.6897127301441986e-05,3.614613655756467e-05,3.2667,5.3333
3.25390625,3.5652468615243774e-05,2.882339541313803e-05,4.445621358663311e-05,3.419889078507668e-05,3.2667,5.3333
3.2578125,4.1521631929503325e-05,4.49224555321584e-05,3.858705027237355e-05,3.271788695811399e-05,3.2667,5.3333
3.26171875,4.102796398718243e-05,3.6639804499885566e-05,2.3447900041199374e-05,3.225164501258871e-05,3.2667,5.3333
3.265625,3.271788695811399e-05,2.9317063355458924e-05,2.394156798352027e-05,3.126430912794692e-05,3.2667,5.3333
3.26953125,4.445621358663311e-05,2.2954232098878478e-05,3.370522284275579e-05,3.271788695811399e-05,3.2667,5.3333
3.2734375,5.079161884641796e-05,2.443523592584117e-05,2.8329727470817133e-05,3.515880067292288e-05,3.2667,5.3333
3.27734375,5.079161884641796e-05,4.248154181734952e-05,2.7369817582970937e-05,3.225164501258871e-05,3.2667,5.3333
3.28125,4.004062810254064e-05,2.687614964065004e-05,3.225164501258871e-05,3.126430912794692e-05,3.2667,5.3333
3.28515625,4.2015299871824234e-05,-1.365947362325474e-05,3.1757977070267814e-05,3.321155490043489e-05,3.2667,5.3333
3.2890625,4.6897127301441986e-05,-9.61237106889442e-07,4.445621358663311e-05,3.6639804499885566e-05,3.2667,5.3333
3.29296875,5.0297950904097064e-05,3.225164501258871e-05,4.346887770199132e-05,3.321155490043489e-05,3.2667,5.3333
3.296875,5.372620050354773e-05,2.9317063355458924e-05,2.5395145813687347e-05,3.271788695811399e-05,3.2667,5.3333
3.30078125,4.053429604486153e-05,2.882339541313803e-05,3.858705027237355e-05,3.809338233005266e-05,3.2667,5.3333
3.3046875,4.54161234744793e-05,4.004062810254064e-05,5.227262267338065e-05,4.004062810254064e-05,3.2667,5.3333
3.30859375,6.154260959029528e-05,4.933804101625087e-05,3.9574386157015345e-05,4.6897127301441986e-05,3.2667,5.3333
3.3125,5.76206920485237e-05,3.1757977070267814e-05,3.027697324330512e-05,4.49224555321584e-05,3.2667,5.3333
3.31640625,5.5179778333714816e-05,-4.389486706340107e-06,2.1500654268711387e-05,3.027697324330512e-05,3.2667,5.3333
3.3203125,5.3232532561226836e-05,-2.7811287969787114e-05,-1.023122402380406e-05,1.9059740553902514e-05,3.2667,5.3333
3.32421875,7.325351022201877e-05,-4.24567702586404e-05,-2.586404219729914e-05,2.4928903868162065e-05,3.2667,5.3333
3.328125,0.00010010356108491646,-2.6357710139620036e-05,-1.952863693751429e-05,3.225164501258871e-05,3.2667,5.3333
3.33203125,0.00011132079377431909,-4.149686037079422e-05,-3.8068610771343544e-05,3.858705027237355e-05,3.2667,5.3333
3.3359375,0.00010495796251773861,-9.031513466697182e-05,-9.958512158388646e-05,4.54161234744793e-05,3.2667,5.3333
3.33984375,0.00012645994400549326,-0.00011716518552986951,-0.0001425616585626001,4.102796398718243e-05,3.2667,5.3333
3.34375,0.0001557509085831998,-0.0001586881446784161,-0.00016063539045090407,3.0770641185626015e-05,3.2667,5.3333
3.34765625,0.00015426990475623714,-0.000184550859656672,-0.00018260361388418403,4.346887770199132e-05,3.2667,5.3333
3.3515625,0.00018260095944609751,-0.00021482916011902032,-0.00022898097446555276,5.6167114218356615e-05,3.2667,5.3333
3.35546875,0.0001850418731609064,-0.0002519365337834745,-0.00025585845132524603,5.4219868445868634e-05,3.2667,5.3333
3.359375,0.0001850418731609064,-0.00026562210618448154,-0.000259752942870222,5.8114359990844595e-05,3.2667,5.3333
3.36328125,0.00020506285082169836,-0.00027829291670405123,-0.00029099115322041654,6.593076907759214e-05,3.2667,5.3333
3.3671875,0.00020116835927672238,-0.00027390475721675436,-0.0002944194028198672,7.569442393682766e-05,3.2667,5.3333
3.37109375,0.00018260095944609751,-0.00028320217013046465,-0.00028610932579079874,8.449816890821699e-05,3.2667,5.3333
3.375,0.00017478455035934996,-0.0002827085021881437,-0.00029735398447699703,8.20572551934081e-05,3.2667,5.3333
3.37890625,0.00017821279995880064,-0.0002670756840146486,-0.00030174214396429385,8.20572551934081e-05,3.2667,5.3333
3.3828125,0.0001601390680704967,-0.0002504829559533074,-0.00027928025258869304,8.156358725108723e-05,3.2667,5.3333
3.38671875,0.0001581918222980087,-0.0002304619782925154,-0.00024167921098191804,7.325351022201877e-05,3.2667,5.3333
3.390625,0.0001601390680704967,-0.00020555917320210572,-0.000218257409718471,6.837168279240101e-05,3.2667,5.3333
3.39453125,0.0001318354393774319,-0.00017283995902494847,-0.0001879791092561227,6.398352330510415e-05,3.2667,5.3333
3.3984375,0.00012108444863355459,-0.0001552598950789654,-0.00017478720479743645,6.642443701991303e-05,3.2667,5.3333
3.40234375,0.00010010356108491646,-0.00014939073176470586,-0.00016356997210803387,6.543710113527124e-05,3.2667,5.3333
3.40625,9.278081994048983e-05,-0.0001196060992446784,-0.00011376436192721445,5.5179778333714816e-05,3.2667,5.3333
3.41015625,8.839266045319295e-05,-8.249872558022429e-05,-7.712323020828563e-05,5.0297950904097064e-05,3.2667,5.3333
3.4140625,7.717542776379035e-05,-7.517598443579766e-05,-6.491866163424123e-05,4.7857037189288174e-05,3.2667,5.3333
3.41796875,6.787801485008011e-05,-4.34441061432822e-05,-4.001585654383152e-05,4.6897127301441986e-05,3.2667,5.3333
3.421875,4.2975209759670416e-05,-2.9292291796749822e-05,-2.1969550652323177e-05,4.49224555321584e-05,3.2667,5.3333
3.42578125,4.1521631929503325e-05,-2.098221476768138e-05,-4.855728651865405e-06,3.7599714387731754e-05,3.2667,5.3333
3.4296875,2.5888813756008246e-05,3.614613655756467e-05,2.394156798352027e-05,3.908071821469445e-05,3.2667,5.3333
3.43359375,2.394156798352027e-05,6.104894164797437e-05,3.713347244220647e-05,3.225164501258871e-05,3.2667,5.3333
3.4375,2.394156798352027e-05,4.7857037189288174e-05,3.469255872739758e-05,3.027697324330512e-05,3.2667,5.3333
3.44140625,-1.3165805680933842e-05,6.494343319295035e-05,5.1285286788738856e-05,2.882339541313803e-05,3.2667,5.3333
3.4453125,-1.5113051453421817e-05,8.693908262302588e-05,7.668175982146945e-05,2.1500654268711387e-05,3.2667,5.3333
3.44921875,-1.023122402380406e-05,8.496441085374228e-05,8.839266045319295e-05,2.3447900041199374e-05,3.2667,5.3333
3.453125,-3.513402911421377e-05,8.400450096589609e-05,9.278081994048983e-05,2.9810731297779824e-05,3.2667,5.3333
3.45703125,-3.710870088349736e-05,0.0001088798800595102,0.00010495796251773861,2.7369817582970937e-05,3.2667,5.3333
3.4609375,-2.6357710139620036e-05,0.00012253802646372167,0.00011472161737697414,2.443523592584117e-05,3.2667,5.3333
3.46484375,-2.5370374254978244e-05,0.00013084810349279013,0.00013915818052185854,2.8329727470817133e-05,3.2667,5.3333
3.46875,-3.219944745708397e-05,0.00011864353491874573,0.0001464809216662852,2.5888813756008246e-05,3.2667,5.3333
3.47265625,-3.8562278713664454e-05,0.00011960344480659191,0.00014110542629434654,2.4928903868162065e-05,3.2667,5.3333
3.4765625,-5.710225254749369e-05,0.0001449999178393225,0.000133289017207599,2.5395145813687347e-05,3.2667,5.3333
3.48046875,-4.931326945754176e-05,0.00013523626298008698,0.00012596627606317236,2.0513318384069592e-05,3.2667,5.3333
3.484375,-2.9292291796749822e-05,0.00012204435852140079,0.0001318354393774319,2.0513318384069592e-05,3.2667,5.3333
3.48828125,-5.271409306019683e-05,0.00012596627606317236,0.00013523626298008698,2.687614964065004e-05,3.2667,5.3333
3.4921875,-4.8819601515220853e-05,0.0001464809216662852,0.00013474259503776608,2.8329727470817133e-05,3.2667,5.3333
3.49609375,-3.757494282902266e-05,0.00013962442246738383,0.000133289017207599,2.5888813756008246e-05,3.2667,5.3333
3.5,-3.219944745708397e-05,0.00011960344480659191,0.0001357299309224079,2.5888813756008246e-05,3.2667,5.3333
3.50390625,-3.8562278713664454e-05,0.00012741985389333945,0.0001459872537239643,2.394156798352027e-05,3.2667,5.3333
3.5078125,-5.419509688715951e-05,0.00013427635309224082,0.0001474408315541314,2.5395145813687347e-05,3.2667,5.3333
3.51171875,-4.050952448615243e-05,0.00012108444863355459,0.00012741985389333945,2.8329727470817133e-05,3.2667,5.3333
3.515625,-2.4876706312657345e-05,0.00012791352183566033,0.00011960344480659191,2.3447900041199374e-05,3.2667,5.3333
3.51953125,-1.5606719395742713e-05,0.0001318354393774319,0.00011376170748912795,2.3447900041199374e-05,3.2667,5.3333
3.5234375,-3.6121364998855564e-05,0.0001191372028610666,0.00012303169440604258,2.3447900041199374e-05,3.2667,5.3333
3.52734375,-4.443144202792399e-05,0.00014159909423666744,0.0001362235988647288,1.7578736726939823e-05,3.2667,5.3333
3.53125,-3.12395375692378e-05,0.0001191372028610666,0.00012401903029068438,1.9059740553902514e-05,3.2667,5.3333
3.53515625,-3.173320551155871e-05,8.545807879606319e-05,0.00012791352183566033,2.3447900041199374e-05,3.2667,5.3333
3.5390625,-2.292946054016936e-05,8.449816890821699e-05,0.0001191372028610666,2.0513318384069592e-05,3.2667,5.3333
3.54296875,-3.661503294117645e-05,0.00011228070366216525,0.00011960344480659191,2.394156798352027e-05,3.2667,5.3333
3.546875,-2.8304955912108027e-05,0.0001318354393774319,0.00012497894017853055,3.271788695811399e-05,3.2667,5.3333
3.55078125,-1.4153141565575638e-05,0.00011033345788967728,0.0001073988762325475,2.882339541313803e-05,3.2667,5.3333
3.5546875,-3.074586962691691e-05,0.00011228070366216525,0.00010937354800183109,2.5395145813687347e-05,3.2667,5.3333
3.55859375,-2.8304955912108027e-05,0.00010301071674525064,0.00012791352183566033,2.9810731297779824e-05,3.2667,5.3333
3.5625,-1.7087723222705404e-05,9.716897942778669e-05,0.00011472161737697414,3.321155490043489e-05,3.2667,5.3333
3.56640625,-1.365947362325474e-05,0.00010983978994735639,0.00010155713891508355,3.1757977070267814e-05,3.2667,5.3333
3.5703125,-2.147588271000228e-05,8.984623828336005e-05,0.00010495796251773861,2.8329727470817133e-05,3.2667,5.3333
3.57421875,-2.243579259784846e-05,7.0318928564889e-05,9.132724211032274e-05,3.469255872739758e-05,3.2667,5.3333
3.578125,-5.3493965941863025e-06,8.30171650812543e-05,9.083357416800184e-05,3.419889078507668e-05,3.2667,5.3333
3.58203125,-6.8304004211489935e-06,7.473451404898147e-05,8.156358725108723e-05,2.9810731297779824e-05,3.2667,5.3333
3.5859375,-1.0724891966124956e-05,8.35108330235752e-05,9.182091005264363e-05,3.6639804499885566e-05,3.2667,5.3333
3.58984375,-5.3493965941863025e-06,8.789899251087206e-05,0.0001205907806912337,3.713347244220647e-05,3.2667,5.3333
3.59375,-1.0724891966124956e-05,7.374717816433968e-05,0.00010059722902723736,3.6639804499885566e-05,3.2667,5.3333
3.59765625,-3.318678334172577e-05,6.691810496223393e-05,9.228715199816893e-05,3.908071821469445e-05,3.2667,5.3333
3.6015625,-2.098221476768138e-05,8.693908262302588e-05,9.083357416800184e-05,3.858705027237355e-05,3.2667,5.3333
3.60546875,6.361504037537201e-06,9.864998325474939e-05,9.47280657129778e-05,4.2975209759670416e-05,3.2667,5.3333
3.609375,9.860086655985469e-07,7.17999323918517e-05,0.00010983978994735639,3.7599714387731754e-05,3.2667,5.3333
3.61328125,-1.0724891966124956e-05,5.471353638818953e-05,8.937999633783474e-05,3.271788695811399e-05,3.2667,5.3333
3.6171875,-2.0488546825360486e-05,7.668175982146945e-05,7.374717816433968e-05,4.2015299871824234e-05,3.2667,5.3333
3.62109375,1.3684245181963844e-05,7.374717816433968e-05,6.642443701991303e-05,3.809338233005266e-05,3.2667,5.3333
3.625,3.1757977070267814e-05,4.54161234744793e-05,5.5179778333714816e-05,4.004062810254064e-05,3.2667,5.3333
3.62890625,-1.2205895793087649e-05,5.666078216067751e-05,6.691810496223393e-05,4.9831708958571765e-05,3.2667,5.3333
3.6328125,1.0255995582513178e-05,3.9574386157015345e-05,7.424084610666057e-05,4.2975209759670416e-05,3.2667,5.3333
3.63671875,2.1006986326390488e-05,1.9059740553902514e-05,4.248154181734952e-05,2.8329727470817133e-05,3.2667,5.3333
3.640625,1.5137823012130937e-05,-1.948572991531236e-06,-1.7087723222705404e-05,2.882339541313803e-05,3.2667,5.3333
3.64453125,6.837168279240101e-05,-4.637868780041199e-05,-4.149686037079422e-05,3.9574386157015345e-05,3.2667,5.3333
3.6484375,8.496441085374228e-05,-7.761689815060654e-05,-5.56486747173266e-05,3.126430912794692e-05,3.2667,5.3333
3.65234375,0.00010545163046005952,-0.00010496061695582512,-0.00010106612541084913,2.248799015335318e-05,3.2667,5.3333
3.65625,0.0001459872537239643,-0.00014157432267795832,-0.00016403621405355914,2.9810731297779824e-05,3.2667,5.3333
3.66015625,0.0001699027229297322,-0.00018699177337148085,-0.00022069832343327993,3.6639804499885566e-05,3.2667,5.3333
3.6640625,0.00022165557888303959,-0.0001987301,-0.00022360547909361405,2.1006986326390488e-05,3.2667,5.3333
3.66796875,0.00024167655654383155,-0.00020457183731746392,-0.00023142188818036163,1.7578736726939823e-05,3.2667,5.3333
3.671875,0.00021630750950789654,-0.00022851473252002744,-0.00023874462932478826,1.8566072611581615e-05,3.2667,5.3333
3.67578125,0.00018943003264820327,-0.00023630371560997939,-0.00022996831035019454,1.0749663524834076e-05,3.2667,5.3333
3.6796875,0.00021482650568093383,-0.00021776374177615013,-0.00023386280189517048,1.7578736726939823e-05,3.2667,5.3333
3.68359375,0.00024365122831311513,-0.00015915438662394136,-0.00021384182423437857,1.2230667351796767e-05,3.2667,5.3333
3.6875,0.00022703107425497827,-0.00012692884038910504,-0.00020994733268940257,-9.61237106889442e-07,3.2667,5.3333
3.69140625,0.00020945101030899518,-0.00011913985729915311,-0.00017283995902494847,-1.1218559908445854e-05,3.2667,5.3333
3.6953125,0.00020456918287937745,-6.151783803158616e-05,-0.00013573258536049435,-1.365947362325474e-05,3.2667,5.3333
3.69921875,0.000248039387800412,-3.12395375692378e-05,-0.0001303570899885557,-2.0488546825360486e-05,3.2667,5.3333
3.703125,0.00025193387934538793,-3.0252201684596e-05,-9.667796592355228e-05,-3.513402911421377e-05,3.2667,5.3333
3.70703125,0.00017283730458686198,8.802417752346087e-06,-3.8068610771343544e-05,-2.8304955912108027e-05,3.2667,5.3333
3.7109375,0.00016551456344243536,4.053429604486153e-05,4.9079262073701245e-06,-3.269311539940489e-05,3.2667,5.3333
3.71484375,0.00017870646790112154,1.8566072611581615e-05,1.467158106660564e-05,-3.5627697056534655e-05,3.2667,5.3333
3.71875,0.00017478455035934996,6.543710113527124e-05,4.1521631929503325e-05,-3.9549614598306245e-05,3.2667,5.3333
3.72265625,0.0001464809216662852,8.545807879606319e-05,5.860802793316549e-05,-4.24567702586404e-05,3.2667,5.3333
3.7265625,0.0001479344994964523,6.203627753261618e-05,6.0555273705653484e-05,-3.269311539940489e-05,3.2667,5.3333
3.73046875,0.00015673824446784163,0.00013866451257953767,8.789899251087206e-05,-3.6121364998855564e-05,3.2667,5.3333
3.734375,0.00011814986697642481,0.000133289017207599,7.961634147859924e-05,-3.368045128404668e-05,3.2667,5.3333
3.73828125,9.132724211032274e-05,0.00012741985389333945,9.327448788281073e-05,-2.7811287969787114e-05,3.2667,5.3333
3.7421875,0.00010495796251773861,0.00017333097252918289,0.0001318354393774319,-3.5627697056534655e-05,3.2667,5.3333
3.74609375,0.00010059722902723736,0.00015673824446784163,0.00012547260812085148,-3.318678334172577e-05,3.2667,5.3333
3.75,7.520075599450677e-05,0.00016746180921492333,0.00014011809040970476,-2.731762002746623e-05,3.2667,5.3333
3.75390625,7.764166970931564e-05,0.0001821072915037766,0.00014404000795147632,-2.9292291796749822e-05,3.2667,5.3333
3.7578125,6.642443701991303e-05,0.00017821279995880064,0.0001459872537239643,-2.586404219729914e-05,3.2667,5.3333
3.76171875,9.864998325474939e-05,0.00016551456344243536,0.00016162007189745938,-2.586404219729914e-05,3.2667,5.3333
3.765625,7.08125965072099e-05,0.00018896379070267795,0.000170890058814374,-1.85413010528725e-05,3.2667,5.3333
3.76953125,3.126430912794692e-05,0.00016894281304188604,0.0001601390680704967,-1.4646809507896534e-05,3.2667,5.3333
3.7734375,3.321155490043489e-05,0.0001581918222980087,0.0001459872537239643,-1.5113051453421817e-05,3.2667,5.3333
3.77734375,7.815081867704294e-06,0.00017821279995880064,0.00016063273601281758,-3.895818764019211e-06,3.2667,5.3333
3.78125,2.248799015335318e-05,0.0001596454001281758,0.00016844914509956513,9.860086655985469e-07,3.2667,5.3333
3.78515625,2.1500654268711387e-05,0.00017771913201647976,0.00017333097252918289,-1.454905049210339e-06,3.2667,5.3333
3.7890625,1.8566072611581615e-05,0.00018748278687571527,0.0001801600457312886,-2.414814937056519e-06,3.2667,5.3333
3.79296875,5.1285286788738856e-05,0.00017138372675669489,0.00015769815435568783,-3.4021508216983135e-06,3.2667,5.3333
3.796875,2.9810731297779824e-05,0.00013866451257953767,0.00012939452566262304,-2.9084828793774163e-06,3.2667,5.3333
3.80078125,-9.271314135957865e-06,0.00014305267206683451,0.00013817084463721676,4.414258265049227e-06,3.2667,5.3333
3.8046875,6.855171979858099e-06,0.00017821279995880064,0.00016650189932707713,7.815081867704294e-06,3.2667,5.3333
3.80859375,3.4269223804074326e-06,0.000170890058814374,0.0001699027229297322,1.2230667351796767e-05,3.2667,5.3333
3.8125,-6.8304004211489935e-06,0.00015525724064087892,0.00016307364972762648,1.467158106660564e-05,3.2667,5.3333
3.81640625,-1.2672137738612945e-05,0.00014549358578164342,0.00014206533618219274,9.789753636987882e-06,3.2667,5.3333
3.8203125,-5.843064536507199e-06,0.00010010356108491646,0.00012204435852140079,1.4177913124284742e-05,3.2667,5.3333
3.82421875,-1.3165805680933842e-05,9.278081994048983e-05,0.00012204435852140079,2.1006986326390488e-05,3.2667,5.3333
3.828125,-1.454905049210339e-06,0.0001679554771572442,0.00012791352183566033,2.1500654268711387e-05,3.2667,5.3333
3.83203125,1.0255995582513178e-05,0.00015917915818265048,0.0001318354393774319,2.4928903868162065e-05,3.2667,5.3333
3.8359375,-2.9084828793774163e-06,7.961634147859924e-05,0.00011521528531929505,2.2954232098878478e-05,3.2667,5.3333
3.83984375,-3.219944745708397e-05,0.00010983978994735639,0.0001327953492652781,2.9317063355458924e-05,3.2667,5.3333
3.84375,-1.659405528038451e-05,0.00015769815435568783,0.00014305267206683451,3.515880067292288e-05,3.2667,5.3333
3.84765625,1.973344550240341e-06,0.00014694716361181046,0.0001323016813229572,3.225164501258871e-05,3.2667,5.3333
3.8515625,-8.777646193636968e-06,0.00011521528531929505,0.00012547260812085148,3.027697324330512e-05,3.2667,5.3333
3.85546875,-8.777646193636968e-06,0.00011326803954680706,0.00011082712583199818,3.027697324330512e-05,3.2667,5.3333
3.859375,-2.6851378081940936e-05,0.00010350438468757154,0.0001088798800595102,3.126430912794692e-05,3.2667,5.3333
3.86328125,-3.12395375692378e-05,0.00011181446171663998,0.00011669628914625774,2.687614964065004e-05,3.2667,5.3333
3.8671875,1.4177913124284742e-05,0.00011960344480659191,0.0001200971127489128,2.0513318384069592e-05,3.2667,5.3333
3.87109375,1.2230667351796767e-05,7.862900559395744e-05,0.00012157811657587549,3.225164501258871e-05,3.2667,5.3333
3.875,-4.675691645685447e-07,9.376815582513162e-05,0.00011082712583199818,3.858705027237355e-05,3.2667,5.3333
3.87890625,-1.454905049210339e-06,0.0001205907806912337,0.00010301071674525064,3.271788695811399e-05,3.2667,5.3333
3.8828125,-2.586404219729914e-05,0.00011033345788967728,0.00010010356108491646,3.7599714387731754e-05,3.2667,5.3333
3.88671875,-9.61237106889442e-07,8.789899251087206e-05,9.52217336552987e-05,3.7599714387731754e-05,3.2667,5.3333
3.890625,1.2696909297322051e-05,9.914365119707028e-05,9.327448788281073e-05,3.321155490043489e-05,3.2667,5.3333
3.89453125,-1.1218559908445854e-05,0.00011132079377431909,9.083357416800184e-05,3.515880067292288e-05,3.2667,5.3333
3.8984375,-6.8304004211489935e-06,7.618809187914856e-05,9.278081994048983e-05,3.515880067292288e-05,3.2667,5.3333
3.90234375,-1.0724891966124956e-05,7.374717816433968e-05,9.132724211032274e-05,4.1521631929503325e-05,3.2667,5.3333
3.90625,-1.3165805680933842e-05,0.00010495796251773861,0.00010449172057221333,4.739079524376289e-05,3.2667,5.3333
3.91015625,6.361504037537201e-06,7.813533765163655e-05,0.0001073988762325475,3.5652468615243774e-05,3.2667,5.3333
3.9140625,-8.777646193636968e-06,4.9831708958571765e-05,8.937999633783474e-05,3.370522284275579e-05,3.2667,5.3333
3.91796875,-3.464036117189286e-05,8.644541468070498e-05,8.449816890821699e-05,4.1521631929503325e-05,3.2667,5.3333
3.921875,2.0513318384069592e-05,9.47280657129778e-05,7.668175982146945e-05,4.248154181734952e-05,3.2667,5.3333
3.92578125,2.248799015335318e-05,4.884437307392997e-05,9.033990622568094e-05,4.248154181734952e-05,3.2667,5.3333
3.9296875,-2.292946054016936e-05,7.13062644495308e-05,0.00010010356108491646,4.102796398718243e-05,3.2667,5.3333
3.93359375,2.9332544380865355e-06,9.67027374822614e-05,9.62090695399405e-05,3.858705027237355e-05,3.2667,5.3333
3.9375,-5.3493965941863025e-06,5.1285286788738856e-05,7.961634147859924e-05,4.053429604486153e-05,3.2667,5.3333
3.94140625,-7.296642366674277e-06,6.93590186770428e-05,5.227262267338065e-05,3.7599714387731754e-05,3.2667,5.3333
3.9453125,3.4269223804074326e-06,9.57154015976196e-05,7.0318928564889e-05,3.9574386157015345e-05,3.2667,5.3333
3.94921875,-1.1712227850766751e-05,6.787801485008011e-05,8.888632839551386e-05,4.053429604486153e-05,3.2667,5.3333
3.953125,-1.1218559908445854e-05,4.49224555321584e-05,7.912267353627834e-05,3.614613655756467e-05,3.2667,5.3333
3.95703125,-5.710225254749369e-05,5.1285286788738856e-05,7.862900559395744e-05,4.445621358663311e-05,3.2667,5.3333
3.9609375,-1.85413010528725e-05,2.9317063355458924e-05,6.593076907759214e-05,3.419889078507668e-05,3.2667,5.3333
3.96484375,8.802417752346087e-06,2.9810731297779824e-05,7.424084610666057e-05,3.126430912794692e-05,3.2667,5.3333
3.96875,3.1757977070267814e-05,6.593076907759214e-05,9.228715199816893e-05,3.7599714387731754e-05,3.2667,5.3333
3.97265625,2.394156798352027e-05,3.6639804499885566e-05,7.374717816433968e-05,3.713347244220647e-05,3.2667,5.3333
3.9765625,-4.2950438200961316e-05,3.858705027237355e-05,7.862900559395744e-05,4.346887770199132e-05,3.2667,5.3333
3.98046875,-9.271314135957865e-06,6.348985536278326e-05,7.473451404898147e-05,3.9574386157015345e-05,3.2667,5.3333
3.984375,-1.4153141565575638e-05,6.447719124742505e-05,8.35108330235752e-05,3.713347244220647e-05,3.2667,5.3333
3.98828125,-2.147588271000228e-05,4.739079524376289e-05,7.717542776379035e-05,3.809338233005266e-05,3.2667,5.3333
3.9921875,6.855171979858099e-06,5.959536381780729e-05,4.2015299871824234e-05,3.5652468615243774e-05,3.2667,5.3333
3.99609375,-7.790310308995174e-06,3.5652468615243774e-05,4.7857037189288174e-05,3.321155490043489e-05,3.2667,5.3333
4.0,1.1736999409475871e-05,2.9332544380865355e-06,3.271788695811399e-05,3.0770641185626015e-05,3.2667,5.3333
4.00390625,2.882339541313803e-05,2.394156798352027e-05,2.1500654268711387e-05,2.8329727470817133e-05,3.2667,5.3333
4.0078125,-5.3493965941863025e-06,6.642443701991303e-05,4.6897127301441986e-05,3.713347244220647e-05,3.2667,5.3333
4.01171875,-1.952863693751429e-05,5.860802793316549e-05,4.5909791416800194e-05,3.9574386157015345e-05,3.2667,5.3333
4.015625,-1.85413010528725e-05,5.860802793316549e-05,4.9831708958571765e-05,3.713347244220647e-05,3.2667,5.3333
4.01953125,9.860086655985469e-07,4.053429604486153e-05,4.1521631929503325e-05,3.858705027237355e-05,3.2667,5.3333
4.0234375,4.102796398718243e-05,3.4269223804074326e-06,2.1994322211032283e-05,2.7836059528496233e-05,3.2667,5.3333
4.02734375,3.908071821469445e-05,2.6098777752352474e-08,4.445621358663311e-05,3.271788695811399e-05,3.2667,5.3333
4.03125,-2.9084828793774163e-06,-1.454905049210339e-06,5.76206920485237e-05,4.2015299871824234e-05,3.2667,5.3333
4.03515625,4.923407232776497e-07,3.370522284275579e-05,5.227262267338065e-05,4.346887770199132e-05,3.2667,5.3333
4.0390625,3.5652468615243774e-05,-6.8304004211489935e-06,2.443523592584117e-05,3.908071821469445e-05,3.2667,5.3333
4.04296875,1.6618826839093628e-05,-4.7832265630579055e-05,4.3962545644312214e-05,4.5909791416800194e-05,3.2667,5.3333
4.046875,-3.12395375692378e-05,8.644541468070498e-05,8.156358725108723e-05,7.13062644495308e-05,3.2667,5.3333
4.05078125,-1.0724891966124956e-05,0.00013767717669489586,4.640345935912109e-05,5.372620050354773e-05,3.2667,5.3333
4.0546875,-1.1712227850766751e-05,1.7578736726939823e-05,1.5137823012130937e-05,4.053429604486153e-05,3.2667,5.3333
4.05859375,3.515880067292288e-05,-5.3701428944838626e-05,-1.659405528038451e-05,3.469255872739758e-05,3.2667,5.3333
4.0625,4.7857037189288174e-05,9.296085694666985e-06,-3.4174119226367564e-05,3.515880067292288e-05,3.2667,5.3333
4.06640625,2.4928903868162065e-05,4.053429604486153e-05,-1.659405528038451e-05,2.7836059528496233e-05,3.2667,5.3333
4.0703125,6.691810496223393e-05,-6.639966546120394e-05,-3.269311539940489e-05,2.004707643854431e-05,3.2667,5.3333
4.07421875,4.933804101625087e-05,-0.00011178969015793086,-7.273507072098877e-05,4.346887770199132e-05,3.2667,5.3333
4.078125,7.569442393682766e-05,-0.00011277702604257265,-0.00010690786272831309,3.713347244220647e-05,3.2667,5.3333
