timestamp,TP9,AF7,AF8,TP10,Valence,Arousal
0.0,-0.0009682384728816663,0.00015427674730144199,0.00023387888395056078,4.866374296177632e-06,6.9333,6.4667
0.00390625,-0.0009682384728816663,0.0001679454928816663,0.0002519411548958572,1.4491879011215552e-06,6.9333,6.4667
0.0078125,-0.0009682384728816663,0.00016745732339665828,0.0002763496291462578,-1.44931841611351e-06,6.9333,6.4667
0.01171875,-0.0009682384728816663,0.00015378857781643397,0.00026463356150606545,4.378204811169621e-06,6.9333,6.4667
0.015625,-0.0009682384728816663,0.00015476491678645,0.0002260681721904326,5.842713266193654e-06,6.9333,6.4667
0.01953125,-0.0009682384728816663,0.00015476491678645,0.00019674749249713893,7.307221721217687e-06,6.9333,6.4667
0.0234375,-0.0009682384728816663,0.0001508595609063859,0.00021874562991531246,1.0724408116273763e-05,6.9333,6.4667
0.02734375,-0.0009682384728816663,0.0001459778660563058,0.00023680790086060886,8.77173017624172e-06,6.9333,6.4667
0.03125,-0.0009682384728816663,0.0001415843406912337,0.00023192620601052873,5.842713266193654e-06,6.9333,6.4667
0.03515625,-0.0009682384728816663,0.0001371908153261616,0.0002309498670405127,6.819052236209676e-06,6.9333,6.4667
0.0390625,-0.0009682384728816663,0.00013914349326619364,0.00020654139279011218,6.819052236209676e-06,6.9333,6.4667
0.04296875,-0.0009682384728816663,0.00013523813738612958,0.00019821200095216298,2.4255268711375773e-06,6.9333,6.4667
0.046875,-0.0009682384728816663,0.00014207251017624172,0.00020702956227512017,4.7284893110553325e-07,6.9333,6.4667
0.05078125,-0.0009682384728816663,0.0001508595609063859,0.00019970702000000003,-3.890165841153565e-06,6.9333,6.4667
0.0546875,-0.0009682384728816663,0.00013816715429617763,0.00018747227228198672,-1.121270811627373e-05,6.9333,6.4667
0.05859375,-0.0009682384728816663,0.00012693925614099338,0.00017526803515678646,-1.3653555541313785e-05,6.9333,6.4667
0.0625,-0.0009682384728816663,0.00011571135798580912,0.00017526803515678646,-9.748199661249696e-06,6.9333,6.4667
0.06640625,-0.0009682384728816663,0.00012205756129091327,0.0001904012891920348,-3.401996356145554e-06,6.9333,6.4667
0.0703125,-0.0009682384728816663,0.00012254573077592128,0.00019235396713206685,1.937357386129566e-06,6.9333,6.4667
0.07421875,-0.0009682384728816663,0.00011082966313572902,0.00017917339103685055,-9.61148931105499e-07,6.9333,6.4667
0.078125,-0.0009682384728816663,9.960176498054477e-05,0.00017087450979171435,-3.401996356145554e-06,6.9333,6.4667
0.08203125,-0.0009682384728816663,8.251583300526438e-05,0.00014793054399633786,4.7284893110553325e-07,6.9333,6.4667
0.0859375,-0.0009682384728816663,9.130288373540858e-05,0.0001513477303913939,3.890035326161609e-06,6.9333,6.4667
0.08984375,-0.0009682384728816663,0.000110341493650721,0.0001679454928816663,3.890035326161609e-06,6.9333,6.4667
0.09375,-0.0009682384728816663,9.862542601052873e-05,0.00015476491678645,1.937357386129566e-06,6.9333,6.4667
0.09765625,-0.0009682384728816663,9.423190064545664e-05,0.0001332854594460975,-1.44931841611351e-06,6.9333,6.4667
0.1015625,-0.0009682384728816663,9.764908704051272e-05,0.00013767898481116962,-1.44931841611351e-06,6.9333,6.4667
0.10546875,-0.0009682384728816663,8.202766352025636e-05,0.00014939505245136189,-4.3783353261615755e-06,6.9333,6.4667
0.109375,-0.0009682384728816663,6.5887559922179e-05,0.00015037139142137792,-2.9138268711375426e-06,6.9333,6.4667
0.11328125,-0.0009682384728816663,6.933525691004809e-05,0.00014207251017624172,5.842713266193654e-06,6.9333,6.4667
0.1171875,-0.0009682384728816663,6.393488198214696e-05,0.0001230339002609293,1.4491879011215552e-06,6.9333,6.4667
0.12109375,-0.0009682384728816663,6.393488198214696e-05,0.00011619952747081714,-1.937487901121521e-06,6.9333,6.4667
0.125,-0.0009682384728816663,0.00010008993446555277,0.00015622942524147403,-9.61148931105499e-07,6.9333,6.4667
0.12890625,-0.0009682384728816663,8.935020579537654e-05,0.00018747227228198672,8.77173017624172e-06,6.9333,6.4667
0.1328125,-0.0009682384728816663,5.124247537193867e-05,0.0001415843406912337,6.819052236209676e-06,6.9333,6.4667
0.13671875,-0.0009682384728816663,5.270698382696271e-05,0.0001010662734355688,-1.937487901121521e-06,6.9333,6.4667
0.140625,-0.0009682384728816663,6.787074845502406e-05,0.0001191285443808652,4.378204811169621e-06,6.9333,6.4667
0.14453125,-0.0009682384728816663,9.813725652552073e-05,0.00015720576421149007,-1.44931841611351e-06,6.9333,6.4667
0.1484375,-0.0009682384728816663,0.0001191285443808652,0.00019333030610208288,3.890035326161609e-06,6.9333,6.4667
0.15234375,-0.0009682384728816663,0.00010838881571068896,0.00018307874691691464,-9.61148931105499e-07,6.9333,6.4667
0.15625,-0.0009682384728816663,0.00011619952747081714,0.00016989817082169834,-1.44931841611351e-06,6.9333,6.4667
0.16015625,-0.0009682384728816663,0.00012498657820096134,0.00017331535721675442,5.842713266193654e-06,6.9333,6.4667
0.1640625,-0.0009682384728816663,0.00012108122232089725,0.00018796044176699477,2.913696356145588e-06,6.9333,6.4667
0.16796875,-0.0009682384728816663,0.00013767898481116962,0.00021923379940032045,4.378204811169621e-06,6.9333,6.4667
0.171875,-0.0009701911508216983,0.00014744237451132981,0.00020654139279011218,7.795391206225697e-06,6.9333,6.4667
0.17578125,-0.000957986913696498,0.00012693925614099338,0.00016013478112153812,1.3165255541313818e-05,6.9333,6.4667
0.1796875,-0.0009662857949416342,0.00011131783262073704,0.00013816715429617763,1.1212577601281776e-05,6.9333,6.4667
0.18359375,-0.0009189333548958571,0.00010741247674067293,0.00013767898481116962,1.365342502632183e-05,6.9333,6.4667
0.1875,-0.0004462632510368505,0.00011473501901579311,0.00013426179841611355,1.6094272451361885e-05,6.9333,6.4667
0.19140625,0.00020947040970016023,0.00010301895137560084,0.00011327051056076907,1.6582441936369896e-05,6.9333,6.4667
0.1953125,0.000510732003135729,8.007498558022432e-05,7.47051212451362e-05,1.8535119876401938e-05,6.9333,6.4667
0.19921875,0.0007661056649805448,7.958681609521631e-05,4.831345846189061e-05,1.9999628331425975e-05,6.9333,6.4667
0.203125,-0.0009975286419821468,7.275244330510416e-05,3.610922133669034e-05,1.5117933481345863e-05,6.9333,6.4667
0.20703125,0.0009282084445960174,4.1479085671778456e-05,-1.999975884641793e-05,1.4141594511329842e-05,6.9333,6.4667
0.2109375,-0.0008940367111604485,4.7825288976882595e-05,-2.683413163653008e-05,1.5606102966353874e-05,6.9333,6.4667
0.21484375,0.0005766348836118105,-7.958694661020826e-05,-0.0003124743015518425,1.365342502632183e-05,6.9333,6.4667
0.21875,-0.0008339613539116502,-0.0007265335566170748,-0.0009008710839505607,4.684895000686658e-05,6.9333,6.4667
0.22265625,-0.001,-0.001,-0.0009897179302220188,5.8076848162050824e-05,6.9333,6.4667
0.2265625,-0.0009140516600457771,-0.0009394364732661936,-0.0009457826765712977,3.269203494163426e-05,6.9333,6.4667
0.23046875,-0.0009819072184618905,-0.0009716556592767224,-0.0009736083372167544,1.8046950391393927e-05,6.9333,6.4667
0.234375,-0.0009760491846417944,-0.0009687266423666742,-0.0009682384728816663,9.259899661249731e-06,6.9333,6.4667
0.23828125,-0.0009267440666559853,-0.0009648212864866102,-0.0009682384728816663,4.866374296177632e-06,6.9333,6.4667
0.2421875,-0.001,-0.0009711674897917143,-0.0009682384728816663,1.937357386129566e-06,6.9333,6.4667
0.24609375,-0.0008105292186312657,-0.0009423654901762416,-0.0009682384728816663,-2.425657386129532e-06,6.9333,6.4667
0.25,0.0004535856627969787,-0.0008329850149416343,-0.0009682384728816663,-2.425657386129532e-06,6.9333,6.4667
0.25390625,-0.000916004337985809,-0.00073339844,-0.0009682384728816663,-8.771860691233675e-06,6.9333,6.4667
0.2578125,0.0009496879019363699,-0.0006738112522362095,-0.0009682384728816663,-1.560623348134583e-05,6.9333,6.4667
0.26171875,-0.0009989931504371709,-0.0006127900666102083,-0.0009682384728816663,-9.260030176241686e-06,6.9333,6.4667
0.265625,-0.000999481319922179,-0.0005424631501762416,-0.0009682384728816663,-8.771860691233675e-06,6.9333,6.4667
0.26953125,0.0009995117,-0.00048778816785534444,-0.0009682384728816663,-4.3783353261615755e-06,6.9333,6.4667
0.2734375,0.0009995117,-0.00043015365803158616,-0.0009682384728816663,-3.401996356145554e-06,6.9333,6.4667
0.27734375,0.0009995117,-0.00037450233674067286,-0.0009682384728816663,-7.795521721217652e-06,6.9333,6.4667
0.28125,0.0009995117,-0.0003525347099153124,-0.0009682384728816663,-1.0236369146257707e-05,6.9333,6.4667
0.28515625,0.0009995117,-0.00032760755558709087,-0.0009687266423666742,-1.2189047086289752e-05,6.9333,6.4667
0.2890625,0.0009995117,-0.0002787906070862897,-0.0009653094559716182,-1.4141725026321795e-05,6.9333,6.4667
0.29296875,0.0009995117,-0.0002275328111604486,-0.0009701911508216983,-2.3416945241474e-05,6.9333,6.4667
0.296875,0.0009995117,-0.00017673267412680245,-0.0009526170493614099,-2.0487928331425938e-05,6.9333,6.4667
0.30078125,0.0009995117,-0.00013523826790112152,-0.000862763353527123,-3.5133012881666264e-05,6.9333,6.4667
0.3046875,0.0009995117,-0.00011522331901579306,-0.0007407209822751201,-4.392006361181047e-05,6.9333,6.4667
0.30859375,0.0009995117,-8.690948888532842e-05,-0.0006240179647653925,-3.366850442664224e-05,6.9333,6.4667
0.3125,0.0009995117,-5.85651481620508e-05,-0.0005375814553261616,-3.073948751659417e-05,6.9333,6.4667
0.31640625,0.0009995117,-4.489640258182648e-05,-0.00046679687999999996,-3.122765700160218e-05,6.9333,6.4667
0.3203125,0.0009995117,-2.488145369649804e-05,-0.0003998871499610895,-3.073948751659417e-05,6.9333,6.4667
0.32421875,0.0009995117,-1.937487901121521e-06,-0.00031833233537193866,-2.488145369649804e-05,6.9333,6.4667
0.328125,0.0009995117,9.610184161135442e-07,-0.00023094999755550466,-3.22039959716182e-05,6.9333,6.4667
0.33203125,0.0009995117,6.330882751201665e-06,-0.00017526816567177842,-3.318033494163422e-05,6.9333,6.4667
0.3359375,0.0009995117,1.6094272451361885e-05,-0.0001386554542961776,-2.9274979061570133e-05,6.9333,6.4667
0.33984375,0.0009995117,2.3416814726482047e-05,-9.179118373540854e-05,-2.8298640091554114e-05,6.9333,6.4667
0.34375,0.0009995117,3.220386545662624e-05,-4.7825419491874556e-05,-2.9274979061570133e-05,6.9333,6.4667
0.34765625,0.0009995117,4.7337119491874584e-05,1.2188916571297797e-05,-3.073948751659417e-05,6.9333,6.4667
0.3515625,0.0009995117,4.880162794689862e-05,5.5636000737010774e-05,-2.5857792666514058e-05,6.9333,6.4667
0.35546875,0.0009995117,4.5872611036850557e-05,6.247037352712293e-05,-2.195243678644997e-05,6.9333,6.4667
0.359375,0.0009995117,5.5636000737010774e-05,8.935020579537654e-05,-2.097609781643395e-05,6.9333,6.4667
0.36328125,0.0009995117,5.71005091920348e-05,0.0001284037645960174,-1.804708090638588e-05,6.9333,6.4667
0.3671875,0.0009995117,5.319515331197072e-05,0.0001669691539116503,-8.283691206225664e-06,6.9333,6.4667
0.37109375,0.0009995117,4.636078052185856e-05,0.00020068335897001601,-1.072453863126572e-05,6.9333,6.4667
0.375,0.0009995117,4.880162794689862e-05,0.00021435210455024033,-7.307352236209642e-06,6.9333,6.4667
0.37890625,0.0009995117,5.2218814341954696e-05,0.00022704451116044863,4.7284893110553325e-07,6.9333,6.4667
0.3828125,0.0009995117,5.2218814341954696e-05,0.00022753268064545665,-4.3783353261615755e-06,6.9333,6.4667
0.38671875,0.0009995117,5.66123397070268e-05,0.00024315410416571298,-4.3783353261615755e-06,6.9333,6.4667
0.390625,0.0009995117,5.612417022201878e-05,0.00027390878172121766,-9.61148931105499e-07,6.9333,6.4667
0.39453125,0.0009995117,4.9289797431906635e-05,0.0002802549850263218,9.610184161135442e-07,6.9333,6.4667
0.3984375,0.0009995117,5.075430588693066e-05,0.0002861130188464179,3.890035326161609e-06,6.9333,6.4667
0.40234375,0.0009995117,5.2218814341954696e-05,0.00030222261185168227,8.77173017624172e-06,6.9333,6.4667
0.40625,0.0009995117,6.198220404211491e-05,0.0003271192555870909,1.4491879011215552e-06,6.9333,6.4667
0.41015625,0.0009995117,6.835891794003205e-05,0.00034911739300526437,3.890035326161609e-06,6.9333,6.4667
0.4140625,0.0009995117,5.319515331197072e-05,0.00034423569815518424,5.842713266193654e-06,6.9333,6.4667
0.41796875,0.0009995117,4.977796691691464e-05,0.00033349596948500807,4.378204811169621e-06,6.9333,6.4667
0.421875,0.0009995117,6.5887559922179e-05,0.00033248911992217895,7.307221721217687e-06,6.9333,6.4667
0.42578125,0.0009995117,7.861047712520029e-05,0.0003583926132204166,-9.61148931105499e-07,6.9333,6.4667
0.4296875,0.0009995117,7.763413815518427e-05,0.0003857301043808652,-6.3310132661936195e-06,6.9333,6.4667
0.43359375,0.0009995117,6.787074845502406e-05,0.00037450220622568093,-1.44931841611351e-06,6.9333,6.4667
0.4375,0.0009995117,7.714596867017625e-05,0.0003666914944655528,3.401865841153599e-06,6.9333,6.4667
0.44140625,0.0009995117,8.642118888532846e-05,0.00038328925695582514,3.401865841153599e-06,6.9333,6.4667
0.4453125,0.0009995117,0.00010008993446555277,0.0004257600021515221,1.3165255541313818e-05,6.9333,6.4667
0.44921875,0.0009995117,0.0001279155951110094,0.0004702139358800641,6.330882751201665e-06,6.9333,6.4667
0.453125,0.0009995117,0.00010057810395056078,0.00045309749331197066,-4.72979446097488e-07,6.9333,6.4667
0.45703125,0.0009995117,7.226427382009615e-05,0.0004277126800915541,8.283560691233709e-06,6.9333,6.4667
0.4609375,0.0009995117,9.61845785854887e-05,0.00044968030691691467,-2.425657386129532e-06,6.9333,6.4667
0.46484375,0.0009995117,0.00012156939180590525,0.00046188454404211493,-1.3165386056305774e-05,6.9333,6.4667
0.46875,0.0009995117,0.00012596291717097735,0.00047753647815518426,-1.804708090638588e-05,6.9333,6.4667
0.47265625,0.0009995117,0.00013572630687113757,0.0004897407152803845,-2.9763148546578148e-05,6.9333,6.4667
0.4765625,0.0009995117,0.00012498657820096134,0.0004623727135271229,-4.392006361181047e-05,6.9333,6.4667
0.48046875,0.0009995117,0.00011424684953078509,0.0004526093238269627,-4.831358897688256e-05,6.9333,6.4667
0.484375,0.0009995117,0.00011961671386587322,0.00044968030691691467,-5.758880919203477e-05,6.9333,6.4667
0.48828125,0.0009995117,0.00012938010356603342,0.0004555383407370108,-6.051782610208284e-05,6.9333,6.4667
0.4921875,0.0009995117,0.00011864037489585719,0.0004535856627969787,-6.835904845502402e-05,6.9333,6.4667
0.49609375,0.0009995117,0.00010838881571068896,0.00042478366318150605,-7.372891279011213e-05,6.9333,6.4667
0.5,0.0009995117,0.00013182095099107348,0.0004272245106065461,-6.393501249713892e-05,6.9333,6.4667
0.50390625,0.0009995117,0.00013816715429617763,0.0004487039679468986,-5.954148713206682e-05,6.9333,6.4667
0.5078125,0.0009995117,0.00013914349326619364,0.00046188454404211493,-5.319528382696267e-05,6.9333,6.4667
0.51171875,0.0009995117,0.00013523813738612958,0.00044723945949187455,-5.319528382696267e-05,6.9333,6.4667
0.515625,0.0009995117,0.0001240102392309453,0.00042380732421149007,-5.221894485694665e-05,6.9333,6.4667
0.51953125,0.0009995117,0.00012449840871595332,0.0004199019683314259,-4.3431894126802455e-05,6.9333,6.4667
0.5234375,0.0009995117,0.00013230912047608147,0.00042380732421149007,-4.3431894126802455e-05,6.9333,6.4667
0.52734375,0.0009995117,0.00012693925614099338,0.0004408932561867704,-4.7825419491874556e-05,6.9333,6.4667
0.53125,0.0009995117,0.00012449840871595332,0.00044626312052185857,-4.440823309681848e-05,6.9333,6.4667
0.53515625,0.0009995117,0.00013035644253604946,0.00042039013781643397,-3.318033494163422e-05,6.9333,6.4667
0.5390625,0.0009995117,0.00011961671386587322,0.0004042805448111696,-3.2692165456626215e-05,6.9333,6.4667
0.54296875,0.0009995117,0.00012254573077592128,0.00040769773120622566,-3.2692165456626215e-05,6.9333,6.4667
0.546875,0.0009995117,0.0001332854594460975,0.0004081859006912337,-2.5857792666514058e-05,6.9333,6.4667
0.55078125,0.0009995117,0.00011668769695582514,0.00038963546026092924,-3.025131803158616e-05,6.9333,6.4667
0.5546875,0.0009995117,0.00011180600210574503,0.00038377742644083313,-2.8786809576562122e-05,6.9333,6.4667
0.55859375,0.0009995117,0.00012352206974593728,0.0003857301043808652,-2.8786809576562122e-05,6.9333,6.4667
0.5625,0.0009995117,0.00012449840871595332,0.00036962051137560086,-3.2692165456626215e-05,6.9333,6.4667
0.56640625,0.0009995117,0.00012205756129091327,0.00036962051137560086,-2.9274979061570133e-05,6.9333,6.4667
0.5703125,0.0009995117,0.00011961671386587322,0.00037450220622568093,-1.951158936140992e-05,6.9333,6.4667
0.57421875,0.0009995117,0.00010838881571068896,0.0003642506470405127,-1.3653555541313785e-05,6.9333,6.4667
0.578125,0.0009995117,0.00010301895137560084,0.0003310246114671549,-1.560623348134583e-05,6.9333,6.4667
0.58203125,0.0009995117,0.00010545979880064089,0.00031686769640192265,-1.7070741936369862e-05,6.9333,6.4667
0.5859375,0.0009995117,0.00010008993446555277,0.00033248911992217895,-1.804708090638588e-05,6.9333,6.4667
0.58984375,0.0009995117,9.61845785854887e-05,0.00033151278095216297,-1.755891142137787e-05,6.9333,6.4667
0.59375,0.0009995117,9.374373116044863e-05,0.00031345051000686655,-1.121270811627373e-05,6.9333,6.4667
0.59765625,0.0009995117,8.446851094529643e-05,0.0002826958324513619,-2.9138268711375426e-06,6.9333,6.4667
0.6015625,0.0009995117,8.642118888532846e-05,0.00028074315451132986,-6.3310132661936195e-06,6.9333,6.4667
0.60546875,0.0009995117,9.520823961547266e-05,0.00030368712030670635,-1.170087760128174e-05,6.9333,6.4667
0.609375,0.0009995117,9.764908704051272e-05,0.0003071043067017624,-7.307352236209642e-06,6.9333,6.4667
0.61328125,0.0009995117,9.813725652552073e-05,0.00029587640854657817,4.7284893110553325e-07,6.9333,6.4667
0.6171875,0.0009995117,9.179105322041659e-05,0.0002841603409063859,3.890035326161609e-06,6.9333,6.4667
0.62109375,0.0009995117,8.83738668253605e-05,0.00028318400193636987,7.795391206225697e-06,6.9333,6.4667
0.625,0.0009995117,9.032654476539255e-05,0.00028855386627145804,1.0724408116273763e-05,6.9333,6.4667
0.62890625,0.0009995117,8.83738668253605e-05,0.00029099471369649804,9.610184161135442e-07,6.9333,6.4667
0.6328125,0.0009995117,8.202766352025636e-05,0.0002778141376012818,-1.937487901121521e-06,6.9333,6.4667
0.63671875,0.0009995117,7.372878227512018e-05,0.00023241437549553672,-1.5320553902477717e-08,6.9333,6.4667
0.640625,0.0009995117,6.787074845502406e-05,0.00021581661300526436,-3.401996356145554e-06,6.9333,6.4667
0.64453125,0.0009995117,6.149403455710691e-05,0.00024510678210574506,4.7284893110553325e-07,6.9333,6.4667
0.6484375,0.0009995117,5.417149228198674e-05,0.0002617045445960174,4.7284893110553325e-07,6.9333,6.4667
0.65234375,0.0009995117,5.758867867704282e-05,0.00026365722253604947,-2.425657386129532e-06,6.9333,6.4667
0.65625,0.0009995117,5.465966176699475e-05,0.0002485239685008011,8.283560691233709e-06,6.9333,6.4667
0.66015625,0.0009995117,5.368332279697873e-05,0.00023387888395056078,1.0724408116273763e-05,6.9333,6.4667
0.6640625,0.0009995117,5.954135661707486e-05,0.00023387888395056078,5.354543781185643e-06,6.9333,6.4667
0.66796875,0.0009995117,5.758867867704282e-05,0.0002524293243808652,7.795391206225697e-06,6.9333,6.4667
0.671875,0.0009995117,4.294359412680248e-05,0.0002631690530510414,1.2677086056305808e-05,6.9333,6.4667
0.67578125,0.0009995117,3.562105185168232e-05,0.000242665934680705,1.5117933481345863e-05,6.9333,6.4667
0.6796875,0.0009995117,3.806189927672238e-05,0.00023290254498054477,1.0724408116273763e-05,6.9333,6.4667
0.68359375,0.0009995117,4.001457721675442e-05,0.00022997352807049672,9.259899661249731e-06,6.9333,6.4667
0.6875,0.0009995117,4.5872611036850557e-05,0.00022460366373540857,8.77173017624172e-06,6.9333,6.4667
0.69140625,0.0009995117,5.8076848162050824e-05,0.0002260681721904326,1.2677086056305808e-05,6.9333,6.4667
0.6953125,0.0009995117,6.247037352712293e-05,0.00021923379940032045,1.8535119876401938e-05,6.9333,6.4667
0.69921875,0.0009995117,4.977796691691464e-05,0.00021386393506523234,1.951145884641796e-05,6.9333,6.4667
0.703125,0.0009995117,5.954135661707486e-05,0.00022362732476539254,2.439315369649807e-05,6.9333,6.4667
0.70703125,0.0009995117,6.738257897001604e-05,0.00024217776519569695,2.0975967301441994e-05,6.9333,6.4667
0.7109375,0.0009995117,5.8076848162050824e-05,0.00025096481592584116,2.3904984211490058e-05,6.9333,6.4667
0.71484375,0.0009995117,5.8076848162050824e-05,0.00022899718910048068,3.269203494163426e-05,6.9333,6.4667
0.71875,0.0009995117,6.640624000000002e-05,0.00022167464682536052,3.46447128816663e-05,6.9333,6.4667
0.72265625,0.0009995117,5.026613640192266e-05,0.00023339071446555276,3.4156543396658294e-05,6.9333,6.4667
0.7265625,0.0009995117,4.9289797431906635e-05,0.00023778423983062487,3.0251187516594204e-05,6.9333,6.4667
0.73046875,0.0009995117,5.026613640192266e-05,0.00023827240931563289,2.7322170606546137e-05,6.9333,6.4667
0.734375,0.0009995117,4.196725515678646e-05,0.00020995857918516825,2.976301803158619e-05,6.9333,6.4667
0.73828125,0.0009995117,4.880162794689862e-05,0.0001943066450720989,3.610922133669034e-05,6.9333,6.4667
0.7421875,0.0009995117,4.4896272066834534e-05,0.000199188339922179,3.269203494163426e-05,6.9333,6.4667
0.74609375,0.0009995117,4.9289797431906635e-05,0.00021776929094529643,2.1952306271458016e-05,6.9333,6.4667
0.75,0.0009995117,4.245542464179448e-05,0.00022265098579537653,2.0487797816433986e-05,6.9333,6.4667
0.75390625,0.0009995117,4.245542464179448e-05,0.00021044674867017627,2.488132318150608e-05,6.9333,6.4667
0.7578125,0.0009995117,5.075430588693066e-05,0.00020117152845502406,2.0975967301441994e-05,6.9333,6.4667
0.76171875,0.0009995117,4.0990916186770444e-05,0.00017966156052185857,1.4141594511329842e-05,6.9333,6.4667
0.765625,0.0009995117,3.5132882366674316e-05,0.00020263603691004809,2.1464136786450005e-05,6.9333,6.4667
0.76953125,0.0009995117,4.1479085671778456e-05,0.0002343670534355688,2.1464136786450005e-05,6.9333,6.4667
0.7734375,0.0009995117,4.636078052185856e-05,0.00021972196888532845,1.9999628331425975e-05,6.9333,6.4667
0.77734375,0.0009995117,4.0990916186770444e-05,0.0001943066450720989,2.0975967301441994e-05,6.9333,6.4667
0.78125,0.0009995117,5.075430588693066e-05,0.00018014973000686656,1.755878090638592e-05,6.9333,6.4667
0.78515625,0.0009995117,6.539939043717099e-05,0.00019970702000000003,1.7070611421377907e-05,6.9333,6.4667
0.7890625,0.0009995117,5.856501764705884e-05,0.0002250918332204166,2.292864524147404e-05,6.9333,6.4667
0.79296875,0.0009995117,6.787074845502406e-05,0.0002221628163103685,8.283560691233709e-06,6.9333,6.4667
0.796875,0.0009995117,7.079976536507211e-05,0.0002167929519752804,9.610184161135442e-07,6.9333,6.4667
0.80078125,0.0009995117,5.758867867704282e-05,0.00022362732476539254,1.8046950391393927e-05,6.9333,6.4667
0.8046875,0.0009995117,6.5887559922179e-05,0.00023680790086060886,1.6094272451361885e-05,6.9333,6.4667
0.80859375,0.0009995117,5.758867867704282e-05,0.0002465712905607691,1.6094272451361885e-05,6.9333,6.4667
0.8125,0.0009995117,5.465966176699475e-05,0.00024071325674067292,1.6094272451361885e-05,6.9333,6.4667
0.81640625,0.0009995117,6.491122095216298e-05,0.00021728112146028838,1.0236238631265752e-05,6.9333,6.4667
0.8203125,0.0009995117,7.079976536507211e-05,0.0002089822402151522,1.1700747086289786e-05,6.9333,6.4667
0.82421875,0.0009995117,7.177610433508813e-05,0.00023143803652552074,1.8535119876401938e-05,6.9333,6.4667
0.828125,0.0009995117,7.226427382009615e-05,0.0002392487482856489,1.8046950391393927e-05,6.9333,6.4667
0.83203125,0.0009995117,8.056315506523234e-05,0.00023876057880064088,1.1212577601281776e-05,6.9333,6.4667
0.8359375,0.0009995117,7.958681609521631e-05,0.00022362732476539254,1.0724408116273763e-05,6.9333,6.4667
0.83984375,0.0009995117,6.295854301213094e-05,0.0002119112571252003,1.5606102966353874e-05,6.9333,6.4667
0.84375,0.0009995117,6.10058650720989e-05,0.00022411549425040055,1.5117933481345863e-05,6.9333,6.4667
0.84765625,0.0009995117,6.0029526102082876e-05,0.0002167929519752804,1.7070611421377907e-05,6.9333,6.4667
0.8515625,0.0009995117,6.198220404211491e-05,0.00020751773176012819,2.3416814726482047e-05,6.9333,6.4667
0.85546875,0.0009995117,6.295854301213094e-05,0.0001904012891920348,1.5606102966353874e-05,6.9333,6.4667
0.859375,0.0009995117,5.1730644856946685e-05,0.0001679454928816663,1.365342502632183e-05,6.9333,6.4667
0.86328125,0.0009995117,5.66123397070268e-05,0.00017380352670176243,1.6094272451361885e-05,6.9333,6.4667
0.8671875,0.0009995117,6.640624000000002e-05,0.00018844861125200276,1.0236238631265752e-05,6.9333,6.4667
0.87109375,0.0009995117,3.171569597161824e-05,0.00018893678073701075,1.3165255541313818e-05,6.9333,6.4667
0.875,0.0009995117,1.2677086056305808e-05,0.000155741255756466,1.0724408116273763e-05,6.9333,6.4667
0.87890625,0.0009995117,2.878667906157017e-05,0.00011815220541084917,1.365342502632183e-05,6.9333,6.4667
0.8828125,0.0009995117,3.318020442664227e-05,0.00011278234107576106,1.7070611421377907e-05,6.9333,6.4667
0.88671875,0.0009995117,3.318020442664227e-05,0.0001240102392309453,1.4141594511329842e-05,6.9333,6.4667
0.890625,0.0009995117,3.1227526486610226e-05,0.00012889193408102543,2.5369492666514095e-05,6.9333,6.4667
0.89453125,-0.001,1.951145884641796e-05,0.00011522318850080111,3.0251187516594204e-05,6.9333,6.4667
0.8984375,0.000995575833527123,9.610184161135442e-07,8.544484991531244e-05,2.976301803158619e-05,6.9333,6.4667
0.90234375,-0.0009945996250720988,4.866374296177632e-06,6.738257897001604e-05,3.562105185168232e-05,6.9333,6.4667
0.90625,0.0009697028508216983,2.0487797816433986e-05,8.398034146028841e-05,2.0487797816433986e-05,6.9333,6.4667
0.91015625,0.0008867140383703365,-9.260030176241686e-06,5.2218814341954696e-05,1.1212577601281776e-05,6.9333,6.4667
0.9140625,0.0008490944774319066,-8.10514550652323e-05,-3.122765700160218e-05,2.878667906157017e-05,6.9333,6.4667
0.91796875,0.0008598342061020829,-9.42320311604486e-05,-6.588769043717095e-05,2.1464136786450005e-05,6.9333,6.4667
0.921875,0.0009184450548958571,-0.00010643626828564887,-7.275257382009612e-05,4.378204811169621e-06,6.9333,6.4667
0.92578125,0.0008852495299153124,-0.0001386554542961776,-7.616976021515219e-05,6.330882751201665e-06,6.9333,6.4667
0.9296875,0.0008759743097001602,-0.00015671772524147398,-0.0001030190818905928,4.7284893110553325e-07,6.9333,6.4667
0.93359375,0.0009584749526665141,-0.000200683489485008,-0.0001645284370016022,-6.819182751201631e-06,6.9333,6.4667
0.9375,0.0009179568854108492,-0.00020361250639505606,-0.00020361250639505606,-1.5118063996337817e-05,6.9333,6.4667
0.94140625,0.0008529998333119708,-0.0002060533538200961,-0.00023534352292057677,-1.658257245136185e-05,6.9333,6.4667
0.9453125,0.0007636648175555047,-0.0002060533538200961,-0.00022558013322041657,-1.999975884641793e-05,6.9333,6.4667
0.94921875,0.0007157936974319065,-0.0002060533538200961,-0.00022021026888532843,-3.366850442664224e-05,6.9333,6.4667
0.953125,0.0006581896982009613,-0.00022558013322041657,-0.00025340579386587316,-3.65975213366903e-05,6.9333,6.4667
0.95703125,0.0005278179351110094,-0.0002187457604303044,-0.00027000355635614556,-3.2692165456626215e-05,6.9333,6.4667
0.9609375,0.0005385576637811856,-0.0002055651843350881,-0.0002490122685008011,-2.683413163653008e-05,6.9333,6.4667
0.96484375,0.00048339451197528037,-0.0001786853520668345,-0.0002280209806454566,-2.7810470606546103e-05,6.9333,6.4667
0.96875,0.00043210620545662624,-0.00017136280979171433,-0.00026170467511100933,-3.22039959716182e-05,6.9333,6.4667
0.97265625,0.00044723945949187455,-0.00016257575906157014,-0.0002660982004760814,-3.366850442664224e-05,6.9333,6.4667
0.9765625,0.0003422830202151522,-0.0001391436237811856,-0.00026170467511100933,-4.2455555156786426e-05,6.9333,6.4667
0.98046875,0.00027830230708628974,-0.00011034162416571295,-0.00027439708172121764,-4.489640258182648e-05,6.9333,6.4667
0.984375,0.0002612163751110094,-6.29586735271229e-05,-0.00024754776004577705,-4.733725000686654e-05,6.9333,6.4667
0.98828125,0.0002787904765712978,-4.733725000686654e-05,-0.0002270446416754406,-5.270711434195466e-05,6.9333,6.4667
0.9921875,0.00026414539202105746,-4.1479216186770404e-05,-0.00021825759094529638,-4.636091103685052e-05,6.9333,6.4667
0.99609375,0.000243642273650721,-3.464484339665826e-05,-0.00021337589609521628,-4.733725000686654e-05,6.9333,6.4667
1.0,0.00021337576558022432,-3.5133012881666264e-05,-0.00020507701485008008,-5.221894485694665e-05,6.9333,6.4667
1.00390625,0.00024754762953078507,-9.748199661249696e-06,-0.00018307887743190658,-5.612430073701074e-05,6.9333,6.4667
1.0078125,0.0003193085438269627,1.2677086056305808e-05,-0.00015964674215152206,-4.97780974319066e-05,6.9333,6.4667
1.01171875,0.00029831725597161823,9.610184161135442e-07,-0.000156229555756466,-4.7825419491874556e-05,6.9333,6.4667
1.015625,0.00033544864742504003,-9.748199661249696e-06,-0.00019088958919203476,-4.9289927946898583e-05,6.9333,6.4667
1.01953125,0.00029978176442664226,1.6094272451361885e-05,-0.0001923540976470588,-4.831358897688256e-05,6.9333,6.4667
1.0234375,0.0002978290864866102,5.514783125200276e-05,-0.00016062308112153807,-4.7825419491874556e-05,6.9333,6.4667
1.02734375,0.0004384524087617304,7.03115958800641e-05,-0.0001347500984161135,-4.9289927946898583e-05,6.9333,6.4667
1.03125,0.0004277126800915541,6.0029526102082876e-05,-0.00014597799657129775,-5.124260588693063e-05,6.9333,6.4667
1.03515625,0.000377431223135729,6.0029526102082876e-05,-0.00017624450464179443,-4.636091103685052e-05,6.9333,6.4667
1.0390625,0.00037499037571068897,6.539939043717099e-05,-0.00019528311455710686,-3.5133012881666264e-05,6.9333,6.4667
1.04296875,0.0004306416970016022,6.640624000000002e-05,-0.00019479494507209887,-3.073948751659417e-05,6.9333,6.4667
1.046875,0.0004301535275165942,5.758867867704282e-05,-0.0001786853520668345,-3.073948751659417e-05,6.9333,6.4667
1.05078125,0.0003486292235202564,4.245542464179448e-05,-0.00018649606382696267,-2.8786809576562122e-05,6.9333,6.4667
1.0546875,0.0003447238676401923,4.440810258182652e-05,-0.0001962594535271229,-2.7810470606546103e-05,6.9333,6.4667
1.05859375,0.0003710850198306249,4.294359412680248e-05,-0.00021044687918516823,-2.3905114726482013e-05,6.9333,6.4667
1.0625,0.0003984225109910735,4.5872611036850557e-05,-0.00019918847043717095,-1.804708090638588e-05,6.9333,6.4667
1.06640625,0.0004330825444266423,5.612417022201878e-05,-0.000155741386271458,-1.2189047086289752e-05,6.9333,6.4667
1.0703125,0.0004174611209063859,5.71005091920348e-05,-0.00016013491163653008,-1.072453863126572e-05,6.9333,6.4667
1.07421875,0.00039061179923094533,6.0029526102082876e-05,-0.0001518360303913939,-6.3310132661936195e-06,6.9333,6.4667
1.078125,0.00032126122176699473,5.368332279697873e-05,-0.0001381672848111696,-3.890165841153565e-06,6.9333,6.4667
1.08203125,0.00040135152790112157,5.612417022201878e-05,-0.00014548982708628973,-9.61148931105499e-07,6.9333,6.4667
1.0859375,0.0005034094608606088,6.884708742504007e-05,-0.0001249867087159533,5.354543781185643e-06,6.9333,6.4667
1.08984375,0.0004399169172167544,5.368332279697873e-05,-0.00011034162416571295,3.890035326161609e-06,6.9333,6.4667
1.09375,0.0003637624775555047,3.90382382467384e-05,-0.0001079007767406729,6.330882751201665e-06,6.9333,6.4667
1.09765625,0.00032174939125200277,5.124247537193867e-05,-0.00012303403077592126,1.2188916571297797e-05,6.9333,6.4667
1.1015625,0.000378407562105745,6.344671249713895e-05,-0.00012693938665598532,8.283560691233709e-06,6.9333,6.4667
1.10546875,0.0004140439345113298,6.10058650720989e-05,-8.935033631036849e-05,4.866374296177632e-06,6.9333,6.4667
1.109375,0.00040232786687113755,5.612417022201878e-05,-5.0266266916914606e-05,8.77173017624172e-06,6.9333,6.4667
1.11328125,0.000332000950437171,3.5132882366674316e-05,-4.2455555156786426e-05,1.365342502632183e-05,6.9333,6.4667
1.1171875,0.000287577527301442,2.1952306271458016e-05,-5.563613125200272e-05,1.6094272451361885e-05,6.9333,6.4667
1.12109375,0.0003881709518059052,4.245542464179448e-05,-2.8298640091554114e-05,2.439315369649807e-05,6.9333,6.4667
1.125,0.00046630858,4.1479085671778456e-05,1.8535119876401938e-05,1.5606102966353874e-05,6.9333,6.4667
1.12890625,0.00044968030691691467,2.878667906157017e-05,2.9274848546578178e-05,8.77173017624172e-06,6.9333,6.4667
1.1328125,0.00039988701944609754,3.4156543396658294e-05,3.4156543396658294e-05,7.795391206225697e-06,6.9333,6.4667
1.13671875,0.0003959816635660334,3.1227526486610226e-05,3.0251187516594204e-05,6.819052236209676e-06,6.9333,6.4667
1.140625,0.0003993988499610895,2.5369492666514095e-05,3.0251187516594204e-05,8.77173017624172e-06,6.9333,6.4667
1.14453125,0.000378407562105745,2.5369492666514095e-05,5.465966176699475e-05,5.842713266193654e-06,6.9333,6.4667
1.1484375,0.00037547854519569696,2.878667906157017e-05,8.73975278553445e-05,5.354543781185643e-06,6.9333,6.4667
1.15234375,0.00031735586588693064,1.3165255541313818e-05,0.00010887698519569697,1.3165255541313818e-05,6.9333,6.4667
1.15625,0.00031882037434195466,-1.44931841611351e-06,0.00012205756129091327,8.283560691233709e-06,6.9333,6.4667
1.16015625,0.00038524193489585716,7.795391206225697e-06,0.00014500152708628978,5.842713266193654e-06,6.9333,6.4667
1.1640625,0.00036473881652552073,2.913696356145588e-06,0.00017673254361181052,1.1700747086289786e-05,6.9333,6.4667
1.16796875,0.00030222261185168227,9.748069146257742e-06,0.0002084940707301442,7.795391206225697e-06,6.9333,6.4667
1.171875,0.0002563346802609293,1.951145884641796e-05,0.00023387888395056078,1.4491879011215552e-06,6.9333,6.4667
1.17578125,0.00024608312107576104,-5.842843781185608e-06,0.00024510678210574506,4.866374296177632e-06,6.9333,6.4667
1.1796875,0.0002538938328358892,-2.097609781643395e-05,0.0002470594600457771,1.2677086056305808e-05,6.9333,6.4667
1.18359375,0.0003046634592767224,-1.121270811627373e-05,0.0002836721714213779,1.4141594511329842e-05,6.9333,6.4667
1.1875,0.00026268088356603343,-5.842843781185608e-06,0.00032663108610208284,1.4141594511329842e-05,6.9333,6.4667
1.19140625,0.00021728112146028838,-7.307352236209642e-06,0.0003393540033051042,1.1212577601281776e-05,6.9333,6.4667
1.1953125,0.0002753732901762417,-1.8535250391393893e-05,0.00034033034227512016,6.819052236209676e-06,6.9333,6.4667
1.19921875,0.0003232138997070268,-1.3165386056305774e-05,0.0003539990878553445,7.795391206225697e-06,6.9333,6.4667
1.203125,0.0003715731893156329,-5.354674296177598e-06,0.00039109996871595327,9.259899661249731e-06,6.9333,6.4667
1.20703125,0.00031149783206683453,-8.771860691233675e-06,0.0004272245106065461,6.330882751201665e-06,6.9333,6.4667
1.2109375,0.00024413044313572902,-3.890165841153565e-06,0.0004199019683314259,4.866374296177632e-06,6.9333,6.4667
1.21484375,0.0003251665776470588,-1.658257245136185e-05,0.0003950053245960174,1.4491879011215552e-06,6.9333,6.4667
1.21875,0.00033151278095216297,-8.771860691233675e-06,0.0004037923753261616,5.842713266193654e-06,6.9333,6.4667
1.22265625,0.00033004827249713894,1.951145884641796e-05,0.0004174611209063859,6.819052236209676e-06,6.9333,6.4667
1.2265625,0.00031100966258182654,1.2677086056305808e-05,0.00043698790030670637,5.842713266193654e-06,6.9333,6.4667
1.23046875,0.00033349596948500807,-6.819182751201631e-06,0.0004467512900068666,7.307221721217687e-06,6.9333,6.4667
1.234375,0.00033447230845502405,2.913696356145588e-06,0.00045846735764705883,9.259899661249731e-06,6.9333,6.4667
1.23828125,0.0003154031879468986,9.610184161135442e-07,0.00045993186610208286,1.365342502632183e-05,6.9333,6.4667
1.2421875,0.00043161803597161825,-4.733725000686654e-05,0.0004199019683314259,1.0236238631265752e-05,6.9333,6.4667
1.24609375,0.00046334905249713896,-6.933538742504003e-05,0.0004159966124513619,-1.5320553902477717e-08,6.9333,6.4667
1.25,0.0005395340027512017,-5.221894485694665e-05,0.0004301535275165942,-9.61148931105499e-07,6.9333,6.4667
1.25390625,0.0008232214947264821,-5.6612470222018745e-05,0.0003813365790157931,2.4255268711375773e-06,6.9333,6.4667
1.2578125,-0.0008774389486701762,-6.982355691004805e-05,0.0003417948507301442,-1.5320553902477717e-08,6.9333,6.4667
1.26171875,6.344671249713895e-05,-5.563613125200272e-05,0.0003588807827054246,1.4491879011215552e-06,6.9333,6.4667
1.265625,-0.001,-5.319528382696267e-05,0.0003725495282856489,1.1700747086289786e-05,6.9333,6.4667
1.26953125,-0.0009340666089311055,-4.53845720668345e-05,0.00039207630768596936,1.902328936140995e-05,6.9333,6.4667
1.2734375,-0.0009511525409063858,-3.073948751659417e-05,0.00040037518893110553,2.7810340091554148e-05,6.9333,6.4667
1.27734375,-0.0009721438287617303,-4.440823309681848e-05,0.0003676678334355688,3.3668373911650276e-05,6.9333,6.4667
1.28125,-0.0009682384728816663,-4.5872741551842505e-05,0.0003657151554955367,3.90382382467384e-05,6.9333,6.4667
1.28515625,-0.0009682384728816663,-1.9023419876401904e-05,0.0003984225109910735,4.245542464179448e-05,6.9333,6.4667
1.2890625,-0.0009682384728816663,-2.7810470606546103e-05,0.00039646983305104144,4.294359412680248e-05,6.9333,6.4667
1.29296875,-0.0009682384728816663,-3.318033494163422e-05,0.0003574162742504006,4.196725515678646e-05,6.9333,6.4667
1.296875,-0.0009682384728816663,-2.4393284211490024e-05,0.0003310246114671549,4.4896272066834534e-05,6.9333,6.4667
1.30078125,-0.0009682384728816663,-1.999975884641793e-05,0.0003413066812451362,4.684895000686658e-05,6.9333,6.4667
1.3046875,-0.0009682384728816663,-1.7070741936369862e-05,0.00035595176579537657,4.7337119491874584e-05,6.9333,6.4667
1.30859375,-0.0009682384728816663,-1.072453863126572e-05,0.00035107007094529644,4.636078052185856e-05,6.9333,6.4667
1.3125,-0.0009682384728816663,-1.3653555541313785e-05,0.00034423569815518424,3.90382382467384e-05,6.9333,6.4667
1.31640625,-0.0009682384728816663,-1.3165386056305774e-05,0.00033151278095216297,3.318020442664227e-05,6.9333,6.4667
1.3203125,-0.0009682384728816663,-9.260030176241686e-06,0.00032126122176699473,3.7085560306706354e-05,6.9333,6.4667
1.32421875,-0.0009682384728816663,4.7284893110553325e-07,0.00031882037434195466,4.196725515678646e-05,6.9333,6.4667
1.328125,-0.0009682384728816663,1.0236238631265752e-05,0.0003251665776470588,4.196725515678646e-05,6.9333,6.4667
1.33203125,-0.0009682384728816663,-4.72979446097488e-07,0.00033004827249713894,4.7337119491874584e-05,6.9333,6.4667
1.3359375,-0.0009682384728816663,-1.937487901121521e-06,0.00030563979824673837,4.636078052185856e-05,6.9333,6.4667
1.33984375,-0.0009682384728816663,-1.0236369146257707e-05,0.00027146793429617765,4.196725515678646e-05,6.9333,6.4667
1.34375,-0.0009682384728816663,5.842713266193654e-06,0.00027586145966124973,3.7085560306706354e-05,6.9333,6.4667
1.34765625,-0.0009682384728816663,1.2677086056305808e-05,0.00029587640854657817,2.488132318150608e-05,6.9333,6.4667
1.3515625,-0.0009682384728816663,-4.3783353261615755e-06,0.00029050654421149005,2.488132318150608e-05,6.9333,6.4667
1.35546875,-0.0009682384728816663,3.401865841153599e-06,0.00027488512069123375,2.976301803158619e-05,6.9333,6.4667
1.359375,-0.0009682384728816663,1.755878090638592e-05,0.00028806569678645,4.34317636118105e-05,6.9333,6.4667
1.36328125,-0.0009682384728816663,2.3904984211490058e-05,0.0003071043067017624,4.880162794689862e-05,6.9333,6.4667
1.3671875,-0.0009682384728816663,1.4141594511329842e-05,0.0002919710526665141,3.8550068761730395e-05,6.9333,6.4667
1.37109375,-0.0009682384728816663,1.0236238631265752e-05,0.0002665862394460975,3.8550068761730395e-05,6.9333,6.4667
1.375,-0.0009682384728816663,1.2677086056305808e-05,0.00024022508725566493,3.5132882366674316e-05,6.9333,6.4667
1.37890625,-0.0009682384728816663,-7.795521721217652e-06,0.00022558000270542458,3.46447128816663e-05,6.9333,6.4667
1.3828125,-0.0009682384728816663,-2.425657386129532e-06,0.000242665934680705,3.46447128816663e-05,6.9333,6.4667
1.38671875,-0.0009682384728816663,1.6582441936369896e-05,0.0002563346802609293,3.171569597161824e-05,6.9333,6.4667
1.390625,-0.0009682384728816663,1.937357386129566e-06,0.00024950030747081714,3.1227526486610226e-05,6.9333,6.4667
1.39453125,-0.0009682384728816663,2.913696356145588e-06,0.0002577991887159533,2.1952306271458016e-05,6.9333,6.4667
1.3984375,-0.0009682384728816663,1.4629763996337851e-05,0.0002573110192309453,2.976301803158619e-05,6.9333,6.4667
1.40234375,-0.0009682384728816663,-5.354674296177598e-06,0.00022069830785534448,4.1479085671778456e-05,6.9333,6.4667
1.40625,-0.0009682384728816663,-3.855019927672234e-05,0.0002084940707301442,3.5132882366674316e-05,6.9333,6.4667
1.41015625,-0.0009682384728816663,-8.349230249027235e-05,0.0001947948145571069,3.0251187516594204e-05,6.9333,6.4667
1.4140625,-0.0009682384728816663,-0.00012156952232089721,0.00012645108665598537,3.5132882366674316e-05,6.9333,6.4667
1.41796875,-0.0009682384728816663,-0.00015769406421149002,5.905318713206685e-05,3.610922133669034e-05,6.9333,6.4667
1.421875,-0.0009682384728816663,-0.00017185097927672232,5.124247537193867e-05,4.294359412680248e-05,6.9333,6.4667
1.42578125,-0.0009682384728816663,-0.00018698423331197067,5.71005091920348e-05,5.368332279697873e-05,6.9333,6.4667
1.4296875,-0.0009682384728816663,-0.00022558013322041657,3.1227526486610226e-05,6.982342639505609e-05,6.9333,6.4667
1.43359375,-0.0009682384728816663,-0.0002602401666559853,1.937357386129566e-06,8.202766352025636e-05,6.9333,6.4667
1.4375,-0.0009682384728816663,-0.0002597519971709773,-1.9023419876401904e-05,9.325556167544062e-05,6.9333,6.4667
1.44140625,-0.0009682384728816663,-0.0002597519971709773,-1.9023419876401904e-05,0.00011180600210574503,6.9333,6.4667
1.4453125,-0.0009682384728816663,-0.00026170467511100933,1.902328936140995e-05,0.00011668769695582514,6.9333,6.4667
1.44921875,-0.0009682384728816663,-0.00025194128541084914,4.831345846189061e-05,0.00010448345983062488,6.9333,6.4667
1.453125,-0.0009682384728816663,-0.00025633481077592127,1.8046950391393927e-05,0.00011619952747081714,6.9333,6.4667
1.45703125,-0.0009682384728816663,-0.00023631986189059278,1.2188916571297797e-05,0.00014304884914625773,6.9333,6.4667
1.4609375,-0.0009682384728816663,-0.0001923540976470588,4.4896272066834534e-05,0.00015378857781643397,6.9333,6.4667
1.46484375,-0.0009682384728816663,-0.00018844874176699472,6.982342639505609e-05,0.00014256067966124974,6.9333,6.4667
1.46875,-0.0009682384728816663,-0.00017526816567177842,0.00012498657820096134,0.0001459778660563058,6.9333,6.4667
1.47265625,-0.0009682384728816663,-0.00016599294545662622,0.00016501647597161822,0.00014744237451132981,6.9333,6.4667
1.4765625,-0.0009682384728816663,-0.0001259630476859693,0.00018796044176699477,0.00013572630687113757,6.9333,6.4667
1.48046875,-0.0009682384728816663,-7.812243815518424e-05,0.00021386393506523234,0.00014793054399633786,6.9333,6.4667
1.484375,-0.0009682384728816663,-5.465979228198671e-05,0.0002504766464408331,0.00014451335760128176,6.9333,6.4667
1.48828125,-0.0009682384728816663,-8.283691206225664e-06,0.0003061279677317464,0.0001459778660563058,6.9333,6.4667
1.4921875,-0.0009682384728816663,-1.609440296635384e-05,0.0002988054254566263,0.00014304884914625773,6.9333,6.4667
1.49609375,-0.0009682384728816663,-1.0236369146257707e-05,0.00030368712030670635,0.00013230912047608147,6.9333,6.4667
1.5,-0.0009682384728816663,9.748069146257742e-06,0.0003427711897001602,0.0001371908153261616,6.9333,6.4667
1.50390625,-0.0009740965067017624,1.4629763996337851e-05,0.00035936895219043256,0.0001274274256260014,6.9333,6.4667
1.5078125,-0.0009257677276859693,2.829850957656216e-05,0.00038377742644083313,0.0001191285443808652,6.9333,6.4667
1.51171875,-0.001,4.1479085671778456e-05,0.00039061179923094533,0.00010985332416571298,6.9333,6.4667
1.515625,-0.0007021250823666743,6.0029526102082876e-05,0.00036620332498054476,9.61845785854887e-05,6.9333,6.4667
1.51953125,0.0005317232909910736,6.933525691004809e-05,0.0003798720705607691,8.83738668253605e-05,6.9333,6.4667
1.5234375,-0.0009389483037811855,8.690935837033648e-05,0.00040769773120622566,8.251583300526438e-05,6.9333,6.4667
1.52734375,0.000957498613696498,9.374373116044863e-05,0.000419413798846418,7.03115958800641e-05,6.9333,6.4667
1.53125,0.0009995117,9.081471425040057e-05,0.000419413798846418,5.905318713206685e-05,6.9333,6.4667
1.53515625,-0.000999481319922179,9.520823961547266e-05,0.000377919392620737,4.9289797431906635e-05,6.9333,6.4667
1.5390625,0.0009995117,0.00010350712086060884,0.0003686441724055848,3.90382382467384e-05,6.9333,6.4667
1.54296875,0.0009995117,0.00011327051056076907,0.0003915881382009613,2.5857662151522106e-05,6.9333,6.4667
1.546875,0.0009995117,0.00011864037489585719,0.00039061179923094533,2.2440475756466028e-05,6.9333,6.4667
1.55078125,0.0009995117,0.00011961671386587322,0.00037938390107576105,1.4141594511329842e-05,6.9333,6.4667
1.5546875,0.0009995117,0.00010057810395056078,0.00034570020661020827,-3.890165841153565e-06,6.9333,6.4667
1.55859375,0.0009995117,8.983837528038453e-05,0.00030222261185168227,-6.3310132661936195e-06,6.9333,6.4667
1.5625,0.0009995117,8.398034146028841e-05,0.00027976681554131377,-7.307352236209642e-06,6.9333,6.4667
1.56640625,0.0009995117,9.374373116044863e-05,0.00028318400193636987,-8.771860691233675e-06,6.9333,6.4667
1.5703125,0.0009995117,0.000110341493650721,0.00027390878172121766,-1.3165386056305774e-05,6.9333,6.4667
1.57421875,0.0009995117,9.61845785854887e-05,0.0002543820023208972,-1.2189047086289752e-05,6.9333,6.4667
1.578125,0.0009995117,7.47051212451362e-05,0.0002490121379858091,-7.795521721217652e-06,6.9333,6.4667
1.58203125,0.0009995117,9.325556167544062e-05,0.00023192620601052873,-1.4141725026321795e-05,6.9333,6.4667
1.5859375,0.0009995117,0.00012059305283588923,0.00021435210455024033,-1.755891142137787e-05,6.9333,6.4667
1.58984375,0.0009995117,0.00012645108665598537,0.0001894249502220188,-1.999975884641793e-05,6.9333,6.4667
1.59375,0.0009995117,0.00012156939180590525,0.00014695420502632182,-1.951158936140992e-05,6.9333,6.4667
1.59765625,0.0009995117,0.00012596291717097735,9.472007013046466e-05,-2.8786809576562122e-05,6.9333,6.4667
1.6015625,0.0009995117,0.00010741247674067293,5.8076848162050824e-05,-3.366850442664224e-05,6.9333,6.4667
1.60546875,0.0009995117,0.00010643613777065691,7.90986466102083e-05,-2.146426730144196e-05,6.9333,6.4667
1.609375,0.0009995117,0.0001274274256260014,8.349217197528039e-05,-1.3653555541313785e-05,6.9333,6.4667
1.61328125,0.0009995117,0.00013084461202105745,4.294359412680248e-05,-1.3653555541313785e-05,6.9333,6.4667
1.6171875,0.0009995117,0.00012645108665598537,2.913696356145588e-06,-2.3905114726482013e-05,6.9333,6.4667
1.62109375,0.0009995117,0.00012645108665598537,-1.170087760128174e-05,-1.999975884641793e-05,6.9333,6.4667
1.625,0.0009995117,0.0001371908153261616,-2.146426730144196e-05,-1.44931841611351e-06,6.9333,6.4667
1.62890625,0.0009995117,0.0001332854594460975,-3.610935185168229e-05,-6.819182751201631e-06,6.9333,6.4667
1.6328125,0.0009995117,0.00011327051056076907,-6.051782610208284e-05,-1.5118063996337817e-05,6.9333,6.4667
1.63671875,0.0009995117,7.90986466102083e-05,-9.618470910048064e-05,-1.072453863126572e-05,6.9333,6.4667
1.640625,0.0009995117,6.149403455710691e-05,-8.98385057953765e-05,-9.748199661249696e-06,6.9333,6.4667
1.64453125,0.0009995117,8.30040024902724e-05,-7.177623485008008e-05,-8.283691206225664e-06,6.9333,6.4667
1.6484375,0.0009995117,7.47051212451362e-05,-6.491135146715494e-05,-1.0236369146257707e-05,6.9333,6.4667
1.65234375,0.0009995117,6.149403455710691e-05,-4.440823309681848e-05,-1.121270811627373e-05,6.9333,6.4667
1.65625,0.0009995117,6.051769558709088e-05,-5.8076978677042786e-05,-7.307352236209642e-06,6.9333,6.4667
1.66015625,0.0009995117,6.982342639505609e-05,-5.563613125200272e-05,-6.3310132661936195e-06,6.9333,6.4667
1.6640625,0.0009995117,8.983837528038453e-05,-1.609440296635384e-05,-3.890165841153565e-06,6.9333,6.4667
1.66796875,0.0009995117,9.569640910048068e-05,1.4491879011215552e-06,8.283560691233709e-06,6.9333,6.4667
1.671875,0.0009995117,0.00012693925614099338,1.6582441936369896e-05,7.307221721217687e-06,6.9333,6.4667
1.67578125,0.0009995117,0.00011864037489585719,-1.951158936140992e-05,-7.307352236209642e-06,6.9333,6.4667
1.6796875,0.0009995117,4.9289797431906635e-05,-9.960189549553672e-05,-2.097609781643395e-05,6.9333,6.4667
1.68359375,0.0009995117,5.71005091920348e-05,-8.690948888532842e-05,-2.9763148546578148e-05,6.9333,6.4667
1.6875,0.0009995117,7.03115958800641e-05,-5.319528382696267e-05,-2.5857792666514058e-05,6.9333,6.4667
1.69140625,0.0009995117,3.318020442664227e-05,-8.007511609521628e-05,-2.146426730144196e-05,6.9333,6.4667
1.6953125,0.0009995117,1.5117933481345863e-05,-0.00011961684438086517,-2.634596215152207e-05,6.9333,6.4667
1.69921875,0.0009995117,2.3904984211490058e-05,-0.00013182108150606544,-3.9038368761730354e-05,6.9333,6.4667
1.703125,0.0009995117,3.610922133669034e-05,-0.00010692443777065688,-3.65975213366903e-05,6.9333,6.4667
1.70703125,0.0009995117,2.878667906157017e-05,-6.7870878970016e-05,-1.999975884641793e-05,6.9333,6.4667
1.7109375,0.0009995117,3.610922133669034e-05,-6.933538742504003e-05,-2.5857792666514058e-05,6.9333,6.4667
1.71484375,0.0009995117,3.7573729791714366e-05,-0.00010106640395056076,-3.610935185168229e-05,6.9333,6.4667
1.71875,0.0009995117,4.391993309681851e-05,-0.00010497175983062485,-3.415667391165024e-05,6.9333,6.4667
1.72265625,0.000998504850437171,6.198220404211491e-05,-9.91137260105287e-05,-3.318033494163422e-05,6.9333,6.4667
1.7265625,-0.001,6.640624000000002e-05,-7.275257382009612e-05,-2.2440606271457983e-05,6.9333,6.4667
1.73046875,0.000994599494557107,5.954135661707486e-05,-5.124260588693063e-05,-1.9023419876401904e-05,6.9333,6.4667
1.734375,0.0009867887827969787,5.368332279697873e-05,-8.251596352025633e-05,-2.097609781643395e-05,6.9333,6.4667
1.73828125,0.0009238149192309453,5.465966176699475e-05,-8.837399734035246e-05,-1.560623348134583e-05,6.9333,6.4667
1.7421875,0.000822733325241474,4.977796691691464e-05,-6.051782610208284e-05,-1.9023419876401904e-05,6.9333,6.4667
1.74609375,0.0007460907160952163,6.10058650720989e-05,-6.149416507209886e-05,-2.2928775756465994e-05,6.9333,6.4667
1.75,0.0006176716309452964,7.128793485008013e-05,-6.051782610208284e-05,-1.072453863126572e-05,6.9333,6.4667
1.75390625,0.0004955987491004806,6.344671249713895e-05,-8.007511609521628e-05,-6.819182751201631e-06,6.9333,6.4667
1.7578125,0.0004267363411215381,6.393488198214696e-05,-8.54449804303044e-05,-1.072453863126572e-05,6.9333,6.4667
1.76171875,0.00035302274888532846,8.544484991531244e-05,-5.270711434195466e-05,-1.44931841611351e-06,6.9333,6.4667
1.765625,0.00031247417103685057,9.569640910048068e-05,-3.1715826486610186e-05,-3.401996356145554e-06,6.9333,6.4667
1.76953125,0.0001952829840421149,8.153949403524835e-05,-1.3653555541313785e-05,-5.842843781185608e-06,6.9333,6.4667
1.7734375,5.368332279697873e-05,6.051769558709088e-05,-2.097609781643395e-05,4.866374296177632e-06,6.9333,6.4667
1.77734375,8.398034146028841e-05,6.491122095216298e-05,-4.1479216186770404e-05,3.401865841153599e-06,6.9333,6.4667
1.78125,6.539939043717099e-05,8.446851094529643e-05,-3.610935185168229e-05,1.4491879011215552e-06,6.9333,6.4667
1.78515625,-2.536962318150605e-05,9.325556167544062e-05,-2.3416945241474e-05,1.0724408116273763e-05,6.9333,6.4667
1.7890625,-0.00010350725137560079,7.90986466102083e-05,-1.2677216571297761e-05,9.748069146257742e-06,6.9333,6.4667
1.79296875,-0.00015720589472648203,7.42169517601282e-05,-1.4141725026321795e-05,8.77173017624172e-06,6.9333,6.4667
1.796875,-0.00021386406558022427,7.372878227512018e-05,-2.8786809576562122e-05,7.795391206225697e-06,6.9333,6.4667
1.80078125,-0.0002812314545113298,7.42169517601282e-05,-2.7810470606546103e-05,1.2188916571297797e-05,6.9333,6.4667
1.8046875,-0.0002861131493614099,7.714596867017625e-05,-1.658257245136185e-05,1.5606102966353874e-05,6.9333,6.4667
1.80859375,-0.00035936908270542455,8.83738668253605e-05,-1.5320553902477717e-08,2.6345831636530114e-05,6.9333,6.4667
1.8125,-0.00039842264150606545,8.153949403524835e-05,5.354543781185643e-06,2.878667906157017e-05,6.9333,6.4667
1.81640625,-0.0003583927437354085,8.495668043030443e-05,1.4629763996337851e-05,1.902328936140995e-05,6.9333,6.4667
1.8203125,-0.0004086742006912337,8.251583300526438e-05,9.748069146257742e-06,2.0487797816433986e-05,6.9333,6.4667
1.82421875,-0.0004369880308216983,6.393488198214696e-05,-1.44931841611351e-06,2.1464136786450005e-05,6.9333,6.4667
1.828125,-0.00046679687999999996,6.442305146715498e-05,5.842713266193654e-06,2.1464136786450005e-05,6.9333,6.4667
1.83203125,-0.0004926698627054245,7.177610433508813e-05,1.4141594511329842e-05,2.1464136786450005e-05,6.9333,6.4667
1.8359375,-0.0005287944045960175,7.275244330510416e-05,-1.5118063996337817e-05,1.755878090638592e-05,6.9333,6.4667
1.83984375,-0.0005605254211215381,8.593301940032045e-05,-4.1479216186770404e-05,1.3165255541313818e-05,6.9333,6.4667
1.84375,-0.0006054675243350881,8.83738668253605e-05,-2.732230112153809e-05,1.8046950391393927e-05,6.9333,6.4667
1.84765625,-0.0006386630493156329,7.616962970016024e-05,-1.658257245136185e-05,2.6834001121538125e-05,6.9333,6.4667
1.8515625,-0.0006245061342504006,9.71609175555047e-05,-6.3310132661936195e-06,1.902328936140995e-05,6.9333,6.4667
1.85546875,-0.0006318286765255207,8.886203631036852e-05,-2.5857792666514058e-05,5.842713266193654e-06,6.9333,6.4667
1.859375,-0.0006328050154955367,7.177610433508813e-05,-2.3416945241474e-05,2.292864524147404e-05,6.9333,6.4667
1.86328125,-0.0006845509809063859,8.30040024902724e-05,-1.2677216571297761e-05,3.952640773174641e-05,6.9333,6.4667
1.8671875,-0.0007040777603067063,9.374373116044863e-05,-1.9023419876401904e-05,4.391993309681851e-05,6.9333,6.4667
1.87109375,-0.0006313405070405126,8.007498558022432e-05,-3.806202979171434e-05,3.46447128816663e-05,6.9333,6.4667
1.875,-0.0006611188456260013,5.1730644856946685e-05,-8.056328558022428e-05,1.951145884641796e-05,6.9333,6.4667
1.87890625,-0.0006972433875165942,5.71005091920348e-05,-8.788582785534446e-05,3.0251187516594204e-05,6.9333,6.4667
1.8828125,-0.0007162819974319065,6.051769558709088e-05,-6.0029656617074824e-05,2.7810340091554148e-05,6.9333,6.4667
1.88671875,-0.0007153056584618905,2.913696356145588e-06,-9.520837013046461e-05,1.755878090638592e-05,6.9333,6.4667
1.890625,-0.0007128648110368504,-5.4171622796978696e-05,-0.00015134786090638587,2.1464136786450005e-05,6.9333,6.4667
1.89453125,-0.0007646412870405126,-5.465979228198671e-05,-0.00018259070794689858,3.0251187516594204e-05,6.9333,6.4667
1.8984375,-0.0007499962024902723,-6.442318198214692e-05,-0.0002148404045502403,3.0739357001602215e-05,6.9333,6.4667
1.90234375,-0.0007524370499153123,-9.42320311604486e-05,-0.00024217789571068894,1.951145884641796e-05,6.9333,6.4667
1.90625,-0.0006967552180315861,-7.519342124513615e-05,-0.00023680803137560082,3.890035326161609e-06,6.9333,6.4667
1.91015625,-0.0006176717614602884,-9.42320311604486e-05,-0.00026853904790112153,6.330882751201665e-06,6.9333,6.4667
1.9140625,-0.0006606306761409934,-0.00014695433554131379,-0.000334960608455024,7.795391206225697e-06,6.9333,6.4667
1.91796875,-0.000687968167301442,-0.00014500165760128174,-0.0003525347099153124,5.842713266193654e-06,6.9333,6.4667
1.921875,-0.0006777166081162737,-0.00012693938665598532,-0.0003569282352803845,9.259899661249731e-06,6.9333,6.4667
1.92578125,-0.0006503791169558251,-9.667287858548866e-05,-0.00031393881000686653,7.307221721217687e-06,6.9333,6.4667
1.9296875,-0.000645497422105745,-0.00011522331901579306,-0.0002953883695765621,-3.401996356145554e-06,6.9333,6.4667
1.93359375,-0.000644521083135729,-9.179118373540854e-05,-0.0003041754203067063,-5.842843781185608e-06,6.9333,6.4667
1.9375,-0.0006611188456260013,-5.270711434195466e-05,-0.00029490020009155407,-1.5118063996337817e-05,6.9333,6.4667
1.94140625,-0.0006552608118059052,-4.001470773174638e-05,-0.00027586159017624167,-1.999975884641793e-05,6.9333,6.4667
1.9453125,-0.0006225534563103685,4.245542464179448e-05,-0.00020410067588006408,-2.536962318150605e-05,6.9333,6.4667
1.94921875,-0.0005932327766170748,4.7825288976882595e-05,-0.0001821025384618906,-3.65975213366903e-05,6.9333,6.4667
1.953125,-0.0005922564376470588,5.465966176699475e-05,-0.00017282731824673836,-4.489640258182648e-05,6.9333,6.4667
1.95703125,-0.0006821101334813459,0.00010008993446555277,-0.00012889206459601736,-4.880175846189058e-05,6.9333,6.4667
1.9609375,-0.0007074949467017624,0.00010057810395056078,-9.227935322041655e-05,-4.636091103685052e-05,6.9333,6.4667
1.96484375,-0.0005859102343419547,0.0001371908153261616,-3.9038368761730354e-05,-4.733725000686654e-05,6.9333,6.4667
1.96875,-0.0005780995225818264,0.0001669691539116503,-9.260030176241686e-06,-4.440823309681848e-05,6.9333,6.4667
1.97265625,-0.0006352458629205768,0.00018356691640192266,-1.609440296635384e-05,-4.7825419491874556e-05,6.9333,6.4667
1.9765625,-0.0006845509809063859,0.00020263603691004809,-4.196738567177842e-05,-4.97780974319066e-05,6.9333,6.4667
1.98046875,-0.0006708822353261615,0.00021484027403524837,-7.763426867017622e-05,-5.124260588693063e-05,6.9333,6.4667
1.984375,-0.0006406157272556648,0.0002543820023208972,-1.5118063996337817e-05,-5.8076978677042786e-05,6.9333,6.4667
1.98828125,-0.0006518436254108491,0.0002612163751110094,3.952640773174641e-05,-5.6612470222018745e-05,6.9333,6.4667
1.9921875,-0.0006957788790615702,0.00024120142622568094,2.292864524147404e-05,-3.9038368761730354e-05,6.9333,6.4667
1.99609375,-0.000690409014726482,0.0002309498670405127,2.3904984211490058e-05,-3.22039959716182e-05,6.9333,6.4667
2.0,-0.0006332931849805447,0.00023241437549553672,3.46447128816663e-05,-3.22039959716182e-05,6.9333,6.4667
2.00390625,-0.0006381748798306248,0.00024315410416571298,5.514783125200276e-05,-1.999975884641793e-05,6.9333,6.4667
2.0078125,-0.0006489146085008011,0.00027146793429617765,9.227922270542459e-05,-1.8535250391393893e-05,6.9333,6.4667
2.01171875,-0.0006811337945113298,0.00026805074790112155,0.00010790064622568095,-1.951158936140992e-05,6.9333,6.4667
2.015625,-0.0007665939649805448,0.00021825746043030442,9.71609175555047e-05,-1.4629894511329806e-05,6.9333,6.4667
2.01953125,-0.0007070067772167543,0.00019674749249713893,7.90986466102083e-05,-1.2677216571297761e-05,6.9333,6.4667
2.0234375,-0.0006323168460105287,0.00021825746043030442,9.130288373540858e-05,-1.072453863126572e-05,6.9333,6.4667
2.02734375,-0.0006288996596154726,0.00022411549425040055,0.00010594796828564891,-2.9138268711375426e-06,6.9333,6.4667
2.03125,-0.000687968167301442,0.00020654139279011218,9.520823961547266e-05,-1.44931841611351e-06,6.9333,6.4667
2.03515625,-0.0007412091517601282,0.00020556505382009614,7.958681609521631e-05,2.913696356145588e-06,6.9333,6.4667
2.0390625,-0.0006952907095765621,0.00017624437412680247,7.812230764019227e-05,3.401865841153599e-06,6.9333,6.4667
2.04296875,-0.000645009252620737,0.00016159928957656217,0.00010204261240558482,-9.61148931105499e-07,6.9333,6.4667
2.046875,-0.0005805403700068664,0.0001855195943419547,0.00012596291717097735,7.795391206225697e-06,6.9333,6.4667
2.05078125,-0.0006625833540810254,0.00018356691640192266,0.00013377362893110555,1.8046950391393927e-05,6.9333,6.4667
2.0546875,-0.0007148174889768826,0.0001689218318516823,0.00012156939180590525,1.4141594511329842e-05,6.9333,6.4667
2.05859375,-0.00060497935485008,0.00017868522155184253,0.00010399529034561686,1.6582441936369896e-05,6.9333,6.4667
2.0625,-0.0005956736240421149,0.00019381847558709087,0.00011180600210574503,2.0487797816433986e-05,6.9333,6.4667
2.06640625,-0.0005917682681620508,0.00017233901824673838,0.0001367026458411536,1.4141594511329842e-05,6.9333,6.4667
2.0703125,-0.000598114471467155,0.00013572630687113757,0.00014744237451132981,1.5117933481345863e-05,6.9333,6.4667
2.07421875,-0.0006191362699153124,0.0001284037645960174,0.00014988322193636988,1.8046950391393927e-05,6.9333,6.4667
2.078125,-0.0006371985408606087,0.0001332854594460975,0.00013523813738612958,2.6834001121538125e-05,6.9333,6.4667
2.08203125,-0.0006420802357106889,0.00012889193408102543,0.00011619952747081714,2.829850957656216e-05,6.9333,6.4667
2.0859375,-0.0005922564376470588,0.00013230912047608147,0.00012986827305104144,1.951145884641796e-05,6.9333,6.4667
2.08984375,-0.0006376867103456168,0.0001284037645960174,0.00014841871348134585,1.755878090638592e-05,6.9333,6.4667
2.09375,-0.0006225534563103685,0.00012205756129091327,0.00015037139142137792,1.9999628331425975e-05,6.9333,6.4667
2.09765625,-0.0005673597939116502,0.00012059305283588923,0.00013474996790112154,2.0975967301441994e-05,6.9333,6.4667
2.1015625,-0.0005956736240421149,0.00011961671386587322,0.00010887698519569697,1.4141594511329842e-05,6.9333,6.4667
2.10546875,-0.000559549082151522,0.00014207251017624172,0.00010985332416571298,7.307221721217687e-06,6.9333,6.4667
2.109375,-0.000554179217816434,0.00013963166275120166,0.00011961671386587322,1.4629763996337851e-05,6.9333,6.4667
2.11328125,-0.0005434394891462577,0.00012010488335088121,9.911359549553675e-05,1.8046950391393927e-05,6.9333,6.4667
2.1171875,-0.0005600372516365301,0.00011766403592584118,8.886203631036852e-05,2.1464136786450005e-05,6.9333,6.4667
2.12109375,-0.000557108234726482,0.00012010488335088121,0.00010594796828564891,3.0739357001602215e-05,6.9333,6.4667
2.125,-0.0005492975229663538,0.0001240102392309453,0.00012108122232089725,2.439315369649807e-05,6.9333,6.4667
2.12890625,-0.0005649189464866102,0.00012059305283588923,0.0001415843406912337,2.829850957656216e-05,6.9333,6.4667
2.1328125,-0.0005180546759258411,0.00012059305283588923,0.00014841871348134585,2.6834001121538125e-05,6.9333,6.4667
2.13671875,-0.000511220303135729,0.00013182095099107348,0.0001279155951110094,1.951145884641796e-05,6.9333,6.4667
2.140625,-0.000514149320045777,0.00014500152708628978,0.00011180600210574503,2.7810340091554148e-05,6.9333,6.4667
2.14453125,-0.0005698006413366903,0.00013572630687113757,0.00012156939180590525,2.976301803158619e-05,6.9333,6.4667
2.1484375,-0.0005824930479468986,0.00012498657820096134,0.0001371908153261616,2.1464136786450005e-05,6.9333,6.4667
2.15234375,-0.00048583548991531237,0.00012547474768596933,0.00012547474768596933,1.8535119876401938e-05,6.9333,6.4667
2.15625,-0.0005463685060563058,0.0001240102392309453,0.00011131783262073704,2.829850957656216e-05,6.9333,6.4667
2.16015625,-0.0005751705056717784,0.00013426179841611355,0.00010936515468070498,2.976301803158619e-05,6.9333,6.4667
2.1640625,-0.0005263535571709772,0.00012498657820096134,0.00010838881571068896,2.439315369649807e-05,6.9333,6.4667
2.16796875,-0.0005019450829205768,0.00013182095099107348,0.00012205756129091327,2.292864524147404e-05,6.9333,6.4667
2.171875,-0.0005292825740810253,0.00014011983223620968,0.0001313327815060655,2.6345831636530114e-05,6.9333,6.4667
2.17578125,-0.0006074202022751201,0.000110341493650721,0.00010887698519569697,2.3904984211490058e-05,6.9333,6.4667
2.1796875,-0.000602050337940032,9.130288373540858e-05,8.73975278553445e-05,1.7070611421377907e-05,6.9333,6.4667
2.18359375,-0.0006093728802151522,9.71609175555047e-05,9.911359549553675e-05,1.9999628331425975e-05,6.9333,6.4667
2.1875,-0.00055515555678645,9.325556167544062e-05,0.00010692430725566493,2.7810340091554148e-05,6.9333,6.4667
2.19140625,-0.00048583548991531237,8.495668043030443e-05,0.00010350712086060884,2.976301803158619e-05,6.9333,6.4667
2.1953125,-0.0005331879299610894,8.349217197528039e-05,9.960176498054477e-05,1.951145884641796e-05,6.9333,6.4667
2.19921875,-0.0005658952854566262,7.861047712520029e-05,9.960176498054477e-05,3.0251187516594204e-05,6.9333,6.4667
2.203125,-0.0005527147093614099,7.275244330510416e-05,0.00010399529034561686,3.562105185168232e-05,6.9333,6.4667
2.20703125,-0.0005258653876859692,7.47051212451362e-05,0.00010936515468070498,3.1227526486610226e-05,6.9333,6.4667
2.2109375,-0.0005292825740810253,7.616962970016024e-05,0.00011619952747081714,4.34317636118105e-05,6.9333,6.4667
2.21484375,-0.0005356287773861294,8.690935837033648e-05,0.00011229417159075305,4.001457721675442e-05,6.9333,6.4667
2.21875,-0.0005488093534813458,8.153949403524835e-05,0.0001010662734355688,3.7573729791714366e-05,6.9333,6.4667
2.22265625,-0.0005361169468711375,6.393488198214696e-05,0.00010643613777065691,3.5132882366674316e-05,6.9333,6.4667
2.2265625,-0.0004809537950652323,8.105132455024035e-05,0.0001191285443808652,3.171569597161824e-05,6.9333,6.4667
2.23046875,-0.0004755839307301442,8.30040024902724e-05,9.325556167544062e-05,3.5132882366674316e-05,6.9333,6.4667
2.234375,-0.00046188467455710687,6.787074845502406e-05,6.442305146715498e-05,2.5369492666514095e-05,6.9333,6.4667
2.23828125,-0.0005024332524055848,4.7825288976882595e-05,7.90986466102083e-05,2.0975967301441994e-05,6.9333,6.4667
2.2421875,-0.0005317234215060655,4.5872611036850557e-05,8.593301940032045e-05,3.5132882366674316e-05,6.9333,6.4667
2.24609375,-0.0004277128106065461,6.198220404211491e-05,8.935020579537654e-05,4.050274670176243e-05,6.9333,6.4667
2.25,-0.00042624830215152207,7.47051212451362e-05,0.00010741247674067293,3.7085560306706354e-05,6.9333,6.4667
2.25390625,-0.0004589556576470588,7.03115958800641e-05,9.276739219043261e-05,4.245542464179448e-05,6.9333,6.4667
2.2578125,-0.0004755839307301442,5.5636000737010774e-05,8.202766352025636e-05,4.391993309681851e-05,6.9333,6.4667
2.26171875,-0.00043991704773174635,5.758867867704282e-05,0.0001010662734355688,4.1479085671778456e-05,6.9333,6.4667
2.265625,-0.0004311299970016022,7.177610433508813e-05,0.00011522318850080111,4.294359412680248e-05,6.9333,6.4667
2.26953125,-0.0004912053542504005,6.442305146715498e-05,0.00011619952747081714,4.245542464179448e-05,6.9333,6.4667
2.2734375,-0.00048681182888532846,3.90382382467384e-05,0.00010497162931563287,3.4156543396658294e-05,6.9333,6.4667
2.27734375,-0.0005209836928358892,3.562105185168232e-05,8.105132455024035e-05,2.9274848546578178e-05,6.9333,6.4667
2.28125,-0.00047460759176012814,2.829850957656216e-05,7.275244330510416e-05,3.8550068761730395e-05,6.9333,6.4667
2.28515625,-0.00036864430292057675,4.050274670176243e-05,9.764908704051272e-05,3.7573729791714366e-05,6.9333,6.4667
2.2890625,-0.0004013516584161135,4.0990916186770444e-05,0.00013426179841611355,4.0990916186770444e-05,6.9333,6.4667
2.29296875,-0.00044089338670176234,4.196725515678646e-05,0.00012938010356603342,4.245542464179448e-05,6.9333,6.4667
2.296875,-0.00045846748816205077,6.0029526102082876e-05,9.423190064545664e-05,3.562105185168232e-05,6.9333,6.4667
2.30078125,-0.00040428067532616155,5.856501764705884e-05,8.446851094529643e-05,3.269203494163426e-05,6.9333,6.4667
2.3046875,-0.00039891081099107344,5.270698382696271e-05,0.00011522318850080111,3.5132882366674316e-05,6.9333,6.4667
2.30859375,-0.0004091623701762416,5.1730644856946685e-05,0.00013035644253604946,3.952640773174641e-05,6.9333,6.4667
2.3125,-0.00044333423412680245,3.171569597161824e-05,0.00010985332416571298,3.7085560306706354e-05,6.9333,6.4667
2.31640625,-0.0004931580321904326,2.1952306271458016e-05,8.983837528038453e-05,3.3668373911650276e-05,6.9333,6.4667
2.3203125,-0.0004579793186770428,3.806189927672238e-05,7.568146021515222e-05,3.0251187516594204e-05,6.9333,6.4667
2.32421875,-0.00040623335326619357,3.8550068761730395e-05,8.983837528038453e-05,2.829850957656216e-05,6.9333,6.4667
2.328125,-0.00042527196318150603,3.952640773174641e-05,0.00010643613777065691,3.269203494163426e-05,6.9333,6.4667
2.33203125,-0.0004902290152803845,4.5872611036850557e-05,9.911359549553675e-05,3.4156543396658294e-05,6.9333,6.4667
2.3359375,-0.0004438224036118105,2.9274848546578178e-05,5.514783125200276e-05,3.46447128816663e-05,6.9333,6.4667
2.33984375,-0.00040232799738612954,1.9999628331425975e-05,4.050274670176243e-05,3.90382382467384e-05,6.9333,6.4667
2.34375,-0.00040818603120622564,3.318020442664227e-05,6.835891794003205e-05,4.1479085671778456e-05,6.9333,6.4667
2.34765625,-0.00038377755695582507,3.806189927672238e-05,6.787074845502406e-05,3.562105185168232e-05,6.9333,6.4667
2.3515625,-0.00047216674433508813,5.368332279697873e-05,6.982342639505609e-05,3.610922133669034e-05,6.9333,6.4667
2.35546875,-0.00046777321897001594,3.5132882366674316e-05,6.295854301213094e-05,4.0990916186770444e-05,6.9333,6.4667
2.359375,-0.00035546372682536046,4.866374296177632e-06,1.7070611421377907e-05,4.0990916186770444e-05,6.9333,6.4667
2.36328125,-0.0003940291161409933,1.902328936140995e-05,2.439315369649807e-05,3.659739082169834e-05,6.9333,6.4667
2.3671875,-0.0003818248790157931,2.829850957656216e-05,5.319515331197072e-05,3.806189927672238e-05,6.9333,6.4667
2.37109375,-0.00039158826871595325,2.1952306271458016e-05,4.1479085671778456e-05,4.1479085671778456e-05,6.9333,6.4667
2.375,-0.0004008634889311055,9.259899661249731e-06,1.2677086056305808e-05,3.220386545662624e-05,6.9333,6.4667
2.37890625,-0.000379384031590753,3.890035326161609e-06,-4.866504811169587e-06,3.806189927672238e-05,6.9333,6.4667
2.3828125,-0.0003735259977706569,2.1464136786450005e-05,4.7284893110553325e-07,4.245542464179448e-05,6.9333,6.4667
2.38671875,-0.0003691324724055848,1.5117933481345863e-05,1.365342502632183e-05,4.294359412680248e-05,6.9333,6.4667
2.390625,-0.00044675142052185855,1.0236238631265752e-05,1.2677086056305808e-05,4.538444155184254e-05,6.9333,6.4667
2.39453125,-0.00039842264150606545,2.9274848546578178e-05,2.913696356145588e-06,3.90382382467384e-05,6.9333,6.4667
2.3984375,-0.00034179498124513617,2.3416814726482047e-05,-2.634596215152207e-05,3.171569597161824e-05,6.9333,6.4667
2.40234375,-0.0003691324724055848,1.7070611421377907e-05,-4.880175846189058e-05,3.7085560306706354e-05,6.9333,6.4667
2.40625,-0.00038133670953078506,2.6834001121538125e-05,-4.636091103685052e-05,5.319515331197072e-05,6.9333,6.4667
2.41015625,-0.0003959817940810254,1.8535119876401938e-05,-3.65975213366903e-05,5.856501764705884e-05,6.9333,6.4667
2.4140625,-0.0003579045742504005,-1.44931841611351e-06,-2.8298640091554114e-05,5.856501764705884e-05,6.9333,6.4667
2.41796875,-0.00034081864227512013,1.4491879011215552e-06,-3.610935185168229e-05,5.905318713206685e-05,6.9333,6.4667
2.421875,-0.00030515175927672237,5.842713266193654e-06,-4.97780974319066e-05,5.71005091920348e-05,6.9333,6.4667
2.42578125,-0.0003676679639505607,1.8535119876401938e-05,-4.001470773174638e-05,5.465966176699475e-05,6.9333,6.4667
2.4296875,-0.00038719474335088117,2.1464136786450005e-05,-2.7810470606546103e-05,5.075430588693066e-05,6.9333,6.4667
2.43359375,-0.00028855399678644997,-6.3310132661936195e-06,-5.173077537193864e-05,4.5872611036850557e-05,6.9333,6.4667
2.4375,-0.0003066162677317464,-4.866504811169587e-06,-5.0266266916914606e-05,4.7825288976882595e-05,6.9333,6.4667
2.44140625,-0.00030563992876173036,7.795391206225697e-06,-5.612430073701074e-05,4.880162794689862e-05,6.9333,6.4667
2.4453125,-0.0002978292170016021,4.866374296177632e-06,-6.689453999999997e-05,4.684895000686658e-05,6.9333,6.4667
2.44921875,-0.0002861131493614099,-4.72979446097488e-07,-3.806202979171434e-05,5.026613640192266e-05,6.9333,6.4667
2.453125,-0.00027830243760128173,-1.170087760128174e-05,-2.146426730144196e-05,4.831345846189061e-05,6.9333,6.4667
2.45703125,-0.0003212613522819867,-1.7070741936369862e-05,-4.2943724641794444e-05,4.050274670176243e-05,6.9333,6.4667
2.4609375,-0.0003256548776470588,-9.260030176241686e-06,-5.0266266916914606e-05,3.806189927672238e-05,6.9333,6.4667
2.46484375,-0.00036327443858548864,-7.795521721217652e-06,-3.318033494163422e-05,3.7573729791714366e-05,6.9333,6.4667
2.46875,-0.00032419036919203477,-7.795521721217652e-06,-2.683413163653008e-05,3.3668373911650276e-05,6.9333,6.4667
2.47265625,-0.00025633481077592127,-1.2189047086289752e-05,-4.440823309681848e-05,3.318020442664227e-05,6.9333,6.4667
2.4765625,-0.000290018505241474,-2.634596215152207e-05,-7.519342124513615e-05,2.9274848546578178e-05,6.9333,6.4667
2.48046875,-0.00030515175927672237,-3.366850442664224e-05,-6.7870878970016e-05,3.0251187516594204e-05,6.9333,6.4667
2.484375,-0.00029245935266651406,-2.9763148546578148e-05,-3.757386030670632e-05,3.659739082169834e-05,6.9333,6.4667
2.48828125,-0.00024803592953078505,-7.307352236209642e-06,-1.804708090638588e-05,3.5132882366674316e-05,6.9333,6.4667
2.4921875,-0.00028367230193636984,-1.3653555541313785e-05,-2.7810470606546103e-05,4.001457721675442e-05,6.9333,6.4667
2.49609375,-0.0002992937254566262,-4.733725000686654e-05,-6.198233455710688e-05,4.34317636118105e-05,6.9333,6.4667
2.5,-0.0003012464033966582,-4.392006361181047e-05,-6.29586735271229e-05,3.171569597161824e-05,6.9333,6.4667
2.50390625,-0.00029245935266651406,-3.855019927672234e-05,-3.9038368761730354e-05,2.976301803158619e-05,6.9333,6.4667
2.5078125,-0.00023436718395056076,-3.073948751659417e-05,-1.2189047086289752e-05,3.659739082169834e-05,6.9333,6.4667
2.51171875,-0.00024266606519569693,-1.560623348134583e-05,-1.658257245136185e-05,3.4156543396658294e-05,6.9333,6.4667
2.515625,-0.00021923392991531242,-1.3653555541313785e-05,-3.855019927672234e-05,3.4156543396658294e-05,6.9333,6.4667
2.51953125,-0.00026121650562600134,-1.8535250391393893e-05,-3.610935185168229e-05,3.90382382467384e-05,6.9333,6.4667
2.5234375,-0.0002524294548958571,-1.658257245136185e-05,-7.307352236209642e-06,3.7573729791714366e-05,6.9333,6.4667
2.52734375,-0.00013767911532616155,-1.44931841611351e-06,1.5117933481345863e-05,2.976301803158619e-05,6.9333,6.4667
2.53125,-0.00017770901309681846,-9.61148931105499e-07,3.1227526486610226e-05,3.1227526486610226e-05,6.9333,6.4667
2.53515625,-0.0002143522350652323,-1.5118063996337817e-05,1.755878090638592e-05,3.5132882366674316e-05,6.9333,6.4667
2.5390625,-0.00020800603176012816,-2.146426730144196e-05,-9.260030176241686e-06,3.171569597161824e-05,6.9333,6.4667
2.54296875,-0.0001611112506065461,-9.260030176241686e-06,2.9274848546578178e-05,3.3668373911650276e-05,6.9333,6.4667
2.546875,-0.0001479306745113298,-1.0236369146257707e-05,5.270698382696271e-05,4.001457721675442e-05,6.9333,6.4667
2.55078125,-0.0001923540976470588,-1.951158936140992e-05,3.318020442664227e-05,4.0990916186770444e-05,6.9333,6.4667
2.5546875,-0.0001518360303913939,-2.2440606271457983e-05,2.1464136786450005e-05,4.538444155184254e-05,6.9333,6.4667
2.55859375,-0.0002143522350652323,-1.3653555541313785e-05,7.795391206225697e-06,5.319515331197072e-05,6.9333,6.4667
2.5625,-0.00017282731824673836,-1.755891142137787e-05,1.2188916571297797e-05,4.7337119491874584e-05,6.9333,6.4667
2.56640625,-5.8076978677042786e-05,-1.9023419876401904e-05,1.6094272451361885e-05,4.684895000686658e-05,6.9333,6.4667
2.5703125,-9.276752270542456e-05,-2.2440606271457983e-05,-1.937487901121521e-06,4.684895000686658e-05,6.9333,6.4667
2.57421875,-0.00013572643738612953,-2.732230112153809e-05,-5.354674296177598e-06,4.294359412680248e-05,6.9333,6.4667
2.578125,-0.00017819718258182648,-1.7070741936369862e-05,-1.072453863126572e-05,4.7825288976882595e-05,6.9333,6.4667
2.58203125,-0.00011180613262073699,-1.4629894511329806e-05,-1.9023419876401904e-05,5.270698382696271e-05,6.9333,6.4667
2.5859375,-8.398047197528036e-05,-2.4393284211490024e-05,-7.795521721217652e-06,4.831345846189061e-05,6.9333,6.4667
2.58984375,-0.0001259630476859693,-4.733725000686654e-05,-1.4141725026321795e-05,4.245542464179448e-05,6.9333,6.4667
2.59375,-0.00017087464030670634,-7.275257382009612e-05,-5.319528382696267e-05,3.90382382467384e-05,6.9333,6.4667
2.59765625,-0.00020995870970016018,-9.667287858548866e-05,-0.00010253091240558478,3.5132882366674316e-05,6.9333,6.4667
2.6015625,-0.0001479306745113298,-0.00011864050541084913,-0.00013279742047608145,4.391993309681851e-05,6.9333,6.4667
2.60546875,-7.812243815518424e-05,-0.0001391436237811856,-0.00015037152193636986,4.9289797431906635e-05,6.9333,6.4667
2.609375,-6.738270948500799e-05,-0.00016745745391165024,-0.00016696928442664225,5.124247537193867e-05,6.9333,6.4667
2.61328125,-0.00013719094584115356,-0.00021337589609521628,-0.00022265111631036846,5.124247537193867e-05,6.9333,6.4667
2.6171875,-0.00018649606382696267,-0.0002680508784161135,-0.00028318413245136185,7.568146021515222e-05,6.9333,6.4667
2.62109375,-6.051782610208284e-05,-0.00031393881000686653,-0.0003471648455802243,9.276739219043261e-05,6.9333,6.4667
2.625,1.5606102966353874e-05,-0.00036669162498054474,-0.00040428067532616155,8.30040024902724e-05,6.9333,6.4667
2.62890625,5.124247537193867e-05,-0.00038719474335088117,-0.0004194139293614099,8.642118888532846e-05,6.9333,6.4667
2.6328125,6.539939043717099e-05,-0.00039451728562600136,-0.00046042016610208284,9.911359549553675e-05,6.9333,6.4667
2.63671875,0.00012205756129091327,-0.0004125795565712977,-0.0005038977608606088,0.00011082966313572902,6.9333,6.4667
2.640625,0.00016941000133669033,-0.00040379250584115356,-0.0004921816932204166,0.00010350712086060884,6.9333,6.4667
2.64453125,0.00017038634030670636,-0.0003959817940810254,-0.000467285049485008,9.667274807049669e-05,6.9333,6.4667
2.6484375,0.0002695152563561456,-0.000376943184165713,-0.0004447987425818265,0.00010838881571068896,6.9333,6.4667
2.65234375,0.00026902708687113753,-0.00037254965880064084,-0.0004462632510368505,0.00011668769695582514,6.9333,6.4667
2.65625,0.00031882037434195466,-0.0003774313536507209,-0.0004731430833051041,0.00011131783262073704,6.9333,6.4667
2.66015625,0.000507802986225681,-0.00033691328639505604,-0.0004472395900068665,0.00011864037489585719,6.9333,6.4667
2.6640625,0.0006147426140352484,-0.0003041754203067063,-0.0004111150481162737,0.00011131783262073704,6.9333,6.4667
2.66796875,0.0006830863419363698,-0.0002992937254566262,-0.00038328938747081713,0.0001015544429205768,6.9333,6.4667
2.671875,0.0007504842414602884,-0.00027097989532616154,-0.00037450233674067286,0.00010350712086060884,6.9333,6.4667
2.67578125,0.0008271268506065461,-0.00025145311592584114,-0.00039158826871595325,9.911359549553675e-05,6.9333,6.4667
2.6796875,0.0009169805464408332,-0.00024852409901579304,-0.00037450233674067286,0.00011131783262073704,6.9333,6.4667
2.68359375,0.000996064003012131,-0.00022411562476539254,-0.0003413068117601281,0.00011571135798580912,6.9333,6.4667
2.6875,0.000998993019922179,-0.00019381860610208284,-0.00030271091185168225,0.00010692430725566493,6.9333,6.4667
2.69140625,0.000997528511467155,-0.0001923540976470588,-0.0002763497596612497,9.911359549553675e-05,6.9333,6.4667
2.6953125,-0.001,-0.00020019531999999999,-0.0002753734206912337,9.71609175555047e-05,6.9333,6.4667
2.69921875,0.0009995117,-0.00017575633515678641,-0.0002577993192309453,9.813725652552073e-05,6.9333,6.4667
2.703125,0.0009995117,-0.00015134786090638587,-0.00022655647219043255,7.763413815518427e-05,6.9333,6.4667
2.70703125,0.0009995117,-0.00013084474253604943,-0.0001821025384618906,7.763413815518427e-05,6.9333,6.4667
2.7109375,0.0009995117,-0.00011717599695582511,-0.0001738036572167544,9.130288373540858e-05,6.9333,6.4667
2.71484375,0.0009995117,-0.00011034162416571295,-0.00016404026751659417,9.374373116044863e-05,6.9333,6.4667
2.71875,0.0009995117,-8.98385057953765e-05,-0.00012352220026092925,8.544484991531244e-05,6.9333,6.4667
2.72265625,0.0009995117,-5.270711434195466e-05,-0.0001079007767406729,6.393488198214696e-05,6.9333,6.4667
2.7265625,0.0009995117,-2.146426730144196e-05,-7.470525176012816e-05,7.568146021515222e-05,6.9333,6.4667
2.73046875,0.0009995117,3.890035326161609e-06,-2.195243678644997e-05,6.884708742504007e-05,6.9333,6.4667
2.734375,0.0009995117,1.951145884641796e-05,-9.260030176241686e-06,4.831345846189061e-05,6.9333,6.4667
2.73828125,0.0009995117,2.439315369649807e-05,1.1700747086289786e-05,3.8550068761730395e-05,6.9333,6.4667
2.7421875,0.0009995117,4.34317636118105e-05,4.977796691691464e-05,3.171569597161824e-05,6.9333,6.4667
2.74609375,0.0009995117,7.177610433508813e-05,7.226427382009615e-05,2.9274848546578178e-05,6.9333,6.4667
2.75,0.0009995117,0.00010692430725566493,0.00011668769695582514,2.1464136786450005e-05,6.9333,6.4667
2.75390625,0.0009995117,0.00013035644253604946,0.00012108122232089725,7.795391206225697e-06,6.9333,6.4667
2.7578125,0.0009995117,0.00013474996790112154,0.00011717586644083316,9.259899661249731e-06,6.9333,6.4667
2.76171875,0.0009995117,0.00016062295060654614,0.0001635519675165942,1.1212577601281776e-05,6.9333,6.4667
2.765625,0.0009995117,0.00018307874691691464,0.00020702956227512017,-6.819182751201631e-06,6.9333,6.4667
2.76953125,0.0009995117,0.00018844861125200276,0.0002211864773403525,-7.307352236209642e-06,6.9333,6.4667
2.7734375,0.0009995117,0.0002080059012451362,0.0002397369177706569,-3.401996356145554e-06,6.9333,6.4667
2.77734375,0.0009995117,0.00019821200095216298,0.00024217776519569695,-8.283691206225664e-06,6.9333,6.4667
2.78125,0.0009995117,0.00019723566198214695,0.0002465712905607691,-5.842843781185608e-06,6.9333,6.4667
2.78515625,0.0009995117,0.0002163047824902724,0.00028123132399633785,-8.771860691233675e-06,6.9333,6.4667
2.7890625,0.0009995117,0.00021923379940032045,0.0002929473916365301,-1.3653555541313785e-05,6.9333,6.4667
2.79296875,0.0009995117,0.00021825746043030442,0.00029099471369649804,-9.260030176241686e-06,6.9333,6.4667
2.796875,0.0009995117,0.00021337576558022432,0.00029490006957656213,-8.771860691233675e-06,6.9333,6.4667
2.80078125,0.0009995117,0.00022948535858548867,0.0002992935949416342,-1.2189047086289752e-05,6.9333,6.4667
2.8046875,0.0009995117,0.00025096481592584116,0.0003144268489768826,-1.658257245136185e-05,6.9333,6.4667
2.80859375,0.0009995117,0.0002538938328358892,0.00034765288455024034,-2.488145369649804e-05,6.9333,6.4667
2.8125,0.0009995117,0.0002490121379858091,0.00034570020661020827,-2.0487928331425938e-05,6.9333,6.4667
2.81640625,0.0009995117,0.0002480357990157931,0.00032174939125200277,-1.7070741936369862e-05,6.9333,6.4667
2.8203125,0.0009995117,0.00024950030747081714,0.00032174939125200277,-1.951158936140992e-05,6.9333,6.4667
2.82421875,0.0009995117,0.0002397369177706569,0.00032907193352712296,-1.755891142137787e-05,6.9333,6.4667
2.828125,0.0009995117,0.0002309498670405127,0.0003422830202151522,-2.4393284211490024e-05,6.9333,6.4667
2.83203125,0.0009995117,0.00022997352807049672,0.00035351091837033645,-2.3416945241474e-05,6.9333,6.4667
2.8359375,0.0009995117,0.0002304616975555047,0.00034911739300526437,-1.4629894511329806e-05,6.9333,6.4667
2.83984375,0.0009995117,0.0002221628163103685,0.00034374752867017625,-1.3653555541313785e-05,6.9333,6.4667
2.84375,0.0009995117,0.00021825746043030442,0.0003452120371252003,-1.658257245136185e-05,6.9333,6.4667
2.84765625,0.0009995117,0.0002250918332204166,0.0003564399352803845,-1.121270811627373e-05,6.9333,6.4667
2.8515625,0.0009995117,0.00022558000270542458,0.0003657151554955367,-8.771860691233675e-06,6.9333,6.4667
2.85546875,0.0009995117,0.0002123994266102083,0.0003461883760952163,-3.890165841153565e-06,6.9333,6.4667
2.859375,0.0009995117,0.00020165969794003205,0.00033447230845502405,9.748069146257742e-06,6.9333,6.4667
2.86328125,0.0009995117,0.00019284213661707484,0.00033544864742504003,-1.5320553902477717e-08,6.9333,6.4667
2.8671875,0.0009995117,0.0001777088825818265,0.00030173444236667433,-2.9138268711375426e-06,6.9333,6.4667
2.87109375,0.0009995117,0.00015769393369649808,0.00026024003614099337,-1.5320553902477717e-08,6.9333,6.4667
2.875,0.0009995117,0.0001279155951110094,0.00023339071446555276,5.842713266193654e-06,6.9333,6.4667
2.87890625,0.0009995117,9.227922270542459e-05,0.00019577115352712292,1.5117933481345863e-05,6.9333,6.4667
2.8828125,0.0009995117,6.198220404211491e-05,0.00015769393369649808,1.5117933481345863e-05,6.9333,6.4667
2.88671875,0.0009995117,3.220386545662624e-05,0.00010838881571068896,2.439315369649807e-05,6.9333,6.4667
2.890625,0.0009995117,-4.050287721675439e-05,4.636078052185856e-05,3.806189927672238e-05,6.9333,6.4667
2.89453125,0.0009995117,-0.00011571148850080108,-1.2677216571297761e-05,4.34317636118105e-05,6.9333,6.4667
2.8984375,0.0009995117,-0.00015134786090638587,-6.0029656617074824e-05,5.66123397070268e-05,6.9333,6.4667
2.90234375,0.0009995117,-0.00016696928442664225,-8.495681094529639e-05,6.640624000000002e-05,6.9333,6.4667
2.90625,0.0009995117,-0.00015867040318150605,-6.29586735271229e-05,4.440810258182652e-05,6.9333,6.4667
2.91015625,0.0009995117,-0.0001337737594460975,-6.738270948500799e-05,3.318020442664227e-05,6.9333,6.4667
2.9140625,0.0009995117,-0.00013572643738612953,-0.00010594809880064086,4.831345846189061e-05,6.9333,6.4667
2.91796875,0.0009995117,-0.00012938023408102538,-8.495681094529639e-05,6.787074845502406e-05,6.9333,6.4667
2.921875,0.0009995117,-0.00010204274292057677,-4.9289927946898583e-05,7.861047712520029e-05,6.9333,6.4667
2.92578125,0.0009995117,-6.7870878970016e-05,-1.8535250391393893e-05,7.372878227512018e-05,6.9333,6.4667
2.9296875,0.0009995117,-2.488145369649804e-05,1.8535119876401938e-05,5.5636000737010774e-05,6.9333,6.4667
2.93359375,0.0009995117,3.401865841153599e-06,7.03115958800641e-05,4.245542464179448e-05,6.9333,6.4667
2.9375,0.0009995117,2.292864524147404e-05,9.472007013046466e-05,2.878667906157017e-05,6.9333,6.4667
2.94140625,0.0009995117,3.7085560306706354e-05,8.056315506523234e-05,1.8046950391393927e-05,6.9333,6.4667
2.9453125,0.0009995117,9.325556167544062e-05,0.00011864037489585719,1.902328936140995e-05,6.9333,6.4667
2.94921875,0.0009995117,0.0001371908153261616,0.0001640401370016022,9.259899661249731e-06,6.9333,6.4667
2.953125,0.0009995117,0.00011766403592584118,0.0001591584421515221,3.401865841153599e-06,6.9333,6.4667
2.95703125,0.0009995117,0.0001313327815060655,0.0001630637980315862,-6.3310132661936195e-06,6.9333,6.4667
2.9609375,0.0009995117,0.00017136267927672237,0.00018405508588693065,-1.2677216571297761e-05,6.9333,6.4667
2.96484375,0.0009995117,0.000198700170437171,0.00020702956227512017,-8.771860691233675e-06,6.9333,6.4667
2.96875,0.0009995117,0.00021874562991531246,0.0002260681721904326,-9.260030176241686e-06,6.9333,6.4667
2.97265625,0.0009995117,0.00021044674867017627,0.0002250918332204166,-8.771860691233675e-06,6.9333,6.4667
2.9765625,0.0009995117,0.00022460366373540857,0.00022655634167544062,-1.3165386056305774e-05,6.9333,6.4667
2.98046875,0.0009995117,0.00024022508725566493,0.000242665934680705,-1.2677216571297761e-05,6.9333,6.4667
2.984375,0.0009995117,0.0002519411548958572,0.00024998847695582513,-7.307352236209642e-06,6.9333,6.4667
2.98828125,0.0009995117,0.00026365722253604947,0.00026365722253604947,-6.819182751201631e-06,6.9333,6.4667
2.9921875,0.0009995117,0.0002490121379858091,0.00026365722253604947,-6.819182751201631e-06,6.9333,6.4667
2.99609375,0.0009995117,0.00024120142622568094,0.0002392487482856489,-1.2677216571297761e-05,6.9333,6.4667
3.0,0.0009995117,0.000244618612620737,0.00023387888395056078,-1.560623348134583e-05,6.9333,6.4667
3.00390625,0.0009995117,0.0002563346802609293,0.00024168959571068896,-1.121270811627373e-05,6.9333,6.4667
3.0078125,0.0009995117,0.0002563346802609293,0.00024754762953078507,-7.795521721217652e-06,6.9333,6.4667
3.01171875,0.0009995117,0.00024217776519569695,0.00023827240931563289,-3.890165841153565e-06,6.9333,6.4667
3.015625,0.0009995117,0.00023290254498054477,0.00022948535858548867,-8.771860691233675e-06,6.9333,6.4667
3.01953125,0.0009995117,0.0002304616975555047,0.00022997352807049672,-8.283691206225664e-06,6.9333,6.4667
3.0234375,0.0009995117,0.00023827240931563289,0.00022802085013046464,-6.3310132661936195e-06,6.9333,6.4667
3.02734375,0.0009995117,0.0002309498670405127,0.00022558000270542458,-9.260030176241686e-06,6.9333,6.4667
3.03125,0.0009995117,0.00021532844352025636,0.00022704451116044863,-8.283691206225664e-06,6.9333,6.4667
3.03515625,0.0009995117,0.00022802085013046464,0.00021386393506523234,-9.260030176241686e-06,6.9333,6.4667
3.0390625,0.0009995117,0.00023680790086060886,0.00020751773176012819,-4.866504811169587e-06,6.9333,6.4667
3.04296875,0.0009995117,0.00021825746043030442,0.00021825746043030442,-1.937487901121521e-06,6.9333,6.4667
3.046875,0.0009995117,0.0002128875960952163,0.00022850901961547266,-8.283691206225664e-06,6.9333,6.4667
3.05078125,0.0009995117,0.00020312420639505608,0.00020605322330510416,-1.0236369146257707e-05,6.9333,6.4667
3.0546875,0.0009995117,0.0001860077638269627,0.00018210240794689863,-1.5320553902477717e-08,6.9333,6.4667
3.05859375,0.0009995117,0.00020117152845502406,0.00017868522155184253,9.610184161135442e-07,6.9333,6.4667
3.0625,0.0009995117,0.00020507688433508815,0.00018356691640192266,-3.890165841153565e-06,6.9333,6.4667
3.06640625,0.0009995117,0.0001943066450720989,0.00019970702000000003,-1.5320553902477717e-08,6.9333,6.4667
3.0703125,0.0009995117,0.00019333030610208288,0.00020263603691004809,-4.72979446097488e-07,6.9333,6.4667
3.07421875,0.0009995117,0.00017966156052185857,0.0001855195943419547,-5.842843781185608e-06,6.9333,6.4667
3.078125,0.0009995117,0.00018259057743190662,0.0001640401370016022,-4.866504811169587e-06,6.9333,6.4667
3.08203125,0.0009995117,0.0001904012891920348,0.00016843366236667432,1.4491879011215552e-06,6.9333,6.4667
3.0859375,0.0009995117,0.00018454325537193867,0.0001855195943419547,-2.9138268711375426e-06,6.9333,6.4667
3.08984375,0.0009995117,0.00019674749249713893,0.00019186579764705886,-5.354674296177598e-06,6.9333,6.4667
3.09375,0.0009995117,0.0001947948145571069,0.00019235396713206685,-2.425657386129532e-06,6.9333,6.4667
3.09765625,0.0009995117,0.00017331535721675442,0.00017087450979171435,3.401865841153599e-06,6.9333,6.4667
3.1015625,0.0009995117,0.00016599281494163425,0.00016452830648661023,4.378204811169621e-06,6.9333,6.4667
3.10546875,0.0009995117,0.00017038634030670636,0.00017966156052185857,-7.795521721217652e-06,6.9333,6.4667
3.109375,0.0009995117,0.0001689218318516823,0.00018210240794689863,-3.890165841153565e-06,6.9333,6.4667
3.11328125,0.0009995117,0.00015330040833142598,0.00016989817082169834,4.866374296177632e-06,6.9333,6.4667
3.1171875,0.0009995117,0.00013377362893110555,0.00015281223884641796,5.842713266193654e-06,6.9333,6.4667
3.12109375,0.0009995117,0.00014011983223620968,0.0001586702726665141,6.330882751201665e-06,6.9333,6.4667
3.125,0.0009995117,0.00013865532378118563,0.00016745732339665828,9.748069146257742e-06,6.9333,6.4667
3.12890625,0.0009995117,0.0001284037645960174,0.0001718508487617304,8.283560691233709e-06,6.9333,6.4667
3.1328125,0.0009995117,0.00012938010356603342,0.00017038634030670636,9.610184161135442e-07,6.9333,6.4667
3.13671875,0.0009995117,0.00011961671386587322,0.00015671759472648205,4.7284893110553325e-07,6.9333,6.4667
3.140625,0.0009995117,0.00011864037489585719,0.0001679454928816663,2.913696356145588e-06,6.9333,6.4667
3.14453125,0.0009995117,0.00012059305283588923,0.00017087450979171435,1.4141594511329842e-05,6.9333,6.4667
3.1484375,0.0009995117,0.00012059305283588923,0.00017966156052185857,1.8535119876401938e-05,6.9333,6.4667
3.15234375,0.0009995117,0.00013035644253604946,0.0001772207130968185,1.0236238631265752e-05,6.9333,6.4667
3.15625,0.0009995117,0.00011424684953078509,0.00014353701863126575,9.259899661249731e-06,6.9333,6.4667
3.16015625,0.0009995117,0.00011180600210574503,0.00015037139142137792,1.2188916571297797e-05,6.9333,6.4667
3.1640625,0.0009995117,0.00012352206974593728,0.00017136267927672237,8.283560691233709e-06,6.9333,6.4667
3.16796875,0.0009995117,0.00011619952747081714,0.00018210240794689863,3.401865841153599e-06,6.9333,6.4667
3.171875,0.0009995117,0.00010887698519569697,0.0001679454928816663,7.795391206225697e-06,6.9333,6.4667
3.17578125,0.0009995117,9.520823961547266e-05,0.00016111112009155413,9.748069146257742e-06,6.9333,6.4667
3.1796875,0.0009995117,0.00011571135798580912,0.00020751773176012819,1.2188916571297797e-05,6.9333,6.4667
3.18359375,0.0009995117,0.00011815220541084917,0.00018893678073701075,8.283560691233709e-06,6.9333,6.4667
3.1875,0.000995575833527123,9.179105322041659e-05,0.00018014973000686656,5.354543781185643e-06,6.9333,6.4667
3.19140625,-0.0009892297607370108,9.276739219043261e-05,0.00018844861125200276,1.2677086056305808e-05,6.9333,6.4667
3.1953125,0.0009501760714213779,8.007498558022432e-05,0.00016843366236667432,5.842713266193654e-06,6.9333,6.4667
3.19921875,0.0009306492920210575,8.153949403524835e-05,0.00017233901824673838,-4.3783353261615755e-06,6.9333,6.4667
3.203125,-0.000996552303012131,0.00010057810395056078,0.00018356691640192266,9.610184161135442e-07,6.9333,6.4667
3.20703125,0.0009706791897917144,0.00010253078189059284,0.000199188339922179,-2.9138268711375426e-06,6.9333,6.4667
3.2109375,0.0009369954953261616,0.00011131783262073704,0.00019970702000000003,-9.61148931105499e-07,6.9333,6.4667
3.21484375,0.0008818323435202563,0.00010057810395056078,0.00020068335897001601,4.7284893110553325e-07,6.9333,6.4667
3.21875,0.0008906193942504005,9.130288373540858e-05,0.00020654139279011218,-1.44931841611351e-06,6.9333,6.4667
3.22265625,0.0009633566475165941,0.00011522318850080111,0.0002167929519752804,3.401865841153599e-06,6.9333,6.4667
3.2265625,0.0009594512916365302,0.00012059305283588923,0.00023680790086060886,-1.5320553902477717e-08,6.9333,6.4667
3.23046875,0.0009291847835660335,0.00011522318850080111,0.00024413044313572902,9.259899661249731e-06,6.9333,6.4667
3.234375,0.0008686517674250401,0.00012352206974593728,0.00022704451116044863,1.5117933481345863e-05,6.9333,6.4667
3.23828125,0.0008525116638269627,0.00011424684953078509,0.0002167929519752804,5.354543781185643e-06,6.9333,6.4667
3.2421875,0.0008578815281620508,0.0001010662734355688,0.00023192620601052873,2.4255268711375773e-06,6.9333,6.4667
3.24609375,0.0008583696976470588,0.00011571135798580912,0.00024022508725566493,1.937357386129566e-06,6.9333,6.4667
3.25,0.0008129699355413138,0.00010204261240558482,0.00023387888395056078,-9.61148931105499e-07,6.9333,6.4667
3.25390625,0.0007519487499153124,8.593301940032045e-05,0.000243642273650721,-1.5320553902477717e-08,6.9333,6.4667
3.2578125,0.0007475552245502404,8.446851094529643e-05,0.0002480357990157931,4.866374296177632e-06,6.9333,6.4667
3.26171875,0.0007421853602151522,9.325556167544062e-05,0.00026902708687113753,6.819052236209676e-06,6.9333,6.4667
3.265625,0.0007602476311604487,0.00010887698519569697,0.0002924592221515221,3.890035326161609e-06,6.9333,6.4667
3.26953125,0.0007011486128816663,9.813725652552073e-05,0.0002612163751110094,8.77173017624172e-06,6.9333,6.4667
3.2734375,0.000646473630560769,8.593301940032045e-05,0.00024413044313572902,9.259899661249731e-06,6.9333,6.4667
3.27734375,0.0007182345448569467,7.763413815518427e-05,0.00022850901961547266,6.819052236209676e-06,6.9333,6.4667
3.28125,0.0007192108838269626,8.690935837033648e-05,0.00022362732476539254,9.259899661249731e-06,6.9333,6.4667
3.28515625,0.0007099356636118104,0.00010594796828564891,0.0002568228497459373,7.795391206225697e-06,6.9333,6.4667
3.2890625,0.0006865035283314259,9.960176498054477e-05,0.00027390878172121766,8.283560691233709e-06,6.9333,6.4667
3.29296875,0.0006625832235660334,9.179105322041659e-05,0.0002743969512062257,9.748069146257742e-06,6.9333,6.4667
3.296875,0.0006494026474708171,8.690935837033648e-05,0.0002670744089311055,1.1700747086289786e-05,6.9333,6.4667
3.30078125,0.0006098609191851682,6.10058650720989e-05,0.00027049159532616156,1.8535119876401938e-05,6.9333,6.4667
3.3046875,0.0006562370202609293,6.884708742504007e-05,0.0002743969512062257,2.3904984211490058e-05,6.9333,6.4667
3.30859375,0.0006064437327901122,7.616962970016024e-05,0.0002665862394460975,1.902328936140995e-05,6.9333,6.4667
3.3125,0.0005741940361867704,6.5887559922179e-05,0.00026024003614099337,1.8535119876401938e-05,6.9333,6.4667
3.31640625,0.0006332930544655528,6.442305146715498e-05,0.000242665934680705,1.9999628331425975e-05,6.9333,6.4667
3.3203125,0.0005922563071320667,6.10058650720989e-05,0.00022802085013046464,1.902328936140995e-05,6.9333,6.4667
3.32421875,0.000600097529485008,6.835891794003205e-05,0.00022167464682536052,1.6582441936369896e-05,6.9333,6.4667
3.328125,0.0006127899360952164,8.349217197528039e-05,0.00022313915528038454,1.6094272451361885e-05,6.9333,6.4667
3.33203125,0.000597626171467155,7.51932907301442e-05,0.00022704451116044863,1.0724408116273763e-05,6.9333,6.4667
3.3359375,0.0005722413582467384,5.905318713206685e-05,0.00021972196888532845,-1.5320553902477717e-08,6.9333,6.4667
3.33984375,0.0005898154597070267,5.905318713206685e-05,0.00020214786742504004,1.937357386129566e-06,6.9333,6.4667
3.34375,0.000600097529485008,5.66123397070268e-05,0.00019235396713206685,4.866374296177632e-06,6.9333,6.4667
3.34765625,0.0005854219343419547,7.226427382009615e-05,0.00020361237588006412,7.795391206225697e-06,6.9333,6.4667
3.3515625,0.0005693123413366903,8.398034146028841e-05,0.0002343670534355688,1.5117933481345863e-05,6.9333,6.4667
3.35546875,0.0005683360023666743,5.66123397070268e-05,0.00020117152845502406,1.1700747086289786e-05,6.9333,6.4667
3.359375,0.0006201124783703364,2.5857662151522106e-05,0.0001332854594460975,1.1212577601281776e-05,6.9333,6.4667
3.36328125,0.0005780993920668345,2.7810340091554148e-05,0.00013084461202105745,1.2188916571297797e-05,6.9333,6.4667
3.3671875,0.0005390458332661936,4.001457721675442e-05,0.0001459778660563058,1.4141594511329842e-05,6.9333,6.4667
3.37109375,0.000600585698970016,4.050274670176243e-05,0.00014793054399633786,1.4629763996337851e-05,6.9333,6.4667
3.375,0.0005834692564019226,4.001457721675442e-05,0.00013963166275120166,9.259899661249731e-06,6.9333,6.4667
3.37890625,0.0005766348836118105,5.270698382696271e-05,0.00014207251017624172,1.365342502632183e-05,6.9333,6.4667
3.3828125,0.0005820047479468986,6.247037352712293e-05,0.00013914349326619364,1.2188916571297797e-05,6.9333,6.4667
3.38671875,0.0006079082412451362,7.128793485008013e-05,0.0001332854594460975,4.866374296177632e-06,6.9333,6.4667
3.390625,0.0006074200717601281,6.884708742504007e-05,0.00012156939180590525,5.842713266193654e-06,6.9333,6.4667
3.39453125,0.0005478328839963378,3.562105185168232e-05,0.0001010662734355688,9.259899661249731e-06,6.9333,6.4667
3.3984375,0.0005483210534813458,2.488132318150608e-05,0.00010399529034561686,1.0236238631265752e-05,6.9333,6.4667
3.40234375,0.0005131728505607691,3.7573729791714366e-05,0.00011131783262073704,1.0724408116273763e-05,6.9333,6.4667
3.40625,0.0005263534266559853,5.758867867704282e-05,0.0001015544429205768,8.77173017624172e-06,6.9333,6.4667
3.41015625,0.0005702886803067063,6.10058650720989e-05,8.983837528038453e-05,8.283560691233709e-06,6.9333,6.4667
3.4140625,0.000514149189530785,4.34317636118105e-05,7.47051212451362e-05,7.795391206225697e-06,6.9333,6.4667
3.41796875,0.0005229362402609292,4.7337119491874584e-05,6.884708742504007e-05,3.401865841153599e-06,6.9333,6.4667
3.421875,0.0005341641384161136,4.5872611036850557e-05,5.8076848162050824e-05,6.819052236209676e-06,6.9333,6.4667
3.42578125,0.0005346523079011216,5.612417022201878e-05,6.149403455710691e-05,2.913696356145588e-06,6.9333,6.4667
3.4296875,0.0005424630196612497,8.544484991531244e-05,7.128793485008013e-05,3.890035326161609e-06,6.9333,6.4667
3.43359375,0.0005737058667017624,7.128793485008013e-05,3.4156543396658294e-05,6.330882751201665e-06,6.9333,6.4667
3.4375,0.0005488092229663539,2.9274848546578178e-05,3.171569597161824e-05,6.819052236209676e-06,6.9333,6.4667
3.44140625,0.0005082911557106889,1.6582441936369896e-05,4.538444155184254e-05,9.259899661249731e-06,6.9333,6.4667
3.4453125,0.0005488092229663539,3.0251187516594204e-05,2.7322170606546137e-05,3.890035326161609e-06,6.9333,6.4667
3.44921875,0.0005624779685465781,4.001457721675442e-05,2.6834001121538125e-05,6.330882751201665e-06,6.9333,6.4667
3.453125,0.0005512500703913939,4.636078052185856e-05,2.6834001121538125e-05,8.77173017624172e-06,6.9333,6.4667
3.45703125,0.0004848590204303044,4.880162794689862e-05,4.378204811169621e-06,3.401865841153599e-06,6.9333,6.4667
3.4609375,0.00045846735764705883,4.294359412680248e-05,-1.4141725026321795e-05,4.866374296177632e-06,6.9333,6.4667
3.46484375,0.0005600371211215381,5.5636000737010774e-05,-1.3653555541313785e-05,-1.5320553902477717e-08,6.9333,6.4667
3.46875,0.000553690917816434,5.417149228198674e-05,5.354543781185643e-06,-1.44931841611351e-06,6.9333,6.4667
3.47265625,0.0005219599012909133,3.7573729791714366e-05,5.354543781185643e-06,4.7284893110553325e-07,6.9333,6.4667
3.4765625,0.0005180545454108492,3.5132882366674316e-05,-2.195243678644997e-05,-4.866504811169587e-06,6.9333,6.4667
3.48046875,0.0005278179351110094,4.440810258182652e-05,-1.9023419876401904e-05,-4.866504811169587e-06,6.9333,6.4667
3.484375,0.0005297706130510414,5.417149228198674e-05,2.0487797816433986e-05,-1.44931841611351e-06,6.9333,6.4667
3.48828125,0.0005405103417212177,4.050274670176243e-05,2.2440475756466028e-05,1.937357386129566e-06,6.9333,6.4667
3.4921875,0.0005556435957564661,1.0724408116273763e-05,-1.609440296635384e-05,1.4491879011215552e-06,6.9333,6.4667
3.49609375,0.0004941342406454566,7.795391206225697e-06,-3.1715826486610186e-05,4.378204811169621e-06,6.9333,6.4667
3.5,0.0005165900369558252,1.2188916571297797e-05,-3.025131803158616e-05,1.0236238631265752e-05,6.9333,6.4667
3.50390625,0.0005961616630121309,7.795391206225697e-06,-2.097609781643395e-05,1.4629763996337851e-05,6.9333,6.4667
3.5078125,0.0005810284089768826,4.378204811169621e-06,-2.195243678644997e-05,1.5117933481345863e-05,6.9333,6.4667
3.51171875,0.00055222640936141,4.7284893110553325e-07,-3.025131803158616e-05,1.2677086056305808e-05,6.9333,6.4667
3.515625,0.0005068266472556649,-1.5320553902477717e-08,-4.001470773174638e-05,7.307221721217687e-06,6.9333,6.4667
3.51953125,0.0005302587825360494,4.378204811169621e-06,-4.3431894126802455e-05,3.401865841153599e-06,6.9333,6.4667
3.5234375,0.0005478328839963378,1.902328936140995e-05,-2.7810470606546103e-05,1.0236238631265752e-05,6.9333,6.4667
3.52734375,0.000553690917816434,8.283560691233709e-06,-9.748199661249696e-06,1.2188916571297797e-05,6.9333,6.4667
3.53125,0.0005336759689311055,9.259899661249731e-06,-1.9023419876401904e-05,7.307221721217687e-06,6.9333,6.4667
3.53515625,0.0004999922744655527,1.9999628331425975e-05,-2.3416945241474e-05,8.283560691233709e-06,6.9333,6.4667
3.5390625,0.0005331877994460975,-7.307352236209642e-06,-4.733725000686654e-05,6.819052236209676e-06,6.9333,6.4667
3.54296875,0.000556131765241474,-2.9138268711375426e-06,-5.563613125200272e-05,7.307221721217687e-06,6.9333,6.4667
3.546875,0.0005732176972167544,9.610184161135442e-07,-3.806202979171434e-05,1.0724408116273763e-05,6.9333,6.4667
3.55078125,0.0005239125792309453,-9.748199661249696e-06,-2.9274979061570133e-05,1.0236238631265752e-05,6.9333,6.4667
3.5546875,0.0004946224101304646,-1.560623348134583e-05,-3.708569082169831e-05,1.3165255541313818e-05,6.9333,6.4667
3.55859375,0.0005951853240421149,-1.121270811627373e-05,-3.1715826486610186e-05,8.283560691233709e-06,6.9333,6.4667
3.5625,0.0005893272902220187,-1.2189047086289752e-05,9.610184161135442e-07,8.283560691233709e-06,6.9333,6.4667
3.56640625,0.00055222640936141,-9.61148931105499e-07,1.4491879011215552e-06,1.4141594511329842e-05,6.9333,6.4667
3.5703125,0.0005273297656260014,1.0236238631265752e-05,-6.819182751201631e-06,1.1212577601281776e-05,6.9333,6.4667
3.57421875,0.000509755664165713,-9.61148931105499e-07,-2.2440606271457983e-05,7.307221721217687e-06,6.9333,6.4667
3.578125,0.0005024331218905928,9.610184161135442e-07,-3.757386030670632e-05,1.937357386129566e-06,6.9333,6.4667
3.58203125,0.0004916933932204166,-3.890165841153565e-06,-8.283691206225664e-06,3.890035326161609e-06,6.9333,6.4667
3.5859375,0.0005156136979858092,-9.61148931105499e-07,1.365342502632183e-05,5.842713266193654e-06,6.9333,6.4667
3.58984375,0.000465301730437171,-1.44931841611351e-06,9.610184161135442e-07,2.913696356145588e-06,6.9333,6.4667
3.59375,0.00048339451197528037,-1.3165386056305774e-05,-2.8298640091554114e-05,3.401865841153599e-06,6.9333,6.4667
3.59765625,0.0005341641384161136,-1.121270811627373e-05,-5.173077537193864e-05,3.890035326161609e-06,6.9333,6.4667
3.6015625,0.000514149189530785,-9.61148931105499e-07,-2.9763148546578148e-05,3.890035326161609e-06,6.9333,6.4667
3.60546875,0.0005331877994460975,1.5606102966353874e-05,-1.5118063996337817e-05,3.890035326161609e-06,6.9333,6.4667
3.609375,0.0004951105796154726,1.8535119876401938e-05,-7.795521721217652e-06,5.842713266193654e-06,6.9333,6.4667
3.61328125,0.0004838826814602884,-7.307352236209642e-06,-6.819182751201631e-06,1.7070611421377907e-05,6.9333,6.4667
3.6171875,0.0004897407152803845,-1.658257245136185e-05,-2.5857792666514058e-05,2.1952306271458016e-05,6.9333,6.4667
3.62109375,0.0005029212913756009,-2.5857792666514058e-05,-6.7870878970016e-05,7.795391206225697e-06,6.9333,6.4667
3.625,0.0004960869185854887,-4.1479216186770404e-05,-8.398047197528036e-05,1.937357386129566e-06,6.9333,6.4667
3.62890625,0.0004721666138200961,-3.9526538246738366e-05,-7.763426867017622e-05,3.401865841153599e-06,6.9333,6.4667
3.6328125,0.00047265478330510413,-7.128806536507208e-05,-0.00012303403077592126,-1.44931841611351e-06,6.9333,6.4667
3.63671875,0.0005034094608606088,-0.00010838894622568092,-0.00016404026751659417,1.937357386129566e-06,6.9333,6.4667
3.640625,0.0005556435957564661,-0.00011375881056076903,-0.00016745745391165024,9.259899661249731e-06,6.9333,6.4667
3.64453125,0.00048681169837033647,-0.00014207264069123369,-0.00018649606382696267,1.0236238631265752e-05,6.9333,6.4667
3.6484375,0.00046334905249713896,-0.00017526816567177842,-0.0002114232181551842,1.0724408116273763e-05,6.9333,6.4667
3.65234375,0.0005878627817669948,-0.00017624450464179443,-0.00022509196373540852,1.3165255541313818e-05,6.9333,6.4667
3.65625,0.000557596273696498,-0.00020751786227512012,-0.0002626810140810254,1.0236238631265752e-05,6.9333,6.4667
3.66015625,0.0005278179351110094,-0.0002416897262256809,-0.00030173457288166627,1.2188916571297797e-05,6.9333,6.4667
3.6640625,0.000556131765241474,-0.00023387901446555274,-0.00031003345412680244,1.9999628331425975e-05,6.9333,6.4667
3.66796875,0.0005483210534813458,-0.00023339084498054472,-0.000289530335756466,2.439315369649807e-05,6.9333,6.4667
3.671875,0.0005258652571709773,-0.00024217789571068894,-0.000290506674726482,2.1952306271458016e-05,6.9333,6.4667
3.67578125,0.00043259437494163423,-0.00024413057365072096,-0.00029441203060654613,1.951145884641796e-05,6.9333,6.4667
3.6796875,0.00041550844296635384,-0.00022118660785534443,-0.0002787906070862897,1.8046950391393927e-05,6.9333,6.4667
3.68359375,0.0004072095617212177,-0.00019528311455710686,-0.00024217789571068894,8.283560691233709e-06,6.9333,6.4667
3.6875,0.0004467512900068666,-0.00015818223369649804,-0.0001928422671320668,4.7284893110553325e-07,6.9333,6.4667
3.69140625,0.0004960869185854887,-0.00011961684438086517,-0.00017722084361181047,6.819052236209676e-06,6.9333,6.4667
3.6953125,0.00043747606979171436,-0.0001166878274708171,-0.0001615994200915541,9.259899661249731e-06,6.9333,6.4667
3.69921875,0.0004116030870862898,-9.86255565255207e-05,-0.0001391436237811856,-1.5320553902477717e-08,6.9333,6.4667
3.703125,0.0003940289856260014,-6.0029656617074824e-05,-0.0001254748782009613,4.7284893110553325e-07,6.9333,6.4667
3.70703125,0.00042820084957656215,-3.025131803158616e-05,-0.00010009006498054473,6.819052236209676e-06,6.9333,6.4667
3.7109375,0.00040769773120622566,-2.146426730144196e-05,-7.714609918516821e-05,3.401865841153599e-06,6.9333,6.4667
3.71484375,0.0003432593591851682,-3.2692165456626215e-05,-6.393501249713892e-05,4.7284893110553325e-07,6.9333,6.4667
3.71875,0.00030515162876173043,-8.771860691233675e-06,-5.173077537193864e-05,-4.866504811169587e-06,6.9333,6.4667
3.72265625,0.00028562484936140993,1.8046950391393927e-05,-4.3431894126802455e-05,-9.748199661249696e-06,6.9333,6.4667
3.7265625,0.0003227257302220188,3.5132882366674316e-05,-2.536962318150605e-05,-1.2677216571297761e-05,6.9333,6.4667
3.73046875,0.0003374013253650721,3.562105185168232e-05,-1.4629894511329806e-05,-1.3653555541313785e-05,6.9333,6.4667
3.734375,0.00032565474713206686,3.562105185168232e-05,-1.0236369146257707e-05,-5.842843781185608e-06,6.9333,6.4667
3.73828125,0.00025828735820096135,4.538444155184254e-05,-1.3165386056305774e-05,9.610184161135442e-07,6.9333,6.4667
3.7421875,0.00023876057880064088,4.880162794689862e-05,2.913696356145588e-06,-9.61148931105499e-07,6.9333,6.4667
3.74609375,0.0003583926132204166,6.5887559922179e-05,1.8535119876401938e-05,-9.748199661249696e-06,6.9333,6.4667
3.75,0.00032126122176699473,7.03115958800641e-05,-4.72979446097488e-07,-7.307352236209642e-06,6.9333,6.4667
3.75390625,0.00027195610378118564,7.275244330510416e-05,2.913696356145588e-06,-4.3783353261615755e-06,6.9333,6.4667
3.7578125,0.00024071325674067292,7.372878227512018e-05,4.7284893110553325e-07,-4.866504811169587e-06,6.9333,6.4667
3.76171875,0.00023339071446555276,7.616962970016024e-05,-1.937487901121521e-06,-7.307352236209642e-06,6.9333,6.4667
3.765625,0.00025877552768596934,8.886203631036852e-05,1.7070611421377907e-05,-8.771860691233675e-06,6.9333,6.4667
3.76953125,0.00020263603691004809,9.081471425040057e-05,1.6582441936369896e-05,-6.3310132661936195e-06,6.9333,6.4667
3.7734375,0.00021923379940032045,7.568146021515222e-05,1.7070611421377907e-05,-2.425657386129532e-06,6.9333,6.4667
3.77734375,0.00017087450979171435,6.149403455710691e-05,8.77173017624172e-06,-2.425657386129532e-06,6.9333,6.4667
3.78125,0.00017282718773174643,7.372878227512018e-05,9.259899661249731e-06,-5.354674296177598e-06,6.9333,6.4667
3.78515625,0.0002577991887159533,9.423190064545664e-05,1.8535119876401938e-05,-3.890165841153565e-06,6.9333,6.4667
3.7890625,0.00021337576558022432,7.372878227512018e-05,2.0975967301441994e-05,-2.9138268711375426e-06,6.9333,6.4667
3.79296875,0.0001669691539116503,6.051769558709088e-05,2.488132318150608e-05,-1.072453863126572e-05,6.9333,6.4667
3.796875,0.0001454896965712978,6.295854301213094e-05,-2.425657386129532e-06,-1.2189047086289752e-05,6.9333,6.4667
3.80078125,0.0001669691539116503,6.689440948500802e-05,-1.4629894511329806e-05,-9.748199661249696e-06,6.9333,6.4667
3.8046875,0.00017429169618677045,8.056315506523234e-05,6.819052236209676e-06,-9.748199661249696e-06,6.9333,6.4667
3.80859375,0.00015818210318150608,8.30040024902724e-05,8.283560691233709e-06,-1.0236369146257707e-05,6.9333,6.4667
3.8125,0.00013182095099107348,6.738257897001604e-05,-2.425657386129532e-06,-1.2189047086289752e-05,6.9333,6.4667
3.81640625,9.032654476539255e-05,4.9289797431906635e-05,-9.748199661249696e-06,-8.771860691233675e-06,6.9333,6.4667
3.8203125,0.000110341493650721,4.636078052185856e-05,-8.283691206225664e-06,-4.866504811169587e-06,6.9333,6.4667
3.82421875,0.00017136267927672237,5.026613640192266e-05,-5.354674296177598e-06,4.7284893110553325e-07,6.9333,6.4667
3.828125,0.00017673254361181052,5.8076848162050824e-05,4.866374296177632e-06,2.913696356145588e-06,6.9333,6.4667
3.83203125,9.227922270542459e-05,5.1730644856946685e-05,9.748069146257742e-06,-1.937487901121521e-06,6.9333,6.4667
3.8359375,8.007498558022432e-05,3.610922133669034e-05,-1.755891142137787e-05,2.4255268711375773e-06,6.9333,6.4667
3.83984375,0.00016062295060654614,4.5872611036850557e-05,-1.9023419876401904e-05,-1.5320553902477717e-08,6.9333,6.4667
3.84375,0.00015232406936140994,6.640624000000002e-05,2.913696356145588e-06,-5.354674296177598e-06,6.9333,6.4667
3.84765625,0.0001284037645960174,6.5887559922179e-05,7.795391206225697e-06,9.610184161135442e-07,6.9333,6.4667
3.8515625,0.0001010662734355688,5.026613640192266e-05,-5.842843781185608e-06,-2.425657386129532e-06,6.9333,6.4667
3.85546875,9.520823961547266e-05,3.90382382467384e-05,-1.755891142137787e-05,-4.866504811169587e-06,6.9333,6.4667
3.859375,0.00010643613777065691,4.294359412680248e-05,-1.999975884641793e-05,4.7284893110553325e-07,6.9333,6.4667
3.86328125,8.202766352025636e-05,3.952640773174641e-05,-1.9023419876401904e-05,-9.61148931105499e-07,6.9333,6.4667
3.8671875,0.0001191285443808652,5.1730644856946685e-05,-1.3653555541313785e-05,-2.9138268711375426e-06,6.9333,6.4667
3.87109375,7.42169517601282e-05,5.5636000737010774e-05,-1.2677216571297761e-05,1.4491879011215552e-06,6.9333,6.4667
3.875,5.66123397070268e-05,2.7322170606546137e-05,-2.488145369649804e-05,2.4255268711375773e-06,6.9333,6.4667
3.87890625,0.0001274274256260014,2.976301803158619e-05,-1.8535250391393893e-05,4.866374296177632e-06,6.9333,6.4667
3.8828125,0.0001191285443808652,4.880162794689862e-05,-1.4141725026321795e-05,8.283560691233709e-06,6.9333,6.4667
3.88671875,8.202766352025636e-05,6.0029526102082876e-05,-2.097609781643395e-05,3.401865841153599e-06,6.9333,6.4667
3.890625,7.079976536507211e-05,5.075430588693066e-05,-1.609440296635384e-05,9.610184161135442e-07,6.9333,6.4667
3.89453125,8.593301940032045e-05,3.220386545662624e-05,-1.5118063996337817e-05,5.354543781185643e-06,6.9333,6.4667
3.8984375,6.344671249713895e-05,2.7322170606546137e-05,-3.22039959716182e-05,2.913696356145588e-06,6.9333,6.4667
3.90234375,6.247037352712293e-05,4.294359412680248e-05,-3.464484339665826e-05,3.890035326161609e-06,6.9333,6.4667
3.90625,2.6834001121538125e-05,6.247037352712293e-05,-9.260030176241686e-06,1.2188916571297797e-05,6.9333,6.4667
3.91015625,4.866374296177632e-06,4.7337119491874584e-05,-1.4141725026321795e-05,1.1212577601281776e-05,6.9333,6.4667
3.9140625,1.365342502632183e-05,2.292864524147404e-05,-4.050287721675439e-05,2.913696356145588e-06,6.9333,6.4667
3.91796875,1.2188916571297797e-05,9.748069146257742e-06,-5.85651481620508e-05,3.401865841153599e-06,6.9333,6.4667
3.921875,4.636078052185856e-05,2.3904984211490058e-05,-5.954148713206682e-05,5.842713266193654e-06,6.9333,6.4667
3.92578125,-4.72979446097488e-07,3.3668373911650276e-05,-3.9038368761730354e-05,5.842713266193654e-06,6.9333,6.4667
3.9296875,-3.806202979171434e-05,3.610922133669034e-05,-3.073948751659417e-05,3.890035326161609e-06,6.9333,6.4667
3.93359375,5.2218814341954696e-05,4.1479085671778456e-05,-3.855019927672234e-05,5.842713266193654e-06,6.9333,6.4667
3.9375,4.5872611036850557e-05,3.220386545662624e-05,-3.708569082169831e-05,6.330882751201665e-06,6.9333,6.4667
3.94140625,1.5117933481345863e-05,2.5369492666514095e-05,-4.1479216186770404e-05,5.354543781185643e-06,6.9333,6.4667
3.9453125,-4.3783353261615755e-06,3.1227526486610226e-05,-3.122765700160218e-05,-1.5320553902477717e-08,6.9333,6.4667
3.94921875,7.795391206225697e-06,3.7085560306706354e-05,-2.146426730144196e-05,-4.3783353261615755e-06,6.9333,6.4667
3.953125,4.866374296177632e-06,3.659739082169834e-05,-2.536962318150605e-05,-1.44931841611351e-06,6.9333,6.4667
3.95703125,-2.3905114726482013e-05,1.9999628331425975e-05,-3.464484339665826e-05,9.610184161135442e-07,6.9333,6.4667
3.9609375,-8.771860691233675e-06,1.8535119876401938e-05,-6.0029656617074824e-05,1.4491879011215552e-06,6.9333,6.4667
3.96484375,3.890035326161609e-06,3.0251187516594204e-05,-5.0266266916914606e-05,3.401865841153599e-06,6.9333,6.4667
3.96875,1.2188916571297797e-05,2.6834001121538125e-05,-3.025131803158616e-05,3.890035326161609e-06,6.9333,6.4667
3.97265625,4.378204811169621e-06,3.806189927672238e-05,-4.53845720668345e-05,3.401865841153599e-06,6.9333,6.4667
3.9765625,-1.170087760128174e-05,1.5117933481345863e-05,-6.0029656617074824e-05,1.937357386129566e-06,6.9333,6.4667
3.98046875,4.7284893110553325e-07,-5.842843781185608e-06,-4.440823309681848e-05,2.4255268711375773e-06,6.9333,6.4667
3.984375,-4.7825419491874556e-05,2.6834001121538125e-05,-3.610935185168229e-05,4.866374296177632e-06,6.9333,6.4667
3.98828125,-1.804708090638588e-05,4.245542464179448e-05,-4.440823309681848e-05,9.610184161135442e-07,6.9333,6.4667
3.9921875,4.9289797431906635e-05,3.610922133669034e-05,-3.9526538246738366e-05,-2.9138268711375426e-06,6.9333,6.4667
3.99609375,1.0236238631265752e-05,2.1952306271458016e-05,-5.0266266916914606e-05,-1.44931841611351e-06,6.9333,6.4667
4.0,-2.195243678644997e-05,1.0724408116273763e-05,-6.442318198214692e-05,-1.5320553902477717e-08,6.9333,6.4667
4.00390625,-2.2928775756465994e-05,1.2677086056305808e-05,-6.198233455710688e-05,9.610184161135442e-07,6.9333,6.4667
4.0078125,1.6582441936369896e-05,2.7810340091554148e-05,-4.684908052185853e-05,-2.425657386129532e-06,6.9333,6.4667
4.01171875,2.292864524147404e-05,2.878667906157017e-05,-2.9274979061570133e-05,1.937357386129566e-06,6.9333,6.4667
4.015625,2.3416814726482047e-05,5.842713266193654e-06,-4.831358897688256e-05,8.283560691233709e-06,6.9333,6.4667
4.01953125,-7.795521721217652e-06,1.7070611421377907e-05,-4.1479216186770404e-05,1.1212577601281776e-05,6.9333,6.4667
4.0234375,-2.3905114726482013e-05,2.976301803158619e-05,-3.073948751659417e-05,1.3165255541313818e-05,6.9333,6.4667
4.02734375,5.758867867704282e-05,2.878667906157017e-05,-4.001470773174638e-05,6.330882751201665e-06,6.9333,6.4667
4.03125,4.196725515678646e-05,3.1227526486610226e-05,-3.9526538246738366e-05,5.354543781185643e-06,6.9333,6.4667
4.03515625,-9.61148931105499e-07,2.0487797816433986e-05,-5.319528382696267e-05,3.890035326161609e-06,6.9333,6.4667
4.0390625,-1.951158936140992e-05,1.8535119876401938e-05,-4.1479216186770404e-05,1.937357386129566e-06,6.9333,6.4667
4.04296875,1.951145884641796e-05,2.292864524147404e-05,-2.488145369649804e-05,5.354543781185643e-06,6.9333,6.4667
4.046875,1.8535119876401938e-05,2.439315369649807e-05,-3.562118236667428e-05,4.378204811169621e-06,6.9333,6.4667
4.05078125,-4.196738567177842e-05,2.292864524147404e-05,-3.9038368761730354e-05,7.795391206225697e-06,6.9333,6.4667
4.0546875,-3.757386030670632e-05,1.6582441936369896e-05,-3.9526538246738366e-05,9.259899661249731e-06,6.9333,6.4667
4.05859375,-7.275257382009612e-05,-1.44931841611351e-06,-5.173077537193864e-05,1.1212577601281776e-05,6.9333,6.4667
4.0625,-4.831358897688256e-05,-8.283691206225664e-06,-5.514796176699472e-05,1.0724408116273763e-05,6.9333,6.4667
4.06640625,3.220386545662624e-05,1.4141594511329842e-05,-4.440823309681848e-05,4.378204811169621e-06,6.9333,6.4667
4.0703125,-1.937487901121521e-06,2.292864524147404e-05,-4.2455555156786426e-05,3.890035326161609e-06,6.9333,6.4667
4.07421875,-3.1715826486610186e-05,1.8046950391393927e-05,-5.6612470222018745e-05,1.937357386129566e-06,6.9333,6.4667
4.078125,-3.22039959716182e-05,8.77173017624172e-06,-5.612430073701074e-05,9.610184161135442e-07,6.9333,6.4667
4.08203125,-1.0236369146257707e-05,5.354543781185643e-06,-3.5133012881666264e-05,4.378204811169621e-06,6.9333,6.4667
4.0859375,-8.771860691233675e-06,7.795391206225697e-06,-2.9763148546578148e-05,-9.61148931105499e-07,6.9333,6.4667
4.08984375,-5.842843781185608e-06,1.4141594511329842e-05,-2.488145369649804e-05,-1.44931841611351e-06,6.9333,6.4667
4.09375,-4.2943724641794444e-05,9.259899661249731e-06,-2.634596215152207e-05,2.913696356145588e-06,6.9333,6.4667
4.09765625,-7.421708227512015e-05,-2.425657386129532e-06,-3.464484339665826e-05,-4.72979446097488e-07,6.9333,6.4667
4.1015625,-5.85651481620508e-05,5.842713266193654e-06,-3.1715826486610186e-05,3.401865841153599e-06,6.9333,6.4667
4.10546875,-4.636091103685052e-05,2.6345831636530114e-05,-3.122765700160218e-05,9.610184161135442e-07,6.9333,6.4667
4.109375,-1.658257245136185e-05,2.0975967301441994e-05,-2.732230112153809e-05,-1.5320553902477717e-08,6.9333,6.4667
4.11328125,-8.739765837033644e-05,-9.61148931105499e-07,-2.5857792666514058e-05,3.890035326161609e-06,6.9333,6.4667
4.1171875,-0.00012205769180590522,-4.866504811169587e-06,-3.9526538246738366e-05,4.866374296177632e-06,6.9333,6.4667
4.12109375,-2.683413163653008e-05,8.77173017624172e-06,-5.075443640192262e-05,4.866374296177632e-06,6.9333,6.4667
4.125,-3.562118236667428e-05,1.755878090638592e-05,-3.5133012881666264e-05,4.7284893110553325e-07,6.9333,6.4667
4.12890625,-6.637585992217897e-05,2.976301803158619e-05,-1.3653555541313785e-05,1.937357386129566e-06,6.9333,6.4667
4.1328125,-9.179118373540854e-05,2.5369492666514095e-05,-1.9023419876401904e-05,5.354543781185643e-06,6.9333,6.4667
4.13671875,-8.349230249027235e-05,1.937357386129566e-06,-2.536962318150605e-05,5.354543781185643e-06,6.9333,6.4667
4.140625,-6.393501249713892e-05,7.307221721217687e-06,-2.634596215152207e-05,5.354543781185643e-06,6.9333,6.4667
4.14453125,-7.568159073014417e-05,1.902328936140995e-05,-2.536962318150605e-05,3.890035326161609e-06,6.9333,6.4667
4.1484375,-6.051782610208284e-05,2.829850957656216e-05,-2.097609781643395e-05,5.354543781185643e-06,6.9333,6.4667
4.15234375,-0.00010985345468070495,1.8535119876401938e-05,-1.2677216571297761e-05,5.842713266193654e-06,6.9333,6.4667
4.15625,-0.0001166878274708171,5.354543781185643e-06,-2.683413163653008e-05,2.913696356145588e-06,6.9333,6.4667
4.16015625,-2.488145369649804e-05,1.0236238631265752e-05,-5.173077537193864e-05,-1.5320553902477717e-08,6.9333,6.4667
4.1640625,-3.318033494163422e-05,1.4629763996337851e-05,-2.8786809576562122e-05,4.866374296177632e-06,6.9333,6.4667
4.16796875,-7.421708227512015e-05,3.0251187516594204e-05,1.4629763996337851e-05,1.0236238631265752e-05,6.9333,6.4667
4.171875,-0.00010399542086060881,2.3416814726482047e-05,-3.2692165456626215e-05,4.378204811169621e-06,6.9333,6.4667
4.17578125,-9.91137260105287e-05,1.6094272451361885e-05,-7.958694661020826e-05,-1.937487901121521e-06,6.9333,6.4667
4.1796875,-8.788582785534446e-05,3.269203494163426e-05,-6.835904845502402e-05,-1.937487901121521e-06,6.9333,6.4667
4.18359375,-6.588769043717095e-05,2.9274848546578178e-05,-6.442318198214692e-05,4.7284893110553325e-07,6.9333,6.4667
4.1875,-6.982355691004805e-05,2.439315369649807e-05,-4.489640258182648e-05,3.401865841153599e-06,6.9333,6.4667
4.19140625,-9.960189549553672e-05,3.0251187516594204e-05,-3.318033494163422e-05,6.330882751201665e-06,6.9333,6.4667
