timestamp,TP9,AF7,AF8,TP10,Valence,Arousal
0.0,9.228166097810331e-05,-6.395958730144196e-05,-0.00010302413508201724,-8.788043674372461e-06,6.1333,6.2
0.00390625,9.228166097810331e-05,-4.003629333028151e-05,-8.788852888685434e-05,-8.296701234454861e-06,6.1333,6.2
0.0078125,9.228166097810331e-05,-4.1499025421530465e-05,-9.081964068360418e-05,-7.3196639688715835e-06,6.1333,6.2
0.01171875,8.251693593652248e-05,-1.4158924827954518e-05,-6.786773636377506e-05,-1.269054512245364e-05,6.1333,6.2
0.015625,7.958582413977265e-05,-1.5621656919203467e-05,-5.614893679102768e-05,-1.708438901045242e-05,6.1333,6.2
0.01953125,8.83735119157702e-05,-1.8061426276035695e-05,-5.0292360811779955e-05,-1.5135962093537794e-05,6.1333,6.2
0.0234375,9.130462371252003e-05,1.0741406408789207e-05,-3.173430037994964e-05,-8.788043674372461e-06,6.1333,6.2
0.02734375,9.081892888685437e-05,9.27302670328833e-06,-3.710518153353169e-05,-1.6598694184786744e-05,6.1333,6.2
0.03125,8.49567052933547e-05,2.4899975338368822e-05,-2.1969575338368797e-05,-2.0015500807202248e-05,6.1333,6.2
0.03515625,7.860878687418937e-05,3.417900555428398e-05,-7.811006408789186e-06,-1.9038463541618968e-05,6.1333,6.2
0.0390625,7.372924816052491e-05,2.4899975338368822e-05,-8.788043674372461e-06,-2.4409344695201028e-05,6.1333,6.2
0.04296875,6.591295003585871e-05,3.417900555428398e-05,5.291715877022707e-09,-2.343230742961775e-05,6.1333,6.2
0.046875,6.0056374056610985e-05,4.247535089036394e-05,5.856220080872826e-06,-2.1969575338368797e-05,6.1333,6.2
0.05078125,5.614822499427787e-05,5.419415046311133e-05,2.2945900807202266e-05,-2.0015500807202248e-05,6.1333,6.2
0.0546875,4.5406462687113766e-05,6.884406183260854e-05,4.687484239261464e-05,-1.0736470591287088e-05,6.1333,6.2
0.05859375,3.759581217669948e-05,7.177517362935836e-05,4.052692397344931e-05,-8.788043674372461e-06,6.1333,6.2
0.0625,4.638349995269704e-05,7.665471234302281e-05,3.564173764553293e-05,-2.5877724400701902e-05,6.1333,6.2
0.06640625,5.0291649015030144e-05,8.056286140535593e-05,3.857284944228276e-05,-1.8552768715953293e-05,6.1333,6.2
0.0703125,4.3943730595864815e-05,7.470628542610819e-05,4.3943730595864815e-05,9.823289814602988e-07,6.1333,6.2
0.07421875,4.003558153353171e-05,7.665471234302281e-05,5.1754381106279096e-05,4.909865415426975e-07,6.1333,6.2
0.078125,3.173358858319983e-05,8.056286140535593e-05,6.249614341344321e-05,9.823289814602988e-07,6.1333,6.2
0.08203125,2.97851616662852e-05,8.593374255893797e-05,6.835836700694287e-05,-6.342626703288308e-06,6.1333,6.2
0.0859375,3.515604281986726e-05,8.49567052933547e-05,6.298748585336081e-05,-4.879894612039358e-06,6.1333,6.2
0.08984375,3.32019682887007e-05,8.349397320210574e-05,5.9079336791027705e-05,4.8791828152895496e-06,6.1333,6.2
0.09375,2.7831087135118648e-05,8.007716657969025e-05,6.982109909819182e-05,8.787331877622656e-06,6.1333,6.2
0.09765625,2.3922938072785543e-05,6.933540427252614e-05,7.616901751735715e-05,9.27302670328833e-06,6.1333,6.2
0.1015625,2.5385670164034498e-05,7.958582413977265e-05,7.519198025177387e-05,7.81029461203938e-06,6.1333,6.2
0.10546875,2.4414280512703147e-05,8.788781709010453e-05,7.275221089494163e-05,1.0741406408789207e-05,6.1333,6.2
0.109375,2.148316871595332e-05,8.300263076218814e-05,7.519198025177387e-05,9.76436914320593e-06,6.1333,6.2
0.11328125,1.855205691920349e-05,8.105420384527353e-05,7.860878687418937e-05,1.0250063968871605e-05,6.1333,6.2
0.1171875,1.659798238803694e-05,8.056286140535593e-05,7.665471234302281e-05,1.366687059128711e-05,6.1333,6.2
0.12109375,1.7575019653620213e-05,7.910012931410697e-05,7.226086845502403e-05,1.269548093995576e-05,6.1333,6.2
0.125,1.7575019653620213e-05,8.447101046768902e-05,7.81230920485237e-05,1.7089324827954538e-05,6.1333,6.2
0.12890625,1.9037751744869165e-05,9.521277277485314e-05,7.519198025177387e-05,1.562094512245366e-05,6.1333,6.2
0.1328125,2.0506131450370042e-05,8.691077982452125e-05,7.81230920485237e-05,6.833257346456102e-06,6.1333,6.2
0.13671875,1.9529094184786762e-05,7.81230920485237e-05,8.300263076218814e-05,1.3181175765621434e-05,6.1333,6.2
0.140625,1.9529094184786762e-05,8.105420384527353e-05,7.323790572060731e-05,2.1968863541618994e-05,6.1333,6.2
0.14453125,1.4643907856870384e-05,7.226086845502403e-05,6.591295003585871e-05,2.0014789010452438e-05,6.1333,6.2
0.1484375,1.562094512245366e-05,7.226086845502403e-05,7.03124415381094e-05,1.855205691920349e-05,6.1333,6.2
0.15234375,2.0014789010452438e-05,7.910012931410697e-05,7.665471234302281e-05,2.0991826276035717e-05,6.1333,6.2
0.15625,2.0014789010452438e-05,7.079813636377508e-05,7.860878687418937e-05,2.148316871595332e-05,6.1333,6.2
0.16015625,1.9529094184786762e-05,7.226086845502403e-05,7.81230920485237e-05,1.9037751744869165e-05,6.1333,6.2
0.1640625,2.148316871595332e-05,7.275221089494163e-05,7.470628542610819e-05,2.0991826276035717e-05,6.1333,6.2
0.16796875,2.246020598153659e-05,6.835836700694287e-05,7.470628542610819e-05,2.2945900807202266e-05,6.1333,6.2
0.171875,2.148316871595332e-05,7.714605478294043e-05,7.470628542610819e-05,2.246020598153659e-05,6.1333,6.2
0.17578125,2.3437243247119868e-05,9.277300341802091e-05,8.251693593652248e-05,2.148316871595332e-05,6.1333,6.2
0.1796875,2.4414280512703147e-05,9.472143033493555e-05,9.472143033493555e-05,2.0506131450370042e-05,6.1333,6.2
0.18359375,2.0991826276035717e-05,8.593374255893797e-05,8.153989867093921e-05,2.0991826276035717e-05,6.1333,6.2
0.1875,2.148316871595332e-05,8.056286140535593e-05,6.542725521019303e-05,1.8066362093537814e-05,6.1333,6.2
0.19140625,2.246020598153659e-05,7.079813636377508e-05,8.007716657969025e-05,2.0506131450370042e-05,6.1333,6.2
0.1953125,1.9529094184786762e-05,6.494156038452736e-05,6.884406183260854e-05,2.4414280512703147e-05,6.1333,6.2
0.19921875,1.9529094184786762e-05,6.249614341344321e-05,6.0056374056610985e-05,2.97851616662852e-05,6.1333,6.2
0.203125,1.8066362093537814e-05,5.859364196536203e-05,7.568332269169147e-05,3.1247893757534155e-05,6.1333,6.2
0.20703125,1.9037751744869165e-05,5.322276081177998e-05,6.445021794460976e-05,2.5877012603952095e-05,6.1333,6.2
0.2109375,1.855205691920349e-05,5.468549290302892e-05,6.542725521019303e-05,2.246020598153659e-05,6.1333,6.2
0.21484375,1.9037751744869165e-05,6.688998730144199e-05,7.275221089494163e-05,2.97851616662852e-05,6.1333,6.2
0.21875,2.2945900807202266e-05,6.347318067902648e-05,6.786702456702526e-05,3.710446973678188e-05,6.1333,6.2
0.22265625,2.3437243247119868e-05,6.151910614785993e-05,6.933540427252614e-05,2.97851616662852e-05,6.1333,6.2
0.2265625,2.3437243247119868e-05,6.542725521019303e-05,6.542725521019303e-05,2.636270742961777e-05,6.1333,6.2
0.23046875,2.3922938072785543e-05,5.6639567434195474e-05,5.419415046311133e-05,2.5877012603952095e-05,6.1333,6.2
0.234375,2.4414280512703147e-05,4.9314611749446865e-05,5.22457235461967e-05,2.4414280512703147e-05,6.1333,6.2
0.23828125,2.1968863541618994e-05,5.1754381106279096e-05,5.956503161669338e-05,2.5385670164034498e-05,6.1333,6.2
0.2421875,2.4414280512703147e-05,5.7616604699778754e-05,6.249614341344321e-05,2.97851616662852e-05,6.1333,6.2
0.24609375,2.685404986953537e-05,5.5662530168612194e-05,6.298748585336081e-05,3.222493102311743e-05,6.1333,6.2
0.25,2.2945900807202266e-05,4.492076786144809e-05,6.201044858777753e-05,3.173358858319983e-05,6.1333,6.2
0.25390625,2.0014789010452438e-05,5.0291649015030144e-05,5.7616604699778754e-05,2.3437243247119868e-05,6.1333,6.2
0.2578125,1.8066362093537814e-05,5.0777343840695816e-05,6.151910614785993e-05,2.0991826276035717e-05,6.1333,6.2
0.26171875,2.0991826276035717e-05,4.5406462687113766e-05,6.0056374056610985e-05,3.32019682887007e-05,6.1333,6.2
0.265625,2.3922938072785543e-05,4.4429425421530487e-05,5.468549290302892e-05,3.710446973678188e-05,6.1333,6.2
0.26953125,2.3922938072785543e-05,4.101261879911499e-05,5.1754381106279096e-05,3.515604281986726e-05,6.1333,6.2
0.2734375,2.5385670164034498e-05,4.247535089036394e-05,4.492076786144809e-05,3.075655131761655e-05,6.1333,6.2
0.27734375,2.148316871595332e-05,4.687484239261464e-05,5.468549290302892e-05,2.4899975338368822e-05,6.1333,6.2
0.28125,1.9037751744869165e-05,4.638349995269704e-05,6.542725521019303e-05,2.7831087135118648e-05,6.1333,6.2
0.28515625,2.148316871595332e-05,4.150396123903259e-05,5.322276081177998e-05,3.417900555428398e-05,6.1333,6.2
0.2890625,2.5877012603952095e-05,4.492076786144809e-05,4.492076786144809e-05,3.417900555428398e-05,6.1333,6.2
0.29296875,2.97851616662852e-05,5.0291649015030144e-05,4.589780512703137e-05,3.222493102311743e-05,6.1333,6.2
0.296875,2.7831087135118648e-05,4.736053721828032e-05,4.638349995269704e-05,3.27106258487831e-05,6.1333,6.2
0.30078125,3.075655131761655e-05,4.003558153353171e-05,5.322276081177998e-05,2.8808124400701924e-05,6.1333,6.2
0.3046875,2.7339744695201047e-05,3.954988670786604e-05,5.0777343840695816e-05,2.1968863541618994e-05,6.1333,6.2
0.30859375,2.0506131450370042e-05,3.564173764553293e-05,4.4429425421530487e-05,2.3922938072785543e-05,6.1333,6.2
0.3125,2.3437243247119868e-05,3.222493102311743e-05,3.710446973678188e-05,3.32019682887007e-05,6.1333,6.2
0.31640625,2.246020598153659e-05,4.5406462687113766e-05,3.954988670786604e-05,3.613308008545053e-05,6.1333,6.2
0.3203125,2.5877012603952095e-05,5.322276081177998e-05,4.2966693330281535e-05,3.1247893757534155e-05,6.1333,6.2
0.32421875,2.92938192263676e-05,5.126868628061342e-05,3.808150700236516e-05,1.7575019653620213e-05,6.1333,6.2
0.328125,2.3437243247119868e-05,6.786702456702526e-05,5.7616604699778754e-05,2.246020598153659e-05,6.1333,6.2
0.33203125,1.855205691920349e-05,6.982109909819182e-05,6.151910614785993e-05,4.345238815594721e-05,6.1333,6.2
0.3359375,2.4899975338368822e-05,4.3943730595864815e-05,4.3943730595864815e-05,4.980030657511254e-05,6.1333,6.2
0.33984375,2.8316781960784323e-05,3.27106258487831e-05,3.613308008545053e-05,4.5406462687113766e-05,6.1333,6.2
0.34375,2.685404986953537e-05,1.562094512245366e-05,3.1247893757534155e-05,4.247535089036394e-05,6.1333,6.2
0.34765625,2.1968863541618994e-05,1.1718443674372483e-05,2.5877012603952095e-05,3.905854426794843e-05,6.1333,6.2
0.3515625,1.8066362093537814e-05,5.856220080872826e-06,1.5135250296787987e-05,4.345238815594721e-05,6.1333,6.2
0.35546875,1.7575019653620213e-05,-1.1713507856870364e-05,1.4643907856870384e-05,4.784623204394599e-05,6.1333,6.2
0.359375,2.0014789010452438e-05,-6.342626703288308e-06,1.1718443674372483e-05,4.4429425421530487e-05,6.1333,6.2
0.36328125,1.9037751744869165e-05,-1.1713507856870364e-05,4.393487989623875e-06,4.5406462687113766e-05,6.1333,6.2
0.3671875,1.9529094184786762e-05,-1.4644619653620193e-05,2.439413458457323e-06,4.4429425421530487e-05,6.1333,6.2
0.37109375,2.3437243247119868e-05,-1.1227813031204689e-05,1.948071018539722e-06,4.052692397344931e-05,6.1333,6.2
0.375,2.3437243247119868e-05,-1.5621656919203467e-05,1.2204138500038158e-05,3.710446973678188e-05,6.1333,6.2
0.37890625,2.2945900807202266e-05,-7.3196639688715835e-06,2.5385670164034498e-05,3.759581217669948e-05,6.1333,6.2
0.3828125,2.148316871595332e-05,7.81029461203938e-06,2.7831087135118648e-05,3.905854426794843e-05,6.1333,6.2
0.38671875,1.855205691920349e-05,1.7089324827954538e-05,3.417900555428398e-05,3.808150700236516e-05,6.1333,6.2
0.390625,1.659798238803694e-05,1.8066362093537814e-05,4.101261879911499e-05,3.954988670786604e-05,6.1333,6.2
0.39453125,1.8066362093537814e-05,2.4899975338368822e-05,3.808150700236516e-05,3.808150700236516e-05,6.1333,6.2
0.3984375,2.4414280512703147e-05,3.857284944228276e-05,3.954988670786604e-05,3.710446973678188e-05,6.1333,6.2
0.40234375,2.5385670164034498e-05,3.466470037994965e-05,3.905854426794843e-05,4.052692397344931e-05,6.1333,6.2
0.40625,2.5877012603952095e-05,2.3922938072785543e-05,3.32019682887007e-05,4.198965606469826e-05,6.1333,6.2
0.41015625,2.4899975338368822e-05,1.8066362093537814e-05,2.92938192263676e-05,4.150396123903259e-05,6.1333,6.2
0.4140625,2.5385670164034498e-05,2.148316871595332e-05,3.857284944228276e-05,4.101261879911499e-05,6.1333,6.2
0.41796875,2.4899975338368822e-05,2.1968863541618994e-05,4.5406462687113766e-05,3.857284944228276e-05,6.1333,6.2
0.421875,2.2945900807202266e-05,2.1968863541618994e-05,4.345238815594721e-05,3.466470037994965e-05,6.1333,6.2
0.42578125,2.3437243247119868e-05,2.246020598153659e-05,3.27106258487831e-05,3.368766311436638e-05,6.1333,6.2
0.4296875,2.5877012603952095e-05,2.1968863541618994e-05,2.7831087135118648e-05,3.564173764553293e-05,6.1333,6.2
0.43359375,2.5877012603952095e-05,1.9529094184786762e-05,3.905854426794843e-05,3.515604281986726e-05,6.1333,6.2
0.4375,2.685404986953537e-05,1.6112287562371265e-05,3.466470037994965e-05,3.466470037994965e-05,6.1333,6.2
0.44140625,3.222493102311743e-05,2.2945900807202266e-05,3.905854426794843e-05,3.6618774911116205e-05,6.1333,6.2
0.4453125,2.97851616662852e-05,2.92938192263676e-05,4.9314611749446865e-05,3.515604281986726e-05,6.1333,6.2
0.44921875,3.1247893757534155e-05,2.97851616662852e-05,4.638349995269704e-05,3.515604281986726e-05,6.1333,6.2
0.453125,3.0270856491950876e-05,3.32019682887007e-05,4.101261879911499e-05,3.368766311436638e-05,6.1333,6.2
0.45703125,2.7831087135118648e-05,3.954988670786604e-05,4.150396123903259e-05,3.32019682887007e-05,6.1333,6.2
0.4609375,3.27106258487831e-05,3.32019682887007e-05,4.003558153353171e-05,3.857284944228276e-05,6.1333,6.2
0.46484375,3.27106258487831e-05,2.4899975338368822e-05,4.2966693330281535e-05,3.613308008545053e-05,6.1333,6.2
0.46875,3.075655131761655e-05,2.0506131450370042e-05,5.5662530168612194e-05,3.466470037994965e-05,6.1333,6.2
0.47265625,2.8316781960784323e-05,2.92938192263676e-05,4.784623204394599e-05,3.515604281986726e-05,6.1333,6.2
0.4765625,2.5385670164034498e-05,3.173358858319983e-05,4.101261879911499e-05,3.564173764553293e-05,6.1333,6.2
0.48046875,2.3437243247119868e-05,2.636270742961777e-05,3.613308008545053e-05,3.954988670786604e-05,6.1333,6.2
0.484375,2.0506131450370042e-05,2.92938192263676e-05,2.5877012603952095e-05,4.247535089036394e-05,6.1333,6.2
0.48828125,1.855205691920349e-05,2.5877012603952095e-05,3.417900555428398e-05,4.101261879911499e-05,6.1333,6.2
0.4921875,2.246020598153659e-05,2.7339744695201047e-05,3.173358858319983e-05,3.808150700236516e-05,6.1333,6.2
0.49609375,2.685404986953537e-05,2.8316781960784323e-05,2.3922938072785543e-05,3.564173764553293e-05,6.1333,6.2
0.5,2.7339744695201047e-05,1.562094512245366e-05,3.759581217669948e-05,3.368766311436638e-05,6.1333,6.2
0.50390625,2.7339744695201047e-05,1.659798238803694e-05,3.368766311436638e-05,3.27106258487831e-05,6.1333,6.2
0.5078125,3.32019682887007e-05,9.27302670328833e-06,1.366687059128711e-05,2.5877012603952095e-05,6.1333,6.2
0.51171875,3.808150700236516e-05,-2.4401252552071304e-06,1.269548093995576e-05,2.0506131450370042e-05,6.1333,6.2
0.515625,2.5385670164034498e-05,-4.860507240405785e-07,2.5877012603952095e-05,2.3922938072785543e-05,6.1333,6.2
0.51953125,2.0014789010452438e-05,9.27302670328833e-06,2.8316781960784323e-05,3.32019682887007e-05,6.1333,6.2
0.5234375,3.32019682887007e-05,-3.902857346456081e-06,3.416450724040599e-06,4.052692397344931e-05,6.1333,6.2
0.52734375,3.759581217669948e-05,-1.4158924827954518e-05,-2.6363419226367578e-05,3.417900555428398e-05,6.1333,6.2
0.53125,3.759581217669948e-05,-7.3196639688715835e-06,-2.0015500807202248e-05,2.7831087135118648e-05,6.1333,6.2
0.53515625,3.905854426794843e-05,-4.879894612039358e-06,-4.388552172121756e-06,3.1247893757534155e-05,6.1333,6.2
0.5390625,4.101261879911499e-05,-5.856931877622634e-06,-6.342626703288308e-06,3.613308008545053e-05,6.1333,6.2
0.54296875,4.3943730595864815e-05,-1.8552768715953293e-05,-7.3196639688715835e-06,3.515604281986726e-05,6.1333,6.2
0.546875,4.3943730595864815e-05,-2.0015500807202248e-05,-1.318188756237124e-05,3.27106258487831e-05,6.1333,6.2
0.55078125,5.6639567434195474e-05,-1.4158924827954518e-05,-4.199036786144807e-05,2.8316781960784323e-05,6.1333,6.2
0.5546875,6.786702456702526e-05,-2.2455270164034472e-05,-6.493662456702524e-05,2.4899975338368822e-05,6.1333,6.2
0.55859375,6.103341132219425e-05,-5.17550929030289e-05,-6.395958730144196e-05,2.3437243247119868e-05,6.1333,6.2
0.5625,6.445021794460976e-05,-5.810301132219423e-05,-6.151981794460974e-05,2.7831087135118648e-05,6.1333,6.2
0.56640625,7.079813636377508e-05,-4.9801018371862354e-05,-7.226158025177385e-05,3.0270856491950876e-05,6.1333,6.2
0.5703125,6.933540427252614e-05,-4.052198815594719e-05,-6.738204153810939e-05,2.636270742961777e-05,6.1333,6.2
0.57421875,6.835836700694287e-05,-4.589286930952924e-05,-5.0292360811779955e-05,2.685404986953537e-05,6.1333,6.2
0.578125,6.396452311894409e-05,-5.1263750463111305e-05,-4.052198815594719e-05,3.0270856491950876e-05,6.1333,6.2
0.58203125,5.9079336791027705e-05,-5.224078772869458e-05,-5.224078772869458e-05,3.173358858319983e-05,6.1333,6.2
0.5859375,6.103341132219425e-05,-6.005708585336079e-05,-7.177588542610817e-05,2.2945900807202266e-05,6.1333,6.2
0.58984375,6.786702456702526e-05,-5.273213016861218e-05,-7.128454298619057e-05,1.7575019653620213e-05,6.1333,6.2
0.59375,7.470628542610819e-05,-4.101333059586479e-05,-6.640500427252611e-05,2.148316871595332e-05,6.1333,6.2
0.59765625,7.421494298619059e-05,-2.9294531023117406e-05,-5.908004858777751e-05,2.3437243247119868e-05,6.1333,6.2
0.6015625,7.03124415381094e-05,-1.6598694184786744e-05,-3.808221879911497e-05,2.4899975338368822e-05,6.1333,6.2
0.60546875,6.298748585336081e-05,-1.4158924827954518e-05,-2.343230742961775e-05,3.27106258487831e-05,6.1333,6.2
0.609375,6.688998730144199e-05,-1.4644619653620193e-05,-2.4409344695201028e-05,3.173358858319983e-05,6.1333,6.2
0.61328125,7.079813636377508e-05,-4.860507240405785e-07,-2.9294531023117406e-05,1.7089324827954538e-05,6.1333,6.2
0.6171875,6.640429247577631e-05,6.833257346456102e-06,-1.9529805981536573e-05,1.3181175765621434e-05,6.1333,6.2
0.62109375,6.347318067902648e-05,5.3705252552071515e-06,6.833257346456102e-06,1.7575019653620213e-05,6.1333,6.2
0.625,5.859364196536203e-05,1.5135250296787987e-05,1.7575019653620213e-05,1.8066362093537814e-05,6.1333,6.2
0.62890625,6.103341132219425e-05,3.222493102311743e-05,3.27106258487831e-05,1.855205691920349e-05,6.1333,6.2
0.6328125,6.151910614785993e-05,4.052692397344931e-05,3.808150700236516e-05,1.855205691920349e-05,6.1333,6.2
0.63671875,5.7616604699778754e-05,5.370845563744565e-05,3.075655131761655e-05,1.4158213031204709e-05,6.1333,6.2
0.640625,5.468549290302892e-05,7.323790572060731e-05,3.759581217669948e-05,1.7575019653620213e-05,6.1333,6.2
0.64453125,5.322276081177998e-05,6.982109909819182e-05,4.4429425421530487e-05,2.4899975338368822e-05,6.1333,6.2
0.6484375,4.83375744838636e-05,5.614822499427787e-05,4.784623204394599e-05,1.855205691920349e-05,6.1333,6.2
0.65234375,4.687484239261464e-05,7.323790572060731e-05,6.396452311894409e-05,1.3181175765621434e-05,6.1333,6.2
0.65625,4.736053721828032e-05,9.472143033493555e-05,8.300263076218814e-05,1.659798238803694e-05,6.1333,6.2
0.66015625,4.3943730595864815e-05,9.56984676005188e-05,9.375004068360419e-05,9.76436914320593e-06,6.1333,6.2
0.6640625,3.515604281986726e-05,0.00010253772845960175,0.00010204638601968415,6.833257346456102e-06,6.1333,6.2
0.66796875,2.8808124400701924e-05,0.00011669629738918136,0.00010937134170443274,1.7575019653620213e-05,6.1333,6.2
0.671875,2.97851616662852e-05,0.00013085486631876097,0.00011425652803234913,2.0991826276035717e-05,6.1333,6.2
0.67578125,2.97851616662852e-05,0.0001411109338002594,0.00012987782905317767,1.7575019653620213e-05,6.1333,6.2
0.6796875,2.685404986953537e-05,0.0001401338965346761,0.00013964820170901047,1.9037751744869165e-05,6.1333,6.2
0.68359375,2.8316781960784323e-05,0.00013964820170901047,0.00014208797106584267,1.5135250296787987e-05,6.1333,6.2
0.6875,2.4414280512703147e-05,0.0001415966286259251,0.0001562465399954223,1.1227101234454882e-05,6.1333,6.2
0.69140625,1.855205691920349e-05,0.0001494129267505913,0.0001562465399954223,1.1227101234454882e-05,6.1333,6.2
0.6953125,1.8066362093537814e-05,0.0001528297333730068,0.00014989862157625697,1.0250063968871605e-05,6.1333,6.2
0.69921875,1.4643907856870384e-05,0.00015185269610742353,0.00014452774042267492,1.366687059128711e-05,6.1333,6.2
0.703125,1.4643907856870384e-05,0.00015673788243533991,0.0001376941271778439,1.4158213031204709e-05,6.1333,6.2
0.70703125,1.6112287562371265e-05,0.00015722357726100555,0.00014355070315709163,1.562094512245366e-05,6.1333,6.2
0.7109375,1.6112287562371265e-05,0.0001591776517921721,0.00015136700128175784,1.269548093995576e-05,6.1333,6.2
0.71484375,2.0506131450370042e-05,0.0001865234,0.00015770927208667125,1.3181175765621434e-05,6.1333,6.2
0.71875,1.855205691920349e-05,0.00018066117640650034,0.0001591776517921721,1.9529094184786762e-05,6.1333,6.2
0.72265625,1.2204138500038158e-05,0.00014843588948500804,0.0001494129267505913,1.7089324827954538e-05,6.1333,6.2
0.7265625,1.269548093995576e-05,0.00015429246546425573,0.00014452774042267492,7.318952172121777e-06,6.1333,6.2
0.73046875,1.1718443674372483e-05,0.00016454853294575416,0.000167479644742504,1.0741406408789207e-05,6.1333,6.2
0.734375,1.1227101234454882e-05,0.00015087565884184024,0.00017138214619058517,2.246020598153659e-05,6.1333,6.2
0.73828125,1.7089324827954538e-05,0.00014404204559700923,0.00015673788243533991,2.5385670164034498e-05,6.1333,6.2
0.7421875,1.5135250296787987e-05,0.00015673788243533991,0.00016552557021133746,2.1968863541618994e-05,6.1333,6.2
0.74609375,1.0250063968871605e-05,0.00014452774042267492,0.00015233839093308917,2.246020598153659e-05,6.1333,6.2
0.75,1.0250063968871605e-05,0.0001411109338002594,0.00014452774042267492,2.4414280512703147e-05,6.1333,6.2
0.75390625,1.7575019653620213e-05,0.0001591776517921721,0.00014452774042267492,1.9529094184786762e-05,6.1333,6.2
0.7578125,1.4643907856870384e-05,0.00014648181495384148,0.0001372027847379263,1.855205691920349e-05,6.1333,6.2
0.76171875,6.833257346456102e-06,0.00012548398516517892,0.00013867116444342718,2.5877012603952095e-05,6.1333,6.2
0.765625,9.76436914320593e-06,0.00012352991063401236,0.0001381798220035096,2.4414280512703147e-05,6.1333,6.2
0.76953125,1.562094512245366e-05,0.0001152335652979324,0.00012987782905317767,2.4414280512703147e-05,6.1333,6.2
0.7734375,1.659798238803694e-05,0.00011181111106126498,0.00010741726717326621,2.685404986953537e-05,6.1333,6.2
0.77734375,1.1718443674372483e-05,0.00011181111106126498,0.00010937134170443274,2.97851616662852e-05,6.1333,6.2
0.78125,6.833257346456102e-06,8.691077982452125e-05,0.00011815902948043031,2.97851616662852e-05,6.1333,6.2
0.78515625,5.3705252552071515e-06,8.007716657969025e-05,9.814388457160296e-05,2.636270742961777e-05,6.1333,6.2
0.7890625,5.856220080872826e-06,8.349397320210574e-05,9.179596615243763e-05,3.6618774911116205e-05,6.1333,6.2
0.79296875,1.0250063968871605e-05,8.153989867093921e-05,9.862957939726864e-05,3.515604281986726e-05,6.1333,6.2
0.796875,1.1227101234454882e-05,8.740212226443885e-05,9.472143033493555e-05,2.8316781960784323e-05,6.1333,6.2
0.80078125,1.269548093995576e-05,8.691077982452125e-05,8.886485435568781e-05,3.613308008545053e-05,6.1333,6.2
0.8046875,1.1718443674372483e-05,7.03124415381094e-05,7.323790572060731e-05,3.173358858319983e-05,6.1333,6.2
0.80859375,5.3705252552071515e-06,7.81230920485237e-05,8.740212226443885e-05,2.5385670164034498e-05,6.1333,6.2
0.8125,8.295989437705053e-06,8.886485435568781e-05,9.179596615243763e-05,2.97851616662852e-05,6.1333,6.2
0.81640625,1.562094512245366e-05,7.763174960860609e-05,7.470628542610819e-05,3.1247893757534155e-05,6.1333,6.2
0.8203125,2.0506131450370042e-05,6.542725521019303e-05,7.714605478294043e-05,3.27106258487831e-05,6.1333,6.2
0.82421875,1.7575019653620213e-05,5.370845563744565e-05,8.251693593652248e-05,3.173358858319983e-05,6.1333,6.2
0.828125,1.4158213031204709e-05,4.687484239261464e-05,7.665471234302281e-05,3.075655131761655e-05,6.1333,6.2
0.83203125,1.6112287562371265e-05,4.9314611749446865e-05,6.884406183260854e-05,3.0270856491950876e-05,6.1333,6.2
0.8359375,1.6112287562371265e-05,5.468549290302892e-05,6.688998730144199e-05,2.8808124400701924e-05,6.1333,6.2
0.83984375,1.855205691920349e-05,4.83375744838636e-05,6.73813297413596e-05,3.710446973678188e-05,6.1333,6.2
0.84375,1.7089324827954538e-05,4.345238815594721e-05,7.226086845502403e-05,3.954988670786604e-05,6.1333,6.2
0.84765625,1.659798238803694e-05,3.905854426794843e-05,6.835836700694287e-05,3.417900555428398e-05,6.1333,6.2
0.8515625,1.9529094184786762e-05,3.613308008545053e-05,7.079813636377508e-05,3.6618774911116205e-05,6.1333,6.2
0.85546875,1.9037751744869165e-05,3.808150700236516e-05,7.226086845502403e-05,3.759581217669948e-05,6.1333,6.2
0.859375,1.855205691920349e-05,2.8316781960784323e-05,6.591295003585871e-05,3.0270856491950876e-05,6.1333,6.2
0.86328125,2.148316871595332e-05,2.0991826276035717e-05,7.275221089494163e-05,2.3437243247119868e-05,6.1333,6.2
0.8671875,2.0014789010452438e-05,2.3437243247119868e-05,6.494156038452736e-05,2.636270742961777e-05,6.1333,6.2
0.87109375,1.7089324827954538e-05,1.9529094184786762e-05,4.83375744838636e-05,3.368766311436638e-05,6.1333,6.2
0.875,1.9529094184786762e-05,2.5877012603952095e-05,5.0777343840695816e-05,3.759581217669948e-05,6.1333,6.2
0.87890625,1.9037751744869165e-05,3.466470037994965e-05,6.201044858777753e-05,3.710446973678188e-05,6.1333,6.2
0.8828125,1.7089324827954538e-05,3.32019682887007e-05,6.640429247577631e-05,3.613308008545053e-05,6.1333,6.2
0.88671875,2.0506131450370042e-05,3.808150700236516e-05,6.249614341344321e-05,3.759581217669948e-05,6.1333,6.2
0.890625,2.246020598153659e-05,4.198965606469826e-05,6.151910614785993e-05,3.6618774911116205e-05,6.1333,6.2
0.89453125,2.0506131450370042e-05,4.687484239261464e-05,6.591295003585871e-05,2.7831087135118648e-05,6.1333,6.2
0.8984375,1.855205691920349e-05,3.954988670786604e-05,5.9079336791027705e-05,2.5877012603952095e-05,6.1333,6.2
0.90234375,2.0991826276035717e-05,2.8316781960784323e-05,5.322276081177998e-05,3.808150700236516e-05,6.1333,6.2
0.90625,1.9529094184786762e-05,2.3922938072785543e-05,5.859364196536203e-05,4.150396123903259e-05,6.1333,6.2
0.91015625,2.1968863541618994e-05,2.0014789010452438e-05,6.151910614785993e-05,4.101261879911499e-05,6.1333,6.2
0.9140625,2.636270742961777e-05,2.1968863541618994e-05,4.882326930952927e-05,4.003558153353171e-05,6.1333,6.2
0.91796875,2.4414280512703147e-05,2.3437243247119868e-05,4.638349995269704e-05,3.466470037994965e-05,6.1333,6.2
0.921875,2.4899975338368822e-05,2.685404986953537e-05,5.2731418371862376e-05,3.515604281986726e-05,6.1333,6.2
0.92578125,2.3437243247119868e-05,2.5877012603952095e-05,5.5662530168612194e-05,3.759581217669948e-05,6.1333,6.2
0.9296875,2.2945900807202266e-05,2.97851616662852e-05,5.712526225986115e-05,3.759581217669948e-05,6.1333,6.2
0.93359375,2.2945900807202266e-05,2.97851616662852e-05,5.956503161669338e-05,3.954988670786604e-05,6.1333,6.2
0.9375,2.0014789010452438e-05,2.0506131450370042e-05,5.2731418371862376e-05,3.710446973678188e-05,6.1333,6.2
0.94140625,1.659798238803694e-05,1.269548093995576e-05,5.126868628061342e-05,3.515604281986726e-05,6.1333,6.2
0.9453125,1.8066362093537814e-05,1.659798238803694e-05,5.7616604699778754e-05,3.27106258487831e-05,6.1333,6.2
0.94921875,1.4643907856870384e-05,1.1227101234454882e-05,5.8102299525444426e-05,3.27106258487831e-05,6.1333,6.2
0.953125,1.3181175765621434e-05,2.439413458457323e-06,4.3943730595864815e-05,3.368766311436638e-05,6.1333,6.2
0.95703125,2.0506131450370042e-05,1.948071018539722e-06,3.417900555428398e-05,3.222493102311743e-05,6.1333,6.2
0.9609375,2.636270742961777e-05,9.76436914320593e-06,4.3943730595864815e-05,3.1247893757534155e-05,6.1333,6.2
0.96484375,2.7831087135118648e-05,2.7339744695201047e-05,3.857284944228276e-05,3.173358858319983e-05,6.1333,6.2
0.96875,3.075655131761655e-05,2.685404986953537e-05,3.368766311436638e-05,3.075655131761655e-05,6.1333,6.2
0.97265625,3.564173764553293e-05,2.246020598153659e-05,4.2966693330281535e-05,2.636270742961777e-05,6.1333,6.2
0.9765625,3.222493102311743e-05,3.0270856491950876e-05,4.9314611749446865e-05,2.8316781960784323e-05,6.1333,6.2
0.98046875,3.075655131761655e-05,4.2966693330281535e-05,4.9314611749446865e-05,3.173358858319983e-05,6.1333,6.2
0.984375,2.8808124400701924e-05,3.710446973678188e-05,4.3943730595864815e-05,3.466470037994965e-05,6.1333,6.2
0.98828125,2.7831087135118648e-05,3.613308008545053e-05,4.003558153353171e-05,3.368766311436638e-05,6.1333,6.2
0.9921875,3.173358858319983e-05,3.613308008545053e-05,4.980030657511254e-05,2.97851616662852e-05,6.1333,6.2
0.99609375,2.8316781960784323e-05,3.32019682887007e-05,5.370845563744565e-05,2.8316781960784323e-05,6.1333,6.2
1.0,2.97851616662852e-05,3.417900555428398e-05,4.3943730595864815e-05,2.92938192263676e-05,6.1333,6.2
1.00390625,3.222493102311743e-05,2.5877012603952095e-05,4.4429425421530487e-05,3.075655131761655e-05,6.1333,6.2
1.0078125,3.222493102311743e-05,2.4899975338368822e-05,4.101261879911499e-05,2.8316781960784323e-05,6.1333,6.2
1.01171875,2.97851616662852e-05,2.1968863541618994e-05,3.857284944228276e-05,2.7831087135118648e-05,6.1333,6.2
1.015625,2.685404986953537e-05,1.7575019653620213e-05,4.101261879911499e-05,3.368766311436638e-05,6.1333,6.2
1.01953125,2.8316781960784323e-05,2.0506131450370042e-05,3.613308008545053e-05,3.6618774911116205e-05,6.1333,6.2
1.0234375,2.685404986953537e-05,1.366687059128711e-05,4.052692397344931e-05,3.613308008545053e-05,6.1333,6.2
1.02734375,2.4414280512703147e-05,3.902145549706274e-06,4.003558153353171e-05,3.1247893757534155e-05,6.1333,6.2
1.03125,2.685404986953537e-05,7.81029461203938e-06,2.92938192263676e-05,2.8808124400701924e-05,6.1333,6.2
1.03515625,2.8808124400701924e-05,9.823289814602988e-07,2.92938192263676e-05,3.27106258487831e-05,6.1333,6.2
1.0390625,2.8808124400701924e-05,4.909865415426975e-07,3.0270856491950876e-05,3.173358858319983e-05,6.1333,6.2
1.04296875,3.075655131761655e-05,5.3705252552071515e-06,2.7831087135118648e-05,2.8316781960784323e-05,6.1333,6.2
1.046875,2.97851616662852e-05,6.347562520790427e-06,2.97851616662852e-05,2.8316781960784323e-05,6.1333,6.2
1.05078125,3.173358858319983e-05,1.4158213031204709e-05,3.417900555428398e-05,2.685404986953537e-05,6.1333,6.2
1.0546875,3.173358858319983e-05,1.855205691920349e-05,2.685404986953537e-05,2.246020598153659e-05,6.1333,6.2
1.05859375,2.7339744695201047e-05,2.2945900807202266e-05,2.0506131450370042e-05,2.2945900807202266e-05,6.1333,6.2
1.0625,2.5385670164034498e-05,2.685404986953537e-05,3.515604281986726e-05,2.5385670164034498e-05,6.1333,6.2
1.06640625,2.3922938072785543e-05,2.148316871595332e-05,3.613308008545053e-05,2.8808124400701924e-05,6.1333,6.2
1.0703125,2.3922938072785543e-05,2.7831087135118648e-05,2.3922938072785543e-05,3.368766311436638e-05,6.1333,6.2
1.07421875,2.5385670164034498e-05,3.710446973678188e-05,2.0506131450370042e-05,2.97851616662852e-05,6.1333,6.2
1.078125,2.636270742961777e-05,1.855205691920349e-05,2.685404986953537e-05,2.5877012603952095e-05,6.1333,6.2
1.08203125,2.7831087135118648e-05,7.318952172121777e-06,3.466470037994965e-05,3.173358858319983e-05,6.1333,6.2
1.0859375,2.8808124400701924e-05,6.347562520790427e-06,3.1247893757534155e-05,3.857284944228276e-05,6.1333,6.2
1.08984375,2.92938192263676e-05,9.27302670328833e-06,1.9037751744869165e-05,3.759581217669948e-05,6.1333,6.2
1.09375,2.636270742961777e-05,1.1718443674372483e-05,2.0506131450370042e-05,2.97851616662852e-05,6.1333,6.2
1.09765625,2.636270742961777e-05,8.295989437705053e-06,2.92938192263676e-05,2.5877012603952095e-05,6.1333,6.2
1.1015625,2.8808124400701924e-05,1.0250063968871605e-05,2.8808124400701924e-05,2.7339744695201047e-05,6.1333,6.2
1.10546875,3.0270856491950876e-05,1.1227101234454882e-05,2.92938192263676e-05,3.075655131761655e-05,6.1333,6.2
1.109375,3.1247893757534155e-05,1.366687059128711e-05,2.5877012603952095e-05,3.075655131761655e-05,6.1333,6.2
1.11328125,2.8808124400701924e-05,1.855205691920349e-05,2.5877012603952095e-05,3.27106258487831e-05,6.1333,6.2
1.1171875,2.4414280512703147e-05,2.4899975338368822e-05,4.198965606469826e-05,3.515604281986726e-05,6.1333,6.2
1.12109375,2.2945900807202266e-05,2.5385670164034498e-05,4.4429425421530487e-05,3.27106258487831e-05,6.1333,6.2
1.125,2.3922938072785543e-05,2.5877012603952095e-05,4.101261879911499e-05,3.1247893757534155e-05,6.1333,6.2
1.12890625,2.3922938072785543e-05,2.3922938072785543e-05,3.759581217669948e-05,2.97851616662852e-05,6.1333,6.2
1.1328125,2.3922938072785543e-05,2.3437243247119868e-05,3.222493102311743e-05,3.075655131761655e-05,6.1333,6.2
1.13671875,2.5877012603952095e-05,2.3437243247119868e-05,3.515604281986726e-05,2.97851616662852e-05,6.1333,6.2
1.140625,2.4414280512703147e-05,1.9037751744869165e-05,2.92938192263676e-05,2.5877012603952095e-05,6.1333,6.2
1.14453125,2.7339744695201047e-05,2.3922938072785543e-05,2.8808124400701924e-05,2.8808124400701924e-05,6.1333,6.2
1.1484375,3.0270856491950876e-05,2.0506131450370042e-05,2.7831087135118648e-05,3.27106258487831e-05,6.1333,6.2
1.15234375,2.97851616662852e-05,2.0991826276035717e-05,2.3437243247119868e-05,2.685404986953537e-05,6.1333,6.2
1.15625,3.1247893757534155e-05,3.905854426794843e-05,3.6618774911116205e-05,2.3922938072785543e-05,6.1333,6.2
1.16015625,2.8316781960784323e-05,2.7831087135118648e-05,3.808150700236516e-05,3.32019682887007e-05,6.1333,6.2
1.1640625,2.4414280512703147e-05,1.4680238071259735e-06,3.222493102311743e-05,4.052692397344931e-05,6.1333,6.2
1.16796875,2.148316871595332e-05,1.4680238071259735e-06,4.198965606469826e-05,3.905854426794843e-05,6.1333,6.2
1.171875,1.8066362093537814e-05,2.8316781960784323e-05,6.054206888227666e-05,4.052692397344931e-05,6.1333,6.2
1.17578125,1.9529094184786762e-05,4.83375744838636e-05,6.933540427252614e-05,3.857284944228276e-05,6.1333,6.2
1.1796875,2.246020598153659e-05,4.247535089036394e-05,5.712526225986115e-05,3.0270856491950876e-05,6.1333,6.2
1.18359375,2.636270742961777e-05,3.954988670786604e-05,4.2966693330281535e-05,2.246020598153659e-05,6.1333,6.2
1.1875,2.7831087135118648e-05,4.052692397344931e-05,4.052692397344931e-05,2.2945900807202266e-05,6.1333,6.2
1.19140625,3.0270856491950876e-05,4.882326930952927e-05,4.687484239261464e-05,2.7831087135118648e-05,6.1333,6.2
1.1953125,2.97851616662852e-05,4.150396123903259e-05,5.1754381106279096e-05,2.8808124400701924e-05,6.1333,6.2
1.19921875,2.4899975338368822e-05,3.466470037994965e-05,5.1754381106279096e-05,2.92938192263676e-05,6.1333,6.2
1.203125,2.5385670164034498e-05,3.515604281986726e-05,5.2731418371862376e-05,3.27106258487831e-05,6.1333,6.2
1.20703125,2.685404986953537e-05,3.515604281986726e-05,4.83375744838636e-05,3.466470037994965e-05,6.1333,6.2
1.2109375,2.5877012603952095e-05,3.417900555428398e-05,4.882326930952927e-05,3.368766311436638e-05,6.1333,6.2
1.21484375,2.5385670164034498e-05,3.0270856491950876e-05,4.83375744838636e-05,3.613308008545053e-05,6.1333,6.2
1.21875,2.8316781960784323e-05,2.7831087135118648e-05,5.322276081177998e-05,3.368766311436638e-05,6.1333,6.2
1.22265625,3.1247893757534155e-05,3.075655131761655e-05,5.956503161669338e-05,3.0270856491950876e-05,6.1333,6.2
1.2265625,3.368766311436638e-05,3.173358858319983e-05,5.2731418371862376e-05,2.8316781960784323e-05,6.1333,6.2
1.23046875,3.222493102311743e-05,2.5877012603952095e-05,4.5406462687113766e-05,2.8808124400701924e-05,6.1333,6.2
1.234375,2.8316781960784323e-05,2.7831087135118648e-05,4.784623204394599e-05,3.173358858319983e-05,6.1333,6.2
1.23828125,2.8808124400701924e-05,3.417900555428398e-05,5.1754381106279096e-05,2.97851616662852e-05,6.1333,6.2
1.2421875,3.222493102311743e-05,3.515604281986726e-05,5.22457235461967e-05,2.7831087135118648e-05,6.1333,6.2
1.24609375,3.368766311436638e-05,3.857284944228276e-05,5.517118772869459e-05,2.92938192263676e-05,6.1333,6.2
1.25,3.222493102311743e-05,3.368766311436638e-05,5.126868628061342e-05,2.8808124400701924e-05,6.1333,6.2
1.25390625,3.1247893757534155e-05,2.4899975338368822e-05,3.954988670786604e-05,2.636270742961777e-05,6.1333,6.2
1.2578125,2.7831087135118648e-05,2.8316781960784323e-05,3.6618774911116205e-05,2.8316781960784323e-05,6.1333,6.2
1.26171875,2.2945900807202266e-05,2.97851616662852e-05,3.905854426794843e-05,2.685404986953537e-05,6.1333,6.2
1.265625,2.8808124400701924e-05,2.4899975338368822e-05,3.710446973678188e-05,2.92938192263676e-05,6.1333,6.2
1.26953125,3.515604281986726e-05,2.3437243247119868e-05,4.9314611749446865e-05,3.32019682887007e-05,6.1333,6.2
1.2734375,3.27106258487831e-05,2.3437243247119868e-05,5.712526225986115e-05,2.8808124400701924e-05,6.1333,6.2
1.27734375,3.173358858319983e-05,3.075655131761655e-05,4.247535089036394e-05,2.685404986953537e-05,6.1333,6.2
1.28125,3.0270856491950876e-05,3.32019682887007e-05,4.198965606469826e-05,3.27106258487831e-05,6.1333,6.2
1.28515625,2.685404986953537e-05,2.685404986953537e-05,4.589780512703137e-05,3.466470037994965e-05,6.1333,6.2
1.2890625,2.4899975338368822e-05,3.075655131761655e-05,4.492076786144809e-05,3.417900555428398e-05,6.1333,6.2
1.29296875,2.4414280512703147e-05,3.808150700236516e-05,4.83375744838636e-05,3.466470037994965e-05,6.1333,6.2
1.296875,2.4899975338368822e-05,3.564173764553293e-05,5.126868628061342e-05,3.466470037994965e-05,6.1333,6.2
1.30078125,2.7339744695201047e-05,3.368766311436638e-05,4.492076786144809e-05,3.466470037994965e-05,6.1333,6.2
1.3046875,2.92938192263676e-05,3.173358858319983e-05,4.345238815594721e-05,3.0270856491950876e-05,6.1333,6.2
1.30859375,3.222493102311743e-05,3.0270856491950876e-05,4.4429425421530487e-05,3.075655131761655e-05,6.1333,6.2
1.3125,3.32019682887007e-05,3.417900555428398e-05,4.492076786144809e-05,3.27106258487831e-05,6.1333,6.2
1.31640625,3.222493102311743e-05,3.173358858319983e-05,4.980030657511254e-05,3.1247893757534155e-05,6.1333,6.2
1.3203125,3.1247893757534155e-05,2.92938192263676e-05,5.0777343840695816e-05,3.1247893757534155e-05,6.1333,6.2
1.32421875,3.27106258487831e-05,2.92938192263676e-05,4.101261879911499e-05,2.7339744695201047e-05,6.1333,6.2
1.328125,3.613308008545053e-05,3.417900555428398e-05,3.6618774911116205e-05,2.8316781960784323e-05,6.1333,6.2
1.33203125,3.466470037994965e-05,3.222493102311743e-05,4.3943730595864815e-05,3.27106258487831e-05,6.1333,6.2
1.3359375,3.417900555428398e-05,2.5385670164034498e-05,4.3943730595864815e-05,3.515604281986726e-05,6.1333,6.2
1.33984375,3.173358858319983e-05,3.32019682887007e-05,4.052692397344931e-05,3.564173764553293e-05,6.1333,6.2
1.34375,2.92938192263676e-05,3.27106258487831e-05,4.784623204394599e-05,3.466470037994965e-05,6.1333,6.2
1.34765625,3.173358858319983e-05,2.5385670164034498e-05,3.905854426794843e-05,3.564173764553293e-05,6.1333,6.2
1.3515625,3.075655131761655e-05,2.4414280512703147e-05,3.368766311436638e-05,4.003558153353171e-05,6.1333,6.2
1.35546875,2.8316781960784323e-05,2.5385670164034498e-05,3.954988670786604e-05,4.052692397344931e-05,6.1333,6.2
1.359375,2.7339744695201047e-05,2.8316781960784323e-05,4.150396123903259e-05,3.6618774911116205e-05,6.1333,6.2
1.36328125,2.92938192263676e-05,2.636270742961777e-05,4.736053721828032e-05,3.515604281986726e-05,6.1333,6.2
1.3671875,2.8808124400701924e-05,2.4414280512703147e-05,3.954988670786604e-05,3.32019682887007e-05,6.1333,6.2
1.37109375,2.7831087135118648e-05,2.92938192263676e-05,3.417900555428398e-05,3.075655131761655e-05,6.1333,6.2
1.375,2.685404986953537e-05,3.515604281986726e-05,3.857284944228276e-05,3.1247893757534155e-05,6.1333,6.2
1.37890625,2.5877012603952095e-05,3.27106258487831e-05,3.857284944228276e-05,2.92938192263676e-05,6.1333,6.2
1.3828125,2.7831087135118648e-05,2.685404986953537e-05,4.052692397344931e-05,2.92938192263676e-05,6.1333,6.2
1.38671875,2.7831087135118648e-05,2.8316781960784323e-05,4.492076786144809e-05,3.0270856491950876e-05,6.1333,6.2
1.390625,2.685404986953537e-05,3.466470037994965e-05,4.3943730595864815e-05,2.8808124400701924e-05,6.1333,6.2
1.39453125,2.7339744695201047e-05,4.345238815594721e-05,4.247535089036394e-05,2.7339744695201047e-05,6.1333,6.2
1.3984375,2.7339744695201047e-05,4.4429425421530487e-05,4.83375744838636e-05,2.7831087135118648e-05,6.1333,6.2
1.40234375,3.075655131761655e-05,3.515604281986726e-05,4.83375744838636e-05,2.97851616662852e-05,6.1333,6.2
1.40625,3.515604281986726e-05,3.173358858319983e-05,3.710446973678188e-05,2.7831087135118648e-05,6.1333,6.2
1.41015625,3.564173764553293e-05,3.466470037994965e-05,3.27106258487831e-05,3.0270856491950876e-05,6.1333,6.2
1.4140625,3.32019682887007e-05,3.173358858319983e-05,3.368766311436638e-05,2.97851616662852e-05,6.1333,6.2
1.41796875,2.92938192263676e-05,3.27106258487831e-05,4.101261879911499e-05,3.1247893757534155e-05,6.1333,6.2
1.421875,2.8316781960784323e-05,2.8316781960784323e-05,4.83375744838636e-05,3.075655131761655e-05,6.1333,6.2
1.42578125,2.7339744695201047e-05,2.0991826276035717e-05,4.4429425421530487e-05,2.92938192263676e-05,6.1333,6.2
1.4296875,2.2945900807202266e-05,1.9529094184786762e-05,3.466470037994965e-05,3.222493102311743e-05,6.1333,6.2
1.43359375,2.4899975338368822e-05,1.7575019653620213e-05,3.0270856491950876e-05,3.32019682887007e-05,6.1333,6.2
1.4375,2.685404986953537e-05,1.7089324827954538e-05,3.466470037994965e-05,3.27106258487831e-05,6.1333,6.2
1.44140625,2.7831087135118648e-05,1.7089324827954538e-05,4.980030657511254e-05,3.0270856491950876e-05,6.1333,6.2
1.4453125,2.7831087135118648e-05,2.4899975338368822e-05,4.150396123903259e-05,2.8808124400701924e-05,6.1333,6.2
1.44921875,2.7339744695201047e-05,3.1247893757534155e-05,2.8808124400701924e-05,2.8808124400701924e-05,6.1333,6.2
1.453125,2.8808124400701924e-05,2.7831087135118648e-05,3.564173764553293e-05,3.0270856491950876e-05,6.1333,6.2
1.45703125,2.8808124400701924e-05,2.3437243247119868e-05,3.954988670786604e-05,3.075655131761655e-05,6.1333,6.2
1.4609375,2.8808124400701924e-05,2.2945900807202266e-05,3.857284944228276e-05,3.0270856491950876e-05,6.1333,6.2
1.46484375,3.222493102311743e-05,2.0506131450370042e-05,3.564173764553293e-05,2.636270742961777e-05,6.1333,6.2
1.46875,2.8316781960784323e-05,2.5385670164034498e-05,3.808150700236516e-05,2.246020598153659e-05,6.1333,6.2
1.47265625,2.2945900807202266e-05,2.8808124400701924e-05,3.759581217669948e-05,2.4899975338368822e-05,6.1333,6.2
1.4765625,3.173358858319983e-05,2.97851616662852e-05,3.417900555428398e-05,2.92938192263676e-05,6.1333,6.2
1.48046875,3.759581217669948e-05,3.32019682887007e-05,4.2966693330281535e-05,2.8808124400701924e-05,6.1333,6.2
1.484375,3.6618774911116205e-05,2.8808124400701924e-05,4.492076786144809e-05,2.7339744695201047e-05,6.1333,6.2
1.48828125,3.222493102311743e-05,2.97851616662852e-05,3.954988670786604e-05,2.7339744695201047e-05,6.1333,6.2
1.4921875,3.173358858319983e-05,3.1247893757534155e-05,4.9314611749446865e-05,2.97851616662852e-05,6.1333,6.2
1.49609375,3.222493102311743e-05,3.222493102311743e-05,4.150396123903259e-05,3.32019682887007e-05,6.1333,6.2
1.5,3.075655131761655e-05,3.515604281986726e-05,2.97851616662852e-05,3.27106258487831e-05,6.1333,6.2
1.50390625,2.92938192263676e-05,2.97851616662852e-05,3.808150700236516e-05,3.173358858319983e-05,6.1333,6.2
1.5078125,3.0270856491950876e-05,3.222493102311743e-05,5.0777343840695816e-05,2.8808124400701924e-05,6.1333,6.2
1.51171875,3.515604281986726e-05,3.808150700236516e-05,5.322276081177998e-05,2.8808124400701924e-05,6.1333,6.2
1.515625,3.222493102311743e-05,3.417900555428398e-05,4.492076786144809e-05,3.27106258487831e-05,6.1333,6.2
1.51953125,3.173358858319983e-05,2.3437243247119868e-05,3.564173764553293e-05,3.417900555428398e-05,6.1333,6.2
1.5234375,2.8808124400701924e-05,1.366687059128711e-05,3.27106258487831e-05,3.564173764553293e-05,6.1333,6.2
1.52734375,2.7339744695201047e-05,2.0014789010452438e-05,3.222493102311743e-05,3.564173764553293e-05,6.1333,6.2
1.53125,2.8316781960784323e-05,2.246020598153659e-05,3.1247893757534155e-05,3.466470037994965e-05,6.1333,6.2
1.53515625,2.7339744695201047e-05,2.3437243247119868e-05,3.759581217669948e-05,3.27106258487831e-05,6.1333,6.2
1.5390625,2.8808124400701924e-05,2.685404986953537e-05,4.589780512703137e-05,3.27106258487831e-05,6.1333,6.2
1.54296875,2.7831087135118648e-05,3.0270856491950876e-05,4.638349995269704e-05,3.0270856491950876e-05,6.1333,6.2
1.546875,2.636270742961777e-05,2.3922938072785543e-05,4.882326930952927e-05,2.7339744695201047e-05,6.1333,6.2
1.55078125,2.5877012603952095e-05,2.1968863541618994e-05,4.003558153353171e-05,2.8316781960784323e-05,6.1333,6.2
1.5546875,2.4414280512703147e-05,2.7831087135118648e-05,3.515604281986726e-05,3.1247893757534155e-05,6.1333,6.2
1.55859375,3.27106258487831e-05,3.222493102311743e-05,4.2966693330281535e-05,3.075655131761655e-05,6.1333,6.2
1.5625,3.954988670786604e-05,3.32019682887007e-05,5.126868628061342e-05,2.92938192263676e-05,6.1333,6.2
1.56640625,3.857284944228276e-05,2.97851616662852e-05,4.736053721828032e-05,2.97851616662852e-05,6.1333,6.2
1.5703125,3.857284944228276e-05,3.710446973678188e-05,3.6618774911116205e-05,2.8316781960784323e-05,6.1333,6.2
1.57421875,3.466470037994965e-05,3.905854426794843e-05,4.3943730595864815e-05,2.8316781960784323e-05,6.1333,6.2
1.578125,3.27106258487831e-05,4.003558153353171e-05,4.101261879911499e-05,2.97851616662852e-05,6.1333,6.2
1.58203125,3.368766311436638e-05,5.322276081177998e-05,3.808150700236516e-05,2.97851616662852e-05,6.1333,6.2
1.5859375,3.27106258487831e-05,5.22457235461967e-05,5.126868628061342e-05,2.92938192263676e-05,6.1333,6.2
1.58984375,3.1247893757534155e-05,4.589780512703137e-05,5.9079336791027705e-05,2.636270742961777e-05,6.1333,6.2
1.59375,3.515604281986726e-05,4.198965606469826e-05,4.736053721828032e-05,2.685404986953537e-05,6.1333,6.2
1.59765625,3.32019682887007e-05,4.198965606469826e-05,4.638349995269704e-05,2.8316781960784323e-05,6.1333,6.2
1.6015625,3.0270856491950876e-05,3.759581217669948e-05,4.589780512703137e-05,2.5385670164034498e-05,6.1333,6.2
1.60546875,3.368766311436638e-05,3.1247893757534155e-05,4.3943730595864815e-05,2.636270742961777e-05,6.1333,6.2
1.609375,3.32019682887007e-05,3.368766311436638e-05,4.687484239261464e-05,2.8808124400701924e-05,6.1333,6.2
1.61328125,2.8316781960784323e-05,4.150396123903259e-05,4.150396123903259e-05,2.8808124400701924e-05,6.1333,6.2
1.6171875,2.685404986953537e-05,3.710446973678188e-05,4.589780512703137e-05,2.92938192263676e-05,6.1333,6.2
1.62109375,2.5877012603952095e-05,2.3922938072785543e-05,4.247535089036394e-05,3.0270856491950876e-05,6.1333,6.2
1.625,2.8316781960784323e-05,3.1247893757534155e-05,4.150396123903259e-05,3.0270856491950876e-05,6.1333,6.2
1.62890625,3.1247893757534155e-05,3.368766311436638e-05,5.0777343840695816e-05,3.222493102311743e-05,6.1333,6.2
1.6328125,3.075655131761655e-05,3.466470037994965e-05,4.9314611749446865e-05,3.0270856491950876e-05,6.1333,6.2
1.63671875,2.8316781960784323e-05,3.710446973678188e-05,5.2731418371862376e-05,2.7831087135118648e-05,6.1333,6.2
1.640625,3.0270856491950876e-05,3.368766311436638e-05,5.956503161669338e-05,2.97851616662852e-05,6.1333,6.2
1.64453125,3.1247893757534155e-05,3.27106258487831e-05,5.370845563744565e-05,2.8316781960784323e-05,6.1333,6.2
1.6484375,2.8316781960784323e-05,3.515604281986726e-05,4.5406462687113766e-05,2.7831087135118648e-05,6.1333,6.2
1.65234375,3.1247893757534155e-05,4.687484239261464e-05,3.954988670786604e-05,2.7831087135118648e-05,6.1333,6.2
1.65625,2.8316781960784323e-05,4.150396123903259e-05,5.712526225986115e-05,2.7339744695201047e-05,6.1333,6.2
1.66015625,2.2945900807202266e-05,2.8808124400701924e-05,6.347318067902648e-05,2.4899975338368822e-05,6.1333,6.2
1.6640625,3.1247893757534155e-05,2.8808124400701924e-05,4.150396123903259e-05,2.148316871595332e-05,6.1333,6.2
1.66796875,3.710446973678188e-05,2.636270742961777e-05,3.368766311436638e-05,2.4414280512703147e-05,6.1333,6.2
1.671875,3.515604281986726e-05,2.5877012603952095e-05,3.368766311436638e-05,3.0270856491950876e-05,6.1333,6.2
1.67578125,3.32019682887007e-05,2.92938192263676e-05,2.1968863541618994e-05,3.075655131761655e-05,6.1333,6.2
1.6796875,3.32019682887007e-05,2.7339744695201047e-05,1.855205691920349e-05,2.685404986953537e-05,6.1333,6.2
1.68359375,3.173358858319983e-05,2.8808124400701924e-05,2.8808124400701924e-05,2.3922938072785543e-05,6.1333,6.2
1.6875,2.8808124400701924e-05,3.27106258487831e-05,3.710446973678188e-05,2.636270742961777e-05,6.1333,6.2
1.69140625,3.222493102311743e-05,2.5877012603952095e-05,4.150396123903259e-05,3.075655131761655e-05,6.1333,6.2
1.6953125,3.32019682887007e-05,1.562094512245366e-05,4.687484239261464e-05,2.92938192263676e-05,6.1333,6.2
1.69921875,3.1247893757534155e-05,2.685404986953537e-05,4.492076786144809e-05,2.636270742961777e-05,6.1333,6.2
1.703125,3.417900555428398e-05,3.564173764553293e-05,4.784623204394599e-05,2.4899975338368822e-05,6.1333,6.2
1.70703125,3.6618774911116205e-05,3.222493102311743e-05,3.857284944228276e-05,2.4414280512703147e-05,6.1333,6.2
1.7109375,3.075655131761655e-05,3.954988670786604e-05,2.685404986953537e-05,2.685404986953537e-05,6.1333,6.2
1.71484375,2.7831087135118648e-05,4.589780512703137e-05,4.003558153353171e-05,2.92938192263676e-05,6.1333,6.2
1.71875,3.075655131761655e-05,4.3943730595864815e-05,5.2731418371862376e-05,3.0270856491950876e-05,6.1333,6.2
1.72265625,3.1247893757534155e-05,3.075655131761655e-05,4.589780512703137e-05,3.075655131761655e-05,6.1333,6.2
1.7265625,2.7339744695201047e-05,2.1968863541618994e-05,2.7831087135118648e-05,2.685404986953537e-05,6.1333,6.2
1.73046875,2.5385670164034498e-05,2.7339744695201047e-05,2.3922938072785543e-05,2.7339744695201047e-05,6.1333,6.2
1.734375,2.636270742961777e-05,3.32019682887007e-05,3.954988670786604e-05,2.7339744695201047e-05,6.1333,6.2
1.73828125,3.1247893757534155e-05,3.6618774911116205e-05,4.492076786144809e-05,2.5385670164034498e-05,6.1333,6.2
1.7421875,3.6618774911116205e-05,3.466470037994965e-05,2.685404986953537e-05,2.92938192263676e-05,6.1333,6.2
1.74609375,3.515604281986726e-05,3.075655131761655e-05,2.3437243247119868e-05,2.636270742961777e-05,6.1333,6.2
1.75,3.417900555428398e-05,2.3437243247119868e-05,3.417900555428398e-05,2.246020598153659e-05,6.1333,6.2
1.75390625,3.32019682887007e-05,2.246020598153659e-05,3.075655131761655e-05,2.7339744695201047e-05,6.1333,6.2
1.7578125,3.466470037994965e-05,2.8316781960784323e-05,2.92938192263676e-05,2.8808124400701924e-05,6.1333,6.2
1.76171875,3.32019682887007e-05,2.92938192263676e-05,3.808150700236516e-05,2.7339744695201047e-05,6.1333,6.2
1.765625,3.0270856491950876e-05,2.685404986953537e-05,3.954988670786604e-05,2.3437243247119868e-05,6.1333,6.2
1.76953125,3.1247893757534155e-05,2.5877012603952095e-05,3.613308008545053e-05,1.9529094184786762e-05,6.1333,6.2
1.7734375,3.1247893757534155e-05,2.4899975338368822e-05,3.417900555428398e-05,2.148316871595332e-05,6.1333,6.2
1.77734375,3.368766311436638e-05,2.8316781960784323e-05,4.101261879911499e-05,2.4414280512703147e-05,6.1333,6.2
1.78125,3.6618774911116205e-05,3.173358858319983e-05,4.3943730595864815e-05,2.1968863541618994e-05,6.1333,6.2
1.78515625,3.417900555428398e-05,2.3437243247119868e-05,3.564173764553293e-05,2.246020598153659e-05,6.1333,6.2
1.7890625,3.27106258487831e-05,2.0014789010452438e-05,4.101261879911499e-05,2.5385670164034498e-05,6.1333,6.2
1.79296875,3.32019682887007e-05,2.3922938072785543e-05,4.345238815594721e-05,2.5385670164034498e-05,6.1333,6.2
1.796875,3.075655131761655e-05,2.0991826276035717e-05,4.150396123903259e-05,2.8808124400701924e-05,6.1333,6.2
1.80078125,2.8808124400701924e-05,2.246020598153659e-05,4.492076786144809e-05,3.075655131761655e-05,6.1333,6.2
1.8046875,3.0270856491950876e-05,2.8808124400701924e-05,3.613308008545053e-05,2.7831087135118648e-05,6.1333,6.2
1.80859375,3.222493102311743e-05,2.685404986953537e-05,3.417900555428398e-05,2.4899975338368822e-05,6.1333,6.2
1.8125,3.515604281986726e-05,2.8808124400701924e-05,5.0291649015030144e-05,2.3437243247119868e-05,6.1333,6.2
1.81640625,3.515604281986726e-05,4.003558153353171e-05,5.6639567434195474e-05,2.3922938072785543e-05,6.1333,6.2
1.8203125,3.417900555428398e-05,4.247535089036394e-05,3.857284944228276e-05,1.9529094184786762e-05,6.1333,6.2
1.82421875,3.0270856491950876e-05,3.710446973678188e-05,2.7339744695201047e-05,1.7575019653620213e-05,6.1333,6.2
1.828125,2.5385670164034498e-05,3.808150700236516e-05,3.27106258487831e-05,1.9529094184786762e-05,6.1333,6.2
1.83203125,2.636270742961777e-05,3.759581217669948e-05,4.3943730595864815e-05,2.148316871595332e-05,6.1333,6.2
1.8359375,2.5385670164034498e-05,3.222493102311743e-05,4.736053721828032e-05,2.3922938072785543e-05,6.1333,6.2
1.83984375,2.246020598153659e-05,3.075655131761655e-05,3.808150700236516e-05,2.7831087135118648e-05,6.1333,6.2
1.84375,2.4414280512703147e-05,2.0014789010452438e-05,4.052692397344931e-05,2.92938192263676e-05,6.1333,6.2
1.84765625,2.7339744695201047e-05,1.1227101234454882e-05,3.857284944228276e-05,2.7339744695201047e-05,6.1333,6.2
1.8515625,3.075655131761655e-05,1.5135250296787987e-05,3.710446973678188e-05,2.5385670164034498e-05,6.1333,6.2
1.85546875,3.32019682887007e-05,2.0014789010452438e-05,3.857284944228276e-05,2.3922938072785543e-05,6.1333,6.2
1.859375,3.222493102311743e-05,2.148316871595332e-05,4.003558153353171e-05,2.246020598153659e-05,6.1333,6.2
1.86328125,3.173358858319983e-05,2.148316871595332e-05,4.687484239261464e-05,2.5385670164034498e-05,6.1333,6.2
1.8671875,2.92938192263676e-05,2.246020598153659e-05,4.345238815594721e-05,2.8316781960784323e-05,6.1333,6.2
1.87109375,2.7339744695201047e-05,2.3922938072785543e-05,3.564173764553293e-05,2.5385670164034498e-05,6.1333,6.2
1.875,2.636270742961777e-05,2.2945900807202266e-05,3.466470037994965e-05,2.8316781960784323e-05,6.1333,6.2
1.87890625,2.5877012603952095e-05,2.3922938072785543e-05,3.808150700236516e-05,3.075655131761655e-05,6.1333,6.2
1.8828125,2.8316781960784323e-05,2.0506131450370042e-05,3.417900555428398e-05,2.8808124400701924e-05,6.1333,6.2
1.88671875,2.7831087135118648e-05,1.659798238803694e-05,3.27106258487831e-05,2.7831087135118648e-05,6.1333,6.2
1.890625,2.7339744695201047e-05,2.4899975338368822e-05,3.954988670786604e-05,2.4899975338368822e-05,6.1333,6.2
1.89453125,3.1247893757534155e-05,3.27106258487831e-05,4.492076786144809e-05,2.685404986953537e-05,6.1333,6.2
1.8984375,3.27106258487831e-05,3.808150700236516e-05,4.3943730595864815e-05,2.3437243247119868e-05,6.1333,6.2
1.90234375,3.27106258487831e-05,4.247535089036394e-05,4.492076786144809e-05,1.855205691920349e-05,6.1333,6.2
1.90625,3.0270856491950876e-05,4.247535089036394e-05,4.2966693330281535e-05,2.4414280512703147e-05,6.1333,6.2
1.91015625,2.8808124400701924e-05,4.101261879911499e-05,3.515604281986726e-05,2.5877012603952095e-05,6.1333,6.2
1.9140625,2.7831087135118648e-05,3.6618774911116205e-05,4.101261879911499e-05,2.148316871595332e-05,6.1333,6.2
1.91796875,2.3437243247119868e-05,3.613308008545053e-05,5.0777343840695816e-05,2.0506131450370042e-05,6.1333,6.2
1.921875,2.246020598153659e-05,3.32019682887007e-05,4.638349995269704e-05,2.3437243247119868e-05,6.1333,6.2
1.92578125,2.3922938072785543e-05,2.4899975338368822e-05,2.636270742961777e-05,2.7339744695201047e-05,6.1333,6.2
1.9296875,2.636270742961777e-05,2.8316781960784323e-05,2.685404986953537e-05,2.685404986953537e-05,6.1333,6.2
1.93359375,2.4899975338368822e-05,2.3437243247119868e-05,3.32019682887007e-05,2.636270742961777e-05,6.1333,6.2
1.9375,2.3437243247119868e-05,2.246020598153659e-05,3.613308008545053e-05,2.7339744695201047e-05,6.1333,6.2
1.94140625,2.2945900807202266e-05,2.8316781960784323e-05,3.368766311436638e-05,2.7339744695201047e-05,6.1333,6.2
1.9453125,2.2945900807202266e-05,2.2945900807202266e-05,3.173358858319983e-05,2.8316781960784323e-05,6.1333,6.2
1.94921875,2.4414280512703147e-05,2.8808124400701924e-05,3.6618774911116205e-05,3.075655131761655e-05,6.1333,6.2
1.953125,2.685404986953537e-05,3.613308008545053e-05,3.32019682887007e-05,3.173358858319983e-05,6.1333,6.2
1.95703125,3.075655131761655e-05,3.0270856491950876e-05,4.247535089036394e-05,3.222493102311743e-05,6.1333,6.2
1.9609375,3.173358858319983e-05,3.368766311436638e-05,5.126868628061342e-05,3.173358858319983e-05,6.1333,6.2
1.96484375,3.075655131761655e-05,3.759581217669948e-05,4.003558153353171e-05,2.92938192263676e-05,6.1333,6.2
1.96875,2.7339744695201047e-05,2.7339744695201047e-05,3.417900555428398e-05,2.7339744695201047e-05,6.1333,6.2
1.97265625,2.4414280512703147e-05,2.7339744695201047e-05,3.173358858319983e-05,2.5877012603952095e-05,6.1333,6.2
1.9765625,2.5877012603952095e-05,3.564173764553293e-05,3.0270856491950876e-05,2.3922938072785543e-05,6.1333,6.2
1.98046875,2.8316781960784323e-05,3.466470037994965e-05,3.32019682887007e-05,2.8808124400701924e-05,6.1333,6.2
1.984375,2.8316781960784323e-05,3.222493102311743e-05,2.8808124400701924e-05,3.0270856491950876e-05,6.1333,6.2
1.98828125,2.8316781960784323e-05,2.8808124400701924e-05,2.4414280512703147e-05,2.7339744695201047e-05,6.1333,6.2
1.9921875,2.92938192263676e-05,3.6618774911116205e-05,3.27106258487831e-05,2.4899975338368822e-05,6.1333,6.2
1.99609375,3.222493102311743e-05,4.589780512703137e-05,4.2966693330281535e-05,2.5385670164034498e-05,6.1333,6.2
2.0,3.27106258487831e-05,4.2966693330281535e-05,4.980030657511254e-05,2.7831087135118648e-05,6.1333,6.2
2.00390625,2.685404986953537e-05,4.589780512703137e-05,4.638349995269704e-05,2.685404986953537e-05,6.1333,6.2
2.0078125,2.3922938072785543e-05,4.4429425421530487e-05,4.736053721828032e-05,2.7831087135118648e-05,6.1333,6.2
2.01171875,2.5385670164034498e-05,3.710446973678188e-05,4.83375744838636e-05,3.0270856491950876e-05,6.1333,6.2
2.015625,3.075655131761655e-05,3.905854426794843e-05,3.954988670786604e-05,3.075655131761655e-05,6.1333,6.2
2.01953125,3.27106258487831e-05,3.515604281986726e-05,3.710446973678188e-05,3.173358858319983e-05,6.1333,6.2
2.0234375,3.1247893757534155e-05,2.7831087135118648e-05,4.003558153353171e-05,3.1247893757534155e-05,6.1333,6.2
2.02734375,3.173358858319983e-05,2.4899975338368822e-05,4.3943730595864815e-05,3.0270856491950876e-05,6.1333,6.2
2.03125,2.8316781960784323e-05,2.636270742961777e-05,3.1247893757534155e-05,3.075655131761655e-05,6.1333,6.2
2.03515625,2.685404986953537e-05,3.27106258487831e-05,2.8316781960784323e-05,2.97851616662852e-05,6.1333,6.2
2.0390625,2.8808124400701924e-05,3.32019682887007e-05,3.808150700236516e-05,2.7339744695201047e-05,6.1333,6.2
2.04296875,3.0270856491950876e-05,3.27106258487831e-05,3.759581217669948e-05,2.3437243247119868e-05,6.1333,6.2
2.046875,3.075655131761655e-05,3.27106258487831e-05,3.515604281986726e-05,2.3922938072785543e-05,6.1333,6.2
2.05078125,3.075655131761655e-05,3.1247893757534155e-05,3.222493102311743e-05,2.636270742961777e-05,6.1333,6.2
2.0546875,2.8808124400701924e-05,3.173358858319983e-05,3.1247893757534155e-05,2.92938192263676e-05,6.1333,6.2
2.05859375,3.075655131761655e-05,2.92938192263676e-05,3.1247893757534155e-05,2.92938192263676e-05,6.1333,6.2
2.0625,3.173358858319983e-05,2.7339744695201047e-05,2.97851616662852e-05,2.8316781960784323e-05,6.1333,6.2
2.06640625,2.8316781960784323e-05,2.5877012603952095e-05,2.97851616662852e-05,2.8808124400701924e-05,6.1333,6.2
2.0703125,2.92938192263676e-05,2.8808124400701924e-05,2.92938192263676e-05,2.636270742961777e-05,6.1333,6.2
2.07421875,3.075655131761655e-05,3.27106258487831e-05,2.92938192263676e-05,2.5385670164034498e-05,6.1333,6.2
2.078125,3.1247893757534155e-05,3.466470037994965e-05,3.417900555428398e-05,2.5385670164034498e-05,6.1333,6.2
2.08203125,3.0270856491950876e-05,3.32019682887007e-05,3.857284944228276e-05,2.246020598153659e-05,6.1333,6.2
2.0859375,2.97851616662852e-05,3.417900555428398e-05,3.27106258487831e-05,2.3437243247119868e-05,6.1333,6.2
2.08984375,3.27106258487831e-05,3.515604281986726e-05,2.8316781960784323e-05,2.5877012603952095e-05,6.1333,6.2
2.09375,3.075655131761655e-05,2.8808124400701924e-05,3.466470037994965e-05,2.7831087135118648e-05,6.1333,6.2
2.09765625,3.32019682887007e-05,2.97851616662852e-05,4.784623204394599e-05,2.97851616662852e-05,6.1333,6.2
2.1015625,3.564173764553293e-05,3.075655131761655e-05,3.905854426794843e-05,2.8808124400701924e-05,6.1333,6.2
2.10546875,3.1247893757534155e-05,3.368766311436638e-05,2.2945900807202266e-05,2.7339744695201047e-05,6.1333,6.2
2.109375,2.7339744695201047e-05,3.613308008545053e-05,4.345238815594721e-05,2.8316781960784323e-05,6.1333,6.2
2.11328125,2.97851616662852e-05,3.368766311436638e-05,5.9079336791027705e-05,2.92938192263676e-05,6.1333,6.2
2.1171875,3.0270856491950876e-05,3.564173764553293e-05,3.710446973678188e-05,2.8808124400701924e-05,6.1333,6.2
2.12109375,3.0270856491950876e-05,3.759581217669948e-05,2.4414280512703147e-05,2.5877012603952095e-05,6.1333,6.2
2.125,3.222493102311743e-05,3.466470037994965e-05,3.466470037994965e-05,2.5385670164034498e-05,6.1333,6.2
2.12890625,3.27106258487831e-05,3.417900555428398e-05,4.101261879911499e-05,2.97851616662852e-05,6.1333,6.2
2.1328125,3.32019682887007e-05,3.27106258487831e-05,3.564173764553293e-05,2.92938192263676e-05,6.1333,6.2
2.13671875,3.0270856491950876e-05,3.0270856491950876e-05,3.27106258487831e-05,2.5385670164034498e-05,6.1333,6.2
2.140625,2.8808124400701924e-05,3.173358858319983e-05,3.466470037994965e-05,2.8316781960784323e-05,6.1333,6.2
2.14453125,2.92938192263676e-05,3.417900555428398e-05,2.7339744695201047e-05,2.97851616662852e-05,6.1333,6.2
2.1484375,2.5877012603952095e-05,3.0270856491950876e-05,1.8066362093537814e-05,2.7831087135118648e-05,6.1333,6.2
2.15234375,2.636270742961777e-05,3.173358858319983e-05,2.4414280512703147e-05,2.7339744695201047e-05,6.1333,6.2
2.15625,2.8808124400701924e-05,3.222493102311743e-05,3.32019682887007e-05,3.1247893757534155e-05,6.1333,6.2
2.16015625,2.685404986953537e-05,2.5877012603952095e-05,3.515604281986726e-05,3.222493102311743e-05,6.1333,6.2
2.1640625,2.636270742961777e-05,2.4414280512703147e-05,3.905854426794843e-05,3.0270856491950876e-05,6.1333,6.2
2.16796875,2.636270742961777e-05,3.466470037994965e-05,3.6618774911116205e-05,3.27106258487831e-05,6.1333,6.2
2.171875,2.7831087135118648e-05,4.101261879911499e-05,3.613308008545053e-05,3.27106258487831e-05,6.1333,6.2
2.17578125,2.8316781960784323e-05,3.6618774911116205e-05,4.003558153353171e-05,3.0270856491950876e-05,6.1333,6.2
2.1796875,2.8316781960784323e-05,3.368766311436638e-05,3.564173764553293e-05,2.7831087135118648e-05,6.1333,6.2
2.18359375,3.222493102311743e-05,3.857284944228276e-05,3.564173764553293e-05,2.636270742961777e-05,6.1333,6.2
2.1875,3.222493102311743e-05,3.808150700236516e-05,3.27106258487831e-05,2.4414280512703147e-05,6.1333,6.2
2.19140625,3.0270856491950876e-05,3.075655131761655e-05,3.564173764553293e-05,2.685404986953537e-05,6.1333,6.2
2.1953125,3.0270856491950876e-05,3.075655131761655e-05,4.247535089036394e-05,2.97851616662852e-05,6.1333,6.2
2.19921875,3.075655131761655e-05,3.27106258487831e-05,4.003558153353171e-05,2.685404986953537e-05,6.1333,6.2
2.203125,3.27106258487831e-05,3.905854426794843e-05,3.808150700236516e-05,2.636270742961777e-05,6.1333,6.2
2.20703125,3.222493102311743e-05,3.515604281986726e-05,4.052692397344931e-05,2.636270742961777e-05,6.1333,6.2
2.2109375,3.173358858319983e-05,2.0991826276035717e-05,4.101261879911499e-05,2.636270742961777e-05,6.1333,6.2
2.21484375,3.222493102311743e-05,2.5385670164034498e-05,3.6618774911116205e-05,2.4414280512703147e-05,6.1333,6.2
2.21875,2.97851616662852e-05,2.685404986953537e-05,3.564173764553293e-05,2.246020598153659e-05,6.1333,6.2
2.22265625,2.4414280512703147e-05,2.3437243247119868e-05,3.1247893757534155e-05,2.3922938072785543e-05,6.1333,6.2
2.2265625,2.7339744695201047e-05,2.3437243247119868e-05,3.954988670786604e-05,2.7339744695201047e-05,6.1333,6.2
2.23046875,2.92938192263676e-05,2.7339744695201047e-05,3.368766311436638e-05,2.7831087135118648e-05,6.1333,6.2
2.234375,2.97851616662852e-05,3.222493102311743e-05,2.4414280512703147e-05,2.7339744695201047e-05,6.1333,6.2
2.23828125,3.0270856491950876e-05,2.92938192263676e-05,3.1247893757534155e-05,2.8316781960784323e-05,6.1333,6.2
2.2421875,2.8808124400701924e-05,2.92938192263676e-05,3.075655131761655e-05,2.685404986953537e-05,6.1333,6.2
2.24609375,2.8808124400701924e-05,3.27106258487831e-05,2.3922938072785543e-05,2.685404986953537e-05,6.1333,6.2
2.25,2.92938192263676e-05,2.7831087135118648e-05,2.0991826276035717e-05,2.4414280512703147e-05,6.1333,6.2
2.25390625,3.0270856491950876e-05,2.7831087135118648e-05,2.8808124400701924e-05,2.4414280512703147e-05,6.1333,6.2
2.2578125,2.97851616662852e-05,4.2966693330281535e-05,4.4429425421530487e-05,2.636270742961777e-05,6.1333,6.2
2.26171875,3.32019682887007e-05,4.589780512703137e-05,4.83375744838636e-05,2.8808124400701924e-05,6.1333,6.2
2.265625,3.075655131761655e-05,3.759581217669948e-05,3.857284944228276e-05,2.7831087135118648e-05,6.1333,6.2
2.26953125,2.7339744695201047e-05,3.905854426794843e-05,3.27106258487831e-05,2.5877012603952095e-05,6.1333,6.2
2.2734375,3.0270856491950876e-05,3.32019682887007e-05,3.27106258487831e-05,2.8316781960784323e-05,6.1333,6.2
2.27734375,3.173358858319983e-05,2.8316781960784323e-05,3.222493102311743e-05,2.97851616662852e-05,6.1333,6.2
2.28125,3.368766311436638e-05,2.97851616662852e-05,3.905854426794843e-05,2.97851616662852e-05,6.1333,6.2
2.28515625,3.27106258487831e-05,2.97851616662852e-05,4.101261879911499e-05,2.7339744695201047e-05,6.1333,6.2
2.2890625,3.0270856491950876e-05,3.1247893757534155e-05,3.759581217669948e-05,2.3922938072785543e-05,6.1333,6.2
2.29296875,2.92938192263676e-05,3.613308008545053e-05,4.83375744838636e-05,2.5385670164034498e-05,6.1333,6.2
2.296875,2.97851616662852e-05,4.150396123903259e-05,4.4429425421530487e-05,2.7339744695201047e-05,6.1333,6.2
2.30078125,3.466470037994965e-05,3.710446973678188e-05,2.97851616662852e-05,2.685404986953537e-05,6.1333,6.2
2.3046875,3.222493102311743e-05,2.4899975338368822e-05,2.685404986953537e-05,2.8808124400701924e-05,6.1333,6.2
2.30859375,3.1247893757534155e-05,2.0991826276035717e-05,2.148316871595332e-05,2.7339744695201047e-05,6.1333,6.2
2.3125,3.564173764553293e-05,2.1968863541618994e-05,2.246020598153659e-05,2.5877012603952095e-05,6.1333,6.2
2.31640625,3.32019682887007e-05,2.3922938072785543e-05,2.8316781960784323e-05,2.8316781960784323e-05,6.1333,6.2
2.3203125,2.8808124400701924e-05,3.27106258487831e-05,3.32019682887007e-05,2.636270742961777e-05,6.1333,6.2
2.32421875,2.92938192263676e-05,3.466470037994965e-05,4.3943730595864815e-05,2.5877012603952095e-05,6.1333,6.2
2.328125,3.515604281986726e-05,3.613308008545053e-05,4.247535089036394e-05,2.7831087135118648e-05,6.1333,6.2
2.33203125,3.564173764553293e-05,3.808150700236516e-05,3.564173764553293e-05,2.8808124400701924e-05,6.1333,6.2
2.3359375,3.173358858319983e-05,3.6618774911116205e-05,3.075655131761655e-05,2.8316781960784323e-05,6.1333,6.2
2.33984375,2.97851616662852e-05,3.808150700236516e-05,3.515604281986726e-05,2.8808124400701924e-05,6.1333,6.2
2.34375,3.1247893757534155e-05,2.5877012603952095e-05,3.32019682887007e-05,3.1247893757534155e-05,6.1333,6.2
2.34765625,3.173358858319983e-05,1.562094512245366e-05,2.8808124400701924e-05,3.466470037994965e-05,6.1333,6.2
2.3515625,2.97851616662852e-05,2.2945900807202266e-05,2.685404986953537e-05,2.97851616662852e-05,6.1333,6.2
2.35546875,3.368766311436638e-05,2.8808124400701924e-05,2.636270742961777e-05,2.636270742961777e-05,6.1333,6.2
2.359375,3.808150700236516e-05,3.32019682887007e-05,3.0270856491950876e-05,2.8316781960784323e-05,6.1333,6.2
2.36328125,3.466470037994965e-05,3.222493102311743e-05,2.8808124400701924e-05,2.92938192263676e-05,6.1333,6.2
2.3671875,2.92938192263676e-05,3.0270856491950876e-05,2.636270742961777e-05,2.8316781960784323e-05,6.1333,6.2
2.37109375,2.8808124400701924e-05,2.636270742961777e-05,2.3437243247119868e-05,2.685404986953537e-05,6.1333,6.2
2.375,3.075655131761655e-05,2.1968863541618994e-05,2.4899975338368822e-05,2.7339744695201047e-05,6.1333,6.2
2.37890625,2.92938192263676e-05,1.8066362093537814e-05,2.92938192263676e-05,2.7339744695201047e-05,6.1333,6.2
2.3828125,2.685404986953537e-05,1.7575019653620213e-05,3.466470037994965e-05,2.5877012603952095e-05,6.1333,6.2
2.38671875,2.685404986953537e-05,2.4414280512703147e-05,3.417900555428398e-05,2.3922938072785543e-05,6.1333,6.2
2.390625,2.5877012603952095e-05,2.4899975338368822e-05,2.97851616662852e-05,2.4414280512703147e-05,6.1333,6.2
2.39453125,2.4899975338368822e-05,2.5877012603952095e-05,2.92938192263676e-05,2.636270742961777e-05,6.1333,6.2
2.3984375,2.7831087135118648e-05,2.7339744695201047e-05,3.27106258487831e-05,2.636270742961777e-05,6.1333,6.2
2.40234375,2.97851616662852e-05,2.4899975338368822e-05,2.8808124400701924e-05,2.7339744695201047e-05,6.1333,6.2
2.40625,2.97851616662852e-05,2.4899975338368822e-05,3.1247893757534155e-05,3.0270856491950876e-05,6.1333,6.2
2.41015625,3.0270856491950876e-05,2.636270742961777e-05,3.808150700236516e-05,2.8316781960784323e-05,6.1333,6.2
2.4140625,2.8316781960784323e-05,3.0270856491950876e-05,3.808150700236516e-05,2.685404986953537e-05,6.1333,6.2
2.41796875,2.7831087135118648e-05,3.368766311436638e-05,4.052692397344931e-05,2.92938192263676e-05,6.1333,6.2
2.421875,3.173358858319983e-05,3.515604281986726e-05,4.052692397344931e-05,3.173358858319983e-05,6.1333,6.2
2.42578125,3.173358858319983e-05,2.92938192263676e-05,3.710446973678188e-05,3.222493102311743e-05,6.1333,6.2
2.4296875,3.222493102311743e-05,2.4414280512703147e-05,3.417900555428398e-05,2.92938192263676e-05,6.1333,6.2
2.43359375,3.173358858319983e-05,2.636270742961777e-05,3.222493102311743e-05,2.97851616662852e-05,6.1333,6.2
2.4375,3.1247893757534155e-05,2.7339744695201047e-05,3.173358858319983e-05,3.0270856491950876e-05,6.1333,6.2
2.44140625,3.368766311436638e-05,3.466470037994965e-05,4.2966693330281535e-05,2.8316781960784323e-05,6.1333,6.2
2.4453125,2.8808124400701924e-05,3.613308008545053e-05,5.712526225986115e-05,2.685404986953537e-05,6.1333,6.2
2.44921875,2.97851616662852e-05,3.613308008545053e-05,3.905854426794843e-05,2.7339744695201047e-05,6.1333,6.2
2.453125,3.808150700236516e-05,4.247535089036394e-05,2.148316871595332e-05,2.5877012603952095e-05,6.1333,6.2
2.45703125,3.515604281986726e-05,3.905854426794843e-05,2.5385670164034498e-05,2.685404986953537e-05,6.1333,6.2
2.4609375,3.173358858319983e-05,3.417900555428398e-05,2.8316781960784323e-05,2.92938192263676e-05,6.1333,6.2
2.46484375,2.92938192263676e-05,2.3437243247119868e-05,3.27106258487831e-05,3.173358858319983e-05,6.1333,6.2
2.46875,2.92938192263676e-05,2.148316871595332e-05,3.857284944228276e-05,3.32019682887007e-05,6.1333,6.2
2.47265625,3.32019682887007e-05,2.4899975338368822e-05,3.905854426794843e-05,3.515604281986726e-05,6.1333,6.2
2.4765625,3.32019682887007e-05,2.0014789010452438e-05,3.173358858319983e-05,3.515604281986726e-05,6.1333,6.2
2.48046875,2.8316781960784323e-05,2.0506131450370042e-05,3.32019682887007e-05,3.1247893757534155e-05,6.1333,6.2
2.484375,2.92938192263676e-05,2.2945900807202266e-05,3.466470037994965e-05,3.075655131761655e-05,6.1333,6.2
2.48828125,3.075655131761655e-05,2.685404986953537e-05,3.222493102311743e-05,3.1247893757534155e-05,6.1333,6.2
2.4921875,3.0270856491950876e-05,2.685404986953537e-05,3.368766311436638e-05,3.222493102311743e-05,6.1333,6.2
2.49609375,2.97851616662852e-05,2.5877012603952095e-05,3.759581217669948e-05,3.368766311436638e-05,6.1333,6.2
2.5,3.0270856491950876e-05,2.685404986953537e-05,3.1247893757534155e-05,3.222493102311743e-05,6.1333,6.2
2.50390625,3.32019682887007e-05,2.3437243247119868e-05,2.7339744695201047e-05,3.32019682887007e-05,6.1333,6.2
2.5078125,3.27106258487831e-05,2.685404986953537e-05,3.173358858319983e-05,3.075655131761655e-05,6.1333,6.2
2.51171875,3.27106258487831e-05,2.8808124400701924e-05,3.1247893757534155e-05,2.5877012603952095e-05,6.1333,6.2
2.515625,3.32019682887007e-05,3.075655131761655e-05,4.3943730595864815e-05,3.075655131761655e-05,6.1333,6.2
2.51953125,3.222493102311743e-05,3.613308008545053e-05,3.759581217669948e-05,2.92938192263676e-05,6.1333,6.2
2.5234375,3.27106258487831e-05,3.222493102311743e-05,2.8316781960784323e-05,2.4899975338368822e-05,6.1333,6.2
2.52734375,3.515604281986726e-05,3.27106258487831e-05,3.954988670786604e-05,2.7339744695201047e-05,6.1333,6.2
2.53125,3.466470037994965e-05,3.075655131761655e-05,3.710446973678188e-05,2.5877012603952095e-05,6.1333,6.2
2.53515625,3.075655131761655e-05,2.4899975338368822e-05,3.710446973678188e-05,2.5385670164034498e-05,6.1333,6.2
2.5390625,3.368766311436638e-05,2.4899975338368822e-05,3.515604281986726e-05,2.97851616662852e-05,6.1333,6.2
2.54296875,3.1247893757534155e-05,2.0991826276035717e-05,2.5877012603952095e-05,3.173358858319983e-05,6.1333,6.2
2.546875,3.173358858319983e-05,2.3437243247119868e-05,2.97851616662852e-05,2.92938192263676e-05,6.1333,6.2
2.55078125,3.613308008545053e-05,2.4899975338368822e-05,3.222493102311743e-05,2.8316781960784323e-05,6.1333,6.2
2.5546875,3.222493102311743e-05,2.1968863541618994e-05,3.173358858319983e-05,3.075655131761655e-05,6.1333,6.2
2.55859375,2.92938192263676e-05,2.148316871595332e-05,2.97851616662852e-05,2.8808124400701924e-05,6.1333,6.2
2.5625,2.8808124400701924e-05,2.92938192263676e-05,2.0506131450370042e-05,2.5877012603952095e-05,6.1333,6.2
2.56640625,2.7831087135118648e-05,3.1247893757534155e-05,2.3922938072785543e-05,2.636270742961777e-05,6.1333,6.2
2.5703125,2.7831087135118648e-05,2.246020598153659e-05,3.222493102311743e-05,2.8316781960784323e-05,6.1333,6.2
2.57421875,3.0270856491950876e-05,2.636270742961777e-05,3.27106258487831e-05,2.97851616662852e-05,6.1333,6.2
2.578125,3.173358858319983e-05,2.7831087135118648e-05,3.173358858319983e-05,2.4899975338368822e-05,6.1333,6.2
2.58203125,3.515604281986726e-05,2.685404986953537e-05,3.710446973678188e-05,2.148316871595332e-05,6.1333,6.2
2.5859375,3.808150700236516e-05,3.1247893757534155e-05,4.052692397344931e-05,2.3437243247119868e-05,6.1333,6.2
2.58984375,3.759581217669948e-05,3.27106258487831e-05,4.101261879911499e-05,2.685404986953537e-05,6.1333,6.2
2.59375,3.759581217669948e-05,3.6618774911116205e-05,4.4429425421530487e-05,3.075655131761655e-05,6.1333,6.2
2.59765625,3.564173764553293e-05,4.150396123903259e-05,4.784623204394599e-05,3.222493102311743e-05,6.1333,6.2
2.6015625,3.515604281986726e-05,4.3943730595864815e-05,5.1754381106279096e-05,2.3437243247119868e-05,6.1333,6.2
2.60546875,3.417900555428398e-05,4.003558153353171e-05,4.5406462687113766e-05,2.0014789010452438e-05,6.1333,6.2
2.609375,3.1247893757534155e-05,3.613308008545053e-05,3.905854426794843e-05,2.3922938072785543e-05,6.1333,6.2
2.61328125,3.32019682887007e-05,4.101261879911499e-05,3.759581217669948e-05,1.4643907856870384e-05,6.1333,6.2
2.6171875,3.417900555428398e-05,4.492076786144809e-05,3.905854426794843e-05,1.269548093995576e-05,6.1333,6.2
2.62109375,2.97851616662852e-05,4.101261879911499e-05,3.613308008545053e-05,3.0270856491950876e-05,6.1333,6.2
2.625,2.7831087135118648e-05,3.564173764553293e-05,3.564173764553293e-05,4.345238815594721e-05,6.1333,6.2
2.62890625,2.636270742961777e-05,3.759581217669948e-05,3.515604281986726e-05,3.710446973678188e-05,6.1333,6.2
2.6328125,2.7339744695201047e-05,3.613308008545053e-05,3.466470037994965e-05,2.8808124400701924e-05,6.1333,6.2
2.63671875,3.417900555428398e-05,3.466470037994965e-05,4.198965606469826e-05,2.92938192263676e-05,6.1333,6.2
2.640625,3.515604281986726e-05,3.564173764553293e-05,4.589780512703137e-05,3.27106258487831e-05,6.1333,6.2
2.64453125,3.173358858319983e-05,3.515604281986726e-05,3.515604281986726e-05,3.368766311436638e-05,6.1333,6.2
2.6484375,3.466470037994965e-05,3.808150700236516e-05,2.636270742961777e-05,3.759581217669948e-05,6.1333,6.2
2.65234375,3.1247893757534155e-05,3.515604281986726e-05,2.7339744695201047e-05,2.636270742961777e-05,6.1333,6.2
2.65625,2.5385670164034498e-05,3.0270856491950876e-05,3.173358858319983e-05,1.7575019653620213e-05,6.1333,6.2
2.66015625,2.685404986953537e-05,2.8316781960784323e-05,3.368766311436638e-05,2.636270742961777e-05,6.1333,6.2
2.6640625,2.97851616662852e-05,2.685404986953537e-05,3.564173764553293e-05,3.27106258487831e-05,6.1333,6.2
2.66796875,2.8808124400701924e-05,2.97851616662852e-05,3.759581217669948e-05,3.417900555428398e-05,6.1333,6.2
2.671875,2.246020598153659e-05,1.9529094184786762e-05,3.0270856491950876e-05,2.3922938072785543e-05,6.1333,6.2
2.67578125,2.3922938072785543e-05,1.9037751744869165e-05,3.222493102311743e-05,2.0991826276035717e-05,6.1333,6.2
2.6796875,2.8808124400701924e-05,2.636270742961777e-05,3.515604281986726e-05,2.7831087135118648e-05,6.1333,6.2
2.68359375,3.173358858319983e-05,2.4899975338368822e-05,3.466470037994965e-05,2.97851616662852e-05,6.1333,6.2
2.6875,3.32019682887007e-05,1.9037751744869165e-05,3.6618774911116205e-05,2.8808124400701924e-05,6.1333,6.2
2.69140625,3.417900555428398e-05,2.2945900807202266e-05,4.052692397344931e-05,2.8808124400701924e-05,6.1333,6.2
2.6953125,3.222493102311743e-05,2.1968863541618994e-05,4.589780512703137e-05,2.8316781960784323e-05,6.1333,6.2
2.69921875,2.7831087135118648e-05,2.246020598153659e-05,4.3943730595864815e-05,2.92938192263676e-05,6.1333,6.2
2.703125,2.8316781960784323e-05,2.8316781960784323e-05,3.905854426794843e-05,3.0270856491950876e-05,6.1333,6.2
2.70703125,2.7831087135118648e-05,2.3922938072785543e-05,3.6618774911116205e-05,3.0270856491950876e-05,6.1333,6.2
2.7109375,3.0270856491950876e-05,2.5385670164034498e-05,4.052692397344931e-05,2.8316781960784323e-05,6.1333,6.2
2.71484375,3.222493102311743e-05,2.7831087135118648e-05,4.2966693330281535e-05,2.97851616662852e-05,6.1333,6.2
2.71875,3.1247893757534155e-05,1.8066362093537814e-05,5.0777343840695816e-05,3.466470037994965e-05,6.1333,6.2
2.72265625,3.1247893757534155e-05,1.9037751744869165e-05,4.83375744838636e-05,3.27106258487831e-05,6.1333,6.2
2.7265625,2.8316781960784323e-05,2.148316871595332e-05,3.808150700236516e-05,2.7831087135118648e-05,6.1333,6.2
2.73046875,2.97851616662852e-05,2.1968863541618994e-05,4.198965606469826e-05,2.7339744695201047e-05,6.1333,6.2
2.734375,3.417900555428398e-05,2.92938192263676e-05,4.83375744838636e-05,2.8808124400701924e-05,6.1333,6.2
2.73828125,3.32019682887007e-05,3.075655131761655e-05,4.150396123903259e-05,2.8808124400701924e-05,6.1333,6.2
2.7421875,3.368766311436638e-05,2.5385670164034498e-05,3.6618774911116205e-05,2.7831087135118648e-05,6.1333,6.2
2.74609375,3.368766311436638e-05,2.2945900807202266e-05,2.97851616662852e-05,2.8316781960784323e-05,6.1333,6.2
2.75,3.075655131761655e-05,2.4414280512703147e-05,1.9037751744869165e-05,2.636270742961777e-05,6.1333,6.2
2.75390625,3.1247893757534155e-05,2.0506131450370042e-05,2.3922938072785543e-05,2.3922938072785543e-05,6.1333,6.2
2.7578125,3.222493102311743e-05,2.1968863541618994e-05,2.3922938072785543e-05,2.8316781960784323e-05,6.1333,6.2
2.76171875,3.075655131761655e-05,1.9529094184786762e-05,2.0014789010452438e-05,3.0270856491950876e-05,6.1333,6.2
2.765625,2.8316781960784323e-05,1.562094512245366e-05,2.3922938072785543e-05,2.97851616662852e-05,6.1333,6.2
2.76953125,2.97851616662852e-05,1.855205691920349e-05,2.5385670164034498e-05,2.7339744695201047e-05,6.1333,6.2
2.7734375,3.368766311436638e-05,2.246020598153659e-05,2.5877012603952095e-05,2.97851616662852e-05,6.1333,6.2
2.77734375,3.368766311436638e-05,2.685404986953537e-05,2.636270742961777e-05,3.564173764553293e-05,6.1333,6.2
2.78125,3.368766311436638e-05,3.0270856491950876e-05,2.92938192263676e-05,3.759581217669948e-05,6.1333,6.2
2.78515625,3.466470037994965e-05,3.222493102311743e-05,3.417900555428398e-05,3.6618774911116205e-05,6.1333,6.2
2.7890625,3.32019682887007e-05,3.222493102311743e-05,3.417900555428398e-05,3.515604281986726e-05,6.1333,6.2
2.79296875,3.222493102311743e-05,2.7831087135118648e-05,3.222493102311743e-05,3.27106258487831e-05,6.1333,6.2
2.796875,3.466470037994965e-05,2.2945900807202266e-05,3.1247893757534155e-05,2.8808124400701924e-05,6.1333,6.2
2.80078125,3.564173764553293e-05,2.5877012603952095e-05,2.92938192263676e-05,2.92938192263676e-05,6.1333,6.2
2.8046875,3.368766311436638e-05,2.685404986953537e-05,2.1968863541618994e-05,3.075655131761655e-05,6.1333,6.2
2.80859375,3.075655131761655e-05,2.0991826276035717e-05,2.3437243247119868e-05,3.222493102311743e-05,6.1333,6.2
2.8125,2.8316781960784323e-05,2.3922938072785543e-05,2.685404986953537e-05,2.97851616662852e-05,6.1333,6.2
2.81640625,3.1247893757534155e-05,3.466470037994965e-05,3.32019682887007e-05,2.92938192263676e-05,6.1333,6.2
2.8203125,3.515604281986726e-05,3.613308008545053e-05,3.759581217669948e-05,2.8808124400701924e-05,6.1333,6.2
2.82421875,3.222493102311743e-05,2.8808124400701924e-05,3.368766311436638e-05,2.636270742961777e-05,6.1333,6.2
2.828125,2.97851616662852e-05,3.0270856491950876e-05,3.710446973678188e-05,2.685404986953537e-05,6.1333,6.2
2.83203125,3.075655131761655e-05,2.97851616662852e-05,3.222493102311743e-05,2.5877012603952095e-05,6.1333,6.2
2.8359375,3.173358858319983e-05,2.5877012603952095e-05,2.636270742961777e-05,2.7831087135118648e-05,6.1333,6.2
2.83984375,3.173358858319983e-05,2.92938192263676e-05,2.636270742961777e-05,2.8808124400701924e-05,6.1333,6.2
2.84375,3.466470037994965e-05,3.368766311436638e-05,3.27106258487831e-05,2.5385670164034498e-05,6.1333,6.2
2.84765625,3.1247893757534155e-05,2.5877012603952095e-05,2.7831087135118648e-05,2.8316781960784323e-05,6.1333,6.2
2.8515625,2.685404986953537e-05,2.2945900807202266e-05,2.2945900807202266e-05,2.92938192263676e-05,6.1333,6.2
2.85546875,2.7831087135118648e-05,2.636270742961777e-05,2.8316781960784323e-05,2.685404986953537e-05,6.1333,6.2
2.859375,2.8808124400701924e-05,2.3922938072785543e-05,2.8316781960784323e-05,2.685404986953537e-05,6.1333,6.2
2.86328125,3.075655131761655e-05,2.3437243247119868e-05,2.3922938072785543e-05,2.2945900807202266e-05,6.1333,6.2
2.8671875,3.075655131761655e-05,1.7575019653620213e-05,2.0991826276035717e-05,2.246020598153659e-05,6.1333,6.2
2.87109375,3.0270856491950876e-05,2.1968863541618994e-05,2.92938192263676e-05,2.97851616662852e-05,6.1333,6.2
2.875,3.0270856491950876e-05,2.7339744695201047e-05,3.710446973678188e-05,3.564173764553293e-05,6.1333,6.2
2.87890625,2.685404986953537e-05,2.636270742961777e-05,4.492076786144809e-05,3.417900555428398e-05,6.1333,6.2
2.8828125,2.4414280512703147e-05,2.7831087135118648e-05,4.784623204394599e-05,3.173358858319983e-05,6.1333,6.2
2.88671875,2.8316781960784323e-05,2.8808124400701924e-05,4.101261879911499e-05,2.97851616662852e-05,6.1333,6.2
2.890625,3.27106258487831e-05,2.92938192263676e-05,3.905854426794843e-05,2.8316781960784323e-05,6.1333,6.2
2.89453125,2.92938192263676e-05,3.1247893757534155e-05,3.954988670786604e-05,3.1247893757534155e-05,6.1333,6.2
2.8984375,2.685404986953537e-05,4.101261879911499e-05,4.101261879911499e-05,3.222493102311743e-05,6.1333,6.2
2.90234375,3.1247893757534155e-05,3.808150700236516e-05,4.003558153353171e-05,3.222493102311743e-05,6.1333,6.2
2.90625,3.759581217669948e-05,2.97851616662852e-05,4.345238815594721e-05,3.075655131761655e-05,6.1333,6.2
2.91015625,3.857284944228276e-05,2.7831087135118648e-05,3.32019682887007e-05,2.92938192263676e-05,6.1333,6.2
2.9140625,3.710446973678188e-05,3.808150700236516e-05,2.5877012603952095e-05,2.246020598153659e-05,6.1333,6.2
2.91796875,3.613308008545053e-05,3.857284944228276e-05,3.222493102311743e-05,2.0014789010452438e-05,6.1333,6.2
2.921875,3.515604281986726e-05,2.97851616662852e-05,2.148316871595332e-05,2.4899975338368822e-05,6.1333,6.2
2.92578125,3.710446973678188e-05,2.97851616662852e-05,1.9529094184786762e-05,2.8316781960784323e-05,6.1333,6.2
2.9296875,3.759581217669948e-05,3.173358858319983e-05,3.1247893757534155e-05,2.8808124400701924e-05,6.1333,6.2
2.93359375,3.6618774911116205e-05,3.368766311436638e-05,3.222493102311743e-05,2.97851616662852e-05,6.1333,6.2
2.9375,3.32019682887007e-05,2.8808124400701924e-05,2.685404986953537e-05,3.32019682887007e-05,6.1333,6.2
2.94140625,3.27106258487831e-05,3.222493102311743e-05,3.368766311436638e-05,3.417900555428398e-05,6.1333,6.2
2.9453125,3.368766311436638e-05,4.198965606469826e-05,4.2966693330281535e-05,2.92938192263676e-05,6.1333,6.2
2.94921875,3.173358858319983e-05,3.515604281986726e-05,4.2966693330281535e-05,2.5385670164034498e-05,6.1333,6.2
2.953125,3.32019682887007e-05,3.27106258487831e-05,4.589780512703137e-05,2.4414280512703147e-05,6.1333,6.2
2.95703125,3.222493102311743e-05,3.905854426794843e-05,4.2966693330281535e-05,2.5877012603952095e-05,6.1333,6.2
2.9609375,3.075655131761655e-05,3.857284944228276e-05,3.710446973678188e-05,2.8808124400701924e-05,6.1333,6.2
2.96484375,3.075655131761655e-05,2.5385670164034498e-05,3.564173764553293e-05,2.97851616662852e-05,6.1333,6.2
2.96875,3.173358858319983e-05,1.8066362093537814e-05,3.1247893757534155e-05,3.1247893757534155e-05,6.1333,6.2
2.97265625,2.92938192263676e-05,2.5385670164034498e-05,2.92938192263676e-05,2.92938192263676e-05,6.1333,6.2
2.9765625,2.7339744695201047e-05,2.7339744695201047e-05,3.759581217669948e-05,2.8808124400701924e-05,6.1333,6.2
2.98046875,2.8316781960784323e-05,2.636270742961777e-05,4.052692397344931e-05,2.685404986953537e-05,6.1333,6.2
2.984375,3.075655131761655e-05,2.636270742961777e-05,4.4429425421530487e-05,2.636270742961777e-05,6.1333,6.2
2.98828125,3.0270856491950876e-05,3.1247893757534155e-05,4.589780512703137e-05,2.5877012603952095e-05,6.1333,6.2
2.9921875,2.685404986953537e-05,3.173358858319983e-05,3.564173764553293e-05,2.1968863541618994e-05,6.1333,6.2
2.99609375,2.7339744695201047e-05,3.222493102311743e-05,3.27106258487831e-05,2.7339744695201047e-05,6.1333,6.2
3.0,2.636270742961777e-05,3.466470037994965e-05,3.417900555428398e-05,2.8808124400701924e-05,6.1333,6.2
3.00390625,2.4899975338368822e-05,2.97851616662852e-05,3.222493102311743e-05,2.4899975338368822e-05,6.1333,6.2
3.0078125,2.3922938072785543e-05,2.636270742961777e-05,2.3922938072785543e-05,2.636270742961777e-05,6.1333,6.2
3.01171875,2.5385670164034498e-05,2.8316781960784323e-05,2.0991826276035717e-05,2.4899975338368822e-05,6.1333,6.2
3.015625,2.8808124400701924e-05,2.8808124400701924e-05,2.7831087135118648e-05,2.3922938072785543e-05,6.1333,6.2
3.01953125,2.685404986953537e-05,2.4414280512703147e-05,3.613308008545053e-05,3.417900555428398e-05,6.1333,6.2
3.0234375,2.4414280512703147e-05,2.8808124400701924e-05,3.1247893757534155e-05,3.6618774911116205e-05,6.1333,6.2
3.02734375,2.636270742961777e-05,2.4899975338368822e-05,2.7831087135118648e-05,3.173358858319983e-05,6.1333,6.2
3.03125,2.5385670164034498e-05,1.3181175765621434e-05,2.8316781960784323e-05,3.0270856491950876e-05,6.1333,6.2
3.03515625,2.7831087135118648e-05,1.6112287562371265e-05,1.7575019653620213e-05,2.8808124400701924e-05,6.1333,6.2
3.0390625,3.075655131761655e-05,1.7089324827954538e-05,1.855205691920349e-05,2.97851616662852e-05,6.1333,6.2
3.04296875,2.7339744695201047e-05,1.7575019653620213e-05,2.1968863541618994e-05,2.92938192263676e-05,6.1333,6.2
3.046875,2.636270742961777e-05,1.9529094184786762e-05,1.7089324827954538e-05,2.7831087135118648e-05,6.1333,6.2
3.05078125,2.8316781960784323e-05,1.6112287562371265e-05,1.8066362093537814e-05,2.5877012603952095e-05,6.1333,6.2
3.0546875,3.1247893757534155e-05,2.0506131450370042e-05,2.2945900807202266e-05,2.3922938072785543e-05,6.1333,6.2
3.05859375,3.0270856491950876e-05,2.4414280512703147e-05,3.368766311436638e-05,2.3922938072785543e-05,6.1333,6.2
3.0625,2.92938192263676e-05,2.5385670164034498e-05,3.075655131761655e-05,2.5877012603952095e-05,6.1333,6.2
3.06640625,2.97851616662852e-05,3.222493102311743e-05,2.4899975338368822e-05,3.075655131761655e-05,6.1333,6.2
3.0703125,3.075655131761655e-05,3.808150700236516e-05,2.8316781960784323e-05,3.173358858319983e-05,6.1333,6.2
3.07421875,2.7339744695201047e-05,3.368766311436638e-05,2.8808124400701924e-05,2.685404986953537e-05,6.1333,6.2
3.078125,2.4414280512703147e-05,3.27106258487831e-05,2.0506131450370042e-05,2.5385670164034498e-05,6.1333,6.2
3.08203125,2.5877012603952095e-05,4.150396123903259e-05,2.636270742961777e-05,2.7339744695201047e-05,6.1333,6.2
3.0859375,2.4414280512703147e-05,3.759581217669948e-05,4.150396123903259e-05,3.1247893757534155e-05,6.1333,6.2
3.08984375,2.3437243247119868e-05,2.7831087135118648e-05,3.857284944228276e-05,3.564173764553293e-05,6.1333,6.2
3.09375,2.3922938072785543e-05,2.4899975338368822e-05,3.564173764553293e-05,3.710446973678188e-05,6.1333,6.2
3.09765625,2.4414280512703147e-05,3.368766311436638e-05,3.905854426794843e-05,3.564173764553293e-05,6.1333,6.2
3.1015625,2.5385670164034498e-05,4.4429425421530487e-05,4.345238815594721e-05,3.1247893757534155e-05,6.1333,6.2
3.10546875,2.7339744695201047e-05,3.857284944228276e-05,4.589780512703137e-05,2.7339744695201047e-05,6.1333,6.2
3.109375,2.636270742961777e-05,3.564173764553293e-05,4.247535089036394e-05,2.5385670164034498e-05,6.1333,6.2
3.11328125,2.685404986953537e-05,3.515604281986726e-05,3.564173764553293e-05,2.636270742961777e-05,6.1333,6.2
3.1171875,2.5877012603952095e-05,3.27106258487831e-05,3.6618774911116205e-05,2.92938192263676e-05,6.1333,6.2
3.12109375,2.5877012603952095e-05,3.6618774911116205e-05,4.101261879911499e-05,2.97851616662852e-05,6.1333,6.2
3.125,2.8808124400701924e-05,3.368766311436638e-05,3.710446973678188e-05,3.0270856491950876e-05,6.1333,6.2
3.12890625,2.8316781960784323e-05,3.173358858319983e-05,3.27106258487831e-05,2.92938192263676e-05,6.1333,6.2
3.1328125,2.5877012603952095e-05,3.759581217669948e-05,3.905854426794843e-05,3.1247893757534155e-05,6.1333,6.2
3.13671875,2.8316781960784323e-05,4.3943730595864815e-05,4.345238815594721e-05,2.97851616662852e-05,6.1333,6.2
3.140625,2.685404986953537e-05,4.150396123903259e-05,3.954988670786604e-05,2.4899975338368822e-05,6.1333,6.2
3.14453125,2.5385670164034498e-05,3.759581217669948e-05,4.2966693330281535e-05,2.4414280512703147e-05,6.1333,6.2
3.1484375,2.4414280512703147e-05,3.808150700236516e-05,4.247535089036394e-05,2.7339744695201047e-05,6.1333,6.2
3.15234375,2.5877012603952095e-05,3.954988670786604e-05,3.808150700236516e-05,2.5385670164034498e-05,6.1333,6.2
3.15625,3.1247893757534155e-05,3.222493102311743e-05,3.710446973678188e-05,2.1968863541618994e-05,6.1333,6.2
3.16015625,3.075655131761655e-05,3.564173764553293e-05,3.368766311436638e-05,2.0991826276035717e-05,6.1333,6.2
3.1640625,3.222493102311743e-05,3.857284944228276e-05,3.613308008545053e-05,2.4414280512703147e-05,6.1333,6.2
3.16796875,3.368766311436638e-05,3.466470037994965e-05,3.710446973678188e-05,2.8808124400701924e-05,6.1333,6.2
3.171875,3.417900555428398e-05,4.150396123903259e-05,3.466470037994965e-05,2.92938192263676e-05,6.1333,6.2
3.17578125,3.515604281986726e-05,4.150396123903259e-05,3.857284944228276e-05,2.4899975338368822e-05,6.1333,6.2
3.1796875,3.564173764553293e-05,4.003558153353171e-05,4.687484239261464e-05,2.0991826276035717e-05,6.1333,6.2
3.18359375,3.6618774911116205e-05,4.2966693330281535e-05,5.2731418371862376e-05,2.4414280512703147e-05,6.1333,6.2
3.1875,3.710446973678188e-05,4.150396123903259e-05,5.22457235461967e-05,2.636270742961777e-05,6.1333,6.2
3.19140625,3.613308008545053e-05,4.3943730595864815e-05,4.345238815594721e-05,2.3922938072785543e-05,6.1333,6.2
3.1953125,3.466470037994965e-05,4.4429425421530487e-05,3.808150700236516e-05,2.4899975338368822e-05,6.1333,6.2
3.19921875,3.417900555428398e-05,4.052692397344931e-05,4.101261879911499e-05,2.8808124400701924e-05,6.1333,6.2
3.203125,3.32019682887007e-05,4.3943730595864815e-05,4.9314611749446865e-05,3.075655131761655e-05,6.1333,6.2
3.20703125,3.27106258487831e-05,4.150396123903259e-05,4.882326930952927e-05,2.92938192263676e-05,6.1333,6.2
3.2109375,3.173358858319983e-05,4.589780512703137e-05,4.101261879911499e-05,3.0270856491950876e-05,6.1333,6.2
3.21484375,2.92938192263676e-05,5.0777343840695816e-05,4.198965606469826e-05,2.7831087135118648e-05,6.1333,6.2
3.21875,2.97851616662852e-05,4.687484239261464e-05,4.3943730595864815e-05,2.5385670164034498e-05,6.1333,6.2
3.22265625,3.0270856491950876e-05,4.492076786144809e-05,4.638349995269704e-05,3.075655131761655e-05,6.1333,6.2
3.2265625,2.97851616662852e-05,3.759581217669948e-05,3.6618774911116205e-05,3.075655131761655e-05,6.1333,6.2
3.23046875,3.27106258487831e-05,3.905854426794843e-05,3.1247893757534155e-05,3.0270856491950876e-05,6.1333,6.2
3.234375,2.97851616662852e-05,3.6618774911116205e-05,3.759581217669948e-05,3.32019682887007e-05,6.1333,6.2
3.23828125,2.7339744695201047e-05,3.613308008545053e-05,4.101261879911499e-05,3.173358858319983e-05,6.1333,6.2
3.2421875,3.32019682887007e-05,3.905854426794843e-05,4.492076786144809e-05,3.0270856491950876e-05,6.1333,6.2
3.24609375,3.368766311436638e-05,3.515604281986726e-05,4.198965606469826e-05,2.636270742961777e-05,6.1333,6.2
3.25,3.417900555428398e-05,3.6618774911116205e-05,3.613308008545053e-05,2.0991826276035717e-05,6.1333,6.2
3.25390625,3.466470037994965e-05,3.857284944228276e-05,2.97851616662852e-05,2.3922938072785543e-05,6.1333,6.2
3.2578125,2.97851616662852e-05,4.345238815594721e-05,2.97851616662852e-05,2.7831087135118648e-05,6.1333,6.2
3.26171875,3.0270856491950876e-05,3.905854426794843e-05,3.564173764553293e-05,2.92938192263676e-05,6.1333,6.2
3.265625,2.97851616662852e-05,3.173358858319983e-05,3.905854426794843e-05,2.92938192263676e-05,6.1333,6.2
3.26953125,2.92938192263676e-05,2.97851616662852e-05,3.368766311436638e-05,2.636270742961777e-05,6.1333,6.2
3.2734375,3.32019682887007e-05,2.8316781960784323e-05,2.8316781960784323e-05,2.4414280512703147e-05,6.1333,6.2
3.27734375,2.92938192263676e-05,3.368766311436638e-05,3.1247893757534155e-05,2.5385670164034498e-05,6.1333,6.2
3.28125,3.0270856491950876e-05,3.368766311436638e-05,2.97851616662852e-05,2.7831087135118648e-05,6.1333,6.2
3.28515625,3.857284944228276e-05,3.0270856491950876e-05,2.4414280512703147e-05,2.7339744695201047e-05,6.1333,6.2
3.2890625,3.759581217669948e-05,3.710446973678188e-05,2.1968863541618994e-05,2.246020598153659e-05,6.1333,6.2
3.29296875,3.368766311436638e-05,3.6618774911116205e-05,2.97851616662852e-05,2.3922938072785543e-05,6.1333,6.2
3.296875,3.32019682887007e-05,3.564173764553293e-05,4.052692397344931e-05,2.7339744695201047e-05,6.1333,6.2
3.30078125,3.368766311436638e-05,3.808150700236516e-05,3.905854426794843e-05,2.8316781960784323e-05,6.1333,6.2
3.3046875,3.417900555428398e-05,3.368766311436638e-05,3.075655131761655e-05,3.0270856491950876e-05,6.1333,6.2
3.30859375,3.466470037994965e-05,3.808150700236516e-05,3.075655131761655e-05,2.636270742961777e-05,6.1333,6.2
3.3125,3.368766311436638e-05,4.101261879911499e-05,4.052692397344931e-05,2.3922938072785543e-05,6.1333,6.2
3.31640625,3.075655131761655e-05,4.198965606469826e-05,4.198965606469826e-05,2.8316781960784323e-05,6.1333,6.2
3.3203125,3.32019682887007e-05,4.5406462687113766e-05,4.492076786144809e-05,2.685404986953537e-05,6.1333,6.2
3.32421875,3.613308008545053e-05,4.638349995269704e-05,4.9314611749446865e-05,2.4414280512703147e-05,6.1333,6.2
3.328125,3.417900555428398e-05,3.808150700236516e-05,3.905854426794843e-05,2.7831087135118648e-05,6.1333,6.2
3.33203125,3.1247893757534155e-05,3.27106258487831e-05,3.515604281986726e-05,2.97851616662852e-05,6.1333,6.2
3.3359375,3.1247893757534155e-05,3.466470037994965e-05,4.101261879911499e-05,2.7339744695201047e-05,6.1333,6.2
3.33984375,3.368766311436638e-05,3.173358858319983e-05,4.247535089036394e-05,2.8808124400701924e-05,6.1333,6.2
3.34375,3.173358858319983e-05,3.173358858319983e-05,4.198965606469826e-05,2.92938192263676e-05,6.1333,6.2
3.34765625,2.7339744695201047e-05,3.466470037994965e-05,4.052692397344931e-05,2.7831087135118648e-05,6.1333,6.2
3.3515625,2.92938192263676e-05,3.368766311436638e-05,4.101261879911499e-05,2.92938192263676e-05,6.1333,6.2
3.35546875,2.97851616662852e-05,3.368766311436638e-05,4.882326930952927e-05,2.97851616662852e-05,6.1333,6.2
3.359375,2.8316781960784323e-05,3.27106258487831e-05,4.638349995269704e-05,2.685404986953537e-05,6.1333,6.2
3.36328125,2.7339744695201047e-05,2.7831087135118648e-05,3.1247893757534155e-05,2.7339744695201047e-05,6.1333,6.2
3.3671875,2.8808124400701924e-05,2.5877012603952095e-05,2.3437243247119868e-05,2.7831087135118648e-05,6.1333,6.2
3.37109375,2.8808124400701924e-05,2.3437243247119868e-05,2.92938192263676e-05,2.7831087135118648e-05,6.1333,6.2
3.375,3.0270856491950876e-05,2.246020598153659e-05,2.8316781960784323e-05,3.0270856491950876e-05,6.1333,6.2
3.37890625,3.466470037994965e-05,2.8316781960784323e-05,2.2945900807202266e-05,3.075655131761655e-05,6.1333,6.2
3.3828125,3.417900555428398e-05,3.173358858319983e-05,3.075655131761655e-05,2.92938192263676e-05,6.1333,6.2
3.38671875,3.368766311436638e-05,3.0270856491950876e-05,3.6618774911116205e-05,2.97851616662852e-05,6.1333,6.2
3.390625,3.1247893757534155e-05,2.8316781960784323e-05,3.466470037994965e-05,3.173358858319983e-05,6.1333,6.2
3.39453125,2.92938192263676e-05,3.368766311436638e-05,3.417900555428398e-05,3.075655131761655e-05,6.1333,6.2
3.3984375,3.1247893757534155e-05,3.808150700236516e-05,4.101261879911499e-05,3.368766311436638e-05,6.1333,6.2
3.40234375,3.0270856491950876e-05,3.173358858319983e-05,4.687484239261464e-05,3.075655131761655e-05,6.1333,6.2
3.40625,2.685404986953537e-05,2.685404986953537e-05,4.198965606469826e-05,2.92938192263676e-05,6.1333,6.2
3.41015625,2.97851616662852e-05,2.5877012603952095e-05,3.1247893757534155e-05,3.0270856491950876e-05,6.1333,6.2
3.4140625,2.92938192263676e-05,2.2945900807202266e-05,3.173358858319983e-05,2.685404986953537e-05,6.1333,6.2
3.41796875,2.4899975338368822e-05,2.0014789010452438e-05,3.32019682887007e-05,2.5385670164034498e-05,6.1333,6.2
3.421875,2.4899975338368822e-05,2.148316871595332e-05,3.466470037994965e-05,2.8316781960784323e-05,6.1333,6.2
3.42578125,2.5877012603952095e-05,2.5877012603952095e-05,3.808150700236516e-05,2.7831087135118648e-05,6.1333,6.2
3.4296875,3.173358858319983e-05,2.4899975338368822e-05,2.7339744695201047e-05,3.1247893757534155e-05,6.1333,6.2
3.43359375,3.27106258487831e-05,2.5877012603952095e-05,2.3922938072785543e-05,3.466470037994965e-05,6.1333,6.2
3.4375,3.075655131761655e-05,3.0270856491950876e-05,3.173358858319983e-05,3.515604281986726e-05,6.1333,6.2
3.44140625,3.173358858319983e-05,2.92938192263676e-05,3.564173764553293e-05,4.003558153353171e-05,6.1333,6.2
3.4453125,2.97851616662852e-05,2.2945900807202266e-05,3.6618774911116205e-05,3.954988670786604e-05,6.1333,6.2
3.44921875,2.8316781960784323e-05,2.2945900807202266e-05,3.368766311436638e-05,3.515604281986726e-05,6.1333,6.2
3.453125,2.92938192263676e-05,2.5385670164034498e-05,2.97851616662852e-05,3.32019682887007e-05,6.1333,6.2
3.45703125,3.1247893757534155e-05,2.92938192263676e-05,3.905854426794843e-05,3.417900555428398e-05,6.1333,6.2
3.4609375,3.1247893757534155e-05,3.368766311436638e-05,4.150396123903259e-05,3.32019682887007e-05,6.1333,6.2
3.46484375,3.0270856491950876e-05,3.417900555428398e-05,4.345238815594721e-05,3.1247893757534155e-05,6.1333,6.2
3.46875,2.97851616662852e-05,3.368766311436638e-05,4.687484239261464e-05,3.0270856491950876e-05,6.1333,6.2
3.47265625,2.8316781960784323e-05,3.417900555428398e-05,3.954988670786604e-05,2.97851616662852e-05,6.1333,6.2
3.4765625,3.27106258487831e-05,3.759581217669948e-05,4.052692397344931e-05,3.1247893757534155e-05,6.1333,6.2
3.48046875,3.417900555428398e-05,3.564173764553293e-05,3.515604281986726e-05,3.466470037994965e-05,6.1333,6.2
3.484375,3.0270856491950876e-05,3.564173764553293e-05,3.857284944228276e-05,3.368766311436638e-05,6.1333,6.2
3.48828125,3.1247893757534155e-05,3.27106258487831e-05,4.83375744838636e-05,3.368766311436638e-05,6.1333,6.2
3.4921875,2.92938192263676e-05,1.9529094184786762e-05,3.173358858319983e-05,3.564173764553293e-05,6.1333,6.2
3.49609375,2.4414280512703147e-05,2.4414280512703147e-05,3.0270856491950876e-05,3.466470037994965e-05,6.1333,6.2
3.5,2.4414280512703147e-05,3.417900555428398e-05,3.417900555428398e-05,3.173358858319983e-05,6.1333,6.2
3.50390625,2.685404986953537e-05,3.32019682887007e-05,3.32019682887007e-05,3.173358858319983e-05,6.1333,6.2
3.5078125,2.8808124400701924e-05,2.8808124400701924e-05,3.466470037994965e-05,3.173358858319983e-05,6.1333,6.2
3.51171875,2.8316781960784323e-05,2.3437243247119868e-05,2.636270742961777e-05,2.7339744695201047e-05,6.1333,6.2
3.515625,2.5385670164034498e-05,2.0991826276035717e-05,2.7339744695201047e-05,2.8808124400701924e-05,6.1333,6.2
3.51953125,2.4414280512703147e-05,2.0506131450370042e-05,2.4899975338368822e-05,2.8808124400701924e-05,6.1333,6.2
3.5234375,2.4899975338368822e-05,1.6112287562371265e-05,1.855205691920349e-05,2.7831087135118648e-05,6.1333,6.2
3.52734375,2.3922938072785543e-05,1.5135250296787987e-05,2.3922938072785543e-05,3.222493102311743e-05,6.1333,6.2
3.53125,2.2945900807202266e-05,1.659798238803694e-05,3.173358858319983e-05,3.32019682887007e-05,6.1333,6.2
3.53515625,2.3922938072785543e-05,1.7089324827954538e-05,3.173358858319983e-05,3.27106258487831e-05,6.1333,6.2
3.5390625,2.685404986953537e-05,1.9529094184786762e-05,2.7339744695201047e-05,3.075655131761655e-05,6.1333,6.2
3.54296875,2.97851616662852e-05,2.0991826276035717e-05,2.7339744695201047e-05,3.075655131761655e-05,6.1333,6.2
3.546875,3.173358858319983e-05,2.7339744695201047e-05,3.075655131761655e-05,3.32019682887007e-05,6.1333,6.2
3.55078125,3.222493102311743e-05,3.32019682887007e-05,3.808150700236516e-05,3.27106258487831e-05,6.1333,6.2
3.5546875,3.417900555428398e-05,3.564173764553293e-05,3.857284944228276e-05,2.97851616662852e-05,6.1333,6.2
3.55859375,3.6618774911116205e-05,3.710446973678188e-05,3.27106258487831e-05,2.7831087135118648e-05,6.1333,6.2
3.5625,3.564173764553293e-05,3.417900555428398e-05,3.368766311436638e-05,2.5877012603952095e-05,6.1333,6.2
3.56640625,3.417900555428398e-05,2.97851616662852e-05,2.8808124400701924e-05,2.636270742961777e-05,6.1333,6.2
3.5703125,3.368766311436638e-05,2.7339744695201047e-05,3.173358858319983e-05,3.075655131761655e-05,6.1333,6.2
3.57421875,3.173358858319983e-05,3.0270856491950876e-05,3.564173764553293e-05,3.173358858319983e-05,6.1333,6.2
3.578125,2.92938192263676e-05,3.173358858319983e-05,3.27106258487831e-05,3.173358858319983e-05,6.1333,6.2
3.58203125,3.1247893757534155e-05,2.7831087135118648e-05,3.515604281986726e-05,3.368766311436638e-05,6.1333,6.2
3.5859375,3.1247893757534155e-05,3.222493102311743e-05,3.515604281986726e-05,3.368766311436638e-05,6.1333,6.2
3.58984375,3.222493102311743e-05,3.759581217669948e-05,3.759581217669948e-05,2.7831087135118648e-05,6.1333,6.2
3.59375,3.27106258487831e-05,4.003558153353171e-05,3.6618774911116205e-05,2.2945900807202266e-05,6.1333,6.2
3.59765625,3.173358858319983e-05,4.5406462687113766e-05,3.710446973678188e-05,2.246020598153659e-05,6.1333,6.2
3.6015625,3.222493102311743e-05,4.101261879911499e-05,3.857284944228276e-05,2.7831087135118648e-05,6.1333,6.2
3.60546875,3.173358858319983e-05,3.759581217669948e-05,2.5877012603952095e-05,2.97851616662852e-05,6.1333,6.2
3.609375,3.32019682887007e-05,3.613308008545053e-05,2.7339744695201047e-05,2.92938192263676e-05,6.1333,6.2
3.61328125,3.417900555428398e-05,3.222493102311743e-05,3.27106258487831e-05,3.368766311436638e-05,6.1333,6.2
3.6171875,3.222493102311743e-05,2.7831087135118648e-05,3.1247893757534155e-05,3.27106258487831e-05,6.1333,6.2
3.62109375,3.417900555428398e-05,3.368766311436638e-05,3.0270856491950876e-05,3.0270856491950876e-05,6.1333,6.2
3.625,3.808150700236516e-05,3.808150700236516e-05,2.5877012603952095e-05,3.0270856491950876e-05,6.1333,6.2
3.62890625,4.003558153353171e-05,3.222493102311743e-05,2.8808124400701924e-05,2.636270742961777e-05,6.1333,6.2
3.6328125,3.905854426794843e-05,2.5385670164034498e-05,2.8808124400701924e-05,2.4414280512703147e-05,6.1333,6.2
3.63671875,3.808150700236516e-05,2.3922938072785543e-05,2.7339744695201047e-05,2.4899975338368822e-05,6.1333,6.2
3.640625,3.759581217669948e-05,2.4899975338368822e-05,2.3437243247119868e-05,2.5877012603952095e-05,6.1333,6.2
3.64453125,3.466470037994965e-05,2.2945900807202266e-05,2.3922938072785543e-05,2.636270742961777e-05,6.1333,6.2
3.6484375,3.075655131761655e-05,2.148316871595332e-05,3.173358858319983e-05,2.7831087135118648e-05,6.1333,6.2
3.65234375,2.92938192263676e-05,2.0991826276035717e-05,3.466470037994965e-05,2.92938192263676e-05,6.1333,6.2
3.65625,3.075655131761655e-05,2.685404986953537e-05,4.003558153353171e-05,3.27106258487831e-05,6.1333,6.2
3.66015625,3.32019682887007e-05,3.32019682887007e-05,3.6618774911116205e-05,3.32019682887007e-05,6.1333,6.2
3.6640625,3.222493102311743e-05,2.97851616662852e-05,3.613308008545053e-05,2.97851616662852e-05,6.1333,6.2
3.66796875,3.417900555428398e-05,3.173358858319983e-05,3.368766311436638e-05,2.636270742961777e-05,6.1333,6.2
3.671875,3.905854426794843e-05,3.710446973678188e-05,2.7339744695201047e-05,2.3922938072785543e-05,6.1333,6.2
3.67578125,4.003558153353171e-05,3.564173764553293e-05,3.1247893757534155e-05,2.685404986953537e-05,6.1333,6.2
3.6796875,3.466470037994965e-05,3.368766311436638e-05,3.905854426794843e-05,2.8316781960784323e-05,6.1333,6.2
3.68359375,3.173358858319983e-05,3.613308008545053e-05,4.345238815594721e-05,2.8316781960784323e-05,6.1333,6.2
3.6875,3.075655131761655e-05,3.27106258487831e-05,5.322276081177998e-05,3.173358858319983e-05,6.1333,6.2
3.69140625,2.8316781960784323e-05,2.92938192263676e-05,4.736053721828032e-05,3.466470037994965e-05,6.1333,6.2
3.6953125,3.0270856491950876e-05,3.075655131761655e-05,2.8316781960784323e-05,3.564173764553293e-05,6.1333,6.2
3.69921875,3.0270856491950876e-05,3.0270856491950876e-05,2.5877012603952095e-05,3.32019682887007e-05,6.1333,6.2
3.703125,3.27106258487831e-05,3.173358858319983e-05,2.97851616662852e-05,3.173358858319983e-05,6.1333,6.2
3.70703125,3.466470037994965e-05,2.685404986953537e-05,3.32019682887007e-05,3.173358858319983e-05,6.1333,6.2
3.7109375,3.1247893757534155e-05,2.5385670164034498e-05,3.466470037994965e-05,3.1247893757534155e-05,6.1333,6.2
3.71484375,3.368766311436638e-05,3.515604281986726e-05,3.27106258487831e-05,2.92938192263676e-05,6.1333,6.2
3.71875,3.466470037994965e-05,3.1247893757534155e-05,3.613308008545053e-05,2.7831087135118648e-05,6.1333,6.2
3.72265625,3.173358858319983e-05,2.3922938072785543e-05,3.710446973678188e-05,2.685404986953537e-05,6.1333,6.2
3.7265625,3.1247893757534155e-05,2.5385670164034498e-05,2.636270742961777e-05,2.4899975338368822e-05,6.1333,6.2
3.73046875,3.0270856491950876e-05,2.246020598153659e-05,2.636270742961777e-05,2.5877012603952095e-05,6.1333,6.2
3.734375,3.075655131761655e-05,2.5385670164034498e-05,2.148316871595332e-05,2.7339744695201047e-05,6.1333,6.2
3.73828125,3.1247893757534155e-05,2.92938192263676e-05,1.9037751744869165e-05,2.685404986953537e-05,6.1333,6.2
3.7421875,3.27106258487831e-05,3.710446973678188e-05,3.1247893757534155e-05,2.7339744695201047e-05,6.1333,6.2
3.74609375,3.222493102311743e-05,3.857284944228276e-05,3.954988670786604e-05,2.8808124400701924e-05,6.1333,6.2
3.75,3.173358858319983e-05,3.564173764553293e-05,3.710446973678188e-05,2.5877012603952095e-05,6.1333,6.2
3.75390625,3.27106258487831e-05,3.710446973678188e-05,4.198965606469826e-05,2.148316871595332e-05,6.1333,6.2
3.7578125,2.92938192263676e-05,3.613308008545053e-05,4.589780512703137e-05,2.4899975338368822e-05,6.1333,6.2
3.76171875,2.92938192263676e-05,3.417900555428398e-05,3.0270856491950876e-05,2.8808124400701924e-05,6.1333,6.2
3.765625,2.92938192263676e-05,2.92938192263676e-05,2.2945900807202266e-05,3.1247893757534155e-05,6.1333,6.2
3.76953125,2.8808124400701924e-05,2.7339744695201047e-05,3.1247893757534155e-05,3.173358858319983e-05,6.1333,6.2
3.7734375,3.173358858319983e-05,3.417900555428398e-05,3.417900555428398e-05,3.075655131761655e-05,6.1333,6.2
3.77734375,3.32019682887007e-05,4.052692397344931e-05,2.97851616662852e-05,3.0270856491950876e-05,6.1333,6.2
3.78125,3.173358858319983e-05,3.173358858319983e-05,3.417900555428398e-05,3.173358858319983e-05,6.1333,6.2
3.78515625,2.7339744695201047e-05,2.8808124400701924e-05,3.417900555428398e-05,3.0270856491950876e-05,6.1333,6.2
3.7890625,2.636270742961777e-05,3.0270856491950876e-05,3.222493102311743e-05,3.075655131761655e-05,6.1333,6.2
3.79296875,3.075655131761655e-05,2.97851616662852e-05,3.808150700236516e-05,3.1247893757534155e-05,6.1333,6.2
3.796875,3.075655131761655e-05,2.7831087135118648e-05,3.32019682887007e-05,3.075655131761655e-05,6.1333,6.2
3.80078125,2.685404986953537e-05,2.7831087135118648e-05,2.3437243247119868e-05,2.97851616662852e-05,6.1333,6.2
3.8046875,2.3437243247119868e-05,2.5385670164034498e-05,2.685404986953537e-05,2.685404986953537e-05,6.1333,6.2
3.80859375,2.5385670164034498e-05,2.0506131450370042e-05,2.636270742961777e-05,2.8808124400701924e-05,6.1333,6.2
3.8125,3.27106258487831e-05,2.5877012603952095e-05,2.3922938072785543e-05,2.8808124400701924e-05,6.1333,6.2
3.81640625,3.368766311436638e-05,2.5385670164034498e-05,2.7831087135118648e-05,2.7831087135118648e-05,6.1333,6.2
3.8203125,3.075655131761655e-05,2.148316871595332e-05,2.636270742961777e-05,2.8808124400701924e-05,6.1333,6.2
3.82421875,2.8316781960784323e-05,2.0014789010452438e-05,2.5877012603952095e-05,2.92938192263676e-05,6.1333,6.2
3.828125,2.7831087135118648e-05,2.0506131450370042e-05,2.0991826276035717e-05,3.27106258487831e-05,6.1333,6.2
3.83203125,2.97851616662852e-05,2.685404986953537e-05,1.9037751744869165e-05,3.515604281986726e-05,6.1333,6.2
3.8359375,2.97851616662852e-05,2.5385670164034498e-05,2.685404986953537e-05,3.222493102311743e-05,6.1333,6.2
3.83984375,2.7339744695201047e-05,2.0014789010452438e-05,2.685404986953537e-05,2.97851616662852e-05,6.1333,6.2
3.84375,2.8316781960784323e-05,2.0506131450370042e-05,2.3922938072785543e-05,2.92938192263676e-05,6.1333,6.2
3.84765625,3.222493102311743e-05,2.246020598153659e-05,2.1968863541618994e-05,3.075655131761655e-05,6.1333,6.2
3.8515625,2.685404986953537e-05,2.5385670164034498e-05,2.7339744695201047e-05,3.0270856491950876e-05,6.1333,6.2
3.85546875,2.5385670164034498e-05,2.7831087135118648e-05,2.8316781960784323e-05,2.92938192263676e-05,6.1333,6.2
3.859375,2.97851616662852e-05,3.466470037994965e-05,2.7831087135118648e-05,2.8808124400701924e-05,6.1333,6.2
3.86328125,2.97851616662852e-05,3.515604281986726e-05,3.222493102311743e-05,2.97851616662852e-05,6.1333,6.2
3.8671875,2.8808124400701924e-05,2.97851616662852e-05,3.857284944228276e-05,3.075655131761655e-05,6.1333,6.2
3.87109375,2.8808124400701924e-05,3.32019682887007e-05,4.247535089036394e-05,2.8316781960784323e-05,6.1333,6.2
3.875,2.8808124400701924e-05,3.32019682887007e-05,3.173358858319983e-05,2.5385670164034498e-05,6.1333,6.2
3.87890625,3.173358858319983e-05,2.8808124400701924e-05,2.685404986953537e-05,2.4414280512703147e-05,6.1333,6.2
3.8828125,3.32019682887007e-05,2.636270742961777e-05,3.222493102311743e-05,2.5877012603952095e-05,6.1333,6.2
3.88671875,3.222493102311743e-05,2.3922938072785543e-05,2.7831087135118648e-05,2.3922938072785543e-05,6.1333,6.2
3.890625,3.1247893757534155e-05,2.92938192263676e-05,2.8808124400701924e-05,2.4899975338368822e-05,6.1333,6.2
3.89453125,3.1247893757534155e-05,3.466470037994965e-05,2.8808124400701924e-05,2.92938192263676e-05,6.1333,6.2
3.8984375,3.222493102311743e-05,3.710446973678188e-05,2.5385670164034498e-05,2.97851616662852e-05,6.1333,6.2
3.90234375,3.27106258487831e-05,3.857284944228276e-05,3.27106258487831e-05,3.075655131761655e-05,6.1333,6.2
3.90625,3.368766311436638e-05,4.052692397344931e-05,3.613308008545053e-05,2.8316781960784323e-05,6.1333,6.2
3.91015625,3.173358858319983e-05,4.198965606469826e-05,4.3943730595864815e-05,2.5877012603952095e-05,6.1333,6.2
3.9140625,3.222493102311743e-05,4.150396123903259e-05,4.2966693330281535e-05,2.685404986953537e-05,6.1333,6.2
3.91796875,3.417900555428398e-05,4.247535089036394e-05,3.613308008545053e-05,2.8808124400701924e-05,6.1333,6.2
3.921875,3.710446973678188e-05,4.150396123903259e-05,3.27106258487831e-05,2.8808124400701924e-05,6.1333,6.2
3.92578125,3.417900555428398e-05,3.808150700236516e-05,3.222493102311743e-05,2.636270742961777e-05,6.1333,6.2
3.9296875,3.173358858319983e-05,3.564173764553293e-05,3.368766311436638e-05,2.8808124400701924e-05,6.1333,6.2
3.93359375,3.173358858319983e-05,3.515604281986726e-05,3.466470037994965e-05,3.075655131761655e-05,6.1333,6.2
3.9375,3.0270856491950876e-05,3.417900555428398e-05,3.32019682887007e-05,2.8808124400701924e-05,6.1333,6.2
3.94140625,2.92938192263676e-05,2.92938192263676e-05,2.685404986953537e-05,2.8316781960784323e-05,6.1333,6.2
3.9453125,3.173358858319983e-05,2.97851616662852e-05,2.8316781960784323e-05,2.636270742961777e-05,6.1333,6.2
3.94921875,3.466470037994965e-05,3.466470037994965e-05,3.466470037994965e-05,2.7339744695201047e-05,6.1333,6.2
3.953125,3.368766311436638e-05,3.466470037994965e-05,3.32019682887007e-05,2.8808124400701924e-05,6.1333,6.2
3.95703125,3.1247893757534155e-05,3.613308008545053e-05,2.685404986953537e-05,2.7339744695201047e-05,6.1333,6.2
3.9609375,3.173358858319983e-05,3.905854426794843e-05,2.148316871595332e-05,2.636270742961777e-05,6.1333,6.2
3.96484375,3.32019682887007e-05,3.466470037994965e-05,2.5877012603952095e-05,2.92938192263676e-05,6.1333,6.2
3.96875,3.173358858319983e-05,3.1247893757534155e-05,4.052692397344931e-05,3.173358858319983e-05,6.1333,6.2
3.97265625,2.97851616662852e-05,3.0270856491950876e-05,3.32019682887007e-05,2.97851616662852e-05,6.1333,6.2
3.9765625,2.8316781960784323e-05,2.8808124400701924e-05,1.0741406408789207e-05,2.8316781960784323e-05,6.1333,6.2
3.98046875,2.8316781960784323e-05,2.7339744695201047e-05,1.2204138500038158e-05,2.685404986953537e-05,6.1333,6.2
3.984375,2.5877012603952095e-05,2.8808124400701924e-05,2.1968863541618994e-05,2.5877012603952095e-05,6.1333,6.2
3.98828125,2.3922938072785543e-05,3.32019682887007e-05,3.1247893757534155e-05,2.7831087135118648e-05,6.1333,6.2
3.9921875,2.636270742961777e-05,3.6618774911116205e-05,3.368766311436638e-05,2.8316781960784323e-05,6.1333,6.2
3.99609375,2.8316781960784323e-05,3.710446973678188e-05,3.1247893757534155e-05,2.97851616662852e-05,6.1333,6.2
4.0,2.8808124400701924e-05,3.6618774911116205e-05,3.6618774911116205e-05,3.173358858319983e-05,6.1333,6.2
4.00390625,2.97851616662852e-05,3.710446973678188e-05,4.003558153353171e-05,3.222493102311743e-05,6.1333,6.2
4.0078125,3.0270856491950876e-05,4.101261879911499e-05,4.784623204394599e-05,3.222493102311743e-05,6.1333,6.2
4.01171875,3.222493102311743e-05,4.003558153353171e-05,5.126868628061342e-05,3.32019682887007e-05,6.1333,6.2
4.015625,3.222493102311743e-05,3.759581217669948e-05,3.710446973678188e-05,3.075655131761655e-05,6.1333,6.2
4.01953125,3.222493102311743e-05,3.564173764553293e-05,2.685404986953537e-05,2.5877012603952095e-05,6.1333,6.2
4.0234375,3.075655131761655e-05,3.0270856491950876e-05,3.1247893757534155e-05,2.4414280512703147e-05,6.1333,6.2
4.02734375,3.1247893757534155e-05,2.636270742961777e-05,3.27106258487831e-05,2.5877012603952095e-05,6.1333,6.2
4.03125,3.075655131761655e-05,2.5877012603952095e-05,3.075655131761655e-05,2.685404986953537e-05,6.1333,6.2
4.03515625,3.1247893757534155e-05,2.7339744695201047e-05,3.466470037994965e-05,2.7339744695201047e-05,6.1333,6.2
4.0390625,2.97851616662852e-05,2.7339744695201047e-05,3.6618774911116205e-05,3.222493102311743e-05,6.1333,6.2
4.04296875,2.685404986953537e-05,2.636270742961777e-05,3.1247893757534155e-05,2.97851616662852e-05,6.1333,6.2
4.046875,2.92938192263676e-05,2.5385670164034498e-05,2.92938192263676e-05,2.5877012603952095e-05,6.1333,6.2
4.05078125,3.0270856491950876e-05,2.636270742961777e-05,2.8316781960784323e-05,2.8316781960784323e-05,6.1333,6.2
4.0546875,2.636270742961777e-05,3.222493102311743e-05,2.7339744695201047e-05,3.1247893757534155e-05,6.1333,6.2
4.05859375,2.5877012603952095e-05,3.905854426794843e-05,3.1247893757534155e-05,3.173358858319983e-05,6.1333,6.2
4.0625,2.5877012603952095e-05,3.905854426794843e-05,3.710446973678188e-05,3.0270856491950876e-05,6.1333,6.2
4.06640625,2.5385670164034498e-05,3.515604281986726e-05,3.6618774911116205e-05,3.075655131761655e-05,6.1333,6.2
4.0703125,2.7831087135118648e-05,2.97851616662852e-05,3.515604281986726e-05,2.97851616662852e-05,6.1333,6.2
4.07421875,2.685404986953537e-05,2.92938192263676e-05,3.222493102311743e-05,2.7831087135118648e-05,6.1333,6.2
4.078125,2.7831087135118648e-05,2.7831087135118648e-05,3.075655131761655e-05,3.1247893757534155e-05,6.1333,6.2
4.08203125,2.97851616662852e-05,2.8316781960784323e-05,3.564173764553293e-05,3.32019682887007e-05,6.1333,6.2
4.0859375,2.8808124400701924e-05,3.0270856491950876e-05,4.052692397344931e-05,3.368766311436638e-05,6.1333,6.2
4.08984375,2.7831087135118648e-05,2.8316781960784323e-05,4.003558153353171e-05,3.466470037994965e-05,6.1333,6.2
4.09375,2.8808124400701924e-05,2.5385670164034498e-05,3.905854426794843e-05,3.515604281986726e-05,6.1333,6.2
4.09765625,3.0270856491950876e-05,3.075655131761655e-05,4.101261879911499e-05,3.515604281986726e-05,6.1333,6.2
4.1015625,3.466470037994965e-05,3.710446973678188e-05,3.564173764553293e-05,3.515604281986726e-05,6.1333,6.2
4.10546875,3.466470037994965e-05,3.368766311436638e-05,3.27106258487831e-05,3.466470037994965e-05,6.1333,6.2
4.109375,3.32019682887007e-05,3.417900555428398e-05,3.27106258487831e-05,3.1247893757534155e-05,6.1333,6.2
4.11328125,2.92938192263676e-05,3.808150700236516e-05,2.8316781960784323e-05,3.075655131761655e-05,6.1333,6.2
4.1171875,2.5877012603952095e-05,3.759581217669948e-05,2.92938192263676e-05,2.7831087135118648e-05,6.1333,6.2
4.12109375,2.685404986953537e-05,3.905854426794843e-05,3.222493102311743e-05,2.8316781960784323e-05,6.1333,6.2
4.125,2.7339744695201047e-05,4.003558153353171e-05,4.052692397344931e-05,3.0270856491950876e-05,6.1333,6.2
4.12890625,2.8316781960784323e-05,4.052692397344931e-05,4.687484239261464e-05,2.97851616662852e-05,6.1333,6.2
4.1328125,2.8316781960784323e-05,4.2966693330281535e-05,3.564173764553293e-05,3.0270856491950876e-05,6.1333,6.2
4.13671875,2.92938192263676e-05,4.150396123903259e-05,2.92938192263676e-05,2.7831087135118648e-05,6.1333,6.2
4.140625,2.8316781960784323e-05,3.6618774911116205e-05,3.368766311436638e-05,2.636270742961777e-05,6.1333,6.2
4.14453125,3.0270856491950876e-05,3.27106258487831e-05,3.710446973678188e-05,2.4414280512703147e-05,6.1333,6.2
4.1484375,3.417900555428398e-05,3.368766311436638e-05,3.564173764553293e-05,2.7831087135118648e-05,6.1333,6.2
4.15234375,3.1247893757534155e-05,3.222493102311743e-05,3.27106258487831e-05,2.92938192263676e-05,6.1333,6.2
4.15625,2.97851616662852e-05,2.3922938072785543e-05,2.7831087135118648e-05,2.5385670164034498e-05,6.1333,6.2
4.16015625,3.075655131761655e-05,2.1968863541618994e-05,3.222493102311743e-05,2.4414280512703147e-05,6.1333,6.2
4.1640625,3.075655131761655e-05,2.3437243247119868e-05,4.003558153353171e-05,2.5385670164034498e-05,6.1333,6.2
4.16796875,3.173358858319983e-05,2.3437243247119868e-05,2.5385670164034498e-05,2.5385670164034498e-05,6.1333,6.2
4.171875,3.222493102311743e-05,2.3437243247119868e-05,1.9529094184786762e-05,2.7339744695201047e-05,6.1333,6.2
4.17578125,3.1247893757534155e-05,2.7339744695201047e-05,3.173358858319983e-05,3.0270856491950876e-05,6.1333,6.2
4.1796875,3.173358858319983e-05,3.222493102311743e-05,3.32019682887007e-05,2.92938192263676e-05,6.1333,6.2
4.18359375,3.173358858319983e-05,3.0270856491950876e-05,2.8808124400701924e-05,2.8316781960784323e-05,6.1333,6.2
4.1875,3.075655131761655e-05,2.636270742961777e-05,2.4414280512703147e-05,2.7339744695201047e-05,6.1333,6.2
4.19140625,3.368766311436638e-05,3.1247893757534155e-05,2.5385670164034498e-05,2.5385670164034498e-05,6.1333,6.2
4.1953125,3.1247893757534155e-05,3.466470037994965e-05,3.368766311436638e-05,2.5877012603952095e-05,6.1333,6.2
4.19921875,3.0270856491950876e-05,3.613308008545053e-05,3.6618774911116205e-05,2.4414280512703147e-05,6.1333,6.2
4.203125,3.075655131761655e-05,3.613308008545053e-05,3.173358858319983e-05,2.5385670164034498e-05,6.1333,6.2
4.20703125,2.97851616662852e-05,3.564173764553293e-05,2.97851616662852e-05,2.5877012603952095e-05,6.1333,6.2
4.2109375,3.173358858319983e-05,3.368766311436638e-05,3.222493102311743e-05,2.4899975338368822e-05,6.1333,6.2
4.21484375,3.1247893757534155e-05,2.97851616662852e-05,3.417900555428398e-05,2.4414280512703147e-05,6.1333,6.2
4.21875,3.1247893757534155e-05,3.0270856491950876e-05,3.759581217669948e-05,2.0991826276035717e-05,6.1333,6.2
4.22265625,3.32019682887007e-05,2.5877012603952095e-05,3.808150700236516e-05,2.2945900807202266e-05,6.1333,6.2
4.2265625,3.27106258487831e-05,3.0270856491950876e-05,2.685404986953537e-05,2.5385670164034498e-05,6.1333,6.2
4.23046875,3.1247893757534155e-05,3.222493102311743e-05,2.246020598153659e-05,2.3922938072785543e-05,6.1333,6.2
4.234375,2.97851616662852e-05,2.8808124400701924e-05,3.173358858319983e-05,2.3922938072785543e-05,6.1333,6.2
4.23828125,3.27106258487831e-05,2.8316781960784323e-05,2.92938192263676e-05,2.5877012603952095e-05,6.1333,6.2
4.2421875,3.27106258487831e-05,2.0014789010452438e-05,1.855205691920349e-05,2.8808124400701924e-05,6.1333,6.2
4.24609375,3.1247893757534155e-05,2.148316871595332e-05,1.9037751744869165e-05,2.7831087135118648e-05,6.1333,6.2
