timestamp,TP9,AF7,AF8,TP10,Valence,Arousal
0.0,3.220004861524378e-05,-7.663491244373234e-05,-7.323099586480505e-05,0.0007651265466849774,6.6667,6.4667
0.00390625,2.3916180834668508e-05,-8.787084946974897e-05,-6.247702932784007e-05,0.0007353347458304723,6.6667,6.4667
0.0078125,3.0272166659037168e-05,-0.0001083847184100099,-7.323099586480505e-05,0.0006835831645685511,6.6667,6.4667
0.01171875,4.783396635385673e-05,-8.006895217822535e-05,-8.738887898069732e-05,0.0006708711929198139,6.6667,6.4667
0.015625,6.834783529411766e-05,-9.226883018234529e-05,-0.00013522445001907377,0.0006547553046921493,6.6667,6.4667
0.01953125,6.882980578316932e-05,-0.00010690868378728922,-0.00014353844095521475,0.0006157156950789655,6.6667,6.4667
0.0234375,9.470559641412987e-05,-0.00010106479160753794,-0.000165016250873579,0.0006152337245899138,6.6667,6.4667
0.02734375,0.00010545956295109485,-5.759707812619209e-05,-0.00014841839215686272,0.0006557493688258183,6.6667,6.4667
0.03125,6.982386991683834e-05,-3.0245252872510857e-05,-0.00011130666449988553,0.0006655092712291143,6.6667,6.4667
0.03515625,7.12697813839933e-05,-8.98288545815213e-05,-0.00015429240749217972,0.0005844478596017395,6.6667,6.4667
0.0390625,7.81077376974136e-05,-0.00014841839215686272,-0.00017917413398947125,0.0005737240162203403,6.6667,6.4667
0.04296875,9.130167983520258e-05,-0.00013278447441824977,-0.00013670048464179443,0.0006650273007400626,6.6667,6.4667
0.046875,8.346965938811324e-05,-9.714878138399326e-05,-0.00011766265032425419,0.0006615932610055696,6.6667,6.4667
0.05078125,9.374165543602656e-05,-8.103289315632866e-05,-0.00011766265032425419,0.0006474353778896773,6.6667,6.4667
0.0546875,9.958554761577784e-05,-0.00011618661570153351,-0.00013133856295109483,0.0006533093932249943,6.6667,6.4667
0.05859375,8.542766449988556e-05,-0.00010790274792095824,-0.0001093486593881132,0.0005947198556496529,6.6667,6.4667
0.0625,0.00011765944095521479,-8.591284435797663e-05,-9.470880578316928e-05,0.0005712840406195162,6.6667,6.4667
0.06640625,0.00011521946535439079,-0.0001454964460669871,-0.000170890266208896,0.0006508694176241703,6.6667,6.4667
0.0703125,9.958554761577784e-05,-8.934688409246966e-05,-0.00011130666449988553,0.000648911412512398,6.6667,6.4667
0.07421875,9.081970934615092e-05,-8.347286875715265e-05,-9.226883018234529e-05,0.0005678500008850232,6.6667,6.4667
0.078125,9.130167983520258e-05,-0.00013670048464179443,-0.00014646038704509037,0.000558572068970779,6.6667,6.4667
0.08203125,0.0001298593189593347,-0.00010446870818646523,-0.00011326466961165788,0.0005649280547951476,6.6667,6.4667
0.0859375,0.0001127794897535668,-8.055092266727702e-05,-9.862481600671395e-05,0.0005224544054474708,6.6667,6.4667
0.08984375,0.00010886347953002214,-6.542909857328143e-05,-0.00010202873258564124,0.0005263402925154497,6.6667,6.4667
0.09375,0.00013281138820477606,-0.00010350476720836192,-0.00012986252832837414,0.0005375762295414665,6.6667,6.4667
0.09765625,9.325968494697491e-05,-0.00010986075303273058,-0.00011374664010070952,0.0005830019481345846,6.6667,6.4667
0.1015625,9.422362592507822e-05,-7.223693173113602e-05,-8.591284435797663e-05,0.0005048624825970856,6.6667,6.4667
0.10546875,0.00012841340749217978,-0.00011326466961165788,-0.0001254645476157778,0.0004638648678721294,6.6667,6.4667
0.109375,9.226562081330589e-05,-0.0001093486593881132,-0.00012938055783932246,0.0004589547935149157,6.6667,6.4667
0.11328125,7.958377232013429e-05,-4.343919501029983e-05,-9.226883018234529e-05,0.00039108732402533,6.6667,6.4667
0.1171875,8.542766449988556e-05,-6.786907417410543e-05,-9.618484040588997e-05,0.0003686455731288624,6.6667,6.4667
0.12109375,5.370798168917373e-05,-0.00013278447441824977,-0.00012938055783932246,0.00040672124176394293,6.6667,6.4667
0.125,7.858970818646526e-05,-0.00010154676209658959,-9.91067864957656e-05,0.00045994885764858475,6.6667,6.4667
0.12890625,9.422362592507822e-05,-8.055092266727702e-05,-7.907488804455633e-05,0.00039403939327077136,6.6667,6.4667
0.1328125,6.931177627222097e-05,-0.00011278269912260622,-8.39548392462043e-05,0.0003276178352483406,6.6667,6.4667
0.13671875,7.078781089494163e-05,-0.00012645861174944684,-6.687501004043639e-05,0.0003676515089951934,6.6667,6.4667
0.140625,7.12697813839933e-05,-0.0001269405822384985,-0.0001083847184100099,0.0003422576888532845,6.6667,6.4667
0.14453125,4.5875961242084394e-05,-0.00012498257712672617,-0.00016796832011902035,0.0003266538942702373,6.6667,6.4667
0.1484375,7.714379671931029e-05,-8.006895217822535e-05,-0.00013329656806286715,0.00037156751921873805,6.6667,6.4667
0.15234375,0.00011473749486533913,-7.12729907530327e-05,-0.0001440204114442664,0.00038328542673380636,6.6667,6.4667
0.15625,7.566776209658962e-05,-8.98288545815213e-05,-0.0001616123342946517,0.0003290938698710612,6.6667,6.4667
0.16015625,7.030584040588999e-05,-9.763075187304493e-05,-0.0001479364216678111,0.00027830622958724345,6.6667,6.4667
0.1640625,9.030761570153354e-05,-9.32327711604486e-05,-0.00013573654366369115,0.0002929460831921874,6.6667,6.4667
0.16796875,8.73856696116579e-05,-8.39548392462043e-05,-0.00010642671329823757,0.00030126007412832834,6.6667,6.4667
0.171875,8.98256452124819e-05,-8.787084946974897e-05,-9.519077627222094e-05,0.0003315338454718853,6.6667,6.4667
0.17578125,6.982386991683834e-05,-0.00010790274792095824,-9.519077627222094e-05,0.0003305397813382162,6.6667,6.4667
0.1796875,7.12697813839933e-05,-0.00015185243189135575,-0.00013474247953002211,0.0003554516309910735,6.6667,6.4667
0.18359375,0.00010106158223849853,-0.00013573654366369115,-0.00014109846535439077,0.0003930453291371023,6.6667,6.4667
0.1875,9.274759130235753e-05,-9.422683529411764e-05,-0.00010690868378728922,0.000290988078080415,6.6667,6.4667
0.19140625,7.907167867551691e-05,-9.958875698481726e-05,-0.00011718067983520255,0.00028562615638971545,6.6667,6.4667
0.1953125,0.00010253761686121921,-0.00010986075303273058,-0.00012594651810482946,0.0003403298068970779,6.6667,6.4667
0.19921875,0.00011669549997711149,-0.00012058459641412984,-0.00010690868378728922,0.00034861367467765316,6.6667,6.4667
0.203125,0.00011130345513084613,-0.00013426050904097046,-0.00013522445001907377,0.0003446976644541085,6.6667,6.4667
0.20703125,0.00010301958735027086,-0.00010350476720836192,-0.00011278269912260622,0.0003290938698710612,6.6667,6.4667
0.2109375,0.00010253761686121921,-0.00012206063103685052,-7.859291755550468e-05,0.00037792350504310673,6.6667,6.4667
0.21484375,7.030584040588999e-05,-0.00016013629967193103,-8.151486364538031e-05,0.0003881653779354543,6.6667,6.4667
0.21875,9.813963614862288e-05,-0.0001376945487754635,-0.00012206063103685052,0.0003305397813382162,6.6667,6.4667
0.22265625,9.178365032425422e-05,-0.00013426050904097046,-0.00017333024180971998,0.000306621995819028,6.6667,6.4667
0.2265625,6.687180067139699e-05,-0.0001093486593881132,-0.00013621851415274278,0.00032225591355764096,6.6667,6.4667
0.23046875,0.00011570143584344245,-9.958875698481726e-05,-0.0001391404602426184,0.00028906019612420845,6.6667,6.4667
0.234375,8.542766449988556e-05,-0.0001440204114442664,-0.00021140591044480046,0.000294422117814908,6.6667,6.4667
0.23828125,8.346965938811324e-05,-0.00010446870818646523,-0.00017721612887769894,0.00034909564516670484,6.6667,6.4667
0.2421875,0.00011814141144426641,-6.103111786068511e-05,-0.00012645861174944684,0.00032809980573739227,6.6667,6.4667
0.24609375,8.786764010070956e-05,-0.00013278447441824977,-0.00014353844095521475,0.00032029790844586865,6.6667,6.4667
0.25,9.66636015259022e-05,-0.00017185420718699929,-0.00014305647046616312,0.0003022240151064317,6.6667,6.4667
0.25390625,0.00013329335869382775,-0.00014257449997711146,-0.00013133856295109483,0.0003076160599526971,6.6667,6.4667
0.2578125,9.178365032425422e-05,-0.0001337785385519188,-0.0001337785385519188,0.0003964793688715953,6.6667,6.4667
0.26171875,8.834961058976121e-05,-0.00011230072863355457,-0.00010790274792095824,0.00036716953850614173,6.6667,6.4667
0.265625,0.00013034128944838637,-0.00012206063103685052,-0.00010886668889906156,0.00034813170418860153,6.6667,6.4667
0.26953125,0.0001093454500190738,-0.00010546277232013425,-0.00010594474280918592,0.0003852434318455787,6.6667,6.4667
0.2734375,9.274759130235753e-05,-6.979695613031202e-05,-8.690690849164567e-05,0.000392081388158999,6.6667,6.4667
0.27734375,9.226562081330589e-05,-0.00011814462081330585,-0.0001279045232166018,0.00037888744602121004,6.6667,6.4667
0.28125,9.518756690318151e-05,-0.00014353844095521475,-0.00013670048464179443,0.0004155172031891356,6.6667,6.4667
0.28515625,8.886170423437859e-05,-9.226883018234529e-05,-6.979695613031202e-05,0.0004589547935149157,6.6667,6.4667
0.2890625,7.714379671931029e-05,-8.642493800259401e-05,-5.319909741359577e-05,0.0004701907305409323,6.6667,6.4667
0.29296875,7.566776209658962e-05,-0.00014061649486533912,-9.031082507057296e-05,0.00041795717878995956,6.6667,6.4667
0.296875,4.7351995864805084e-05,-0.00017333024180971998,-0.00010690868378728922,0.0004399169591973755,6.6667,6.4667
0.30078125,5.5635863645380334e-05,-7.615294195468069e-05,-7.371296635385669e-05,0.0005029044774853132,6.6667,6.4667
0.3046875,6.786586480506601e-05,-6.835104466315707e-05,-0.00014353844095521475,0.000492180634103914,6.6667,6.4667
0.30859375,5.515389315632869e-05,-0.00010446870818646523,-0.0001879700954146639,0.00044187496430914776,6.6667,6.4667
0.3125,3.9038004928664086e-05,-7.958698168917371e-05,-0.0001479364216678111,0.000466786813962005,6.6667,6.4667
0.31640625,4.0996010040436424e-05,-9.275080067139695e-05,-0.00014890036264591437,0.0005336903424734875,6.6667,6.4667
0.3203125,6.054593800259404e-05,-9.618484040588997e-05,-0.0001186265913023575,0.0005346542834515907,6.6667,6.4667
0.32421875,6.247381995880066e-05,-0.00012302457201495383,-0.00010986075303273058,0.0005117004389105058,6.6667,6.4667
0.328125,5.370798168917373e-05,-0.00014061649486533912,-0.00010642671329823757,0.0005263402925154497,6.6667,6.4667
0.33203125,5.662992777904938e-05,-0.00013670048464179443,-9.570286991683832e-05,0.0005370942590524147,6.6667,6.4667
0.3359375,4.635793173113605e-05,-0.00014841839215686272,-0.00013085659246204318,0.0005170623606012055,6.6667,6.4667
0.33984375,2.4398151323720162e-05,-0.0001005828211184863,-9.519077627222094e-05,0.0005287802681162737,6.6667,6.4667
0.34375,1.659625403219655e-05,-0.00012157866054779887,-0.0001337785385519188,0.0005038985416189822,6.6667,6.4667
0.34765625,7.419172747386894e-05,-0.00010007072747386891,-0.00012254260152590217,0.0005854419237354086,6.6667,6.4667
0.3515625,5.906990337987336e-05,-0.00010790274792095824,-0.00013133856295109483,0.0005868878352025635,6.6667,6.4667
0.35546875,2.2440146211947824e-05,-0.00014597841655603874,-0.00014305647046616312,0.0005937257915159837,6.6667,6.4667
0.359375,2.63561564354925e-05,-0.00012010262592507818,-8.738887898069732e-05,0.0006279155730830854,6.6667,6.4667
0.36328125,4.8315936842908386e-05,-0.00011082469401083389,-0.00011034272352178224,0.0006108357438773174,6.6667,6.4667
0.3671875,1.9518200122072185e-05,-9.814284551766231e-05,-0.00012157866054779887,0.0006264395384603646,6.6667,6.4667
0.37109375,-1.708143389028762e-05,-9.178685969329365e-05,-7.958698168917371e-05,0.000716296911512932,6.6667,6.4667
0.375,2.0994234744792868e-05,-9.079279555962461e-05,-3.660123869687952e-05,0.0007651265466849774,6.6667,6.4667
0.37890625,2.8314161547264837e-05,-0.00011474070423437857,-0.00011913868494697488,0.0007270207548943313,6.6667,6.4667
0.3828125,-1.9039439002059953e-05,-0.00020800199386587318,-0.0002260457640497444,0.0007245807792935073,6.6667,6.4667
0.38671875,-4.051724892042419e-05,-0.0001245006066376745,-0.0001288985873502708,0.0008056421909208819,6.6667,6.4667
0.390625,-3.0245252872510857e-05,-4.003527843137253e-05,-6.44350344396124e-05,0.0008071182255436026,6.6667,6.4667
0.39453125,-2.831737091630425e-05,-0.00014109846535439077,-0.00012106656690318148,0.0007455766187228199,6.6667,6.4667
0.3984375,-4.148118989852749e-05,-0.00011962065543602654,-9.470880578316928e-05,0.0007773264246890974,6.6667,6.4667
0.40234375,-3.5155327229724564e-05,-0.00010594474280918592,-0.00010886668889906156,0.0007299728241397727,6.6667,6.4667
0.40625,-2.9536739299610753e-06,-0.00011278269912260622,-0.00013085659246204318,0.0007656085171740292,6.6667,6.4667
0.41015625,-1.3165423666742947e-05,-0.0001479364216678111,-0.00011618661570153351,0.0007436487367666133,6.6667,6.4667
0.4140625,3.402311894407582e-06,-0.0001440204114442664,-6.931498564126039e-05,0.0007202129217364767,6.6667,6.4667
0.41796875,-1.708143389028762e-05,-0.00012742255272755015,-0.00010302279671931028,0.0007094589551995117,6.6667,6.4667
0.421875,-3.9041214297703505e-05,-0.00011082469401083389,-0.00017233617767605097,0.0006996990527962158,6.6667,6.4667
0.42578125,1.8042165499351505e-05,-7.518900097657738e-05,-0.00014890036264591437,0.0007412087611657893,6.6667,6.4667
0.4296875,-2.2925326070038898e-05,-0.0001450144755779354,-0.00017185420718699929,0.0006264395384603646,6.6667,6.4667
0.43359375,-2.5877395315480264e-05,-0.00016013629967193103,-0.0001850481493247883,0.0005883638698252842,6.6667,6.4667
0.4375,-8.3155956206607e-06,-0.00017233617767605097,-0.00018065016861219194,0.0006645453302510109,6.6667,6.4667
0.44140625,-2.7805277271686868e-05,-0.00014257449997711146,-0.00013962243073167008,0.0006728291980315861,6.6667,6.4667
0.4453125,-1.959609796292044e-06,-0.00011913868494697488,-0.00011230072863355457,0.0006020397824521249,6.6667,6.4667
0.44921875,-1.1719512199587993e-05,-0.00012206063103685052,-8.2990898268101e-05,0.0006474353778896773,6.6667,6.4667
0.453125,-1.0273600732433036e-05,-0.00010790274792095824,-6.59110690623331e-05,0.0006806612184786755,6.6667,6.4667
0.45703125,-1.959609796292044e-06,-0.0001391404602426184,-0.00010495067867551688,0.0006728291980315861,6.6667,6.4667
0.4609375,2.5362092301823464e-05,-0.000162576275272755,-0.0001269405822384985,0.0007421727021438925,6.6667,6.4667
0.46484375,-1.2713576333257023e-05,-0.00015378031384756234,-0.00013230250392919812,0.0007123809012893873,6.6667,6.4667
0.46875,-4.8801116700999446e-05,-0.0001532983433585107,-0.00011570464521248186,0.000651351388113222,6.6667,6.4667
0.47265625,-4.636114110017546e-05,-0.00013962243073167008,-0.0001074207774319066,0.0006679492468299383,6.6667,6.4667
0.4765625,-6.357590508888366e-06,-0.00011130666449988553,-9.031082507057296e-05,0.0006684312173189899,6.6667,6.4667
0.48046875,3.4640024216067764e-05,-0.0001479364216678111,-0.00010302279671931028,0.000703102969375143,6.6667,6.4667
0.484375,1.659625403219655e-05,-0.00012498257712672617,-9.763075187304493e-05,0.0007470526533455405,6.6667,6.4667
0.48828125,-1.464145828946363e-05,-6.786907417410543e-05,-9.666681089494162e-05,0.0007748864490882734,6.6667,6.4667
0.4921875,-2.8799341405355904e-05,-0.00011570464521248186,-0.00015965432918287935,0.0007392507560540169,6.6667,6.4667
0.49609375,-2.8799341405355904e-05,-0.00015477437798123138,-0.00020604398875410083,0.0007558486147707332,6.6667,6.4667
0.5,-2.048535046921491e-05,-0.00015233440238040738,-0.00017673415838864726,0.0007494926289463645,6.6667,6.4667
0.50390625,2.343421034561686e-05,-0.0001391404602426184,-0.0001337785385519188,0.0007519326045471885,6.6667,6.4667
0.5078125,2.5362092301823464e-05,-0.0001279045232166018,-0.00013426050904097046,0.0007075009500877394,6.6667,6.4667
0.51171875,-9.956688181887401e-07,-0.0001371824551308461,-0.00015477437798123138,0.0006459894664225224,6.6667,6.4667
0.515625,1.8042165499351505e-05,-9.031082507057296e-05,-0.0001245006066376745,0.0006948191015945678,6.6667,6.4667
0.51953125,2.8314161547264837e-05,-9.422683529411764e-05,-0.00010446870818646523,0.0006430373971770809,6.6667,6.4667
0.5234375,-1.959609796292044e-06,-0.00011814462081330585,-0.00011814462081330585,0.0005361303180743115,6.6667,6.4667
0.52734375,-3.416126309605553e-05,-0.0001479364216678111,-0.00014450238193331805,0.00046091279862668806,6.6667,6.4667
0.53125,-1.1719512199587993e-05,-0.00013474247953002211,-0.00014353844095521475,0.0003583735770809491,6.6667,6.4667
0.53515625,3.611605883878845e-05,-7.859291755550468e-05,-0.00011962065543602654,0.0003583735770809491,6.6667,6.4667
0.5390625,-1.36473941557946e-05,-0.00010302279671931028,-0.00012841661686121918,0.0003207798789349203,6.6667,6.4667
0.54296875,-6.247702932784007e-05,-0.00013426050904097046,-0.00016796832011902035,0.00023583258023956665,6.6667,6.4667
0.546875,-3.759530283054855e-05,-0.00012010262592507818,-0.00016893226109712366,0.0002397184673075456,6.6667,6.4667
0.55078125,1.560218989852752e-05,-8.347286875715265e-05,-0.00011474070423437857,0.000229476594415198,6.6667,6.4667
0.5546875,1.2198273319600228e-05,-9.958875698481726e-05,-0.00010690868378728922,0.00022899462392614634,6.6667,6.4667
0.55859375,-2.5877395315480264e-05,-0.00014989442677958343,-0.0001591723586938277,0.00019772678844892045,6.6667,6.4667
0.5625,4.8783465171282675e-06,-0.0001371824551308461,-0.00014646038704509037,0.00013961922136263065,6.6667,6.4667
0.56640625,-1.8527345357442572e-05,-0.00013230250392919812,-0.00011618661570153351,0.00012645540238040743,6.6667,6.4667
0.5703125,-7.83362513160905e-06,-9.618484040588997e-05,-0.00011374664010070952,0.00011913547557793546,6.6667,6.4667
0.57421875,2.4398151323720162e-05,-7.518900097657738e-05,-7.518900097657738e-05,0.0001337753291828794,6.6667,6.4667
0.578125,-1.0755571221484689e-05,-0.00012254260152590217,-0.0001083847184100099,0.00011814141144426641,6.6667,6.4667
0.58203125,-4.7837175722896144e-05,-0.00014841839215686272,-0.00015233440238040738,8.690369912260625e-05,6.6667,6.4667
0.5859375,-1.5605399267566932e-05,-0.0001440204114442664,-0.00015477437798123138,0.0001118155487754635,6.6667,6.4667
0.58984375,-3.9176149080643794e-06,-0.00016013629967193103,-0.0001479364216678111,4.979197146562907e-05,6.6667,6.4667
0.59375,4.8783465171282675e-06,-0.00011962065543602654,-0.0001440204114442664,-2.4415802853436955e-06,6.6667,6.4667
0.59765625,-4.911679041733411e-06,-9.666681089494162e-05,-0.00017429418278782328,3.56340883497368e-05,6.6667,6.4667
0.6015625,-1.415948780041198e-05,-0.00015185243189135575,-0.0002158038911573968,0.00011130345513084613,6.6667,6.4667
0.60546875,1.268024380865188e-05,-0.00011278269912260622,-0.00019824209146257723,0.0001728450619516289,6.6667,6.4667
0.609375,-2.2925326070038898e-05,-3.708320918593117e-05,-0.00017772822252231632,0.00014793321229877168,6.6667,6.4667
0.61328125,-3.172128749523154e-05,-0.00013133856295109483,-0.00020652595924315249,8.202374792095828e-05,6.6667,6.4667
0.6171875,4.803658045319441e-07,-0.000166010315007248,-0.0001786921635004196,4.931000097657741e-05,6.6667,6.4667
0.62109375,-1.2231605844205372e-05,-0.00015134033824673837,-0.00015721435358205535,6.638983018234532e-05,6.6667,6.4667
0.625,-3.0757346517128234e-05,-0.00020360401315327686,-0.00019333201710536354,-0.0001074207774319066,6.6667,6.4667
0.62890625,1.1204209185931194e-05,-0.0001532983433585107,-0.00017721612887769894,-0.0003290970792401007,6.6667,6.4667
0.6328125,4.5875961242084394e-05,-0.0001074207774319066,-0.00014257449997711146,-0.0004721519450217441,6.6667,6.4667
0.63671875,-7.83362513160905e-06,-0.00014206240633249408,-0.00012206063103685052,-0.0006225568607614253,6.6667,6.4667
0.640625,-2.343741971465628e-05,-0.00017137223669794763,-0.00016209430478370334,-0.0007001842326543068,6.6667,6.4667
0.64453125,7.800292607003904e-06,-0.00015281637286945906,-0.00017233617767605097,-0.0007109080760357061,6.6667,6.4667
0.6484375,1.3162214297703532e-05,-0.00015134033824673837,-0.00017429418278782328,-0.000727536057907988,6.6667,6.4667
0.65234375,2.2440146211947824e-05,-0.00018161410959029523,-0.00021776189626916914,-0.0007983254734874495,6.6667,6.4667
0.65625,2.63561564354925e-05,-0.0002055620182650492,-0.00022116581284809642,-0.0008993886604104676,6.6667,6.4667
0.66015625,-9.279536598764006e-06,-0.0001962840863508049,-0.00024267374592202637,-0.0009477363250934614,6.6667,6.4667
0.6640625,1.4156278431372562e-05,-0.00019140413514915692,-0.00017284827132066835,-0.0009116186615701533,6.6667,6.4667
0.66796875,6.806228473334872e-06,-0.000237281701075761,-0.0001962840863508049,-0.0009106245974364844,6.6667,6.4667
0.671875,-7.351654642557398e-06,-0.00025487362392614634,-0.0003129811910124361,-0.0009487303892271305,6.6667,6.4667
0.67578125,1.1204209185931194e-05,-0.0002661095609521629,-0.00026415155584039065,-0.000950658271183337,6.6667,6.4667
0.6796875,3.884282383459233e-06,-0.00029150338109407186,-0.0002558375649042496,-0.0009765340618142976,6.6667,6.4667
0.68359375,-4.687323474479284e-05,-0.0003344590009308003,-0.0003979284897077897,-0.0009912040385748073,6.6667,6.4667
0.6875,-7.12729907530327e-05,-0.0003837706065918974,-0.00041356240744640265,-0.000981926106660563,6.6667,6.4667
0.69140625,-6.59110690623331e-05,-0.00039304853850614176,-0.00038476467072556645,-0.0009828900476386664,6.6667,6.4667
0.6953125,-0.00011082469401083389,-0.0004443181492790112,-0.00047802596035706105,-0.0009970479307545585,6.6667,6.4667
0.69921875,-0.0001391404602426184,-0.00051561965850309,-0.0005448993657129778,-0.0009999698768444342,6.6667,6.4667
0.703125,-0.00017821019301136795,-0.0005922830894178683,-0.0006098448891126878,-0.0009994879063553825,6.6667,6.4667
0.70703125,-0.0002670735019302663,-0.0007016301441214618,-0.0007631717509422446,-0.0009999698768444342,6.6667,6.4667
0.7109375,-0.0003368989765316243,-0.0007919694876630808,-0.0008569150110627909,-0.0009999698768444342,6.6667,6.4667
0.71484375,-0.00040428447553215834,-0.0009472543546044098,-0.0009667741594110016,-0.0009999698768444342,6.6667,6.4667
0.71875,-0.0006127668352025634,-0.0009999698768444342,-0.0009999698768444342,-0.0009999698768444342,6.6667,6.4667
0.72265625,-0.0009355364470893415,-0.000994125984664683,-0.0009950899256427862,-0.0009999698768444342,6.6667,6.4667
0.7265625,-0.0009999698768444342,-0.0009999698768444342,-0.0009999698768444342,-0.0009999698768444342,6.6667,6.4667
0.73046875,-0.0009887640629739833,-0.0009999698768444342,-0.0009999698768444342,-0.0009999698768444342,6.6667,6.4667
0.734375,-0.0009999698768444342,-0.0009999698768444342,-0.0009999698768444342,-0.0009999698768444342,6.6667,6.4667
0.73828125,-0.0009999698768444342,-0.0009999698768444342,-0.0009999698768444342,-0.0009999698768444342,6.6667,6.4667
0.7421875,-0.0009999698768444342,-0.0009999698768444342,-0.0009999698768444342,-0.0009999698768444342,6.6667,6.4667
0.74609375,-0.0009999698768444342,-0.0009999698768444342,-0.0009999698768444342,-0.0009999698768444342,6.6667,6.4667
0.75,-0.0009999698768444342,-0.0009999698768444342,-0.0009999698768444342,-0.0009999698768444342,6.6667,6.4667
0.75390625,-0.0009999698768444342,-0.0009999698768444342,-0.0009999698768444342,-0.0009999698768444342,6.6667,6.4667
0.7578125,-0.0009980419948882276,-0.0009999698768444342,-0.0009999698768444342,-0.0009999698768444342,6.6667,6.4667
0.76171875,-0.0009999698768444342,-0.0009999698768444342,-0.0009999698768444342,-0.0009999698768444342,6.6667,6.4667
0.765625,-0.0009604482967421988,-0.0009999698768444342,-0.0009999698768444342,-0.0009999698768444342,6.6667,6.4667
0.76953125,-0.000834955230655375,-0.0009999698768444342,-0.0009999698768444342,-0.0009999698768444342,6.6667,6.4667
0.7734375,-0.0007206981015945678,-0.0009999698768444342,-0.0009999698768444342,-0.0009999698768444342,6.6667,6.4667
0.77734375,-0.0004457941839017319,-0.0009999698768444342,-0.0009999698768444342,-0.0009999698768444342,6.6667,6.4667
0.78125,0.00010838150904097049,-0.0009999698768444342,-0.0009999698768444342,-0.0009999698768444342,6.6667,6.4667
0.78515625,0.0005410102692759595,-0.0009999698768444342,-0.0009999698768444342,-0.0009999698768444342,6.6667,6.4667
0.7890625,0.000699217082307164,-0.0009999698768444342,-0.0009999698768444342,-0.000989246033463035,6.6667,6.4667
0.79296875,0.0006445134317998016,-0.0009999698768444342,-0.0009999698768444342,-0.0009999698768444342,6.6667,6.4667
0.796875,0.0006230356218814375,-0.0009999698768444342,-0.0009999698768444342,-0.0009501763006942854,6.6667,6.4667
0.80078125,0.0005903218749370566,-0.0009999698768444342,-0.0009999698768444342,-0.0004609160079957274,6.6667,6.4667
0.8046875,0.0005282982976272221,-0.0009999698768444342,-0.0009999698768444342,0.0002285126534370947,6.6667,6.4667
0.80859375,0.0005400162051422903,-0.0009999698768444342,-0.0009999698768444342,0.0007450946482337682,6.6667,6.4667
0.8125,0.00046142489227130544,-0.0009999698768444342,-0.0009999698768444342,0.0009628850629739834,6.6667,6.4667
0.81640625,0.00038280345624475473,-0.0009999698768444342,-0.0009999698768444342,0.000960927057862211,6.6667,6.4667
0.8203125,0.0003954853047379263,-0.0009999698768444342,-0.0009999698768444342,0.0009653250385748074,6.6667,6.4667
0.82421875,0.00035496966050202185,-0.0009999698768444342,-0.0009999698768444342,0.0009692109256427864,6.6667,6.4667
0.828125,0.00032126184942397196,-0.0009999698768444342,-0.0009999698768444342,0.0009677650141756313,6.6667,6.4667
0.83203125,0.00026122640038147557,-0.0009999698768444342,-0.0009999698768444342,0.0009677650141756313,6.6667,6.4667
0.8359375,0.00018748491555657283,-0.0009999698768444342,-0.0009999698768444342,0.0009677650141756313,6.6667,6.4667
0.83984375,0.00020408277427328908,-0.0009999698768444342,-0.0009999698768444342,0.0009677650141756313,6.6667,6.4667
0.84375,0.00017576700804150457,-0.0009999698768444342,-0.0009999698768444342,0.000968246984664683,6.6667,6.4667
0.84765625,0.00012058138704509041,-0.0009999698768444342,-0.0009999698768444342,0.000968246984664683,6.6667,6.4667
0.8515625,0.0001118155487754635,-0.0009999698768444342,-0.0009999698768444342,0.000968246984664683,6.6667,6.4667
0.85546875,0.00011130345513084613,-0.0009999698768444342,-0.0009999698768444342,0.0009677650141756313,6.6667,6.4667
0.859375,0.00011669549997711149,-0.0009999698768444342,-0.0009999698768444342,0.0009692109256427864,6.6667,6.4667
0.86328125,0.00012058138704509041,-0.0009999698768444342,-0.0009999698768444342,0.0009614090283512626,6.6667,6.4667
0.8671875,9.226562081330589e-05,-0.0009999698768444342,-0.0009999698768444342,0.0009741209999999999,6.6667,6.4667
0.87109375,8.006574280918595e-05,-0.0009999698768444342,-0.0009999698768444342,0.0009418892235446707,6.6667,6.4667
0.875,6.931177627222097e-05,-0.0009999698768444342,-0.0009999698768444342,0.0007626865710841535,6.6667,6.4667
0.87890625,4.979197146562907e-05,-0.0009999698768444342,-0.0009999698768444342,0.0006650273007400626,6.6667,6.4667
0.8828125,4.687002537575343e-05,-0.0009999698768444342,-0.0009999698768444342,0.0006762632377660792,6.6667,6.4667
0.88671875,8.102968378728924e-05,-0.0009999698768444342,-0.0009999698768444342,0.0006303555486839094,6.6667,6.4667
0.890625,0.00010301958735027086,-0.0009999698768444342,-0.0009999698768444342,0.0005702899764858473,6.6667,6.4667
0.89453125,8.98256452124819e-05,-0.0009999698768444342,-0.0009999698768444342,0.0005400162051422903,6.6667,6.4667
0.8984375,7.322778649576565e-05,-0.0009999698768444342,-0.0009999698768444342,0.000504380512108034,6.6667,6.4667
0.90234375,4.931000097657741e-05,-0.0009999698768444342,-0.0009999698768444342,0.0004316330914168002,6.6667,6.4667
0.90625,5.759386875715267e-05,-0.0009999698768444342,-0.0009999698768444342,0.0004428690284428168,6.6667,6.4667
0.91015625,6.10279084916457e-05,-0.0009999698768444342,-0.0009999698768444342,0.0004325970323949035,6.6667,6.4667
0.9140625,1.1716302830548574e-05,-0.0009999698768444342,-0.0009999698768444342,0.0003227378840466926,6.6667,6.4667
0.91796875,4.491202026398109e-05,-0.0009999698768444342,-0.0009999698768444342,0.00033933574276340885,6.6667,6.4667
0.921875,8.446372352178226e-05,-0.0009999698768444342,-0.0009999698768444342,0.00040964318785381855,6.6667,6.4667
0.92578125,6.491379555962464e-05,-0.0009999698768444342,-0.0009999698768444342,0.000312496011154345,6.6667,6.4667
0.9296875,0.00010446549881742582,-0.0009999698768444342,-0.0009999698768444342,0.000317375962355993,6.6667,6.4667
0.93359375,6.982386991683834e-05,-0.0009999698768444342,-0.0009999698768444342,0.0004243131646143282,6.6667,6.4667
0.9375,7.470382111848631e-05,-0.0009985239653772793,-0.0009999698768444342,0.00042187318901350425,6.6667,6.4667
0.94140625,0.00011374343073167011,-0.0009999698768444342,-0.0009999698768444342,0.00037497143579766535,6.6667,6.4667
0.9453125,0.00012253939215686274,-0.000994125984664683,-0.0009999698768444342,0.00034325175298695353,6.6667,6.4667
0.94921875,0.00017236309146257726,-0.0009550562518959334,-0.0009999698768444342,0.00037936941651026167,6.6667,6.4667
0.953125,0.00021483674081025406,-0.0009574962274967574,-0.0009999698768444342,0.0003569276656137941,6.6667,6.4667
0.95703125,0.00022167469712367437,-0.0009057446462348363,-0.0009999698768444342,0.00032177394306858934,6.6667,6.4667
0.9609375,0.00020212476916151674,-0.0008832727721828031,-0.000996565960265507,0.0002675522630502785,6.6667,6.4667
0.96484375,0.00022751858930342565,-0.0008789049146257724,-0.0009999698768444342,0.00020507683840695812,6.6667,6.4667
0.96875,0.00024559248264286257,-0.0007885655710841535,-0.0009589722621194781,0.00031541795724422065,6.6667,6.4667
0.97265625,0.00022215666761272603,-0.0008041693656672007,-0.0008940267387197681,0.00031541795724422065,6.6667,6.4667
0.9765625,0.00026315428233768213,-0.0008876707528953995,-0.0009247824805523765,0.00019772678844892045,6.6667,6.4667
0.98046875,0.0003207798789349203,-0.0008369132357671472,-0.0009164986127718013,0.000144017202075227,6.6667,6.4667
0.984375,0.0003647295629053178,-0.0007167820913710231,-0.0008046814593118181,0.00013425729967193103,6.6667,6.4667
0.98828125,0.00041648114416723887,-0.0006825923098039215,-0.0007368139898222324,9.274759130235753e-05,6.6667,6.4667
0.9921875,0.0003984373739833677,-0.0007294639398641947,-0.0008256772987411307,6.982386991683834e-05,6.6667,6.4667
0.99609375,0.00038915944206912336,-0.0006972622865644312,-0.0008212793180285343,7.175175187304496e-05,6.6667,6.4667
1.0,0.00041452313905546655,-0.000664036445975433,-0.0007748896584573128,0.00010741756806286719,6.6667,6.4667
1.00390625,0.0004472368859998474,-0.0006342747682764934,-0.0007406998768902113,0.0001313353535820554,6.6667,6.4667
1.0078125,0.0004453090040436408,-0.0006074049135118639,-0.0007001842326543068,8.934367472343023e-05,6.6667,6.4667
1.01171875,0.00047362477027542533,-0.0005658952051422904,-0.0007045822133669031,8.64217286335546e-05,6.6667,6.4667
1.015625,0.0005151344786449988,-0.0005429413606012055,-0.0006362026502327,2.0000170611123843e-05,6.6667,6.4667
1.01953125,0.000538058200030518,-0.0004643500477302204,-0.0005068236970778972,2.0994234744792868e-05,6.6667,6.4667
1.0234375,0.0005326962783398185,-0.00048142987693598836,-0.000561497224429694,-1.1719512199587993e-05,6.6667,6.4667
1.02734375,0.0004916986636148623,-0.0005019437458762494,-0.0006425586360570687,-7.907488804455633e-05,6.6667,6.4667
1.03125,0.00048046272658884564,-0.00041991839327077134,-0.0006430406065461204,6.786586480506601e-05,6.6667,6.4667
1.03515625,0.0005058565467307545,-0.0004218462752269779,-0.0006244847427176318,0.0001093454500190738,6.6667,6.4667
1.0390625,0.0005302563027389945,-0.0006244847427176318,-0.0006352387092545968,2.0994234744792868e-05,6.6667,6.4667
1.04296875,0.0005727299520866712,-0.0007260600232852674,-0.000664036445975433,-1.415948780041198e-05,6.6667,6.4667
1.046875,0.0005937257915159837,-0.0005087817021896696,-0.0005873730150606545,2.4880121812771816e-05,6.6667,6.4667
1.05078125,0.0006127636258335241,-0.0004394381980773632,-0.000589331020172427,0.00014889715327687496,6.6667,6.4667
1.0546875,0.0005722479815976196,-0.0005102276136568246,-0.000646956616769665,0.00027050433229571983,6.6667,6.4667
1.05859375,0.0005048624825970856,-0.0004897438678721294,-0.0006303587580529488,0.00021483674081025406,6.6667,6.4667
1.0625,0.000494620609704738,-0.0005043837214770732,-0.000589331020172427,0.00011765944095521479,6.6667,6.4667
1.06640625,0.0005536921177691311,-0.0004687480284428168,-0.0005200176392156862,0.0001337753291828794,6.6667,6.4667
1.0703125,0.0006293916077058061,-0.0003647327722743572,-0.0004257622854505226,0.00022215666761272603,6.6667,6.4667
1.07421875,0.0005390522641641871,-0.0004286842315403982,-0.00048534588715953305,0.0001992028230716411,6.6667,6.4667
1.078125,0.0004462729450217441,-0.0005033896573434042,-0.0005751731370565346,0.0001620910954146639,6.6667,6.4667
1.08203125,0.0004628708037384604,-0.00047606795524528873,-0.0005834871279926756,0.00018504493995574883,6.6667,6.4667
1.0859375,0.000492180634103914,-0.0004384742570992599,-0.0005488153759365225,0.0002094446959639887,6.6667,6.4667
1.08984375,0.00048974065850309,-0.00041552041255817497,-0.0005077876380560006,0.00020848075498588542,6.6667,6.4667
1.09375,0.00044383296942092013,-0.00038572861170366976,-0.0004609160079957274,0.00015769311470206762,6.6667,6.4667
1.09765625,0.00041943321341268025,-0.0003364170060425726,-0.0003910905333943694,0.00017673094901960785,6.6667,6.4667
1.1015625,0.00040280523154039824,-0.0003368989765316243,-0.00034325496235599294,0.0001645310710154879,6.6667,6.4667
1.10546875,0.0004116011929655909,-0.0002944253271839475,-0.0002836713606469825,8.98256452124819e-05,6.6667,6.4667
1.109375,0.00048974065850309,-0.00025095761370260165,-0.00037693265027847713,0.00014208932011902038,6.6667,6.4667
1.11328125,0.0003710855487296864,-0.0003608167620508125,-0.0005448993657129778,0.00019432287186999314,6.6667,6.4667
1.1171875,0.0002719502437628748,-0.0004701939399099718,-0.0005986089520866713,0.00019772678844892045,6.6667,6.4667
1.12109375,0.00024511051215381094,-0.0004985097061417562,-0.000626442747829404,0.00010741756806286719,6.6667,6.4667
1.125,0.00028562615638971545,-0.0003886505577935454,-0.0005224576148165102,9.178365032425422e-05,6.6667,6.4667
1.12890625,0.0003622895873044938,-0.0002929492925612268,-0.00039304853850614176,0.00016112715443656063,6.6667,6.4667
1.1328125,0.00029246411270313576,-0.00037792671441214614,-0.00048142987693598836,0.00012157545117875946,6.6667,6.4667
1.13671875,0.00029394014732585645,-0.00035397880573739224,-0.00044871612999160753,8.73856696116579e-05,6.6667,6.4667
1.140625,0.0003310518749828336,-0.00025291561881437397,-0.00030858321029983974,0.0001786889541313802,6.6667,6.4667
1.14453125,0.000229476594415198,-0.000337380947020676,-0.00037401070418860145,0.0002158006817883574,6.6667,6.4667
1.1484375,0.000221162603479057,-0.0003676547183642328,-0.00042431637398336765,0.000141577226474403,6.6667,6.4667
1.15234375,0.0003539755963683528,-0.0002680374429083696,-0.0002978292437628748,0.00015721114421301594,6.6667,6.4667
1.15625,0.00034764973369954985,-0.0002905093169604028,-0.00035741284547188525,0.0001684470812390326,6.6667,6.4667
1.16015625,0.0002846622154116121,-0.0003320190253299763,-0.0005346574928206301,0.00015329513398947128,6.6667,6.4667
1.1640625,0.00023239854050507362,-0.00031394513199053937,-0.0005190235750820172,0.0002094446959639887,6.6667,6.4667
1.16796875,0.00022019866250095368,-0.0003041852295872434,-0.0005039017509880216,0.00019432287186999314,6.6667,6.4667
1.171875,0.0002963801229266804,-0.00027731537482261385,-0.0004911897793392844,0.0002338745751277943,6.6667,6.4667
1.17578125,0.00031345995213244833,-0.00024851763810177765,-0.0004389562275883116,0.0002568284196688792,6.6667,6.4667
1.1796875,0.00022655464832532237,-0.0002939433566948958,-0.00046383795408560304,0.00017380900292973222,6.6667,6.4667
1.18359375,0.0001660071056382086,-0.00034226089822232393,-0.00048534588715953305,0.00010398352832837416,6.6667,6.4667
1.1875,0.00017480306706340123,-0.00029150338109407186,-0.0004321182712748913,8.154177743190662e-05,6.6667,6.4667
1.19140625,0.00016061506079194325,-0.0002924673220721751,-0.0004272383200732433,0.00012253939215686274,6.6667,6.4667
1.1953125,0.0001899248911573968,-0.00031930705368123904,-0.0004311242071412222,0.00010301958735027086,6.6667,6.4667
1.19921875,0.00021140270107576105,-0.00028466542478065154,-0.00037985459636835276,5.271391755550471e-05,6.6667,6.4667
1.203125,0.00016552513514915695,-0.0002563195353933013,-0.00037985459636835276,6.394985458152133e-05,6.6667,6.4667
1.20703125,0.00010398352832837416,-0.00027731537482261385,-0.0003994045243305104,8.102968378728924e-05,6.6667,6.4667
1.2109375,9.178365032425422e-05,-0.0002670735019302663,-0.00037937262587930113,6.394985458152133e-05,6.6667,6.4667
1.21484375,0.000139137250873579,-0.0002495117022354467,-0.0003759687093003738,7.12697813839933e-05,6.6667,6.4667
1.21875,0.00022068063299000536,-0.00019333201710536354,-0.0003183431127031357,8.250571841000993e-05,6.6667,6.4667
1.22265625,0.00013961922136263065,-0.0002309558384069581,-0.00034569493795681694,9.030761570153354e-05,6.6667,6.4667
1.2265625,-1.123754171053634e-05,-0.0003266571036392767,-0.0004648320182192721,4.7351995864805084e-05,6.6667,6.4667
1.23046875,8.542766449988556e-05,-0.0003041852295872434,-0.00041552041255817497,2.3916180834668508e-05,6.6667,6.4667
1.234375,0.00010398352832837416,-0.00032225912292668037,-0.0004062424806439307,5.906990337987336e-05,6.6667,6.4667
1.23828125,3.415805372701611e-05,-0.0003564187813382162,-0.0004770318962233921,3.0272166659037168e-05,6.6667,6.4667
1.2421875,5.467192266727704e-05,-0.0003554548403601129,-0.0004750738911116197,-5.8079048615243745e-05,6.6667,6.4667
1.24609375,4.4430049774929444e-05,-0.00039648257824063477,-0.00045895800288395515,-4.735520523384449e-05,6.6667,6.4667
1.25,0.0001049775924620432,-0.00032126505879301136,-0.00037741462076752876,2.73200974135958e-05,6.6667,6.4667
1.25390625,0.00012693737286945909,-0.0002944253271839475,-0.0003554548403601129,8.690369912260625e-05,6.6667,6.4667
1.2578125,-1.959609796292044e-06,-0.0004716699745326924,-0.0005029076868543526,1.5120219409475864e-05,6.6667,6.4667
1.26171875,9.758297718776241e-06,-0.00047067591039902336,-0.00047555586160067135,-6.44350344396124e-05,6.6667,6.4667
1.265625,3.759209346150913e-05,-0.0004111224318455787,-0.000402326470420386,-6.34710934615091e-05,6.6667,6.4667
1.26953125,1.4638248920424213e-05,-0.0003559368108491645,-0.00041012836771190964,-3.464323358510718e-05,6.6667,6.4667
1.2734375,5.223194706645306e-05,-0.00027782746846723123,-0.000407206421622034,-2.6359365804531915e-05,6.6667,6.4667
1.27734375,6.590785969329368e-05,-0.00019529002221713585,-0.00038328863610284576,-5.759707812619209e-05,6.6667,6.4667
1.28125,2.8314161547264837e-05,-0.0001850481493247883,-0.000413080436957351,-0.0001269405822384985,6.6667,6.4667
1.28515625,1.8042165499351505e-05,-0.00022312381795986877,-0.00038328863610284576,-9.958875698481726e-05,6.6667,6.4667
1.2890625,-8.3155956206607e-06,-0.00025291561881437397,-0.0004062424806439307,-5.907311274891278e-05,6.6667,6.4667
1.29296875,8.282263096055558e-06,-0.00028855131184863053,-0.0004545600221713588,-5.907311274891278e-05,6.6667,6.4667
1.296875,3.415805372701611e-05,-0.00029490729767299917,-0.00044871612999160753,-8.934688409246966e-05,6.6667,6.4667
1.30078125,6.150987898069735e-05,-0.0001962840863508049,-0.0004374801929655909,-0.00015185243189135575,6.6667,6.4667
1.3046875,9.178365032425422e-05,-1.708143389028762e-05,-0.00037304676321049814,-9.178685969329365e-05,6.6667,6.4667
1.30859375,2.2440146211947824e-05,4.931000097657741e-05,-0.0003979284897077897,-0.00012058459641412984,6.6667,6.4667
1.3125,3.1718078126192124e-05,0.00012645540238040743,-0.000397446519218738,-0.00016061827016098265,6.6667,6.4667
1.31640625,6.1991849469749e-05,0.00016796511074998092,-0.00040768839211108564,-2.2443355580987244e-05,6.6667,6.4667
1.3203125,-6.003705372701608e-05,-2.9536739299610753e-06,-0.0005414954491340505,-9.32327711604486e-05,6.6667,6.4667
1.32421875,4.366252872510887e-06,-9.470880578316928e-05,-0.0005146255943694209,-0.00011326466961165788,6.6667,6.4667
1.328125,9.130167983520258e-05,-9.618484040588997e-05,-0.0004306422366521706,-9.666681089494162e-05,6.6667,6.4667
1.33203125,1.0240268207827892e-05,-0.00015869038820477606,-0.0004296782956740673,-7.470703048752574e-05,6.6667,6.4667
1.3359375,5.662992777904938e-05,-0.0001269405822384985,-0.0004291963251850156,-4.636114110017546e-05,6.6667,6.4667
1.33984375,0.00011326146024261847,-8.543087386892499e-05,-0.00041208637282368196,-2.6841336293583566e-05,6.6667,6.4667
1.34375,1.268024380865188e-05,-0.00019529002221713585,-0.00047118800404364074,6.324257984283221e-06,6.6667,6.4667
1.34765625,1.4156278431372562e-05,-0.0001415804358434424,-0.00039304853850614176,3.415805372701611e-05,6.6667,6.4667
1.3515625,3.4640024216067764e-05,-0.00011178863498893719,-0.0003710887580987258,-2.9763282383459206e-05,6.6667,6.4667
1.35546875,-8.797566109712353e-06,-0.00011082469401083389,-0.00039648257824063477,2.4880121812771816e-05,6.6667,6.4667
1.359375,4.979197146562907e-05,-3.172128749523154e-05,-0.0003041852295872434,0.00012401542677958343,6.6667,6.4667
1.36328125,7.714379671931029e-05,-7.518900097657738e-05,-0.00035693087498283357,8.398175303273062e-05,6.6667,6.4667
1.3671875,3.220004861524378e-05,-0.00012986252832837414,-0.00045019216461432817,5.223194706645306e-05,6.6667,6.4667
1.37109375,4.391795613031206e-05,-0.00016013629967193103,-0.0004682359347981994,6.054593800259404e-05,6.6667,6.4667
1.375,7.907167867551691e-05,-0.0001371824551308461,-0.00040329041139848933,6.491379555962464e-05,6.6667,6.4667
1.37890625,8.98256452124819e-05,-0.00013670048464179443,-0.0004296782956740673,9.226562081330589e-05,6.6667,6.4667
1.3828125,7.12697813839933e-05,-0.00014989442677958343,-0.0005058296329442282,5.662992777904938e-05,6.6667,6.4667
1.38671875,4.979197146562907e-05,-0.0001025107030746929,-0.00047118800404364074,1.4638248920424213e-05,6.6667,6.4667
1.390625,6.882980578316932e-05,-0.00012157866054779887,-0.0004223583688715953,5.8587932890821714e-05,6.6667,6.4667
1.39453125,7.614973258564127e-05,-0.0001826081737239643,-0.00037741462076752876,5.174997657740139e-05,6.6667,6.4667
1.3984375,7.030584040588999e-05,-0.00017284827132066835,-0.00037057666445410844,7.370975698481729e-05,6.6667,6.4667
1.40234375,6.10279084916457e-05,-0.00017233617767605097,-0.00035202080062561987,2.5362092301823464e-05,6.6667,6.4667
1.40625,8.346965938811324e-05,-7.323099586480505e-05,-0.00023972167667658502,-6.151308834973677e-05,6.6667,6.4667
1.41015625,7.030584040588999e-05,-3.952318478675515e-05,-0.00025439165343709466,-2.7805277271686868e-05,6.6667,6.4667
1.4140625,5.174997657740139e-05,-8.39548392462043e-05,-0.00039012659241626613,6.806228473334872e-06,6.6667,6.4667
1.41796875,8.494569401083392e-05,-5.907311274891278e-05,-0.000499985740764477,0.00013229929456015868,6.6667,6.4667
1.421875,4.295401515220876e-05,-8.250892777904934e-05,-0.00054685737082475,0.00012693737286945909,6.6667,6.4667
1.42578125,1.8042165499351505e-05,-0.00014841839215686272,-0.0005195055455710689,3.955009857328147e-05,6.6667,6.4667
1.4296875,3.56340883497368e-05,-9.32327711604486e-05,-0.0004267563495841916,3.0272166659037168e-05,6.6667,6.4667
1.43359375,0.00011425552437628749,6.1991849469749e-05,-0.0003046672000762951,5.7111898268101024e-05,6.6667,6.4667
1.4375,6.687180067139699e-05,1.1716302830548574e-05,-0.00036425080178530557,-5.563907301441976e-05,6.6667,6.4667
1.44140625,-8.797566109712353e-06,-5.907311274891278e-05,-0.0004003684653086137,4.8315936842908386e-05,6.6667,6.4667
1.4453125,0.00010057961174944686,4.8783465171282675e-06,-0.00036913075298695356,0.00017040508635080492,6.6667,6.4667
1.44921875,4.391795613031206e-05,4.8783465171282675e-06,-0.0004394381980773632,5.1268006088349745e-05,6.6667,6.4667
1.453125,4.343598564126041e-05,4.0996010040436424e-05,-0.0004457941839017319,5.370798168917373e-05,6.6667,6.4667
1.45703125,0.00011765944095521479,-3.0245252872510857e-05,-0.0003759687093003738,0.00019772678844892045,6.6667,6.4667
1.4609375,2.73200974135958e-05,-0.00024363768690012968,-0.00038036669001297014,0.00020848075498588542,6.6667,6.4667
1.46484375,1.560218989852752e-05,-0.00024755369712367435,-0.000325181069016556,0.00016892905172808423,6.6667,6.4667
1.46875,0.00011229751926451516,-0.00013670048464179443,-0.0002783094389562829,0.00019579890649271383,6.6667,6.4667
1.47265625,0.00010690547441824981,-0.00014450238193331805,-0.00027975535042343785,0.00013425729967193103,6.6667,6.4667
1.4765625,5.955187386892501e-05,-0.0001962840863508049,-0.00023387778449683374,9.76275425040055e-05,6.6667,6.4667
1.48046875,7.419172747386894e-05,-0.0001532983433585107,-0.00016745622647440297,0.00011473749486533913,6.6667,6.4667
1.484375,4.8315936842908386e-05,-0.00011230072863355457,-0.00011082469401083389,4.491202026398109e-05,6.6667,6.4667
1.48828125,7.322778649576565e-05,-0.0002670735019302663,-0.0001845661788357366,8.282263096055558e-06,6.6667,6.4667
1.4921875,0.00012937734847028306,-0.0004736279796444648,-0.0002587595109941253,7.958377232013429e-05,6.6667,6.4667
1.49609375,7.907167867551691e-05,-0.0005483334054474708,-0.0002924673220721751,4.491202026398109e-05,6.6667,6.4667
1.5,6.054593800259404e-05,-0.0005444173952239261,-0.00038476467072556645,6.638983018234532e-05,6.6667,6.4667
1.50390625,4.247204466315711e-05,-0.0005234215557946136,-0.00046383795408560304,2.9760073014419787e-05,6.6667,6.4667
1.5078125,7.175175187304496e-05,-0.0003754867388113222,-0.00041600238304722665,-1.464145828946363e-05,6.6667,6.4667
1.51171875,0.00012597343189135578,-0.00016893226109712366,-0.0003412969572442206,3.65980293278401e-05,6.6667,6.4667
1.515625,3.415805372701611e-05,-0.00010007072747386891,-0.00038133063099107345,-1.9521409491111604e-05,6.6667,6.4667
1.51953125,7.663170307469291e-05,3.56340883497368e-05,-0.0003061432346990158,-5.759707812619209e-05,6.6667,6.4667
1.5234375,0.000145011266208896,0.00013621530478370337,-0.00025195167783627066,1.7078224521248203e-05,6.6667,6.4667
1.52734375,1.0240268207827892e-05,3.220004861524378e-05,-0.00038036669001297014,-7.958698168917371e-05,6.6667,6.4667
1.53125,5.5635863645380334e-05,3.123610763714047e-05,-0.0003666907773861295,-0.00013621851415274278,6.6667,6.4667
1.53515625,9.030761570153354e-05,-2.3919390203707927e-05,-0.00037304676321049814,-7.714700608834973e-05,6.6667,6.4667
1.5390625,3.707999981689175e-05,-0.00011374664010070952,-0.0003959704845960174,-3.855924380865186e-05,6.6667,6.4667
1.54296875,6.1991849469749e-05,-0.00014450238193331805,-0.000413080436957351,-1.123754171053634e-05,6.6667,6.4667
1.546875,3.415805372701611e-05,-0.00022411788209353778,-0.0004477521890135042,-7.762897657740137e-05,6.6667,6.4667
1.55078125,8.102968378728924e-05,-0.00015429240749217972,-0.0003217771524376287,-0.00013573654366369115,6.6667,6.4667
1.5546875,0.00019872085258258948,2.5362092301823464e-05,-0.00015573831895933468,-5.467513203631646e-05,6.6667,6.4667
1.55859375,4.635793173113605e-05,-0.00012254260152590217,-0.00033494097141985194,-9.618484040588997e-05,6.6667,6.4667
1.5625,-1.36473941557946e-05,-0.00019041007101548788,-0.0004960697305409322,-0.00011766265032425419,6.6667,6.4667
1.56640625,4.343598564126041e-05,-0.00010886668889906156,-0.00048191184742504004,-3.4356444190127263e-06,6.6667,6.4667
1.5703125,3.123610763714047e-05,-0.0001093486593881132,-0.0004750738911116197,-3.3679292607003874e-05,6.6667,6.4667
1.57421875,4.003206906233312e-05,-7.323099586480505e-05,-0.00041452634842450596,-4.3921165499351476e-05,6.6667,6.4667
1.578125,4.4430049774929444e-05,-3.9176149080643794e-06,-0.0003588587569390402,-1.9521409491111604e-05,6.6667,6.4667
1.58203125,-1.0755571221484689e-05,-9.279536598764006e-06,-0.00035349683524834056,-3.0245252872510857e-05,6.6667,6.4667
1.5859375,3.759209346150913e-05,-8.103289315632866e-05,-0.00037792671441214614,-5.467513203631646e-05,6.6667,6.4667
1.58984375,0.00014696927132066835,-6.295899981689173e-05,-0.00030026921936369874,-2.9281311894407555e-05,6.6667,6.4667
1.59375,0.0001298593189593347,-5.175318594644082e-05,-0.00027635143384451054,-1.0755571221484689e-05,6.6667,6.4667
1.59765625,1.7560195010299854e-05,-0.00016113036380560004,-0.0004013625294422827,-5.759707812619209e-05,6.6667,6.4667
1.6015625,1.2198273319600228e-05,-0.00012010262592507818,-0.0003945245731288624,-1.9039439002059953e-05,6.6667,6.4667
1.60546875,6.542588920424202e-05,-5.027715132372013e-05,-0.000325181069016556,3.123610763714047e-05,6.6667,6.4667
1.609375,5.7111898268101024e-05,-0.00015817829456015868,-0.0003837706065918974,-5.907311274891278e-05,6.6667,6.4667
1.61328125,7.274581600671398e-05,-0.00011278269912260622,-0.00036620880689707783,-5.175318594644082e-05,6.6667,6.4667
1.6171875,4.783396635385673e-05,-7.419493684290836e-05,-0.0003564187813382162,-5.8079048615243745e-05,6.6667,6.4667
1.62109375,3.611605883878845e-05,-4.735520523384449e-05,-0.00031394513199053937,-6.883301515220872e-05,6.6667,6.4667
1.625,6.786586480506601e-05,1.9036229633020534e-05,-0.00024460162787823297,4.5393990753032746e-05,6.6667,6.4667
1.62890625,4.199007417410545e-05,-4.5879170611123806e-05,-0.0003242171280384527,2.1958175722896177e-05,6.6667,6.4667
1.6328125,6.324257984283221e-06,-0.0001083847184100099,-0.000405760510154879,-6.542909857328143e-05,6.6667,6.4667
1.63671875,2.73200974135958e-05,-9.618484040588997e-05,-0.00035153883013656825,-6.835104466315707e-05,6.6667,6.4667
1.640625,3.123610763714047e-05,-0.0001025107030746929,-0.00028466542478065154,-5.2235156435492466e-05,6.6667,6.4667
1.64453125,4.366252872510887e-06,-9.226883018234529e-05,-0.0002719534531319142,-3.416126309605553e-05,6.6667,6.4667
1.6484375,6.324257984283221e-06,-3.416126309605553e-05,-0.00025243364832532234,-2.440136069275958e-05,6.6667,6.4667
1.65234375,6.806228473334872e-06,-3.6119268207827866e-05,-0.00025683162903791866,-5.368106790264742e-05,6.6667,6.4667
1.65625,-3.2685228473334845e-05,-3.8077273319600196e-05,-0.00023583578960860606,-5.2235156435492466e-05,6.6667,6.4667
1.66015625,-1.1719512199587993e-05,4.4430049774929444e-05,-0.00015429240749217972,-2.8799341405355904e-05,6.6667,6.4667
1.6640625,5.174997657740139e-05,4.295401515220876e-05,-0.00015085836775768671,-2.5877395315480264e-05,6.6667,6.4667
1.66796875,5.807583924620433e-05,2.048214110017549e-05,-0.00018944613003738458,-3.2685228473334845e-05,6.6667,6.4667
1.671875,1.5120219409475864e-05,4.931000097657741e-05,-0.00017577021741054397,-6.003705372701608e-05,6.6667,6.4667
1.67578125,-1.8527345357442572e-05,7.274581600671398e-05,-0.00014941245629053175,-6.542909857328143e-05,6.6667,6.4667
1.6796875,-3.416126309605553e-05,2.5362092301823464e-05,-0.0001879700954146639,-5.955508323796443e-05,6.6667,6.4667
1.68359375,-6.639303955138474e-05,6.324257984283221e-06,-0.00018992810052643626,-4.735520523384449e-05,6.6667,6.4667
1.6875,-4.636114110017546e-05,6.394985458152133e-05,-0.0001440204114442664,-6.151308834973677e-05,6.6667,6.4667
1.69140625,-8.3155956206607e-06,8.64217286335546e-05,-0.00012986252832837414,-5.907311274891278e-05,6.6667,6.4667
1.6953125,-4.735520523384449e-05,5.370798168917373e-05,-0.00016013629967193103,-7.175496124208436e-05,6.6667,6.4667
1.69921875,-6.44350344396124e-05,3.367608323796446e-05,-0.00016305824576180665,-0.00010546277232013425,6.6667,6.4667
1.703125,-5.8079048615243745e-05,6.394985458152133e-05,-0.00013230250392919812,-8.250892777904934e-05,6.6667,6.4667
1.70703125,-3.416126309605553e-05,9.030761570153354e-05,-8.2990898268101e-05,-5.2235156435492466e-05,6.6667,6.4667
1.7109375,-1.2713576333257023e-05,7.12697813839933e-05,-0.00010886668889906156,-8.006895217822535e-05,6.6667,6.4667
1.71484375,-4.911679041733411e-06,3.9038004928664086e-05,-0.00016305824576180665,-8.250892777904934e-05,6.6667,6.4667
1.71875,-3.464323358510718e-05,2.8796132036316485e-05,-0.00017381221229877163,-8.446693289082168e-05,6.6667,6.4667
1.72265625,-0.00012498257712672617,1.0240268207827892e-05,-0.000166010315007248,-0.00013133856295109483,6.6667,6.4667
1.7265625,-8.151486364538031e-05,2.8796132036316485e-05,-0.00010690868378728922,-0.00011962065543602654,6.6667,6.4667
1.73046875,-1.5123428778515283e-05,1.7560195010299854e-05,-0.00015037639726863506,-0.00014646038704509037,6.6667,6.4667
1.734375,-1.8527345357442572e-05,-4.099921940947584e-05,-0.00018700615443656058,-0.0001532983433585107,6.6667,6.4667
1.73828125,2.2440146211947824e-05,1.560218989852752e-05,-0.00011766265032425419,-7.859291755550468e-05,6.6667,6.4667
1.7421875,-3.3197322117952226e-05,1.926277271686899e-06,-0.00016893226109712366,-0.0001288985873502708,6.6667,6.4667
1.74609375,-0.00010446870818646523,-8.8864913603418e-05,-0.0002617115802395666,-0.00023532369596398868,6.6667,6.4667
1.75,-7.03090497749294e-05,-2.096732095826656e-05,-0.00015477437798123138,-0.00023631776009765771,6.6667,6.4667
1.75390625,-4.051724892042419e-05,1.659625403219655e-05,-0.0001371824551308461,-0.00017917413398947125,6.6667,6.4667
1.7578125,-6.883301515220872e-05,-6.051902421606773e-05,-0.00026366958535133897,-0.00015185243189135575,6.6667,6.4667
1.76171875,-5.955508323796443e-05,-6.003705372701608e-05,-0.00025779557001602197,-0.00012986252832837414,6.6667,6.4667
1.765625,-2.147941460288394e-05,4.4430049774929444e-05,-0.00011230072863355457,-0.00014305647046616312,6.6667,6.4667
1.76953125,-4.4915229633020504e-05,-3.416126309605553e-05,-0.00016796832011902035,-0.00023972167667658502,6.6667,6.4667
1.7734375,-8.8864913603418e-05,-9.714878138399326e-05,-0.00024460162787823297,-0.00024167968178835734,6.6667,6.4667
1.77734375,-7.714700608834973e-05,-4.3921165499351476e-05,-0.00023583578960860606,-0.0001454964460669871,6.6667,6.4667
1.78125,-4.343919501029983e-05,-6.491700492866406e-05,-0.0002309558384069581,-0.0001303444988174258,6.6667,6.4667
1.78515625,-6.199505883878842e-05,-8.787084946974897e-05,-0.00023435975498588537,-0.00019968800292973217,6.6667,6.4667
1.7890625,-5.4193161547264804e-05,-7.859291755550468e-05,-0.00022655785769436177,-0.00022752179867246508,6.6667,6.4667
1.79296875,-2.8799341405355904e-05,-8.787084946974897e-05,-0.00024119771129930569,-0.00021092393995574883,6.6667,6.4667
1.796875,-3.660123869687952e-05,-6.491700492866406e-05,-0.00022800376916151674,-0.00017333024180971998,6.6667,6.4667
1.80078125,-4.295722452124818e-05,-5.4193161547264804e-05,-0.00021872583724727242,-0.0001591723586938277,6.6667,6.4667
1.8046875,-4.687323474479284e-05,-8.006895217822535e-05,-0.00025195167783627066,-0.00017381221229877163,6.6667,6.4667
1.80859375,-6.247702932784007e-05,-7.27490253757534e-05,-0.00022899783329518575,-0.0002074899002212558,6.6667,6.4667
1.8125,-2.9281311894407555e-05,-6.34710934615091e-05,-0.0001962840863508049,-0.00019968800292973217,6.6667,6.4667
1.81640625,-4.343919501029983e-05,-2.5365301670862883e-05,-0.00017721612887769894,-0.00018992810052643626,6.6667,6.4667
1.8203125,-0.00012938055783932246,3.402311894407582e-06,-0.00013085659246204318,-0.0001454964460669871,6.6667,6.4667
1.82421875,-0.00012742255272755015,-7.762897657740137e-05,-0.00023631776009765771,-0.00014697248068970775,6.6667,6.4667
1.828125,-6.357590508888366e-06,-0.0001440204114442664,-0.00031786114221408405,-0.0002148399501792935,6.6667,6.4667
1.83203125,2.8314161547264837e-05,-9.618484040588997e-05,-0.00024267374592202637,-0.00020212797853055617,6.6667,6.4667
1.8359375,-3.6119268207827866e-05,-0.00010690868378728922,-0.00024607766250095366,-0.00020504992462043182,6.6667,6.4667
1.83984375,-8.738887898069732e-05,-0.00011278269912260622,-0.0002680374429083696,-0.00020652595924315249,6.6667,6.4667
1.84375,-3.416126309605553e-05,-8.39548392462043e-05,-0.0002309558384069581,-0.000162576275272755,6.6667,6.4667
1.84765625,-1.5123428778515283e-05,-0.00010106479160753794,-0.00025779557001602197,-0.0001821262032349126,6.6667,6.4667
1.8515625,-1.415948780041198e-05,-0.0001186265913023575,-0.00024999367272449834,-0.00022800376916151674,6.6667,6.4667
1.85546875,-3.855924380865186e-05,-0.00015673238309300372,-0.0002670735019302663,-0.0002538795597924773,6.6667,6.4667
1.859375,-0.00010642671329823757,-0.00010202873258564124,-0.00021092393995574883,-0.0002670735019302663,6.6667,6.4667
1.86328125,-0.00011766265032425419,-1.1719512199587993e-05,-0.00015769632407110703,-0.00021676783213550008,6.6667,6.4667
1.8671875,6.806228473334872e-06,-4.979518083466848e-05,-0.00024899960859082934,-0.0001845661788357366,6.6667,6.4667
1.87109375,3.1718078126192124e-05,-9.422683529411764e-05,-0.00028855131184863053,-0.00020068206706340123,6.6667,6.4667
1.875,-5.319909741359577e-05,-0.00012157866054779887,-0.0003041852295872434,-0.0002260457640497444,6.6667,6.4667
1.87890625,-5.5157102525368106e-05,-0.00011962065543602654,-0.0002934312630502784,-0.00017284827132066835,6.6667,6.4667
1.8828125,1.560218989852752e-05,-7.323099586480505e-05,-0.00024899960859082934,-0.00015525634847028303,6.6667,6.4667
1.88671875,8.282263096055558e-06,-8.20269572899977e-05,-0.00022556379356069274,-0.00016209430478370334,6.6667,6.4667
1.890625,-0.00010202873258564124,-0.00015233440238040738,-0.00027243542362096585,-0.00020604398875410083,6.6667,6.4667
1.89453125,-0.00012645861174944684,-0.00020016997341878385,-0.000332500995819028,-0.00025487362392614634,6.6667,6.4667
1.8984375,-9.570286991683832e-05,-0.00015769632407110703,-0.0002988233078965438,-0.00021628586164644843,6.6667,6.4667
1.90234375,-6.051902421606773e-05,-0.00016013629967193103,-0.00027294751726558323,-0.00019140413514915692,6.6667,6.4667
1.90625,-2.8799341405355904e-05,-0.00015233440238040738,-0.00027243542362096585,-0.00019529002221713585,6.6667,6.4667
1.91015625,-2.8799341405355904e-05,-0.00011082469401083389,-0.00024411965738918134,-0.00018161410959029523,6.6667,6.4667
1.9140625,-5.2235156435492466e-05,-0.00011766265032425419,-0.00023583578960860606,-0.0001879700954146639,6.6667,6.4667
1.91796875,-5.075912181277178e-05,-0.00011718067983520255,-0.00021676783213550008,-0.0002031220426642252,6.6667,6.4667
1.921875,-3.6119268207827866e-05,-0.00013230250392919812,-0.0002558375649042496,-0.00020212797853055617,6.6667,6.4667
1.92578125,-8.738887898069732e-05,-0.00014941245629053175,-0.00027294751726558323,-0.00019140413514915692,6.6667,6.4667
1.9296875,-7.762897657740137e-05,-0.0001025107030746929,-0.00022459985258258943,-0.00020116403755245286,6.6667,6.4667
1.93359375,-1.415948780041198e-05,-0.00010202873258564124,-0.0002538795597924773,-0.00019384411074998092,6.6667,6.4667
1.9375,-1.804537486839092e-05,-0.00013278447441824977,-0.00027538749286640723,-0.0001532983433585107,6.6667,6.4667
1.94140625,-1.1719512199587993e-05,-0.00016453428038452732,-0.0002607175161058976,-0.00014305647046616312,6.6667,6.4667
1.9453125,-5.663313714808879e-05,-0.00015721435358205535,-0.0002768334043335622,-0.0001864940607919432,6.6667,6.4667
1.94921875,-6.003705372701608e-05,-0.0001279045232166018,-0.0002558375649042496,-0.0001879700954146639,6.6667,6.4667
1.953125,-1.5123428778515283e-05,-0.00011718067983520255,-0.0002309558384069581,-0.0001005828211184863,6.6667,6.4667
1.95703125,-5.4193161547264804e-05,-0.00020848396435492483,-0.00032274109341573205,-0.0001845661788357366,6.6667,6.4667
1.9609375,-6.151308834973677e-05,-0.00025047564321354997,-0.0003344590009308003,-0.0002192379308918898,6.6667,6.4667
1.96484375,-4.343919501029983e-05,-0.0002236057884489204,-0.0003256630395056077,-0.00019188610563820857,6.6667,6.4667
1.96875,-2.048535046921491e-05,-0.00024363768690012968,-0.0003437369328450446,-0.00015185243189135575,6.6667,6.4667
1.97265625,-5.8079048615243745e-05,-0.0003183431127031357,-0.0004067244511329824,-0.00015721435358205535,6.6667,6.4667
1.9765625,-2.3919390203707927e-05,-0.00036569671325246045,-0.00047118800404364074,-0.00017577021741054397,6.6667,6.4667
1.98046875,1.0240268207827892e-05,-0.0003906085629053177,-0.0004726339155107957,-0.00014697248068970775,6.6667,6.4667
1.984375,-1.9521409491111604e-05,-0.0004003684653086137,-0.000484351823025864,-0.00017772822252231632,6.6667,6.4667
1.98828125,-1.1719512199587993e-05,-0.0004286842315403982,-0.0005258615313954375,-0.0001864940607919432,6.6667,6.4667
1.9921875,-1.5605399267566932e-05,-0.00044284211465629047,-0.0005341755223315785,-0.00017429418278782328,6.6667,6.4667
1.99609375,-3.123931700617989e-05,-0.00039157250388342107,-0.0004873038922713054,-0.00018309014421301594,6.6667,6.4667
2.0,-1.3165423666742947e-05,-0.00034226089822232393,-0.0004540780516823071,-0.00015281637286945906,6.6667,6.4667
2.00390625,-2.048535046921491e-05,-0.0003564187813382162,-0.0004418781736781872,-0.00011570464521248186,6.6667,6.4667
2.0078125,-2.831737091630425e-05,-0.00038181260148012513,-0.00046239204261844816,-0.00010154676209658959,6.6667,6.4667
2.01171875,-3.0245252872510857e-05,-0.0003686487824979019,-0.0004701939399099718,-0.00015673238309300372,6.6667,6.4667
2.015625,-3.855924380865186e-05,-0.0003163851075913634,-0.00041696632402532996,-0.00016549822136263063,6.6667,6.4667
2.01953125,-2.2443355580987244e-05,-0.00023387778449683374,-0.0003266571036392767,-0.00012106656690318148,6.6667,6.4667
2.0234375,1.926277271686899e-06,-0.0002055620182650492,-0.0003032212886091401,-5.368106790264742e-05,6.6667,6.4667
2.02734375,-5.271712692454412e-05,-0.00027731537482261385,-0.0003700946939650568,-8.250892777904934e-05,6.6667,6.4667
2.03125,-0.00011718067983520255,-0.00027782746846723123,-0.00039012659241626613,-0.00017233617767605097,6.6667,6.4667
2.03515625,-5.175318594644082e-05,-0.00024167968178835734,-0.0003412969572442206,-0.00016061827016098265,6.6667,6.4667
2.0390625,-1.5605399267566932e-05,-0.00024119771129930569,-0.0002934312630502784,-0.00012594651810482946,6.6667,6.4667
2.04296875,-0.00017284827132066835,-0.00031198712687876705,-0.0003578948159609369,-0.00024755369712367435,6.6667,6.4667
2.046875,-8.787084946974897e-05,-0.0002192379308918898,-0.00025683162903791866,-0.0003364170060425726,6.6667,6.4667
2.05078125,5.467192266727704e-05,-0.00015769632407110703,-0.00021727992578011746,-0.00015769632407110703,6.6667,6.4667
2.0546875,1.3644184786755183e-05,-0.000165016250873579,-0.0002573135995269703,-2.7805277271686868e-05,6.6667,6.4667
2.05859375,-8.006895217822535e-05,-0.00019140413514915692,-0.0002709895121538109,-0.0001454964460669871,6.6667,6.4667
2.0625,-0.00010154676209658959,-0.0002270398281834134,-0.0002934312630502784,-0.0002192379308918898,6.6667,6.4667
2.06640625,-8.934688409246966e-05,-0.00017040829571984435,-0.0002294798037842374,-0.0001391404602426184,6.6667,6.4667
2.0703125,-6.491700492866406e-05,-9.178685969329365e-05,-0.00016357033940642403,-0.00016013629967193103,6.6667,6.4667
2.07421875,-3.855924380865186e-05,-8.543087386892499e-05,-0.00016453428038452732,-0.00020164600804150451,6.6667,6.4667
2.078125,-6.199505883878842e-05,-0.00010106479160753794,-0.00016113036380560004,-0.000168450290608072,6.6667,6.4667
2.08203125,-9.862481600671395e-05,-7.518900097657738e-05,-0.00013230250392919812,-0.00014353844095521475,6.6667,6.4667
2.0859375,-6.542909857328143e-05,-3.6119268207827866e-05,-0.00016061827016098265,-0.00014061649486533912,6.6667,6.4667
2.08984375,-6.44350344396124e-05,-5.8079048615243745e-05,-0.00018700615443656058,-0.0001694142315861753,6.6667,6.4667
2.09375,-0.00011034272352178224,-9.031082507057296e-05,-0.0001923680761272602,-0.00017185420718699929,6.6667,6.4667
2.09765625,-6.247702932784007e-05,-6.051902421606773e-05,-0.00014450238193331805,-0.0001391404602426184,6.6667,6.4667
2.1015625,-1.3165423666742947e-05,-2.831737091630425e-05,-6.491700492866406e-05,-0.00010642671329823757,6.6667,6.4667
2.10546875,-6.639303955138474e-05,-6.542909857328143e-05,-8.055092266727702e-05,-0.00012841661686121918,6.6667,6.4667
2.109375,-0.00015525634847028303,-0.00012254260152590217,-9.91067864957656e-05,-0.00016796832011902035,6.6667,6.4667
2.11328125,-0.00016209430478370334,-0.00011082469401083389,-0.00010202873258564124,-0.00017185420718699929,6.6667,6.4667
2.1171875,-7.470703048752574e-05,-5.175318594644082e-05,-0.00010106479160753794,-0.00012742255272755015,6.6667,6.4667
2.12109375,-9.618484040588997e-05,-0.00012498257712672617,-0.0001845661788357366,-0.0001640523098954757,6.6667,6.4667
2.125,-0.00013621851415274278,-0.0001923680761272602,-0.0002587595109941253,-0.00022996177427328908,6.6667,6.4667
2.12890625,-4.3921165499351476e-05,-0.00012058459641412984,-0.00018357211470206757,-0.00020212797853055617,6.6667,6.4667
2.1328125,-6.051902421606773e-05,-0.00010398673769741359,-0.00015869038820477606,-0.00016305824576180665,6.6667,6.4667
2.13671875,-0.00011913868494697488,-0.00012350654250400548,-0.0001694142315861753,-0.00017333024180971998,6.6667,6.4667
2.140625,-0.00010350476720836192,-8.055092266727702e-05,-0.00014257449997711146,-0.00015037639726863506,6.6667,6.4667
2.14453125,-0.00019041007101548788,-5.563907301441976e-05,-0.00013670048464179443,-0.00014745445117875943,6.6667,6.4667
2.1484375,-0.0001479364216678111,-3.5155327229724564e-05,-9.570286991683832e-05,-0.0002304437447623407,6.6667,6.4667
2.15234375,-2.6841336293583566e-05,-0.00012157866054779887,-0.00018992810052643626,-0.00023240174987411305,6.6667,6.4667
2.15625,-4.8801116700999446e-05,-0.00018309014421301594,-0.00025487362392614634,-0.00016113036380560004,6.6667,6.4667
2.16015625,-8.543087386892499e-05,-0.00015721435358205535,-0.00022020187186999311,-0.0001864940607919432,6.6667,6.4667
2.1640625,-0.00011374664010070952,-0.00015965432918287935,-0.00019772999781795985,-0.0001987240619516289,6.6667,6.4667
2.16796875,-0.00011962065543602654,-0.000165016250873579,-0.00020700792973220414,-0.0001801681981231403,6.6667,6.4667
2.171875,-0.00014353844095521475,-9.862481600671395e-05,-0.00017429418278782328,-0.00013962243073167008,6.6667,6.4667
2.17578125,-0.00010790274792095824,-5.563907301441976e-05,-0.00012841661686121918,-0.00014989442677958343,6.6667,6.4667
2.1796875,-5.2235156435492466e-05,-0.00011230072863355457,-0.00016745622647440297,-0.00021384588604562445,6.6667,6.4667
2.18359375,-6.639303955138474e-05,-0.00014305647046616312,-0.00021676783213550008,-0.00018309014421301594,6.6667,6.4667
2.1875,-0.00010546277232013425,-0.00017772822252231632,-0.0002621935507286183,-0.0001762521878995956,6.6667,6.4667
2.19140625,-8.690690849164567e-05,-0.00014257449997711146,-0.0002118878809338521,-0.00015378031384756234,6.6667,6.4667
2.1953125,-8.2990898268101e-05,-0.00015869038820477606,-0.00022215987698176543,-0.00016013629967193103,6.6667,6.4667
2.19921875,-0.00010154676209658959,-0.000165016250873579,-0.0002304437447623407,-0.00017673415838864726,6.6667,6.4667
2.203125,-9.470880578316928e-05,-0.00012106656690318148,-0.00018845206590371554,-0.00015817829456015868,6.6667,6.4667
2.20703125,-0.00015817829456015868,-0.00010594474280918592,-0.0001923680761272602,-0.00016796832011902035,6.6667,6.4667
2.2109375,-0.0001245006066376745,-0.0001025107030746929,-0.00020116403755245286,-0.00017137223669794763,6.6667,6.4667
2.21484375,-2.831737091630425e-05,-0.0001391404602426184,-0.00021384588604562445,-0.0001821262032349126,6.6667,6.4667
2.21875,-7.27490253757534e-05,-0.00017772822252231632,-0.0002260457640497444,-0.00017821019301136795,6.6667,6.4667
2.22265625,-0.00012058459641412984,-0.00020800199386587318,-0.00025195167783627066,-0.00020212797853055617,6.6667,6.4667
2.2265625,-7.811094706645302e-05,-0.00018161410959029523,-0.00022655785769436177,-0.00023532369596398868,6.6667,6.4667
2.23046875,-8.055092266727702e-05,-0.0001245006066376745,-0.0001957719927061875,-0.00019824209146257723,6.6667,6.4667
2.234375,-9.275080067139695e-05,-0.00012302457201495383,-0.00019089204150453954,-0.00014061649486533912,6.6667,6.4667
2.23828125,-9.570286991683832e-05,-0.00021676783213550008,-0.00024411965738918134,-0.00017333024180971998,6.6667,6.4667
2.2421875,-0.00014257449997711146,-0.00023143780889600974,-0.00026854953655298697,-0.00018357211470206757,6.6667,6.4667
2.24609375,-0.0002260457640497444,-0.00021092393995574883,-0.0002573135995269703,-0.00019772999781795985,6.6667,6.4667
2.25,-0.0001811321391012436,-0.00020068206706340123,-0.00024851763810177765,-0.00022116581284809642,6.6667,6.4667
2.25390625,-0.00011230072863355457,-0.00014257449997711146,-0.0001786921635004196,-0.0001850481493247883,6.6667,6.4667
2.2578125,-9.470880578316928e-05,-0.00012938055783932246,-0.00018065016861219194,-0.00018748812492561226,6.6667,6.4667
2.26171875,-4.735520523384449e-05,-0.00017577021741054397,-0.00023679973058670937,-0.00019140413514915692,6.6667,6.4667
2.265625,-0.00011034272352178224,-0.00019724802732890817,-0.00026463352632944223,-0.00019824209146257723,6.6667,6.4667
2.26953125,-0.00011962065543602654,-0.00022411788209353778,-0.0003061432346990158,-0.0001826081737239643,6.6667,6.4667
2.2734375,-7.567097146562904e-05,-0.0002661095609521629,-0.0003320190253299763,-0.00020604398875410083,6.6667,6.4667
2.27734375,-9.519077627222094e-05,-0.0002226418474708171,-0.0002783094389562829,-0.0002236057884489204,6.6667,6.4667
2.28125,-9.1304889204242e-05,-0.00014646038704509037,-0.00020604398875410083,-0.000165016250873579,6.6667,6.4667
2.28515625,-0.00010642671329823757,-0.00013182053344014646,-0.00019824209146257723,-0.00024803566761272597,6.6667,6.4667
2.2890625,-0.00012206063103685052,-0.00016061827016098265,-0.00025195167783627066,-0.00024216165227740902,6.6667,6.4667
2.29296875,-0.00021532192066834514,-0.00020604398875410083,-0.0002665915314412146,-0.00020896593484397648,6.6667,6.4667
2.296875,-0.00017477615327687494,-0.00014597841655603874,-0.0001845661788357366,-0.00014989442677958343,6.6667,6.4667
2.30078125,-2.096732095826656e-05,-0.00020360401315327686,-0.00027243542362096585,-0.00013085659246204318,6.6667,6.4667
2.3046875,-5.907311274891278e-05,-0.0003134631615014877,-0.0003837706065918974,-0.00024755369712367435,6.6667,6.4667
2.30859375,-0.00012010262592507818,-0.00031198712687876705,-0.00037937262587930113,-0.00025683162903791866,6.6667,6.4667
2.3125,-0.00013329656806286715,-0.00027487539922178985,-0.0003237050343938353,-0.00024071574081025406,6.6667,6.4667
2.31640625,-0.00012302457201495383,-0.00020456795413138014,-0.0002602355456168459,-0.0002617115802395666,6.6667,6.4667
2.3203125,-0.00013278447441824977,-0.00019089204150453954,-0.0002661095609521629,-0.00022215987698176543,6.6667,6.4667
2.32421875,-0.0001454964460669871,-0.00024167968178835734,-0.0003046672000762951,-0.0002133639155565728,6.6667,6.4667
2.328125,-0.00017040829571984435,-0.00024363768690012968,-0.0003032212886091401,-0.00024460162787823297,6.6667,6.4667
2.33203125,-0.00018748812492561226,-0.00023631776009765771,-0.0002909912874494545,-0.0002587595109941253,6.6667,6.4667
2.3359375,-0.00014597841655603874,-0.0002587595109941253,-0.00031198712687876705,-0.0002670735019302663,6.6667,6.4667
2.33984375,-0.00012645861174944684,-0.00023631776009765771,-0.000316867078080415,-0.00023240174987411305,6.6667,6.4667
2.34375,-0.000165016250873579,-0.00024803566761272597,-0.0003198191473258564,-0.00024803566761272597,6.6667,6.4667
2.34765625,-0.0001616123342946517,-0.0003056612642099641,-0.00030514917056534673,-0.00027243542362096585,6.6667,6.4667
2.3515625,-0.00019384411074998092,-0.00031442710247959105,-0.00024267374592202637,-0.0002533975893034256,6.6667,6.4667
2.35546875,-0.00022215987698176543,-0.0002216779064927138,-0.0001391404602426184,-0.00023484172547493705,6.6667,6.4667
2.359375,-0.00011422861058976118,-0.00013670048464179443,-9.031082507057296e-05,-0.00025487362392614634,6.6667,6.4667
2.36328125,-3.22032579842832e-05,-0.00019089204150453954,-0.00018553011981383991,-0.0002929492925612268,6.6667,6.4667
2.3671875,-0.00017429418278782328,-0.00031442710247959105,-0.0003090651807888914,-0.00031786114221408405,6.6667,6.4667
2.37109375,-0.0002739114582436866,-0.00037693265027847713,-0.00037693265027847713,-0.0003285849855954833,6.6667,6.4667
2.375,-0.0001440204114442664,-0.0003495808250247959,-0.00034909885453574425,-0.0003022272244754711,6.6667,6.4667
2.37890625,-0.0001005828211184863,-0.00031882508319218736,-0.0002905093169604028,-0.00026559746730754554,6.6667,6.4667
2.3828125,-0.0001440204114442664,-0.00028758737087052717,-0.00027635143384451054,-0.00025243364832532234,6.6667,6.4667
2.38671875,-0.0001245006066376745,-0.00025047564321354997,-0.0002719534531319142,-0.00028026744406805523,6.6667,6.4667
2.390625,-0.0001391404602426184,-0.00027243542362096585,-0.0002895453759822995,-0.00028222544917982754,6.6667,6.4667
2.39453125,-0.00014305647046616312,-0.0002983112142519264,-0.00031249922052338443,-0.0002699954480201419,6.6667,6.4667
2.3984375,-0.00012498257712672617,-0.00027975535042343785,-0.0002988233078965438,-0.00027243542362096585,6.6667,6.4667
2.40234375,-0.00013522445001907377,-0.0002768334043335622,-0.00026755547241931785,-0.0002587595109941253,6.6667,6.4667
2.40625,-0.00014353844095521475,-0.0002787914094453345,-0.00026366958535133897,-0.0002768334043335622,6.6667,6.4667
2.41015625,-0.0001269405822384985,-0.0002699954480201419,-0.00026559746730754554,-0.00028074941455710686,6.6667,6.4667
2.4140625,-0.00013621851415274278,-0.00030758914616617073,-0.00028222544917982754,-0.0002617115802395666,6.6667,6.4667
2.41796875,-0.00014305647046616312,-0.0003622927966735332,-0.00028466542478065154,-0.00026854953655298697,6.6667,6.4667
2.421875,-0.00016453428038452732,-0.0003598528210727092,-0.0002602355456168459,-0.00027782746846723123,6.6667,6.4667
2.42578125,-0.00016061827016098265,-0.00033982092262149993,-0.00025095761370260165,-0.00027294751726558323,6.6667,6.4667
2.4296875,-9.226883018234529e-05,-0.0003388569816433966,-0.0002563195353933013,-0.00025535559441519797,6.6667,6.4667
2.43359375,-9.570286991683832e-05,-0.0003647327722743572,-0.0002944253271839475,-0.0002617115802395666,6.6667,6.4667
2.4375,-0.00017185420718699929,-0.00037937262587930113,-0.0003242171280384527,-0.0002934312630502784,6.6667,6.4667
2.44140625,-0.00022848573965056836,-0.00030514917056534673,-0.0002670735019302663,-0.00028659330673685816,6.6667,6.4667
2.4453125,-0.00018896415954833292,-0.0002617115802395666,-0.0002719534531319142,-0.00027538749286640723,6.6667,6.4667
2.44921875,-0.00013329656806286715,-0.00028222544917982754,-0.00031442710247959105,-0.00029002734647135117,6.6667,6.4667
2.453125,-0.00012106656690318148,-0.00025047564321354997,-0.0002983112142519264,-0.0002856293657587548,6.6667,6.4667
2.45703125,-0.00017233617767605097,-0.0002934312630502784,-0.00034714084942397193,-0.00030514917056534673,6.6667,6.4667
2.4609375,-0.00013865848975356678,-0.0002988233078965438,-0.0003256630395056077,-0.0003354229419089036,6.6667,6.4667
2.46484375,-0.0001279045232166018,-0.0002929492925612268,-0.0003281030151064316,-0.0003100291217669947,6.6667,6.4667
2.46875,-0.00019968800292973217,-0.0003056612642099641,-0.00038669255268177307,-0.00027538749286640723,6.6667,6.4667
2.47265625,-0.00019333201710536354,-0.0002661095609521629,-0.00036961272347600514,-0.0002709895121538109,6.6667,6.4667
2.4765625,-0.00014450238193331805,-0.00023679973058670937,-0.0003256630395056077,-0.0002905093169604028,6.6667,6.4667
2.48046875,-0.0001616123342946517,-0.0002133639155565728,-0.0003095471512779431,-0.00031930705368123904,6.6667,6.4667
2.484375,-0.00017577021741054397,-0.00018065016861219194,-0.0003041852295872434,-0.0003032212886091401,6.6667,6.4667
2.48828125,-0.00014890036264591437,-0.00015429240749217972,-0.00029198535158312354,-0.00030858321029983974,6.6667,6.4667
2.4921875,-0.0001376945487754635,-0.00011178863498893719,-0.0002563195353933013,-0.00031737917172503237,6.6667,6.4667
2.49609375,-0.00014890036264591437,-0.0001152226747234302,-0.0002563195353933013,-0.0002705075416647593,6.6667,6.4667
2.5,-0.00013085659246204318,-0.00017528824692149232,-0.00032469909852750437,-0.0002563195353933013,6.6667,6.4667
2.50390625,-0.0001254645476157778,-0.00022215987698176543,-0.00038280666561379414,-0.00028270741966887917,6.6667,6.4667
2.5078125,-0.00014013452437628747,-0.00024167968178835734,-0.0003603347915617609,-0.0002929492925612268,6.6667,6.4667
2.51171875,-0.00014646038704509037,-0.00021288194506752117,-0.00027635143384451054,-0.00027243542362096585,6.6667,6.4667
2.515625,-0.000162576275272755,-0.000165016250873579,-0.00019480805172808423,-0.0003095471512779431,6.6667,6.4667
2.51953125,-0.00011814462081330585,-0.00021872583724727242,-0.00022020187186999311,-0.00027635143384451054,6.6667,6.4667
2.5234375,-0.0001440204114442664,-0.00027487539922178985,-0.0002602355456168459,-0.0002743934287327382,6.6667,6.4667
2.52734375,-0.0001532983433585107,-0.00016013629967193103,-0.00019089204150453954,-0.00042380428033875027,6.6667,6.4667
2.53125,-0.00010986075303273058,-0.00012938055783932246,-0.00017577021741054397,-0.00027927337993438617,6.6667,6.4667
2.53515625,-7.12729907530327e-05,-0.00015673238309300372,-0.00020068206706340123,-0.00011278269912260622,6.6667,6.4667
2.5390625,-0.00010302279671931028,-0.0002031220426642252,-0.0003285849855954833,-0.0002333958140077821,6.6667,6.4667
2.54296875,-0.0001694142315861753,-0.00023387778449683374,-0.00038913252828259707,-0.00033153705484092463,6.6667,6.4667
2.546875,-0.00010106479160753794,-0.00019529002221713585,-0.00033153705484092463,-0.0002787914094453345,6.6667,6.4667
2.55078125,-8.055092266727702e-05,-0.00016013629967193103,-0.0002968653027847715,-0.0002158038911573968,6.6667,6.4667
2.5546875,-0.00014305647046616312,-0.00018601209030289157,-0.0003061432346990158,-0.00023240174987411305,6.6667,6.4667
2.55859375,-0.00014890036264591437,-0.00023532369596398868,-0.0002890332823376821,-0.00024803566761272597,6.6667,6.4667
2.5625,-0.00012498257712672617,-0.0002328837203631647,-0.0002495117022354467,-0.00022899783329518575,6.6667,6.4667
2.56640625,-0.00011962065543602654,-0.0001987240619516289,-0.00022411788209353778,-0.0002123999745784695,6.6667,6.4667
2.5703125,-9.958875698481726e-05,-0.0002099599989776455,-0.00024267374592202637,-0.00021824386675822077,6.6667,6.4667
2.57421875,-8.591284435797663e-05,-0.0002118878809338521,-0.0002309558384069581,-0.00024167968178835734,6.6667,6.4667
2.578125,-9.1304889204242e-05,-0.00017821019301136795,-0.00019724802732890817,-0.00022068384235904477,6.6667,6.4667
2.58203125,-9.958875698481726e-05,-0.00014890036264591437,-0.00020800199386587318,-0.00017381221229877163,6.6667,6.4667
2.5859375,-0.00010202873258564124,-0.00015673238309300372,-0.00022848573965056836,-0.00020896593484397648,6.6667,6.4667
2.58984375,-8.8864913603418e-05,-0.00014305647046616312,-0.00024851763810177765,-0.00022556379356069274,6.6667,6.4667
2.59375,-0.00014697248068970775,-0.00017528824692149232,-0.00025535559441519797,-0.00024460162787823297,6.6667,6.4667
2.59765625,-0.00015085836775768671,-0.0001879700954146639,-0.0002304437447623407,-0.00030270919496452273,6.6667,6.4667
2.6015625,-0.00011766265032425419,-0.00015965432918287935,-0.0002260457640497444,-0.00024071574081025406,6.6667,6.4667
2.60546875,-0.00011962065543602654,-0.0002074899002212558,-0.0002699954480201419,-0.00023387778449683374,6.6667,6.4667
2.609375,-0.00011766265032425419,-0.00019140413514915692,-0.00028123138504615854,-0.0002617115802395666,6.6667,6.4667
2.61328125,-0.00011178863498893719,-0.00017477615327687494,-0.00026415155584039065,-0.00021532192066834514,6.6667,6.4667
2.6171875,-0.00014353844095521475,-0.00021044196946669717,-0.0003007511898527504,-0.00025779557001602197,6.6667,6.4667
2.62109375,-0.00010302279671931028,-0.00018700615443656058,-0.0002739114582436866,-0.00025683162903791866,6.6667,6.4667
2.625,-9.714878138399326e-05,-0.0001826081737239643,-0.0002133639155565728,-0.00022899783329518575,6.6667,6.4667
2.62890625,-0.00017528824692149232,-0.00019968800292973217,-0.0002226418474708171,-0.0002934312630502784,6.6667,6.4667
2.6328125,-0.0001279045232166018,-0.00021092393995574883,-0.00024216165227740902,-0.0003090651807888914,6.6667,6.4667
2.63671875,-9.079279555962461e-05,-0.00024704160347905696,-0.00027487539922178985,-0.0003017452539864195,6.6667,6.4667
2.640625,-0.00015573831895933468,-0.00024167968178835734,-0.0002983112142519264,-0.0002958712386511024,6.6667,6.4667
2.64453125,-0.00014061649486533912,-0.00020700792973220414,-0.0002787914094453345,-0.00023484172547493705,6.6667,6.4667
2.6484375,-9.618484040588997e-05,-0.0002094479053330281,-0.0003012632834973678,-0.0002250818230716411,6.6667,6.4667
2.65234375,-0.000166010315007248,-0.0002533975893034256,-0.0003207830883039597,-0.00026854953655298697,6.6667,6.4667
2.65625,-0.00020896593484397648,-0.00020456795413138014,-0.00024071574081025406,-0.0002978292437628748,6.6667,6.4667
2.66015625,-0.00011962065543602654,-0.00013962243073167008,-0.0002148399501792935,-0.0002743934287327382,6.6667,6.4667
2.6640625,-0.00012498257712672617,-0.00016113036380560004,-0.00023631776009765771,-0.0002626755212176699,6.6667,6.4667
2.66796875,-4.1963160387579145e-05,-0.0001762521878995956,-0.0002148399501792935,-0.00021532192066834514,6.6667,6.4667
2.671875,-3.8077273319600196e-05,-0.00024119771129930569,-0.00027731537482261385,-0.00026559746730754554,6.6667,6.4667
2.67578125,-0.00011766265032425419,-0.00024559569201190203,-0.0002978292437628748,-0.00031394513199053937,6.6667,6.4667
2.6796875,-0.00012401863614862286,-0.00018944613003738458,-0.00023532369596398868,-0.0002294798037842374,6.6667,6.4667
2.68359375,-0.0001005828211184863,-0.0001762521878995956,-0.00021676783213550008,-0.00023631776009765771,6.6667,6.4667
2.6875,-7.567097146562904e-05,-0.0001371824551308461,-0.00016209430478370334,-0.00032614500999465936,6.6667,6.4667
2.69140625,-9.374486480506598e-05,-0.0001279045232166018,-0.00015769632407110703,-0.00022848573965056836,6.6667,6.4667
2.6953125,-0.00015085836775768671,-0.00028026744406805523,-0.00032469909852750437,-0.0001762521878995956,6.6667,6.4667
2.69921875,-0.00010986075303273058,-0.00030858321029983974,-0.0003437369328450446,-0.0002031220426642252,6.6667,6.4667
2.703125,-0.00010642671329823757,-0.00025779557001602197,-0.0002953892681620508,-0.00021628586164644843,6.6667,6.4667
2.70703125,-0.00011422861058976118,-0.00022848573965056836,-0.0002597535751277943,-0.0002319197793850614,6.6667,6.4667
2.7109375,-0.00010350476720836192,-0.00019824209146257723,-0.00020604398875410083,-0.00022116581284809642,6.6667,6.4667
2.71484375,-0.0001479364216678111,-0.00017528824692149232,-0.00018944613003738458,-0.00020360401315327686,6.6667,6.4667
2.71875,-6.34710934615091e-05,-0.0001269405822384985,-0.0001821262032349126,-0.0002148399501792935,6.6667,6.4667
2.72265625,-3.759530283054855e-05,-0.00011618661570153351,-0.0001786921635004196,-0.0002328837203631647,6.6667,6.4667
2.7265625,-0.00010398673769741359,-0.00020604398875410083,-0.0002387577356984817,-0.00019140413514915692,6.6667,6.4667
2.73046875,-0.00012594651810482946,-0.00018944613003738458,-0.00021532192066834514,-0.00016061827016098265,6.6667,6.4667
2.734375,-0.0001083847184100099,-0.00010007072747386891,-0.00011278269912260622,-0.00025291561881437397,6.6667,6.4667
2.73828125,-9.079279555962461e-05,-0.00017233617767605097,-0.00016697425598535132,-0.00024267374592202637,6.6667,6.4667
2.7421875,-0.00019824209146257723,-0.00025779557001602197,-0.00028026744406805523,-0.00015085836775768671,6.6667,6.4667
2.74609375,-6.44350344396124e-05,-6.395306395056075e-05,-0.00010495067867551688,-0.0001879700954146639,6.6667,6.4667
2.75,1.9518200122072185e-05,-0.00011766265032425419,-0.00015673238309300372,-0.00023776367156481268,6.6667,6.4667
2.75390625,-0.0001288985873502708,-0.00031786114221408405,-0.0003544908993820096,-0.00021727992578011746,6.6667,6.4667
2.7578125,-0.00014450238193331805,-0.00027538749286640723,-0.0003242171280384527,-0.00014941245629053175,6.6667,6.4667
2.76171875,-8.250892777904934e-05,-0.00022899783329518575,-0.00028222544917982754,-9.862481600671395e-05,6.6667,6.4667
2.765625,-5.271712692454412e-05,-0.00021824386675822077,-0.00024999367272449834,-0.00012594651810482946,6.6667,6.4667
2.76953125,-2.1961385091935593e-05,-0.0001801681981231403,-0.00020504992462043182,-0.00013670048464179443,6.6667,6.4667
2.7734375,-8.787084946974897e-05,-0.0002333958140077821,-0.00024704160347905696,-0.00015869038820477606,6.6667,6.4667
2.77734375,-0.00012010262592507818,-0.0002851473952697032,-0.00030026921936369874,-0.00019432608123903255,6.6667,6.4667
2.78125,-0.00011570464521248186,-0.00025487362392614634,-0.0002709895121538109,-0.00018944613003738458,6.6667,6.4667
2.78515625,-0.00012010262592507818,-0.00017381221229877163,-0.00018553011981383991,-0.00015573831895933468,6.6667,6.4667
2.7890625,-0.0001245006066376745,-0.00017333024180971998,-0.0001864940607919432,-0.00015622028944838634,6.6667,6.4667
2.79296875,-6.639303955138474e-05,-0.0002094479053330281,-0.0002074899002212558,-0.0001186265913023575,6.6667,6.4667
2.796875,-8.151486364538031e-05,-0.00021384588604562445,-0.00022068384235904477,-0.0001450144755779354,6.6667,6.4667
2.80078125,-0.00014646038704509037,-0.00018845206590371554,-0.0002226418474708171,-0.0002563195353933013,6.6667,6.4667
2.8046875,-0.00010007072747386891,-0.00010642671329823757,-0.00013230250392919812,-7.223693173113602e-05,6.6667,6.4667
2.80859375,-6.687501004043639e-05,-8.787084946974897e-05,-9.763075187304493e-05,-3.8077273319600196e-05,6.6667,6.4667
2.8125,-0.00019676605683985654,-0.00017821019301136795,-0.00019772999781795985,-0.00020896593484397648,6.6667,6.4667
2.81640625,-0.0002983112142519264,-0.00024607766250095366,-0.00029490729767299917,-0.00031930705368123904,6.6667,6.4667
2.8203125,-5.467513203631646e-05,-1.6046845197088543e-09,-5.4193161547264804e-05,-0.00027147148264286254,6.6667,6.4667
2.82421875,0.0001093454500190738,0.00012109348068970779,8.64217286335546e-05,-8.8864913603418e-05,6.6667,6.4667
2.828125,9.623362935835952e-07,-0.0002939433566948958,-0.00032762104461738,-4.443325914396885e-05,6.6667,6.4667
2.83203125,-0.0001811321391012436,-0.0005551713617608911,-0.0005756551075455864,-0.00024023377032120238,6.6667,6.4667
2.8359375,-0.0001269405822384985,-0.0003632567376516365,-0.00037645067978942545,-0.0003437369328450446,6.6667,6.4667
2.83984375,-9.763075187304493e-05,-0.00022848573965056836,-0.0002621935507286183,-0.00015378031384756234,6.6667,6.4667
2.84375,-0.00010007072747386891,-0.00024851763810177765,-0.00028318939015793085,-0.0001254645476157778,6.6667,6.4667
2.84765625,-0.0001083847184100099,-0.00028806934135957885,-0.0003066252051880674,-0.00010690868378728922,6.6667,6.4667
2.8515625,-0.00011034272352178224,-0.00025927160463874266,-0.00028123138504615854,-4.8801116700999446e-05,6.6667,6.4667
2.85546875,-8.446693289082168e-05,-0.00024216165227740902,-0.00027294751726558323,-8.591284435797663e-05,6.6667,6.4667
2.859375,-7.859291755550468e-05,-0.00024460162787823297,-0.00027538749286640723,-9.1304889204242e-05,6.6667,6.4667
2.86328125,-9.275080067139695e-05,-0.00025095761370260165,-0.0002734294877546349,-8.250892777904934e-05,6.6667,6.4667
2.8671875,-9.32327711604486e-05,-0.00024216165227740902,-0.00028123138504615854,-6.835104466315707e-05,6.6667,6.4667
2.87109375,-9.178685969329365e-05,-0.00023972167667658502,-0.00028318939015793085,-5.955508323796443e-05,6.6667,6.4667
2.875,-9.570286991683832e-05,-0.0002573135995269703,-0.0002783094389562829,-7.371296635385669e-05,6.6667,6.4667
2.87890625,-8.446693289082168e-05,-0.0002558375649042496,-0.00028318939015793085,-8.347286875715265e-05,6.6667,6.4667
2.8828125,-8.934688409246966e-05,-0.00024607766250095366,-0.0002719534531319142,-8.446693289082168e-05,6.6667,6.4667
2.88671875,-0.00011130666449988553,-0.0002294798037842374,-0.00025095761370260165,-0.00012986252832837414,6.6667,6.4667
2.890625,-0.00012302457201495383,-0.0002148399501792935,-0.0002309558384069581,-0.00017381221229877163,6.6667,6.4667
2.89453125,-0.00017429418278782328,-0.00020700792973220414,-0.00020408598364232851,-0.00015525634847028303,6.6667,6.4667
2.8984375,-0.0001811321391012436,-0.0002133639155565728,-0.00024411965738918134,-0.00016745622647440297,6.6667,6.4667
2.90234375,-0.0001245006066376745,-0.0002617115802395666,-0.00030858321029983974,-0.00022020187186999311,6.6667,6.4667
2.90625,-0.00013621851415274278,-0.00037889065539024945,-0.00041012836771190964,-0.0002861113362478065,6.6667,6.4667
2.91015625,-0.00015085836775768671,-0.00038084866050202177,-0.0004311242071412222,-0.0002558375649042496,6.6667,6.4667
2.9140625,-0.0001337785385519188,-0.000337380947020676,-0.00037741462076752876,-0.0002328837203631647,6.6667,6.4667
2.91796875,-0.00014450238193331805,-0.00035253289427023725,-0.00037253466956588076,-0.0002739114582436866,6.6667,6.4667
2.921875,-0.00013621851415274278,-0.00033837501115434494,-0.0003544908993820096,-0.0002690315070420386,6.6667,6.4667
2.92578125,-0.00013670048464179443,-0.0003100291217669947,-0.00033494097141985194,-0.0002939433566948958,6.6667,6.4667
2.9296875,-0.00014013452437628747,-0.0002836713606469825,-0.000316867078080415,-0.0003090651807888914,6.6667,6.4667
2.93359375,-0.00014697248068970775,-0.0002787914094453345,-0.0003134631615014877,-0.00032126505879301136,6.6667,6.4667
2.9375,-0.00013962243073167008,-0.00028806934135957885,-0.0002958712386511024,-0.00032713907412832837,6.6667,6.4667
2.94140625,-0.0001337785385519188,-0.00027635143384451054,-0.0002953892681620508,-0.0003207830883039597,6.6667,6.4667
2.9453125,-0.00013573654366369115,-0.0002573135995269703,-0.0003061432346990158,-0.0003403028931105516,6.6667,6.4667
2.94921875,-0.00012350654250400548,-0.00025243364832532234,-0.0002934312630502784,-0.0003388569816433966,6.6667,6.4667
2.953125,-0.00012206063103685052,-0.00025095761370260165,-0.00029150338109407186,-0.0003163851075913634,6.6667,6.4667
2.95703125,-0.00010690868378728922,-0.00024216165227740902,-0.00026854953655298697,-0.0003100291217669947,6.6667,6.4667
2.9609375,-0.00011034272352178224,-0.00024411965738918134,-0.0002739114582436866,-0.00035009291866941325,6.6667,6.4667
2.96484375,-0.00014206240633249408,-0.0002705075416647593,-0.0003134631615014877,-0.0003998864948195621,6.6667,6.4667
2.96875,-0.00015817829456015868,-0.00028758737087052717,-0.0003041852295872434,-0.00037057666445410844,6.6667,6.4667
2.97265625,-0.0001415804358434424,-0.0003281030151064316,-0.0002958712386511024,-0.0003427729918669413,6.6667,6.4667
2.9765625,-0.00012498257712672617,-0.000332500995819028,-0.00029198535158312354,-0.0003412969572442206,6.6667,6.4667
2.98046875,-9.763075187304493e-05,-0.0003256630395056077,-0.0003041852295872434,-0.00035693087498283357,6.6667,6.4667
2.984375,-6.786907417410543e-05,-0.0003339770304417487,-0.0003305429907072557,-0.0003735287336995498,6.6667,6.4667
2.98828125,-8.690690849164567e-05,-0.00030758914616617073,-0.00033786291750972756,-0.00037304676321049814,6.6667,6.4667
2.9921875,-8.98288545815213e-05,-0.00030758914616617073,-0.0003412969572442206,-0.00037985459636835276,6.6667,6.4667
2.99609375,-7.811094706645302e-05,-0.0003290970792401007,-0.000337380947020676,-0.00037057666445410844,6.6667,6.4667
3.0,-9.178685969329365e-05,-0.0003637688312962539,-0.00038524664121461814,-0.0003715707285877775,6.6667,6.4667
3.00390625,-8.006895217822535e-05,-0.00038476467072556645,-0.00040868245624475465,-0.00037449267467765313,6.6667,6.4667
3.0078125,-6.44350344396124e-05,-0.0003940426026398107,-0.000413080436957351,-0.00037449267467765313,6.6667,6.4667
3.01171875,-6.003705372701608e-05,-0.0004067244511329824,-0.0004233223098496986,-0.00036913075298695356,6.6667,6.4667
3.015625,-6.151308834973677e-05,-0.00042136430473792627,-0.00041503844206912334,-0.0003652147427634089,6.6667,6.4667
3.01953125,-6.103111786068511e-05,-0.0004184423586480506,-0.0004267563495841916,-0.0003671727478751812,6.6667,6.4667
3.0234375,-4.636114110017546e-05,-0.0004316363007858396,-0.00043651625198748754,-0.00034325496235599294,6.6667,6.4667
3.02734375,-4.8801116700999446e-05,-0.0004701939399099718,-0.0004340762763866636,-0.0003578948159609369,6.6667,6.4667
3.03125,-6.34710934615091e-05,-0.00047555586160067135,-0.00042431637398336765,-0.00035693087498283357,6.6667,6.4667
3.03515625,-7.079102026398107e-05,-0.0004511561055924315,-0.00041452634842450596,-0.0003339770304417487,6.6667,6.4667
3.0390625,-8.151486364538031e-05,-0.00041747841766994734,-0.00038476467072556645,-0.00034617690844586857,6.6667,6.4667
3.04296875,-8.20269572899977e-05,-0.00038964462192721445,-0.00034617690844586857,-0.00037645067978942545,6.6667,6.4667
3.046875,-5.467513203631646e-05,-0.000332500995819028,-0.0002993052783855955,-0.00038913252828259707,6.6667,6.4667
3.05078125,-4.7837175722896144e-05,-0.0003163851075913634,-0.0002963833322957198,-0.0003554548403601129,6.6667,6.4667
3.0546875,-8.151486364538031e-05,-0.00034861688404669256,-0.0003090651807888914,-0.000332500995819028,6.6667,6.4667
3.05859375,-7.223693173113602e-05,-0.00034617690844586857,-0.00028415333113603416,-0.00033494097141985194,6.6667,6.4667
3.0625,-6.687501004043639e-05,-0.00033982092262149993,-0.00027975535042343785,-0.0003495808250247959,6.6667,6.4667
3.06640625,-8.835281995880062e-05,-0.0003207830883039597,-0.0002719534531319142,-0.0003700946939650568,6.6667,6.4667
3.0703125,-9.91067864957656e-05,-0.00028171335553521016,-0.00023923970618753334,-0.00036961272347600514,6.6667,6.4667
3.07421875,-8.934688409246966e-05,-0.00027782746846723123,-0.0002148399501792935,-0.00037304676321049814,6.6667,6.4667
3.078125,-8.20269572899977e-05,-0.0002743934287327382,-0.00021288194506752117,-0.0003754867388113222,6.6667,6.4667
3.08203125,-8.835281995880062e-05,-0.00026415155584039065,-0.00020212797853055617,-0.00036569671325246045,6.6667,6.4667
3.0859375,-0.00010495067867551688,-0.0002514395841916533,-0.0002055620182650492,-0.00037693265027847713,6.6667,6.4667
3.08984375,-0.00011570464521248186,-0.00022752179867246508,-0.0001864940607919432,-0.00038476467072556645,6.6667,6.4667
3.09375,-0.00011374664010070952,-0.00020504992462043182,-0.0001371824551308461,-0.0003671727478751812,6.6667,6.4667
3.09765625,-0.00010886668889906156,-0.00019285004661631188,-0.00013962243073167008,-0.0003647327722743572,6.6667,6.4667
3.1015625,-0.00010546277232013425,-0.000170890266208896,-0.00013230250392919812,-0.00038084866050202177,6.6667,6.4667
3.10546875,-0.00012302457201495383,-0.00015965432918287935,-0.0001245006066376745,-0.00039648257824063477,6.6667,6.4667
3.109375,-0.00012401863614862286,-0.000165016250873579,-0.00015525634847028303,-0.0003710887580987258,6.6667,6.4667
3.11328125,-0.00011326466961165788,-0.00016453428038452732,-0.00016745622647440297,-0.00034521296746776526,6.6667,6.4667
3.1171875,-0.0001166987093461509,-0.00015378031384756234,-0.00014597841655603874,-0.00034177892773327225,6.6667,6.4667
3.12109375,-0.00010986075303273058,-0.00015085836775768671,-0.00014305647046616312,-0.00035202080062561987,6.6667,6.4667
3.125,-9.958875698481726e-05,-0.00014013452437628747,-0.0001450144755779354,-0.00034714084942397193,6.6667,6.4667
3.12890625,-0.00011326466961165788,-0.00014109846535439077,-0.00014989442677958343,-0.0003412969572442206,6.6667,6.4667
3.1328125,-0.0001186265913023575,-0.00014061649486533912,-0.0001532983433585107,-0.00034325496235599294,6.6667,6.4667
3.13671875,-0.0001083847184100099,-0.00013962243073167008,-0.00014305647046616312,-0.0003368989765316243,6.6667,6.4667
3.140625,-0.00010398673769741359,-0.00015134033824673837,-0.00013573654366369115,-0.00033153705484092463,6.6667,6.4667
3.14453125,-0.0001093486593881132,-0.00014697248068970775,-0.00013522445001907377,-0.0003364170060425726,6.6667,6.4667
3.1484375,-0.00010790274792095824,-0.00013474247953002211,-0.00013133856295109483,-0.0003344590009308003,6.6667,6.4667
3.15234375,-0.0001093486593881132,-0.00014257449997711146,-0.00013817651926451515,-0.0003232230639047837,6.6667,6.4667
3.15625,-0.00010986075303273058,-0.00014206240633249408,-0.00012938055783932246,-0.0003163851075913634,6.6667,6.4667
3.16015625,-0.00011082469401083389,-0.00013278447441824977,-0.0001288985873502708,-0.00031882508319218736,6.6667,6.4667
3.1640625,-0.0001074207774319066,-0.00013474247953002211,-0.00012938055783932246,-0.0003183431127031357,6.6667,6.4667
3.16796875,-0.00010007072747386891,-0.00014061649486533912,-0.0001186265913023575,-0.0003090651807888914,6.6667,6.4667
3.171875,-0.00010642671329823757,-0.00012302457201495383,-0.00013426050904097046,-0.00031198712687876705,6.6667,6.4667
3.17578125,-0.00010790274792095824,-0.00012841661686121918,-0.00013670048464179443,-0.00031054121541161206,6.6667,6.4667
3.1796875,-0.00010007072747386891,-0.00014061649486533912,-0.00011570464521248186,-0.00030710717567711905,6.6667,6.4667
3.18359375,-9.178685969329365e-05,-0.0001288985873502708,-0.00011814462081330585,-0.00030758914616617073,6.6667,6.4667
3.1875,-9.32327711604486e-05,-0.00013278447441824977,-0.0001269405822384985,-0.0003017452539864195,6.6667,6.4667
3.19140625,-9.91067864957656e-05,-0.00011814462081330585,-0.0001152226747234302,-0.0003081012398107881,6.6667,6.4667
3.1953125,-9.178685969329365e-05,-0.00011326466961165788,-9.958875698481726e-05,-0.0003012632834973678,6.6667,6.4667
3.19921875,-8.347286875715265e-05,-0.00014109846535439077,-0.00011570464521248186,-0.00028123138504615854,6.6667,6.4667
3.203125,-8.151486364538031e-05,-0.00014109846535439077,-0.0001440204114442664,-0.00027635143384451054,6.6667,6.4667
3.20703125,-7.470703048752574e-05,-0.0001440204114442664,-0.00015281637286945906,-0.00025487362392614634,6.6667,6.4667
3.2109375,-7.223693173113602e-05,-0.00016649228549629966,-0.00014305647046616312,-0.00024315571641107803,6.6667,6.4667
3.21484375,-8.39548392462043e-05,-0.00018992810052643626,-0.0001532983433585107,-0.0002621935507286183,6.6667,6.4667
3.21875,-8.738887898069732e-05,-0.00020360401315327686,-0.00014989442677958343,-0.0002670735019302663,6.6667,6.4667
3.22265625,-8.103289315632866e-05,-0.00019824209146257723,-0.00013182053344014646,-0.0002587595109941253,6.6667,6.4667
3.2265625,-8.20269572899977e-05,-0.00016745622647440297,-0.00012986252832837414,-0.000261229609750515,6.6667,6.4667
3.23046875,-7.615294195468069e-05,-0.00014841839215686272,-0.00012254260152590217,-0.0002607175161058976,6.6667,6.4667
3.234375,-7.223693173113602e-05,-0.00015673238309300372,-0.00011913868494697488,-0.000261229609750515,6.6667,6.4667
3.23828125,-7.079102026398107e-05,-0.00014890036264591437,-0.00014013452437628747,-0.0002621935507286183,6.6667,6.4667
3.2421875,-6.735698052948806e-05,-0.00013426050904097046,-0.0001616123342946517,-0.00025779557001602197,6.6667,6.4667
3.24609375,-6.395306395056075e-05,-0.00014257449997711146,-0.00016113036380560004,-0.0002533975893034256,6.6667,6.4667
3.25,-6.295899981689173e-05,-0.00015134033824673837,-0.00017528824692149232,-0.0002538795597924773,6.6667,6.4667
3.25390625,-6.295899981689173e-05,-0.00015185243189135575,-0.00018992810052643626,-0.00025047564321354997,6.6667,6.4667
3.2578125,-6.395306395056075e-05,-0.00014989442677958343,-0.0001801681981231403,-0.00024655963299000534,6.6667,6.4667
3.26171875,-6.835104466315707e-05,-0.00013329656806286715,-0.00016549822136263063,-0.00024704160347905696,6.6667,6.4667
3.265625,-6.151308834973677e-05,-0.00013133856295109483,-0.00015185243189135575,-0.00024559569201190203,6.6667,6.4667
3.26953125,-5.955508323796443e-05,-0.00013865848975356678,-0.00015525634847028303,-0.00024460162787823297,6.6667,6.4667
3.2734375,-6.639303955138474e-05,-0.0001479364216678111,-0.00015429240749217972,-0.00024511372152285035,6.6667,6.4667
3.27734375,-6.395306395056075e-05,-0.0001532983433585107,-0.0001371824551308461,-0.00023923970618753334,6.6667,6.4667
3.28125,-6.687501004043639e-05,-0.00017040829571984435,-0.00012841661686121918,-0.000237281701075761,6.6667,6.4667
3.28515625,-6.786907417410543e-05,-0.0001762521878995956,-0.0001376945487754635,-0.00023827576520943006,6.6667,6.4667
3.2890625,-7.079102026398107e-05,-0.000165016250873579,-0.0001479364216678111,-0.00023484172547493705,6.6667,6.4667
3.29296875,-6.835104466315707e-05,-0.000165016250873579,-0.00013817651926451515,-0.0002226418474708171,6.6667,6.4667
3.296875,-5.8591142259861126e-05,-0.0001694142315861753,-0.0001440204114442664,-0.00021676783213550008,6.6667,6.4667
3.30078125,-6.542909857328143e-05,-0.00016893226109712366,-0.00014890036264591437,-0.00021824386675822077,6.6667,6.4667
3.3046875,-6.542909857328143e-05,-0.00016796832011902035,-0.00013573654366369115,-0.0002123999745784695,6.6667,6.4667
3.30859375,-5.615116665903714e-05,-0.00016796832011902035,-0.0001288985873502708,-0.0002118878809338521,6.6667,6.4667
3.3125,-5.5157102525368106e-05,-0.00016796832011902035,-0.00013329656806286715,-0.0002133639155565728,6.6667,6.4667
3.31640625,-5.907311274891278e-05,-0.00016893226109712366,-0.00013133856295109483,-0.00020456795413138014,6.6667,6.4667
3.3203125,-5.907311274891278e-05,-0.00015281637286945906,-0.00013621851415274278,-0.00019529002221713585,6.6667,6.4667
3.32421875,-5.8079048615243745e-05,-0.00013474247953002211,-0.00012645861174944684,-0.00019824209146257723,6.6667,6.4667
3.328125,-6.003705372701608e-05,-0.00014646038704509037,-0.00012401863614862286,-0.00019968800292973217,6.6667,6.4667
3.33203125,-5.711510763714044e-05,-0.00015817829456015868,-0.00012938055783932246,-0.00018992810052643626,6.6667,6.4667
3.3359375,-5.711510763714044e-05,-0.00015037639726863506,-0.00013133856295109483,-0.00018896415954833292,6.6667,6.4667
3.33984375,-5.907311274891278e-05,-0.00013670048464179443,-0.0001303444988174258,-0.00018845206590371554,6.6667,6.4667
3.34375,-6.34710934615091e-05,-0.0001479364216678111,-0.0001303444988174258,-0.00018845206590371554,6.6667,6.4667
3.34765625,-7.27490253757534e-05,-0.000162576275272755,-0.00014013452437628747,-0.00019188610563820857,6.6667,6.4667
3.3515625,-6.639303955138474e-05,-0.00014890036264591437,-0.0001371824551308461,-0.00018992810052643626,6.6667,6.4667
3.35546875,-5.175318594644082e-05,-0.0001532983433585107,-0.00013182053344014646,-0.00018700615443656058,6.6667,6.4667
3.359375,-5.075912181277178e-05,-0.00014841839215686272,-0.00011034272352178224,-0.0001826081737239643,6.6667,6.4667
3.36328125,-5.563907301441976e-05,-0.00013522445001907377,-0.00011130666449988553,-0.00017772822252231632,6.6667,6.4667
3.3671875,-5.368106790264742e-05,-0.00015185243189135575,-0.00011422861058976118,-0.00017721612887769894,6.6667,6.4667
3.37109375,-5.075912181277178e-05,-0.00015281637286945906,-0.0001093486593881132,-0.0001762521878995956,6.6667,6.4667
3.375,-4.735520523384449e-05,-0.00015429240749217972,-0.00011814462081330585,-0.0001762521878995956,6.6667,6.4667
3.37890625,-4.247525403219652e-05,-0.00016113036380560004,-0.00012742255272755015,-0.00017721612887769894,6.6667,6.4667
3.3828125,-4.343919501029983e-05,-0.00017137223669794763,-0.00011570464521248186,-0.00017673415838864726,6.6667,6.4667
3.38671875,-4.247525403219652e-05,-0.000165016250873579,-0.00010790274792095824,-0.0001694142315861753,6.6667,6.4667
3.390625,-4.7837175722896144e-05,-0.00016649228549629966,-0.00010790274792095824,-0.0001694142315861753,6.6667,6.4667
3.39453125,-5.271712692454412e-05,-0.00016061827016098265,-0.00013182053344014646,-0.0001762521878995956,6.6667,6.4667
3.3984375,-5.075912181277178e-05,-0.00017233617767605097,-0.00014353844095521475,-0.00017528824692149232,6.6667,6.4667
3.40234375,-4.8801116700999446e-05,-0.00018944613003738458,-0.00012106656690318148,-0.0001762521878995956,6.6667,6.4667
3.40625,-4.636114110017546e-05,-0.00017333024180971998,-0.00010007072747386891,-0.00017333024180971998,6.6667,6.4667
3.41015625,-4.3921165499351476e-05,-0.00017040829571984435,-0.00011082469401083389,-0.0001694142315861753,6.6667,6.4667
3.4140625,-4.4915229633020504e-05,-0.00017673415838864726,-0.0001303444988174258,-0.000168450290608072,6.6667,6.4667
3.41796875,-3.708320918593117e-05,-0.0001762521878995956,-9.814284551766231e-05,-0.00016357033940642403,6.6667,6.4667
3.421875,-3.172128749523154e-05,-0.00017137223669794763,-8.787084946974897e-05,-0.00016796832011902035,6.6667,6.4667
3.42578125,-3.855924380865186e-05,-0.00016013629967193103,-0.00010398673769741359,-0.00017333024180971998,6.6667,6.4667
3.4296875,-4.83191462119478e-05,-0.0001640523098954757,-9.862481600671395e-05,-0.00017137223669794763,6.6667,6.4667
3.43359375,-4.687323474479284e-05,-0.000166010315007248,-0.0001025107030746929,-0.000165016250873579,6.6667,6.4667
3.4375,-3.5155327229724564e-05,-0.0001591723586938277,-0.00011618661570153351,-0.0001640523098954757,6.6667,6.4667
3.44140625,-3.123931700617989e-05,-0.00016061827016098265,-0.00010546277232013425,-0.000165016250873579,6.6667,6.4667
3.4453125,-3.708320918593117e-05,-0.0001616123342946517,-9.519077627222094e-05,-0.000165016250873579,6.6667,6.4667
3.44921875,-3.6119268207827866e-05,-0.00015721435358205535,-9.079279555962461e-05,-0.0001640523098954757,6.6667,6.4667
3.453125,-3.3679292607003874e-05,-0.00016745622647440297,-9.031082507057296e-05,-0.00017185420718699929,6.6667,6.4667
3.45703125,-3.563729771877621e-05,-0.00016549822136263063,-0.00010007072747386891,-0.00017772822252231632,6.6667,6.4667
3.4609375,-3.952318478675515e-05,-0.000166010315007248,-9.178685969329365e-05,-0.00017577021741054397,6.6667,6.4667
3.46484375,-4.687323474479284e-05,-0.0001762521878995956,-9.1304889204242e-05,-0.00017381221229877163,6.6667,6.4667
3.46875,-3.855924380865186e-05,-0.0001694142315861753,-8.690690849164567e-05,-0.00017284827132066835,6.6667,6.4667
3.47265625,-3.464323358510718e-05,-0.00016013629967193103,-9.275080067139695e-05,-0.00017821019301136795,6.6667,6.4667
3.4765625,-4.1963160387579145e-05,-0.00016549822136263063,-0.00010398673769741359,-0.00018601209030289157,6.6667,6.4667
3.48046875,-4.443325914396885e-05,-0.00016989620207522697,-9.422683529411764e-05,-0.0001845661788357366,6.6667,6.4667
3.484375,-4.247525403219652e-05,-0.00015477437798123138,-8.690690849164567e-05,-0.00018065016861219194,6.6667,6.4667
3.48828125,-4.051724892042419e-05,-0.00015134033824673837,-9.32327711604486e-05,-0.00018405408519111922,6.6667,6.4667
3.4921875,-3.8077273319600196e-05,-0.00015233440238040738,-0.00010007072747386891,-0.0001811321391012436,6.6667,6.4667
3.49609375,-4.003527843137253e-05,-0.0001479364216678111,-7.518900097657738e-05,-0.0001786921635004196,6.6667,6.4667
3.5,-4.1963160387579145e-05,-0.00014061649486533912,-7.371296635385669e-05,-0.00018309014421301594,6.6667,6.4667
3.50390625,-3.708320918593117e-05,-0.00012594651810482946,-8.39548392462043e-05,-0.00017673415838864726,6.6667,6.4667
3.5078125,-3.855924380865186e-05,-0.00011374664010070952,-8.103289315632866e-05,-0.00017040829571984435,6.6667,6.4667
3.51171875,-4.5879170611123806e-05,-0.00012841661686121918,-7.663491244373234e-05,-0.0001762521878995956,6.6667,6.4667
3.515625,-4.7837175722896144e-05,-0.0001440204114442664,-8.642493800259401e-05,-0.00017577021741054397,6.6667,6.4667
3.51953125,-4.443325914396885e-05,-0.00013085659246204318,-9.1304889204242e-05,-0.00017429418278782328,6.6667,6.4667
3.5234375,-4.148118989852749e-05,-0.00011766265032425419,-7.518900097657738e-05,-0.0001762521878995956,6.6667,6.4667
3.52734375,-3.952318478675515e-05,-0.00011422861058976118,-8.494890337987334e-05,-0.0001762521878995956,6.6667,6.4667
3.53125,-4.636114110017546e-05,-0.00011278269912260622,-7.811094706645302e-05,-0.0001821262032349126,6.6667,6.4667
3.53515625,-5.467513203631646e-05,-0.00011718067983520255,-8.8864913603418e-05,-0.00019188610563820857,6.6667,6.4667
3.5390625,-5.368106790264742e-05,-0.00013522445001907377,-9.32327711604486e-05,-0.00018601209030289157,6.6667,6.4667
3.54296875,-5.075912181277178e-05,-0.00013230250392919812,-8.494890337987334e-05,-0.0001762521878995956,6.6667,6.4667
3.546875,-4.83191462119478e-05,-0.0001371824551308461,-9.958875698481726e-05,-0.0001821262032349126,6.6667,6.4667
3.55078125,-4.7837175722896144e-05,-0.0001371824551308461,-9.32327711604486e-05,-0.00017721612887769894,6.6667,6.4667
3.5546875,-4.099921940947584e-05,-0.0001152226747234302,-8.835281995880062e-05,-0.00017333024180971998,6.6667,6.4667
3.55859375,-3.855924380865186e-05,-0.00012058459641412984,-8.98288545815213e-05,-0.0001762521878995956,6.6667,6.4667
3.5625,-4.5879170611123806e-05,-0.00013085659246204318,-9.079279555962461e-05,-0.00017821019301136795,6.6667,6.4667
3.56640625,-4.443325914396885e-05,-0.00012106656690318148,-8.98288545815213e-05,-0.00017772822252231632,6.6667,6.4667
3.5703125,-4.099921940947584e-05,-0.00011374664010070952,-8.250892777904934e-05,-0.00017917413398947125,6.6667,6.4667
3.57421875,-4.443325914396885e-05,-0.0001245006066376745,-9.570286991683832e-05,-0.00018161410959029523,6.6667,6.4667
3.578125,-4.83191462119478e-05,-0.00014013452437628747,-8.055092266727702e-05,-0.00017917413398947125,6.6667,6.4667
3.58203125,-4.83191462119478e-05,-0.00013865848975356678,-7.12729907530327e-05,-0.00018601209030289157,6.6667,6.4667
3.5859375,-5.663313714808879e-05,-0.0001371824551308461,-0.00011082469401083389,-0.00019188610563820857,6.6667,6.4667
3.58984375,-5.759707812619209e-05,-0.00013426050904097046,-0.00012302457201495383,-0.00018992810052643626,6.6667,6.4667
3.59375,-4.979518083466848e-05,-0.00012206063103685052,-0.00010398673769741359,-0.00019041007101548788,6.6667,6.4667
3.59765625,-4.5879170611123806e-05,-0.00014206240633249408,-8.8864913603418e-05,-0.0001879700954146639,6.6667,6.4667
3.6015625,-4.539720012207216e-05,-0.00016209430478370334,-9.422683529411764e-05,-0.0001879700954146639,6.6667,6.4667
3.60546875,-5.124109230182344e-05,-0.00013426050904097046,-8.787084946974897e-05,-0.0001821262032349126,6.6667,6.4667
3.609375,-5.175318594644082e-05,-0.00010790274792095824,-5.907311274891278e-05,-0.00017477615327687494,6.6667,6.4667
3.61328125,-4.979518083466848e-05,-0.00014109846535439077,-5.175318594644082e-05,-0.00017721612887769894,6.6667,6.4667
3.6171875,-4.687323474479284e-05,-0.0001640523098954757,-9.374486480506598e-05,-0.00019041007101548788,6.6667,6.4667
3.62109375,-4.247525403219652e-05,-0.00017284827132066835,-0.00010446870818646523,-0.00020212797853055617,6.6667,6.4667
3.625,-4.148118989852749e-05,-0.00016697425598535132,-9.1304889204242e-05,-0.00020116403755245286,6.6667,6.4667
3.62890625,-4.443325914396885e-05,-0.00014305647046616312,-9.275080067139695e-05,-0.0002094479053330281,6.6667,6.4667
3.6328125,-4.735520523384449e-05,-0.00015573831895933468,-7.714700608834973e-05,-0.00021628586164644843,6.6667,6.4667
3.63671875,-4.687323474479284e-05,-0.00018065016861219194,-0.00012010262592507818,-0.0002148399501792935,6.6667,6.4667
3.640625,-4.443325914396885e-05,-0.000166010315007248,-0.00017673415838864726,-0.00021872583724727242,6.6667,6.4667
3.64453125,-4.5879170611123806e-05,-0.00015185243189135575,-0.00015721435358205535,-0.0002216779064927138,6.6667,6.4667
3.6484375,-4.687323474479284e-05,-0.0001391404602426184,-0.00013085659246204318,-0.00021727992578011746,6.6667,6.4667
3.65234375,-5.368106790264742e-05,-0.00011962065543602654,-0.00010495067867551688,-0.0002123999745784695,6.6667,6.4667
3.65625,-6.199505883878842e-05,-0.00014941245629053175,-0.0001025107030746929,-0.00020360401315327686,6.6667,6.4667
3.66015625,-5.759707812619209e-05,-0.00015037639726863506,-0.00012498257712672617,-0.00020212797853055617,6.6667,6.4667
3.6640625,-5.759707812619209e-05,-0.00013670048464179443,-0.00011230072863355457,-0.00020700792973220414,6.6667,6.4667
3.66796875,-5.663313714808879e-05,-0.00017137223669794763,-8.543087386892499e-05,-0.00019968800292973217,6.6667,6.4667
3.671875,-4.343919501029983e-05,-0.00017381221229877163,-8.8864913603418e-05,-0.00019824209146257723,6.6667,6.4667
3.67578125,-4.5879170611123806e-05,-0.00016989620207522697,-5.2235156435492466e-05,-0.0001987240619516289,6.6667,6.4667
3.6796875,-5.4193161547264804e-05,-0.00015817829456015868,-5.759707812619209e-05,-0.00019968800292973217,6.6667,6.4667
3.68359375,-5.759707812619209e-05,-0.00015378031384756234,-6.247702932784007e-05,-0.0002094479053330281,6.6667,6.4667
3.6875,-4.83191462119478e-05,-0.00017284827132066835,-3.22032579842832e-05,-0.00021092393995574883,6.6667,6.4667
3.69140625,-3.8077273319600196e-05,-0.00016305824576180665,-8.20269572899977e-05,-0.00020164600804150451,6.6667,6.4667
3.6953125,-3.855924380865186e-05,-0.00012058459641412984,-0.00012302457201495383,-0.0001957719927061875,6.6667,6.4667
3.69921875,-4.343919501029983e-05,-0.00010886668889906156,-0.0001288985873502708,-0.00020604398875410083,6.6667,6.4667
3.703125,-3.708320918593117e-05,-0.0001269405822384985,-0.0001093486593881132,-0.0001962840863508049,6.6667,6.4667
3.70703125,-4.687323474479284e-05,-9.618484040588997e-05,-8.055092266727702e-05,-0.00019772999781795985,6.6667,6.4667
3.7109375,-6.735698052948806e-05,-7.323099586480505e-05,-9.814284551766231e-05,-0.0002094479053330281,6.6667,6.4667
3.71484375,-5.368106790264742e-05,-0.00013817651926451515,-0.00011278269912260622,-0.0002099599989776455,6.6667,6.4667
3.71875,-3.855924380865186e-05,-0.00011766265032425419,-8.690690849164567e-05,-0.00020456795413138014,6.6667,6.4667
3.72265625,-4.636114110017546e-05,-9.958875698481726e-05,-6.639303955138474e-05,-0.00018553011981383991,6.6667,6.4667
3.7265625,-5.711510763714044e-05,-0.0001152226747234302,-6.395306395056075e-05,-0.00018161410959029523,6.6667,6.4667
3.73046875,-7.079102026398107e-05,-0.00011814462081330585,-7.03090497749294e-05,-0.00018944613003738458,6.6667,6.4667
3.734375,-7.518900097657738e-05,-0.00012302457201495383,-6.59110690623331e-05,-0.00017673415838864726,6.6667,6.4667
3.73828125,-3.2685228473334845e-05,-9.32327711604486e-05,-6.247702932784007e-05,-0.00015673238309300372,6.6667,6.4667
3.7421875,9.758297718776241e-06,-7.371296635385669e-05,-5.2235156435492466e-05,-0.00016745622647440297,6.6667,6.4667
3.74609375,-5.124109230182344e-05,-6.44350344396124e-05,-2.9281311894407555e-05,-0.00016745622647440297,6.6667,6.4667
3.75,-0.00010154676209658959,-9.862481600671395e-05,-4.1963160387579145e-05,-0.0001640523098954757,6.6667,6.4667
3.75390625,-0.00010790274792095824,-0.00012302457201495383,-6.051902421606773e-05,-0.00017968622763408864,6.6667,6.4667
3.7578125,-8.250892777904934e-05,-0.00014061649486533912,-6.786907417410543e-05,-0.00019333201710536354,6.6667,6.4667
3.76171875,-5.615116665903714e-05,-0.00013670048464179443,-5.368106790264742e-05,-0.00017968622763408864,6.6667,6.4667
3.765625,-0.00011766265032425419,-9.666681089494162e-05,-1.36473941557946e-05,-0.00015673238309300372,6.6667,6.4667
3.76953125,-8.690690849164567e-05,-9.178685969329365e-05,-3.855924380865186e-05,-0.00017381221229877163,6.6667,6.4667
3.7734375,-2.732330678263522e-05,-0.00010495067867551688,-6.931498564126039e-05,-0.00017772822252231632,6.6667,6.4667
3.77734375,-4.051724892042419e-05,-0.00014109846535439077,-7.762897657740137e-05,-0.00019041007101548788,6.6667,6.4667
3.78125,-7.663491244373234e-05,-0.00012938055783932246,-8.347286875715265e-05,-0.00020700792973220414,6.6667,6.4667
3.78515625,-9.470880578316928e-05,-9.958875698481726e-05,-9.275080067139695e-05,-0.0002094479053330281,6.6667,6.4667
3.7890625,-8.98288545815213e-05,-8.8864913603418e-05,-0.00010350476720836192,-0.00022020187186999311,6.6667,6.4667
3.79296875,-4.443325914396885e-05,-7.470703048752574e-05,-9.814284551766231e-05,-0.0001923680761272602,6.6667,6.4667
3.796875,-2.831737091630425e-05,-6.542909857328143e-05,-7.518900097657738e-05,-0.00015477437798123138,6.6667,6.4667
3.80078125,-4.83191462119478e-05,-2.7805277271686868e-05,-1.6046845197088543e-09,-0.00010594474280918592,6.6667,6.4667
3.8046875,-4.5879170611123806e-05,-1.4776393072403911e-06,3.0272166659037168e-05,-9.958875698481726e-05,6.6667,6.4667
3.80859375,-9.714878138399326e-05,-8.642493800259401e-05,-6.835104466315707e-05,-0.00018161410959029523,6.6667,6.4667
3.8125,-7.518900097657738e-05,-0.00014450238193331805,-0.00010106479160753794,-0.0001845661788357366,6.6667,6.4667
3.81640625,-4.343919501029983e-05,-0.00014305647046616312,-0.00010106479160753794,-0.00017721612887769894,6.6667,6.4667
3.8203125,-0.00012350654250400548,-0.00016989620207522697,-0.00014353844095521475,-0.00020068206706340123,6.6667,6.4667
3.82421875,-0.00017429418278782328,-0.0001532983433585107,-0.0001083847184100099,-0.00015233440238040738,6.6667,6.4667
3.828125,-0.00013329656806286715,-0.00013182053344014646,-8.787084946974897e-05,-0.00015477437798123138,6.6667,6.4667
3.83203125,-0.00013278447441824977,-0.0001415804358434424,-0.00010106479160753794,-0.00016453428038452732,6.6667,6.4667
3.8359375,-0.00010690868378728922,-0.00013230250392919812,-7.371296635385669e-05,-0.00011474070423437857,6.6667,6.4667
3.83984375,-7.470703048752574e-05,-0.00019140413514915692,-0.0001245006066376745,-0.00016305824576180665,6.6667,6.4667
3.84375,-0.00010446870818646523,-0.0001762521878995956,-0.00010302279671931028,-0.000165016250873579,6.6667,6.4667
3.84765625,8.282263096055558e-06,-0.00011178863498893719,-3.8077273319600196e-05,-0.0001083847184100099,6.6667,6.4667
3.8515625,2.048214110017549e-05,-0.00011962065543602654,-3.952318478675515e-05,-7.419493684290836e-05,6.6667,6.4667
3.85546875,-0.0002133639155565728,-0.00013426050904097046,-6.151308834973677e-05,-5.5157102525368106e-05,6.6667,6.4667
3.859375,-0.00015573831895933468,-0.00012350654250400548,-6.883301515220872e-05,-6.687501004043639e-05,6.6667,6.4667
3.86328125,-4.979518083466848e-05,-0.00016209430478370334,-0.00011230072863355457,-9.422683529411764e-05,6.6667,6.4667
3.8671875,-9.814284551766231e-05,-0.0001957719927061875,-0.00015378031384756234,-8.8864913603418e-05,6.6667,6.4667
3.87109375,-7.323099586480505e-05,-0.00020700792973220414,-0.00015573831895933468,-8.20269572899977e-05,6.6667,6.4667
3.875,-5.027715132372013e-05,-0.00023679973058670937,-0.00018405408519111922,-0.00010495067867551688,6.6667,6.4667
3.87890625,-7.958698168917371e-05,-0.00021092393995574883,-0.00015673238309300372,-9.714878138399326e-05,6.6667,6.4667
3.8828125,-8.151486364538031e-05,-0.00016013629967193103,-9.862481600671395e-05,-6.542909857328143e-05,6.6667,6.4667
3.88671875,-7.419493684290836e-05,-0.00014597841655603874,-8.787084946974897e-05,-3.0245252872510857e-05,6.6667,6.4667
3.890625,-7.079102026398107e-05,-0.00013278447441824977,-8.642493800259401e-05,1.5120219409475864e-05,6.6667,6.4667
3.89453125,-4.539720012207216e-05,-0.00012350654250400548,-7.615294195468069e-05,2.1958175722896177e-05,6.6667,6.4667
3.8984375,-7.567097146562904e-05,-0.00019188610563820857,-0.00011618661570153351,-4.5879170611123806e-05,6.6667,6.4667
3.90234375,-0.00011718067983520255,-0.00023583578960860606,-0.00015378031384756234,-4.4915229633020504e-05,6.6667,6.4667
3.90625,-6.931498564126039e-05,-0.00019968800292973217,-0.0001288985873502708,6.324257984283221e-06,6.6667,6.4667
3.91015625,-3.172128749523154e-05,-0.0001376945487754635,-9.079279555962461e-05,2.8314161547264837e-05,6.6667,6.4667
3.9140625,-8.835281995880062e-05,-0.00015622028944838634,-0.00011962065543602654,-1.4776393072403911e-06,6.6667,6.4667
3.91796875,-0.00010106479160753794,-0.0001801681981231403,-0.00013621851415274278,-1.5605399267566932e-05,6.6667,6.4667
3.921875,-0.00011570464521248186,-0.00019089204150453954,-0.00016209430478370334,-2.3919390203707927e-05,6.6667,6.4667
3.92578125,-0.0001166987093461509,-0.00016453428038452732,-0.0001303444988174258,-1.804537486839092e-05,6.6667,6.4667
3.9296875,-8.446693289082168e-05,-0.00012401863614862286,-6.735698052948806e-05,-1.415948780041198e-05,6.6667,6.4667
3.93359375,-0.00011422861058976118,-0.00011766265032425419,-7.811094706645302e-05,-6.357590508888366e-06,6.6667,6.4667
3.9375,-8.543087386892499e-05,-0.00014745445117875943,-9.031082507057296e-05,2.0994234744792868e-05,6.6667,6.4667
3.94140625,-5.2235156435492466e-05,-0.00020164600804150451,-0.00014890036264591437,-3.5155327229724564e-05,6.6667,6.4667
3.9453125,-9.958875698481726e-05,-0.0002260457640497444,-0.0001845661788357366,-8.2990898268101e-05,6.6667,6.4667
3.94921875,-8.642493800259401e-05,-0.00018992810052643626,-0.00014305647046616312,-6.151308834973677e-05,6.6667,6.4667
3.953125,-8.934688409246966e-05,-0.00019432608123903255,-0.00013817651926451515,-7.419493684290836e-05,6.6667,6.4667
3.95703125,-8.446693289082168e-05,-0.00014450238193331805,-8.543087386892499e-05,-5.663313714808879e-05,6.6667,6.4667
3.9609375,-3.8077273319600196e-05,-8.835281995880062e-05,-5.907311274891278e-05,-3.563729771877621e-05,6.6667,6.4667
3.96484375,-8.39548392462043e-05,-0.00016209430478370334,-0.00014745445117875943,-9.519077627222094e-05,6.6667,6.4667
3.96875,-0.0001093486593881132,-0.0001826081737239643,-0.00015429240749217972,-0.00011326466961165788,6.6667,6.4667
3.97265625,-8.787084946974897e-05,-0.00017185420718699929,-0.00014206240633249408,-0.00012742255272755015,6.6667,6.4667
3.9765625,-8.98288545815213e-05,-0.0001850481493247883,-0.00014697248068970775,-0.00015673238309300372,6.6667,6.4667
3.98046875,-0.00010007072747386891,-0.0001694142315861753,-0.00013621851415274278,-0.00015477437798123138,6.6667,6.4667
3.984375,-9.470880578316928e-05,-0.00016796832011902035,-0.00015378031384756234,-0.00015429240749217972,6.6667,6.4667
3.98828125,-0.00012157866054779887,-0.00015525634847028303,-0.0001254645476157778,-0.00014353844095521475,6.6667,6.4667
3.9921875,-0.00011082469401083389,-0.00017233617767605097,-0.00014305647046616312,-0.00014941245629053175,6.6667,6.4667
3.99609375,-0.00011278269912260622,-0.00021532192066834514,-0.00018992810052643626,-0.00017577021741054397,6.6667,6.4667
4.0,-0.00011474070423437857,-0.00020360401315327686,-0.0001826081737239643,-0.00019089204150453954,6.6667,6.4667
