timestamp,TP9,AF7,AF8,TP10,Valence,Arousal
0.0,-2.5394057856870368e-05,-3.808933023422598e-05,-3.955149140383001e-05,-2.881040903410391e-05,7.5333,4.4667
0.00390625,-3.808933023422598e-05,-1.221139842298008e-05,-3.808933023422598e-05,-2.881040903410391e-05,7.5333,4.4667
0.0078125,-4.0043520241855484e-05,-2.1973064898146025e-05,-4.248045552452887e-05,-2.5881444913405046e-05,7.5333,4.4667
0.01171875,-2.1973064898146025e-05,-3.076459904173342e-05,-3.564775317006179e-05,-2.783563492103456e-05,7.5333,4.4667
0.015625,-1.8556713720912483e-05,-1.221139842298008e-05,-2.246509373617151e-05,-3.564775317006179e-05,7.5333,4.4667
0.01953125,-4.248045552452887e-05,-2.3927254905775534e-05,-2.1973064898146025e-05,-3.955149140383001e-05,7.5333,4.4667
0.0234375,-5.90841079171435e-05,-3.9064104347295335e-05,-2.3927254905775534e-05,-3.076459904173342e-05,7.5333,4.4667
0.02734375,-2.5394057856870368e-05,-4.883041260395208e-05,-1.8556713720912483e-05,-3.418095021896696e-05,7.5333,4.4667
0.03125,-1.416094664911879e-05,-4.3459871419089034e-05,-1.806932666437781e-05,-3.1251986098268094e-05,7.5333,4.4667
0.03515625,-3.418095021896696e-05,-1.123198252841992e-05,-2.929779609063858e-05,-2.929779609063858e-05,7.5333,4.4667
0.0390625,-3.222676021133745e-05,-1.6115136656748296e-05,-2.9785183147173263e-05,-2.881040903410391e-05,7.5333,4.4667
0.04296875,-1.957703109788653e-06,-3.1251986098268094e-05,-3.369356316243228e-05,-3.613514022659647e-05,7.5333,4.4667
0.046875,-1.5627749600213625e-05,-2.5394057856870368e-05,-1.1719369584954599e-05,-4.1993068467994196e-05,7.5333,4.4667
0.05078125,-3.808933023422598e-05,-2.5394057856870368e-05,-1.8556713720912483e-05,-3.808933023422598e-05,7.5333,4.4667
0.0546875,-1.8556713720912483e-05,3.904866913099866e-06,-2.4414641962310212e-05,-3.7109914339665816e-05,7.5333,4.4667
0.05859375,-1.957703109788653e-06,5.367028082703897e-06,-4.8866672304875175e-06,-3.418095021896696e-05,7.5333,4.4667
0.0625,-1.5627749600213625e-05,-2.881040903410391e-05,-2.246509373617151e-05,-3.9064104347295335e-05,7.5333,4.4667
0.06640625,-2.1485677841611347e-05,-3.90725133592737e-06,-4.1993068467994196e-05,-4.297248436255435e-05,7.5333,4.4667
0.0703125,-1.3186172536049433e-05,1.4645949282825967e-05,-3.7109914339665816e-05,-4.687622259632257e-05,7.5333,4.4667
0.07421875,-8.303018407721068e-06,-2.295248079270618e-05,-4.638883553978789e-05,-4.9317799660486756e-05,7.5333,4.4667
0.078125,-8.790405464255741e-06,-3.0277211985198745e-05,-4.492203258869306e-05,-4.736360965285725e-05,7.5333,4.4667
0.08203125,-1.4652975487144267e-05,-3.4198642793926834e-06,-1.708991076981765e-05,-3.9064104347295335e-05,7.5333,4.4667
0.0859375,-3.4198642793926834e-06,-8.303018407721068e-06,-6.348828400091548e-06,-3.222676021133745e-05,7.5333,4.4667
0.08984375,-7.815631351186382e-06,-3.369356316243228e-05,-2.246509373617151e-05,-2.8323021977569233e-05,7.5333,4.4667
0.09375,-2.0998290785076676e-05,-2.5881444913405046e-05,-2.929779609063858e-05,-1.708991076981765e-05,7.5333,4.4667
0.09765625,-2.783563492103456e-05,-2.9785183147173263e-05,-1.806932666437781e-05,-1.416094664911879e-05,7.5333,4.4667
0.1015625,-3.173937315480277e-05,-4.1505681411459515e-05,-2.1485677841611347e-05,-2.0998290785076676e-05,7.5333,4.4667
0.10546875,-2.783563492103456e-05,-5.4688340845349804e-05,-2.295248079270618e-05,-2.3927254905775534e-05,7.5333,4.4667
0.109375,-3.271878904936293e-05,-6.250045909437704e-05,-2.783563492103456e-05,-2.0510903728541995e-05,7.5333,4.4667
0.11328125,-5.4688340845349804e-05,-4.83430255474174e-05,-3.222676021133745e-05,-1.0744595471885247e-05,7.5333,4.4667
0.1171875,-4.0530907298390166e-05,-4.1993068467994196e-05,-4.687622259632257e-05,-1.806932666437781e-05,7.5333,4.4667
0.12109375,-2.4414641962310212e-05,-3.662252728313115e-05,-3.808933023422598e-05,-3.3206176105897606e-05,7.5333,4.4667
0.125,-3.7601943177691304e-05,-3.7601943177691304e-05,-2.734824786449988e-05,-3.076459904173342e-05,7.5333,4.4667
0.12890625,-5.0784602611581587e-05,-3.173937315480277e-05,-4.0043520241855484e-05,-2.8323021977569233e-05,7.5333,4.4667
0.1328125,-1.123198252841992e-05,-3.369356316243228e-05,-5.127198966811627e-05,-3.516036611352712e-05,7.5333,4.4667
0.13671875,-9.78287215228505e-07,-3.8576717290760654e-05,-5.27387926192111e-05,-3.3206176105897606e-05,7.5333,4.4667
0.140625,-1.708991076981765e-05,-3.369356316243228e-05,-4.687622259632257e-05,-3.0277211985198745e-05,7.5333,4.4667
0.14453125,-1.708991076981765e-05,-3.613514022659647e-05,-3.808933023422598e-05,-2.783563492103456e-05,7.5333,4.4667
0.1484375,-1.6115136656748296e-05,-3.4668337275501636e-05,-4.0530907298390166e-05,-2.5394057856870368e-05,7.5333,4.4667
0.15234375,-1.6602523713282977e-05,-4.1505681411459515e-05,-4.297248436255435e-05,-2.734824786449988e-05,7.5333,4.4667
0.15625,-3.076459904173342e-05,-3.076459904173342e-05,-4.3459871419089034e-05,-2.1485677841611347e-05,7.5333,4.4667
0.16015625,-2.9785183147173263e-05,-1.4652975487144267e-05,-4.0043520241855484e-05,-1.6115136656748296e-05,7.5333,4.4667
0.1640625,-1.904410077744716e-05,-3.564775317006179e-05,-5.859672086060882e-05,-2.0023516672007317e-05,7.5333,4.4667
0.16796875,-1.6115136656748296e-05,-6.005888203021285e-05,-7.714527969787136e-05,-1.708991076981765e-05,7.5333,4.4667
0.171875,-2.8323021977569233e-05,-7.665789264133668e-05,-7.617050558480201e-05,-2.0023516672007317e-05,7.5333,4.4667
0.17578125,-2.68562190264744e-05,-7.568311852826732e-05,-7.470834441519798e-05,-1.416094664911879e-05,7.5333,4.4667
0.1796875,-1.6115136656748296e-05,-6.640883910963606e-05,-6.885041617380025e-05,-6.348828400091548e-06,7.5333,4.4667
0.18359375,-1.6115136656748296e-05,-8.202843382619973e-05,-7.275415440756847e-05,-6.348828400091548e-06,7.5333,4.4667
0.1875,-2.9785183147173263e-05,-0.00010937316858854046,-9.179474208285648e-05,-1.4652975487144267e-05,7.5333,4.4667
0.19140625,-3.1251986098268094e-05,-0.00011669789978103303,-9.179474208285648e-05,-1.806932666437781e-05,7.5333,4.4667
0.1953125,-2.929779609063858e-05,-8.447001089036392e-05,-8.154104676966506e-05,-1.416094664911879e-05,7.5333,4.4667
0.19921875,-3.1251986098268094e-05,-8.642420089799343e-05,-8.495739794689858e-05,-1.5140362543678947e-05,7.5333,4.4667
0.203125,-3.564775317006179e-05,-0.00010009424738841839,-9.326154503395132e-05,-2.0023516672007317e-05,7.5333,4.4667
0.20703125,-3.9064104347295335e-05,-9.619050915465018e-05,-9.228212913939115e-05,-2.8323021977569233e-05,7.5333,4.4667
0.2109375,-3.0277211985198745e-05,-9.228212913939115e-05,-9.228212913939115e-05,-2.0998290785076676e-05,7.5333,4.4667
0.21484375,-2.6368831969939717e-05,-9.56984803166247e-05,-9.911947327534903e-05,-1.416094664911879e-05,7.5333,4.4667
0.21875,-3.516036611352712e-05,-9.326154503395132e-05,-0.00010107366328297855,-2.3927254905775534e-05,7.5333,4.4667
0.22265625,-2.0023516672007317e-05,-0.00010741897858091096,-0.00010790636563744562,-2.3927254905775534e-05,7.5333,4.4667
0.2265625,-2.0998290785076676e-05,-0.00011523109682993819,-0.00010790636563744562,-1.9531487833981835e-05,7.5333,4.4667
0.23046875,-3.613514022659647e-05,-0.00010449001446021209,-0.00010595681741130692,-1.123198252841992e-05,7.5333,4.4667
0.234375,-2.9785183147173263e-05,-9.960686033188372e-05,-0.00010156105033951322,-1.123198252841992e-05,7.5333,4.4667
0.23828125,-2.246509373617151e-05,-9.521109326009002e-05,-9.326154503395132e-05,-1.5140362543678947e-05,7.5333,4.4667
0.2421875,-2.3439867849240863e-05,-9.472370620355533e-05,-0.00010693159152437627,-1.3186172536049433e-05,7.5333,4.4667
0.24609375,-3.955149140383001e-05,-0.0001020484373960479,-0.00011962686390173189,-1.123198252841992e-05,7.5333,4.4667
0.25,-4.0530907298390166e-05,-9.521109326009002e-05,-0.00011230213270923932,-8.303018407721068e-06,7.5333,4.4667
0.25390625,-4.0043520241855484e-05,-8.398262383382925e-05,-0.00010058163444495307,-1.221139842298008e-05,7.5333,4.4667
0.2578125,-4.297248436255435e-05,-0.00011181474565270466,-0.00011376893566033416,-1.123198252841992e-05,7.5333,4.4667
0.26171875,-5.5180369683375285e-05,-0.00013232213627908747,-0.00013036794627145797,-6.348828400091548e-06,7.5333,4.4667
0.265625,-4.7855638490882725e-05,-0.0001235306021355001,-0.00013036794627145797,-1.0257208415350575e-05,7.5333,4.4667
0.26953125,-2.4906670800335697e-05,-0.0001254847921431296,-0.0001430632186488136,-2.1485677841611347e-05,7.5333,4.4667
0.2734375,-3.173937315480277e-05,-0.00010937316858854046,-0.000134276326286717,-1.221139842298008e-05,7.5333,4.4667
0.27734375,-4.443464553215838e-05,-0.00010253582445258257,-0.00012011425095826656,-1.957703109788653e-06,7.5333,4.4667
0.28125,-3.9064104347295335e-05,-9.276951619592583e-05,-0.0001147437097734035,-1.0257208415350575e-05,7.5333,4.4667
0.28515625,-3.369356316243228e-05,-0.00010009424738841839,-0.00011425632271686885,-2.0023516672007317e-05,7.5333,4.4667
0.2890625,-3.4668337275501636e-05,-0.00012451001803006026,-0.0001367179033508812,-1.8556713720912483e-05,7.5333,4.4667
0.29296875,-4.5414061426718546e-05,-0.000112789519765774,-0.00013915948041504536,-9.277792520790413e-06,7.5333,4.4667
0.296875,-4.297248436255435e-05,-0.00010449001446021209,-0.00013329691039215685,-9.277792520790413e-06,7.5333,4.4667
0.30078125,-4.297248436255435e-05,-0.00010009424738841839,-0.00012158105390936139,-5.861441343556876e-06,7.5333,4.4667
0.3046875,-5.615514379644465e-05,-0.00011327690682230868,-0.00013232213627908747,4.838739543755253e-07,7.5333,4.4667
0.30859375,-7.226676735103379e-05,-0.00011181474565270466,-0.00013232213627908747,-4.8866672304875175e-06,7.5333,4.4667
0.3125,-4.9317799660486756e-05,-9.423631914702066e-05,-0.00010449001446021209,-1.1719369584954599e-05,7.5333,4.4667
0.31640625,-4.0530907298390166e-05,-9.276951619592583e-05,-0.00010497740151674677,-1.0744595471885247e-05,7.5333,4.4667
0.3203125,-4.687622259632257e-05,-7.714527969787136e-05,-0.00010302321150911726,-1.269878547951476e-05,7.5333,4.4667
0.32421875,-3.516036611352712e-05,-8.544478500343326e-05,-9.179474208285648e-05,-8.790405464255741e-06,7.5333,4.4667
0.328125,-3.4668337275501636e-05,-9.667789621118485e-05,-9.3748932090486e-05,-5.861441343556876e-06,7.5333,4.4667
0.33203125,-4.1505681411459515e-05,-7.080460618142975e-05,-8.544478500343326e-05,-1.0257208415350575e-05,7.5333,4.4667
0.3359375,-4.297248436255435e-05,-5.175937672465095e-05,-5.859672086060882e-05,-6.348828400091548e-06,7.5333,4.4667
0.33984375,-3.516036611352712e-05,-4.687622259632257e-05,-6.250045909437704e-05,-9.769821358815903e-06,7.5333,4.4667
0.34375,-4.736360965285725e-05,-4.5414061426718546e-05,-7.226676735103379e-05,-1.416094664911879e-05,7.5333,4.4667
0.34765625,-6.005888203021285e-05,-7.275415440756847e-05,-7.129199323796444e-05,-1.904410077744716e-05,7.5333,4.4667
0.3515625,-5.0784602611581587e-05,-8.105365971313038e-05,-6.933780323033492e-05,-2.0998290785076676e-05,7.5333,4.4667
0.35546875,-4.7855638490882725e-05,-5.9571494973678184e-05,-5.859672086060882e-05,-1.9531487833981835e-05,7.5333,4.4667
0.359375,-2.5394057856870368e-05,-1.5140362543678947e-05,-3.8576717290760654e-05,-1.6115136656748296e-05,7.5333,4.4667
0.36328125,-2.4906670800335697e-05,-2.1485677841611347e-05,-3.9064104347295335e-05,-2.0023516672007317e-05,7.5333,4.4667
0.3671875,-5.9571494973678184e-05,-6.055091086823834e-05,-4.687622259632257e-05,-3.222676021133745e-05,7.5333,4.4667
0.37109375,-4.883041260395208e-05,-2.881040903410391e-05,-3.7109914339665816e-05,-3.564775317006179e-05,7.5333,4.4667
0.375,-3.8576717290760654e-05,-1.5140362543678947e-05,-2.5394057856870368e-05,-3.4668337275501636e-05,7.5333,4.4667
0.37890625,-5.420095378881512e-05,-2.5881444913405046e-05,-2.5394057856870368e-05,-4.248045552452887e-05,7.5333,4.4667
0.3828125,-5.90841079171435e-05,-1.0744595471885247e-05,-2.8323021977569233e-05,-4.590144848325322e-05,7.5333,4.4667
0.38671875,-3.516036611352712e-05,-6.83621545662622e-06,-3.173937315480277e-05,-4.443464553215838e-05,7.5333,4.4667
0.390625,-2.295248079270618e-05,2.0016490467689025e-05,-2.929779609063858e-05,-4.638883553978789e-05,7.5333,4.4667
0.39453125,-2.6368831969939717e-05,1.952910341115435e-05,-1.904410077744716e-05,-4.248045552452887e-05,7.5333,4.4667
0.3984375,-4.3459871419089034e-05,-9.78287215228505e-07,1.0250182211032282e-05,-4.101829435492485e-05,7.5333,4.4667
0.40234375,-2.3927254905775534e-05,1.1716985162127116e-05,1.5620723395895326e-05,-4.638883553978789e-05,7.5333,4.4667
0.40625,-5.374054287022204e-06,4.150329698863203e-05,4.838739543755253e-07,-5.4688340845349804e-05,7.5333,4.4667
0.41015625,-2.9785183147173263e-05,5.761492054322119e-05,1.5133336339360653e-05,-5.322617967574578e-05,7.5333,4.4667
0.4140625,-3.4668337275501636e-05,3.417856579613946e-05,3.856969108644236e-05,-5.3713566732280455e-05,7.5333,4.4667
0.41796875,-1.9531487833981835e-05,2.5387031652552066e-05,1.708752634699016e-05,-6.299248793240253e-05,7.5333,4.4667
0.421875,-2.3927254905775534e-05,1.2204372218661787e-05,3.417479856565194e-06,-5.6642530852979316e-05,7.5333,4.4667
0.42578125,-4.297248436255435e-05,1.269175927519646e-05,1.4158562226291294e-05,-4.9317799660486756e-05,7.5333,4.4667
0.4296875,-3.271878904936293e-05,2.148329341878386e-05,3.9549106981002524e-05,-4.9317799660486756e-05,7.5333,4.4667
0.43359375,-2.0510903728541995e-05,2.5387031652552066e-05,5.664014643015181e-05,-5.127198966811627e-05,7.5333,4.4667
0.4375,-2.783563492103456e-05,5.517334347905699e-05,5.029018935072862e-05,-4.980518671702143e-05,7.5333,4.4667
0.44140625,-3.418095021896696e-05,5.956911055085069e-05,6.15233005584802e-05,-5.175937672465095e-05,7.5333,4.4667
0.4453125,-3.613514022659647e-05,5.029018935072862e-05,4.4919648165865565e-05,-4.883041260395208e-05,7.5333,4.4667
0.44921875,-2.4414641962310212e-05,6.445226467917904e-05,3.7594916973373e-05,-4.248045552452887e-05,7.5333,4.4667
0.453125,-3.4198642793926834e-06,4.540703522240024e-05,4.589442227893492e-05,-4.5414061426718546e-05,7.5333,4.4667
0.45703125,-2.3439867849240863e-05,2.0503877524223696e-05,3.5640726965743494e-05,-4.443464553215838e-05,7.5333,4.4667
0.4609375,-4.101829435492485e-05,1.61127522339208e-05,3.9549106981002524e-05,-4.736360965285725e-05,7.5333,4.4667
0.46484375,-1.8556713720912483e-05,1.1716985162127116e-05,3.417856579613946e-05,-6.005888203021285e-05,7.5333,4.4667
0.46875,-2.4414641962310212e-05,2.294545458838789e-05,2.7341221660181588e-05,-5.859672086060882e-05,7.5333,4.4667
0.47265625,-3.7109914339665816e-05,2.636644754711223e-05,1.9041716354619666e-05,-5.029721555504692e-05,7.5333,4.4667
0.4765625,-2.783563492103456e-05,8.300633984893565e-06,9.275408097962923e-06,-5.322617967574578e-05,7.5333,4.4667
0.48046875,-2.1485677841611347e-05,1.3179146331731133e-05,1.8062300460059516e-05,-4.980518671702143e-05,7.5333,4.4667
0.484375,-2.4906670800335697e-05,3.173698873197528e-05,3.271176284504463e-05,-5.175937672465095e-05,7.5333,4.4667
0.48828125,-4.101829435492485e-05,5.664014643015181e-05,2.636644754711223e-05,-6.055091086823834e-05,7.5333,4.4667
0.4921875,-3.0277211985198745e-05,3.3691178739604795e-05,3.173698873197528e-05,-5.4688340845349804e-05,7.5333,4.4667
0.49609375,-9.277792520790413e-06,3.904866913099866e-06,3.5153339909208826e-05,-5.322617967574578e-05,7.5333,4.4667
0.5,-2.783563492103456e-05,1.4645949282825967e-05,3.417856579613946e-05,-6.250045909437704e-05,7.5333,4.4667
0.50390625,-4.9317799660486756e-05,3.9549106981002524e-05,3.5153339909208826e-05,-6.494203615854122e-05,7.5333,4.4667
0.5078125,-2.1485677841611347e-05,4.540703522240024e-05,1.952910341115435e-05,-7.129199323796444e-05,7.5333,4.4667
0.51171875,-1.0257208415350575e-05,3.7594916973373e-05,1.757491340352483e-05,-6.836302911726557e-05,7.5333,4.4667
0.515625,-1.708991076981765e-05,2.148329341878386e-05,1.952910341115435e-05,-5.712991790951399e-05,7.5333,4.4667
0.51953125,-1.1719369584954599e-05,1.5133336339360653e-05,2.5387031652552066e-05,-6.201307203784237e-05,7.5333,4.4667
0.5234375,-5.861441343556876e-06,2.636644754711223e-05,1.9041716354619666e-05,-6.640883910963606e-05,7.5333,4.4667
0.52734375,-1.123198252841992e-05,4.052388109407187e-05,1.0250182211032282e-05,-6.592145205310138e-05,7.5333,4.4667
0.53125,-2.295248079270618e-05,1.269175927519646e-05,8.300633984893565e-06,-6.055091086823834e-05,7.5333,4.4667
0.53515625,-2.295248079270618e-05,-1.5627749600213625e-05,1.0250182211032282e-05,-4.7855638490882725e-05,7.5333,4.4667
0.5390625,-2.0998290785076676e-05,-5.861441343556876e-06,9.759027924010155e-07,-5.420095378881512e-05,7.5333,4.4667
0.54296875,-2.5394057856870368e-05,-1.1719369584954599e-05,1.0737569267566953e-05,-6.250045909437704e-05,7.5333,4.4667
0.546875,-2.9785183147173263e-05,1.4632898489356875e-06,1.4158562226291294e-05,-5.4688340845349804e-05,7.5333,4.4667
0.55078125,-2.4906670800335697e-05,7.321218090333417e-06,3.904866913099866e-06,-4.883041260395208e-05,7.5333,4.4667
0.5546875,-2.1485677841611347e-05,5.367028082703897e-06,-5.374054287022204e-06,-6.055091086823834e-05,7.5333,4.4667
0.55859375,-2.4414641962310212e-05,2.782860871671626e-05,-1.465674271763177e-06,-6.543406499656672e-05,7.5333,4.4667
0.5625,-3.271878904936293e-05,8.300633984893565e-06,1.4645949282825967e-05,-4.443464553215838e-05,7.5333,4.4667
0.56640625,-3.0277211985198745e-05,-1.0257208415350575e-05,5.859056920729387e-06,-3.516036611352712e-05,7.5333,4.4667
0.5703125,-2.1973064898146025e-05,1.122959810559243e-05,4.838739543755253e-07,-4.736360965285725e-05,7.5333,4.4667
0.57421875,-2.8323021977569233e-05,1.0737569267566953e-05,1.952910341115435e-05,-4.638883553978789e-05,7.5333,4.4667
0.578125,-3.7601943177691304e-05,8.300633984893565e-06,3.0270185780880453e-05,-3.173937315480277e-05,7.5333,4.4667
0.58203125,-2.5881444913405046e-05,1.122959810559243e-05,6.346443977264059e-06,-3.7601943177691304e-05,7.5333,4.4667
0.5859375,-1.6602523713282977e-05,-2.1973064898146025e-05,-3.369356316243228e-05,-5.761730496604867e-05,7.5333,4.4667
0.58984375,-1.904410077744716e-05,-2.5394057856870368e-05,-2.68562190264744e-05,-6.738361322270542e-05,7.5333,4.4667
0.59375,-2.734824786449988e-05,-6.348828400091548e-06,-1.6115136656748296e-05,-5.175937672465095e-05,7.5333,4.4667
0.59765625,-1.9531487833981835e-05,-7.815631351186382e-06,-2.246509373617151e-05,-4.1505681411459515e-05,7.5333,4.4667
0.6015625,-1.5627749600213625e-05,1.4632898489356875e-06,-2.0023516672007317e-05,-5.27387926192111e-05,7.5333,4.4667
0.60546875,-2.3927254905775534e-05,2.5874418709086754e-05,-1.123198252841992e-05,-4.9317799660486756e-05,7.5333,4.4667
0.609375,-1.269878547951476e-05,1.1716985162127116e-05,-8.790405464255741e-06,-4.883041260395208e-05,7.5333,4.4667
0.61328125,-4.909001586938188e-07,-3.4198642793926834e-06,-9.769821358815903e-06,-5.566775673990996e-05,7.5333,4.4667
0.6171875,-5.374054287022204e-06,-2.9324772228580114e-06,-2.4450901663233394e-06,-4.7855638490882725e-05,7.5333,4.4667
0.62109375,-1.4652975487144267e-05,7.321218090333417e-06,1.5133336339360653e-05,-3.7601943177691304e-05,7.5333,4.4667
0.625,-1.269878547951476e-05,-3.513102159146797e-09,3.417479856565194e-06,-3.808933023422598e-05,7.5333,4.4667
0.62890625,-2.1973064898146025e-05,5.367028082703897e-06,-8.303018407721068e-06,-3.955149140383001e-05,7.5333,4.4667
0.6328125,-2.246509373617151e-05,-2.9324772228580114e-06,-3.076459904173342e-05,-3.9064104347295335e-05,7.5333,4.4667
0.63671875,-3.3206176105897606e-05,-2.1485677841611347e-05,-3.7601943177691304e-05,-4.687622259632257e-05,7.5333,4.4667
0.640625,-4.1505681411459515e-05,-2.1485677841611347e-05,-2.3439867849240863e-05,-5.175937672465095e-05,7.5333,4.4667
0.64453125,-1.123198252841992e-05,-1.0257208415350575e-05,-2.3439867849240863e-05,-5.127198966811627e-05,7.5333,4.4667
0.6484375,-1.708991076981765e-05,-3.4198642793926834e-06,-4.1505681411459515e-05,-6.103829792477302e-05,7.5333,4.4667
0.65234375,-2.4906670800335697e-05,-2.9324772228580114e-06,-4.3459871419089034e-05,-6.201307203784237e-05,7.5333,4.4667
0.65625,-1.416094664911879e-05,-1.123198252841992e-05,-2.4906670800335697e-05,-5.90841079171435e-05,7.5333,4.4667
0.66015625,-1.5627749600213625e-05,-2.295248079270618e-05,-2.0510903728541995e-05,-5.420095378881512e-05,7.5333,4.4667
0.6640625,-3.369356316243228e-05,-1.6602523713282977e-05,-3.0277211985198745e-05,-4.3459871419089034e-05,7.5333,4.4667
0.66796875,-3.7109914339665816e-05,-1.0744595471885247e-05,-2.881040903410391e-05,-4.394725847562371e-05,7.5333,4.4667
0.671875,-2.4906670800335697e-05,-2.246509373617151e-05,-2.9785183147173263e-05,-4.590144848325322e-05,7.5333,4.4667
0.67578125,-2.929779609063858e-05,-1.957703109788653e-06,-2.783563492103456e-05,-4.297248436255435e-05,7.5333,4.4667
0.6796875,-3.516036611352712e-05,1.4645949282825967e-05,-1.6115136656748296e-05,-4.492203258869306e-05,7.5333,4.4667
0.68359375,-4.0043520241855484e-05,-2.1485677841611347e-05,3.904866913099866e-06,-4.1505681411459515e-05,7.5333,4.4667
0.6875,-1.4652975487144267e-05,-2.783563492103456e-05,1.9506769054703597e-06,-3.955149140383001e-05,7.5333,4.4667
0.69140625,-8.303018407721068e-06,-9.277792520790413e-06,-2.0510903728541995e-05,-3.9064104347295335e-05,7.5333,4.4667
0.6953125,-2.5394057856870368e-05,-7.815631351186382e-06,-2.783563492103456e-05,-4.638883553978789e-05,7.5333,4.4667
0.69921875,-2.4906670800335697e-05,5.859056920729387e-06,-1.269878547951476e-05,-4.248045552452887e-05,7.5333,4.4667
0.703125,-2.5881444913405046e-05,3.417479856565194e-06,4.879641026169224e-06,-3.173937315480277e-05,7.5333,4.4667
0.70703125,-2.3439867849240863e-05,1.9506769054703597e-06,2.4380639620050317e-06,-3.271878904936293e-05,7.5333,4.4667
0.7109375,-3.0277211985198745e-05,-4.394638392462042e-06,-2.734824786449988e-05,-3.0277211985198745e-05,7.5333,4.4667
0.71484375,-3.076459904173342e-05,-3.662252728313115e-05,-4.736360965285725e-05,-4.0530907298390166e-05,7.5333,4.4667
0.71875,-2.881040903410391e-05,-2.9785183147173263e-05,-3.076459904173342e-05,-5.4688340845349804e-05,7.5333,4.4667
0.72265625,-3.564775317006179e-05,-1.3186172536049433e-05,-1.806932666437781e-05,-4.590144848325322e-05,7.5333,4.4667
0.7265625,-4.1993068467994196e-05,-8.303018407721068e-06,-3.076459904173342e-05,-3.564775317006179e-05,7.5333,4.4667
0.73046875,-3.4668337275501636e-05,-3.4198642793926834e-06,-1.904410077744716e-05,-2.9785183147173263e-05,7.5333,4.4667
0.734375,-9.769821358815903e-06,-8.790405464255741e-06,-1.5140362543678947e-05,-2.881040903410391e-05,7.5333,4.4667
0.73828125,-1.708991076981765e-05,-4.909001586938188e-07,-8.303018407721068e-06,-3.076459904173342e-05,7.5333,4.4667
0.7421875,-3.662252728313115e-05,1.3179146331731133e-05,-5.374054287022204e-06,-3.516036611352712e-05,7.5333,4.4667
0.74609375,-2.4906670800335697e-05,-2.0510903728541995e-05,-2.5394057856870368e-05,-4.0530907298390166e-05,7.5333,4.4667
0.75,-1.3186172536049433e-05,-4.0043520241855484e-05,-1.806932666437781e-05,-3.613514022659647e-05,7.5333,4.4667
0.75390625,-2.881040903410391e-05,-3.90725133592737e-06,-4.909001586938188e-07,-3.0277211985198745e-05,7.5333,4.4667
0.7578125,-4.0043520241855484e-05,9.762795154497595e-06,-6.83621545662622e-06,-2.4414641962310212e-05,7.5333,4.4667
0.76171875,-3.564775317006179e-05,-1.3673559592584111e-05,-2.0998290785076676e-05,-2.68562190264744e-05,7.5333,4.4667
0.765625,-2.246509373617151e-05,-3.3206176105897606e-05,-1.8556713720912483e-05,-3.418095021896696e-05,7.5333,4.4667
0.76953125,-1.758193960784313e-05,-2.4906670800335697e-05,-2.9324772228580114e-06,-2.9785183147173263e-05,7.5333,4.4667
0.7734375,-3.7601943177691304e-05,-9.78287215228505e-07,2.0016490467689025e-05,-3.9064104347295335e-05,7.5333,4.4667
0.77734375,-2.4906670800335697e-05,-3.4198642793926834e-06,-2.4450901663233394e-06,-4.9317799660486756e-05,7.5333,4.4667
0.78125,-1.758193960784313e-05,-2.929779609063858e-05,-4.394725847562371e-05,-4.101829435492485e-05,7.5333,4.4667
0.78515625,-3.613514022659647e-05,-4.590144848325322e-05,-4.1505681411459515e-05,-3.173937315480277e-05,7.5333,4.4667
0.7890625,-4.3459871419089034e-05,-4.736360965285725e-05,-2.5394057856870368e-05,-3.418095021896696e-05,7.5333,4.4667
0.79296875,-3.662252728313115e-05,-3.271878904936293e-05,-1.6115136656748296e-05,-4.248045552452887e-05,7.5333,4.4667
0.796875,-3.369356316243228e-05,-5.861441343556876e-06,-1.5140362543678947e-05,-4.3459871419089034e-05,7.5333,4.4667
0.80078125,-4.0530907298390166e-05,-6.348828400091548e-06,-2.0510903728541995e-05,-3.7601943177691304e-05,7.5333,4.4667
0.8046875,-3.613514022659647e-05,-5.374054287022204e-06,-3.0277211985198745e-05,-3.808933023422598e-05,7.5333,4.4667
0.80859375,-3.418095021896696e-05,7.321218090333417e-06,-2.246509373617151e-05,-4.248045552452887e-05,7.5333,4.4667
0.8125,-4.7855638490882725e-05,-9.769821358815903e-06,-8.303018407721068e-06,-4.638883553978789e-05,7.5333,4.4667
0.81640625,-4.980518671702143e-05,-2.246509373617151e-05,-1.0744595471885247e-05,-3.7109914339665816e-05,7.5333,4.4667
0.8203125,-4.0530907298390166e-05,-4.0043520241855484e-05,-1.6602523713282977e-05,-3.418095021896696e-05,7.5333,4.4667
0.82421875,-4.0043520241855484e-05,-5.615514379644465e-05,-3.808933023422598e-05,-4.492203258869306e-05,7.5333,4.4667
0.828125,-4.248045552452887e-05,-3.418095021896696e-05,-3.369356316243228e-05,-5.127198966811627e-05,7.5333,4.4667
0.83203125,-5.6642530852979316e-05,-5.374054287022204e-06,-2.881040903410391e-05,-4.883041260395208e-05,7.5333,4.4667
0.8359375,-4.0530907298390166e-05,-2.783563492103456e-05,-2.246509373617151e-05,-3.9064104347295335e-05,7.5333,4.4667
0.83984375,-2.5881444913405046e-05,-4.443464553215838e-05,-8.790405464255741e-06,-3.418095021896696e-05,7.5333,4.4667
0.84375,-4.1505681411459515e-05,-3.955149140383001e-05,-1.5140362543678947e-05,-3.7109914339665816e-05,7.5333,4.4667
0.84765625,-5.420095378881512e-05,-3.9064104347295335e-05,-1.5627749600213625e-05,-3.9064104347295335e-05,7.5333,4.4667
0.8515625,-4.492203258869306e-05,-4.638883553978789e-05,-3.418095021896696e-05,-3.613514022659647e-05,7.5333,4.4667
0.85546875,-2.9785183147173263e-05,-3.1251986098268094e-05,-3.808933023422598e-05,-3.662252728313115e-05,7.5333,4.4667
0.859375,-3.1251986098268094e-05,-8.303018407721068e-06,-2.929779609063858e-05,-3.8576717290760654e-05,7.5333,4.4667
0.86328125,-3.955149140383001e-05,-3.4198642793926834e-06,-1.6602523713282977e-05,-3.271878904936293e-05,7.5333,4.4667
0.8671875,-2.8323021977569233e-05,-2.1485677841611347e-05,-1.5627749600213625e-05,-2.881040903410391e-05,7.5333,4.4667
0.87109375,-1.806932666437781e-05,-3.8576717290760654e-05,-4.5414061426718546e-05,-2.68562190264744e-05,7.5333,4.4667
0.875,-2.929779609063858e-05,-3.7109914339665816e-05,-3.076459904173342e-05,-2.783563492103456e-05,7.5333,4.4667
0.87890625,-5.322617967574578e-05,-2.246509373617151e-05,-6.348828400091548e-06,-2.6368831969939717e-05,7.5333,4.4667
0.8828125,-3.0277211985198745e-05,-4.394638392462042e-06,-1.1719369584954599e-05,-3.613514022659647e-05,7.5333,4.4667
0.88671875,-2.3439867849240863e-05,-2.1973064898146025e-05,-1.904410077744716e-05,-4.3459871419089034e-05,7.5333,4.4667
0.890625,-4.101829435492485e-05,-3.076459904173342e-05,-2.295248079270618e-05,-3.808933023422598e-05,7.5333,4.4667
0.89453125,-2.6368831969939717e-05,-1.4652975487144267e-05,-8.790405464255741e-06,-3.271878904936293e-05,7.5333,4.4667
0.8984375,-1.416094664911879e-05,-3.662252728313115e-05,-1.6602523713282977e-05,-3.1251986098268094e-05,7.5333,4.4667
0.90234375,-1.708991076981765e-05,-4.7855638490882725e-05,-3.369356316243228e-05,-3.076459904173342e-05,7.5333,4.4667
0.90625,-2.929779609063858e-05,-3.0277211985198745e-05,-4.590144848325322e-05,-3.173937315480277e-05,7.5333,4.4667
0.91015625,-3.369356316243228e-05,-2.881040903410391e-05,-5.810933380407415e-05,-3.808933023422598e-05,7.5333,4.4667
0.9140625,-2.4414641962310212e-05,-2.881040903410391e-05,-3.7601943177691304e-05,-3.662252728313115e-05,7.5333,4.4667
0.91796875,-2.929779609063858e-05,-2.4414641962310212e-05,-2.3927254905775534e-05,-3.369356316243228e-05,7.5333,4.4667
0.921875,-3.564775317006179e-05,3.904866913099866e-06,-1.6602523713282977e-05,-3.8576717290760654e-05,7.5333,4.4667
0.92578125,-3.369356316243228e-05,1.757491340352483e-05,-3.90725133592737e-06,-4.883041260395208e-05,7.5333,4.4667
0.9296875,-2.734824786449988e-05,-3.369356316243228e-05,-2.8323021977569233e-05,-4.3459871419089034e-05,7.5333,4.4667
0.93359375,-3.9064104347295335e-05,-6.689622616617074e-05,-4.590144848325322e-05,-3.369356316243228e-05,7.5333,4.4667
0.9375,-4.443464553215838e-05,-4.590144848325322e-05,-2.4414641962310212e-05,-3.662252728313115e-05,7.5333,4.4667
0.94140625,-2.68562190264744e-05,-2.8323021977569233e-05,-1.6115136656748296e-05,-2.783563492103456e-05,7.5333,4.4667
0.9453125,-2.295248079270618e-05,-1.806932666437781e-05,-2.9785183147173263e-05,-2.783563492103456e-05,7.5333,4.4667
0.94921875,-3.3206176105897606e-05,-2.4414641962310212e-05,-3.564775317006179e-05,-3.613514022659647e-05,7.5333,4.4667
0.953125,-4.0043520241855484e-05,-2.929779609063858e-05,-2.4414641962310212e-05,-3.3206176105897606e-05,7.5333,4.4667
0.95703125,-3.7601943177691304e-05,-8.303018407721068e-06,-1.6602523713282977e-05,-2.0998290785076676e-05,7.5333,4.4667
0.9609375,-4.687622259632257e-05,-4.8866672304875175e-06,-1.6115136656748296e-05,-2.783563492103456e-05,7.5333,4.4667
0.96484375,-5.224676378118562e-05,-1.269878547951476e-05,-1.5140362543678947e-05,-3.662252728313115e-05,7.5333,4.4667
0.96875,-6.299248793240253e-05,-1.123198252841992e-05,-1.3186172536049433e-05,-2.881040903410391e-05,7.5333,4.4667
0.97265625,-4.3459871419089034e-05,-2.3927254905775534e-05,-3.222676021133745e-05,-2.929779609063858e-05,7.5333,4.4667
0.9765625,-1.904410077744716e-05,-1.6115136656748296e-05,-4.1993068467994196e-05,-2.8323021977569233e-05,7.5333,4.4667
0.98046875,-3.3206176105897606e-05,9.759027924010155e-07,-3.173937315480277e-05,-2.4414641962310212e-05,7.5333,4.4667
0.984375,-4.0043520241855484e-05,-2.0023516672007317e-05,-2.734824786449988e-05,-2.734824786449988e-05,7.5333,4.4667
0.98828125,-3.4668337275501636e-05,-2.881040903410391e-05,-1.708991076981765e-05,-2.783563492103456e-05,7.5333,4.4667
0.9921875,-4.687622259632257e-05,-1.904410077744716e-05,-2.734824786449988e-05,-3.1251986098268094e-05,7.5333,4.4667
0.99609375,-5.420095378881512e-05,-2.295248079270618e-05,-4.590144848325322e-05,-3.516036611352712e-05,7.5333,4.4667
1.0,-3.418095021896696e-05,-3.222676021133745e-05,-2.5881444913405046e-05,-2.8323021977569233e-05,7.5333,4.4667
1.00390625,-2.68562190264744e-05,-3.1251986098268094e-05,-4.909001586938188e-07,-2.0998290785076676e-05,7.5333,4.4667
1.0078125,-2.6368831969939717e-05,-2.5394057856870368e-05,-1.6602523713282977e-05,-2.4414641962310212e-05,7.5333,4.4667
1.01171875,-3.076459904173342e-05,-1.0744595471885247e-05,-3.222676021133745e-05,-3.1251986098268094e-05,7.5333,4.4667
1.015625,-4.1505681411459515e-05,5.859056920729387e-06,-1.9531487833981835e-05,-3.271878904936293e-05,7.5333,4.4667
1.01953125,-2.295248079270618e-05,1.269175927519646e-05,-1.3186172536049433e-05,-3.1251986098268094e-05,7.5333,4.4667
1.0234375,-3.173937315480277e-05,-5.374054287022204e-06,-1.3673559592584111e-05,-3.1251986098268094e-05,7.5333,4.4667
1.02734375,-4.248045552452887e-05,-2.734824786449988e-05,-3.564775317006179e-05,-3.173937315480277e-05,7.5333,4.4667
1.03125,-2.9785183147173263e-05,-4.590144848325322e-05,-3.271878904936293e-05,-3.076459904173342e-05,7.5333,4.4667
1.03515625,-2.929779609063858e-05,-4.248045552452887e-05,-8.303018407721068e-06,-1.9531487833981835e-05,7.5333,4.4667
1.0390625,-3.955149140383001e-05,-3.222676021133745e-05,-1.1719369584954599e-05,-2.0023516672007317e-05,7.5333,4.4667
1.04296875,-4.638883553978789e-05,-1.5140362543678947e-05,-3.3206176105897606e-05,-3.418095021896696e-05,7.5333,4.4667
1.046875,-3.8576717290760654e-05,-1.5627749600213625e-05,-3.9064104347295335e-05,-3.613514022659647e-05,7.5333,4.4667
1.05078125,-3.369356316243228e-05,-2.246509373617151e-05,-2.8323021977569233e-05,-2.5394057856870368e-05,7.5333,4.4667
1.0546875,-3.808933023422598e-05,-3.4198642793926834e-06,-1.904410077744716e-05,-2.4906670800335697e-05,7.5333,4.4667
1.05859375,-4.980518671702143e-05,-6.83621545662622e-06,-5.861441343556876e-06,-3.076459904173342e-05,7.5333,4.4667
1.0625,-2.1973064898146025e-05,-3.564775317006179e-05,-9.78287215228505e-07,-3.3206176105897606e-05,7.5333,4.4667
1.06640625,-1.5627749600213625e-05,-3.955149140383001e-05,-8.790405464255741e-06,-3.516036611352712e-05,7.5333,4.4667
1.0703125,-2.783563492103456e-05,-1.1719369584954599e-05,-3.3206176105897606e-05,-2.8323021977569233e-05,7.5333,4.4667
1.07421875,-2.1485677841611347e-05,-1.4652975487144267e-05,-4.101829435492485e-05,-3.173937315480277e-05,7.5333,4.4667
1.078125,-1.708991076981765e-05,-3.613514022659647e-05,-1.0744595471885247e-05,-3.516036611352712e-05,7.5333,4.4667
1.08203125,-2.1973064898146025e-05,-2.295248079270618e-05,-5.861441343556876e-06,-3.173937315480277e-05,7.5333,4.4667
1.0859375,-2.6368831969939717e-05,-1.5627749600213625e-05,-2.783563492103456e-05,-3.418095021896696e-05,7.5333,4.4667
1.08984375,-2.0510903728541995e-05,-3.222676021133745e-05,-2.6368831969939717e-05,-4.297248436255435e-05,7.5333,4.4667
1.09375,-2.0023516672007317e-05,-2.6368831969939717e-05,-2.3927254905775534e-05,-4.1993068467994196e-05,7.5333,4.4667
1.09765625,-2.734824786449988e-05,-6.83621545662622e-06,-1.123198252841992e-05,-3.808933023422598e-05,7.5333,4.4667
1.1015625,-3.0277211985198745e-05,-9.769821358815903e-06,-6.348828400091548e-06,-4.248045552452887e-05,7.5333,4.4667
1.10546875,-2.6368831969939717e-05,-3.369356316243228e-05,-3.222676021133745e-05,-4.83430255474174e-05,7.5333,4.4667
1.109375,-1.0257208415350575e-05,-2.8323021977569233e-05,-4.1993068467994196e-05,-4.883041260395208e-05,7.5333,4.4667
1.11328125,-2.734824786449988e-05,-1.708991076981765e-05,-3.7109914339665816e-05,-4.297248436255435e-05,7.5333,4.4667
1.1171875,-2.881040903410391e-05,-3.662252728313115e-05,-2.929779609063858e-05,-4.5414061426718546e-05,7.5333,4.4667
1.12109375,-2.1973064898146025e-05,-4.5414061426718546e-05,-3.1251986098268094e-05,-4.638883553978789e-05,7.5333,4.4667
1.125,-2.8323021977569233e-05,-2.3927254905775534e-05,-3.418095021896696e-05,-4.443464553215838e-05,7.5333,4.4667
1.12890625,-4.0530907298390166e-05,-3.513102159146797e-09,-2.5394057856870368e-05,-4.101829435492485e-05,7.5333,4.4667
1.1328125,-4.687622259632257e-05,-1.8556713720912483e-05,-1.6602523713282977e-05,-4.0043520241855484e-05,7.5333,4.4667
1.13671875,-3.9064104347295335e-05,-4.1505681411459515e-05,-7.815631351186382e-06,-4.1993068467994196e-05,7.5333,4.4667
1.140625,-4.980518671702143e-05,-3.8576717290760654e-05,-1.8556713720912483e-05,-4.1505681411459515e-05,7.5333,4.4667
1.14453125,-5.90841079171435e-05,-3.0277211985198745e-05,-3.8576717290760654e-05,-3.8576717290760654e-05,7.5333,4.4667
1.1484375,-5.566775673990996e-05,-3.613514022659647e-05,-3.7601943177691304e-05,-4.1993068467994196e-05,7.5333,4.4667
1.15234375,-3.418095021896696e-05,-2.734824786449988e-05,-4.0530907298390166e-05,-5.0784602611581587e-05,7.5333,4.4667
1.15625,-1.708991076981765e-05,1.1716985162127116e-05,-4.590144848325322e-05,-5.127198966811627e-05,7.5333,4.4667
1.16015625,-3.173937315480277e-05,8.788021041428251e-06,-5.175937672465095e-05,-4.883041260395208e-05,7.5333,4.4667
1.1640625,-4.590144848325322e-05,-2.5881444913405046e-05,-4.5414061426718546e-05,-4.736360965285725e-05,7.5333,4.4667
1.16796875,-4.492203258869306e-05,-3.516036611352712e-05,-3.516036611352712e-05,-3.955149140383001e-05,7.5333,4.4667
1.171875,-5.420095378881512e-05,-4.736360965285725e-05,-4.443464553215838e-05,-4.1993068467994196e-05,7.5333,4.4667
1.17578125,-4.980518671702143e-05,-4.883041260395208e-05,-3.613514022659647e-05,-5.029721555504692e-05,7.5333,4.4667
1.1796875,-3.3206176105897606e-05,-3.3206176105897606e-05,-3.9064104347295335e-05,-4.492203258869306e-05,7.5333,4.4667
1.18359375,-2.3927254905775534e-05,-3.955149140383001e-05,-4.687622259632257e-05,-3.808933023422598e-05,7.5333,4.4667
1.1875,-3.516036611352712e-05,-4.590144848325322e-05,-4.590144848325322e-05,-4.0043520241855484e-05,7.5333,4.4667
1.19140625,-4.248045552452887e-05,-4.443464553215838e-05,-5.175937672465095e-05,-4.1993068467994196e-05,7.5333,4.4667
1.1953125,-2.9785183147173263e-05,-4.492203258869306e-05,-3.1251986098268094e-05,-4.1505681411459515e-05,7.5333,4.4667
1.19921875,-1.416094664911879e-05,-4.0530907298390166e-05,-1.708991076981765e-05,-3.808933023422598e-05,7.5333,4.4667
1.203125,-9.78287215228505e-07,-1.221139842298008e-05,-2.6368831969939717e-05,-3.7601943177691304e-05,7.5333,4.4667
1.20703125,-1.1719369584954599e-05,-1.221139842298008e-05,-4.0043520241855484e-05,-4.1993068467994196e-05,7.5333,4.4667
1.2109375,-7.32824429465171e-06,-3.8576717290760654e-05,-3.7109914339665816e-05,-3.564775317006179e-05,7.5333,4.4667
1.21484375,3.904866913099866e-06,-3.222676021133745e-05,-3.9064104347295335e-05,-3.7109914339665816e-05,7.5333,4.4667
1.21875,-1.0744595471885247e-05,-2.734824786449988e-05,-4.492203258869306e-05,-4.638883553978789e-05,7.5333,4.4667
1.22265625,-2.5881444913405046e-05,-5.322617967574578e-05,-4.638883553978789e-05,-4.7855638490882725e-05,7.5333,4.4667
1.2265625,-2.4414641962310212e-05,-6.494203615854122e-05,-4.687622259632257e-05,-4.3459871419089034e-05,7.5333,4.4667
1.23046875,-2.5394057856870368e-05,-3.564775317006179e-05,-2.734824786449988e-05,-3.7109914339665816e-05,7.5333,4.4667
1.234375,-1.904410077744716e-05,-2.783563492103456e-05,-2.1485677841611347e-05,-3.369356316243228e-05,7.5333,4.4667
1.23828125,-3.0277211985198745e-05,-4.0043520241855484e-05,-3.1251986098268094e-05,-2.929779609063858e-05,7.5333,4.4667
1.2421875,-2.1973064898146025e-05,-4.394725847562371e-05,-1.9531487833981835e-05,-2.9785183147173263e-05,7.5333,4.4667
1.24609375,-8.790405464255741e-06,-3.3206176105897606e-05,-2.6368831969939717e-05,-3.564775317006179e-05,7.5333,4.4667
1.25,-1.708991076981765e-05,-3.955149140383001e-05,-4.492203258869306e-05,-4.443464553215838e-05,7.5333,4.4667
1.25390625,-3.7601943177691304e-05,-6.152568498130768e-05,-2.0998290785076676e-05,-4.394725847562371e-05,7.5333,4.4667
1.2578125,-2.0510903728541995e-05,-3.564775317006179e-05,-1.416094664911879e-05,-3.7109914339665816e-05,7.5333,4.4667
1.26171875,-8.790405464255741e-06,-2.3439867849240863e-05,-4.7855638490882725e-05,-3.955149140383001e-05,7.5333,4.4667
1.265625,-3.076459904173342e-05,-4.0043520241855484e-05,-4.297248436255435e-05,-3.7601943177691304e-05,7.5333,4.4667
1.26953125,-2.3439867849240863e-05,-4.1505681411459515e-05,-2.881040903410391e-05,-3.4668337275501636e-05,7.5333,4.4667
1.2734375,-2.1973064898146025e-05,-3.8576717290760654e-05,-3.076459904173342e-05,-3.1251986098268094e-05,7.5333,4.4667
1.27734375,-3.564775317006179e-05,-3.1251986098268094e-05,-2.6368831969939717e-05,-3.4668337275501636e-05,7.5333,4.4667
1.28125,-4.7855638490882725e-05,-6.348828400091548e-06,-2.246509373617151e-05,-3.8576717290760654e-05,7.5333,4.4667
1.28515625,-5.3713566732280455e-05,-2.1485677841611347e-05,-1.4652975487144267e-05,-3.4668337275501636e-05,7.5333,4.4667
1.2890625,-3.613514022659647e-05,-4.3459871419089034e-05,-2.295248079270618e-05,-3.369356316243228e-05,7.5333,4.4667
1.29296875,-2.881040903410391e-05,-5.3713566732280455e-05,-4.883041260395208e-05,-3.8576717290760654e-05,7.5333,4.4667
1.296875,-3.613514022659647e-05,-4.394725847562371e-05,-3.173937315480277e-05,-3.7601943177691304e-05,7.5333,4.4667
1.30078125,-3.808933023422598e-05,-2.295248079270618e-05,-1.9531487833981835e-05,-3.7109914339665816e-05,7.5333,4.4667
1.3046875,-3.4668337275501636e-05,-3.9064104347295335e-05,-4.0043520241855484e-05,-4.248045552452887e-05,7.5333,4.4667
1.30859375,-3.7601943177691304e-05,-3.7601943177691304e-05,-5.3713566732280455e-05,-4.101829435492485e-05,7.5333,4.4667
1.3125,-4.736360965285725e-05,-1.6602523713282977e-05,-4.101829435492485e-05,-3.4668337275501636e-05,7.5333,4.4667
1.31640625,-4.248045552452887e-05,-2.3439867849240863e-05,-3.173937315480277e-05,-3.3206176105897606e-05,7.5333,4.4667
1.3203125,-3.9064104347295335e-05,-2.246509373617151e-05,-3.0277211985198745e-05,-3.662252728313115e-05,7.5333,4.4667
1.32421875,-5.029721555504692e-05,-3.3206176105897606e-05,-2.929779609063858e-05,-3.8576717290760654e-05,7.5333,4.4667
1.328125,-6.250045909437704e-05,-4.443464553215838e-05,-3.222676021133745e-05,-3.955149140383001e-05,7.5333,4.4667
1.33203125,-6.055091086823834e-05,-2.5394057856870368e-05,-4.638883553978789e-05,-3.808933023422598e-05,7.5333,4.4667
1.3359375,-4.1993068467994196e-05,-1.269878547951476e-05,-2.929779609063858e-05,-3.564775317006179e-05,7.5333,4.4667
1.33984375,-2.68562190264744e-05,-2.8323021977569233e-05,-1.416094664911879e-05,-3.8576717290760654e-05,7.5333,4.4667
1.34375,-5.224676378118562e-05,-4.687622259632257e-05,-1.904410077744716e-05,-4.0043520241855484e-05,7.5333,4.4667
1.34765625,-4.1505681411459515e-05,-4.492203258869306e-05,-3.1251986098268094e-05,-3.8576717290760654e-05,7.5333,4.4667
1.3515625,-1.9531487833981835e-05,-2.6368831969939717e-05,-3.1251986098268094e-05,-3.613514022659647e-05,7.5333,4.4667
1.35546875,-3.4668337275501636e-05,-1.6602523713282977e-05,-2.8323021977569233e-05,-3.564775317006179e-05,7.5333,4.4667
1.359375,-3.3206176105897606e-05,-1.3673559592584111e-05,-2.881040903410391e-05,-3.955149140383001e-05,7.5333,4.4667
1.36328125,-3.369356316243228e-05,-4.5414061426718546e-05,-2.0998290785076676e-05,-3.8576717290760654e-05,7.5333,4.4667
1.3671875,-3.9064104347295335e-05,-4.687622259632257e-05,-3.8576717290760654e-05,-4.297248436255435e-05,7.5333,4.4667
1.37109375,-4.492203258869306e-05,-1.6115136656748296e-05,-4.0043520241855484e-05,-4.443464553215838e-05,7.5333,4.4667
1.375,-5.0784602611581587e-05,-3.613514022659647e-05,-1.416094664911879e-05,-3.8576717290760654e-05,7.5333,4.4667
1.37890625,-4.443464553215838e-05,-3.7109914339665816e-05,-3.90725133592737e-06,-3.7109914339665816e-05,7.5333,4.4667
1.3828125,-3.564775317006179e-05,-1.6602523713282977e-05,-2.3439867849240863e-05,-3.222676021133745e-05,7.5333,4.4667
1.38671875,-3.3206176105897606e-05,-2.5881444913405046e-05,-5.27387926192111e-05,-3.418095021896696e-05,7.5333,4.4667
1.390625,-2.4906670800335697e-05,-3.0277211985198745e-05,-4.101829435492485e-05,-3.8576717290760654e-05,7.5333,4.4667
1.39453125,-3.4198642793926834e-06,-2.9785183147173263e-05,-4.248045552452887e-05,-3.7601943177691304e-05,7.5333,4.4667
1.3984375,-1.4652975487144267e-05,-6.348828400091548e-06,-4.0043520241855484e-05,-4.0043520241855484e-05,7.5333,4.4667
1.40234375,-2.9785183147173263e-05,-1.708991076981765e-05,-2.8323021977569233e-05,-4.297248436255435e-05,7.5333,4.4667
1.40625,-1.708991076981765e-05,-3.662252728313115e-05,-2.3927254905775534e-05,-3.9064104347295335e-05,7.5333,4.4667
1.41015625,-9.769821358815903e-06,-3.9064104347295335e-05,-2.0510903728541995e-05,-3.4668337275501636e-05,7.5333,4.4667
1.4140625,-2.5394057856870368e-05,-5.224676378118562e-05,-3.808933023422598e-05,-3.3206176105897606e-05,7.5333,4.4667
1.41796875,-4.0530907298390166e-05,-3.271878904936293e-05,-2.246509373617151e-05,-2.881040903410391e-05,7.5333,4.4667
1.421875,-3.271878904936293e-05,-6.83621545662622e-06,-9.277792520790413e-06,-2.6368831969939717e-05,7.5333,4.4667
1.42578125,-2.5881444913405046e-05,1.708752634699016e-05,-2.4414641962310212e-05,-2.68562190264744e-05,7.5333,4.4667
1.4296875,-3.369356316243228e-05,2.0995906362249184e-05,-1.8556713720912483e-05,-2.5394057856870368e-05,7.5333,4.4667
1.43359375,-5.420095378881512e-05,-2.8323021977569233e-05,-1.221139842298008e-05,-2.3927254905775534e-05,7.5333,4.4667
1.4375,-3.9064104347295335e-05,-5.859672086060882e-05,-1.3186172536049433e-05,-2.881040903410391e-05,7.5333,4.4667
1.44140625,-1.806932666437781e-05,-5.90841079171435e-05,-1.6115136656748296e-05,-3.369356316243228e-05,7.5333,4.4667
1.4453125,-2.4906670800335697e-05,-4.638883553978789e-05,-2.929779609063858e-05,-3.7109914339665816e-05,7.5333,4.4667
1.44921875,-2.6368831969939717e-05,-2.9785183147173263e-05,-2.1973064898146025e-05,-3.7109914339665816e-05,7.5333,4.4667
1.453125,-1.3186172536049433e-05,-3.955149140383001e-05,-2.929779609063858e-05,-2.929779609063858e-05,7.5333,4.4667
1.45703125,-1.708991076981765e-05,-3.564775317006179e-05,-3.516036611352712e-05,-2.3927254905775534e-05,7.5333,4.4667
1.4609375,-3.662252728313115e-05,-1.416094664911879e-05,-2.881040903410391e-05,-3.1251986098268094e-05,7.5333,4.4667
1.46484375,-3.222676021133745e-05,-3.513102159146797e-09,-1.806932666437781e-05,-3.369356316243228e-05,7.5333,4.4667
1.46875,-2.929779609063858e-05,-1.6602523713282977e-05,-1.416094664911879e-05,-3.271878904936293e-05,7.5333,4.4667
1.47265625,-3.9064104347295335e-05,-5.029721555504692e-05,-2.734824786449988e-05,-2.881040903410391e-05,7.5333,4.4667
1.4765625,-4.0043520241855484e-05,-5.420095378881512e-05,-2.1485677841611347e-05,-2.5881444913405046e-05,7.5333,4.4667
1.48046875,-3.662252728313115e-05,-4.443464553215838e-05,-1.5627749600213625e-05,-3.1251986098268094e-05,7.5333,4.4667
1.484375,-9.277792520790413e-06,-4.248045552452887e-05,-4.443464553215838e-05,-3.076459904173342e-05,7.5333,4.4667
1.48828125,-9.769821358815903e-06,-3.9064104347295335e-05,-4.83430255474174e-05,-2.881040903410391e-05,7.5333,4.4667
1.4921875,-2.929779609063858e-05,-2.8323021977569233e-05,-2.783563492103456e-05,-2.0510903728541995e-05,7.5333,4.4667
1.49609375,-2.4906670800335697e-05,-3.271878904936293e-05,-3.516036611352712e-05,-1.8556713720912483e-05,7.5333,4.4667
1.5,-2.0510903728541995e-05,-4.0530907298390166e-05,-2.246509373617151e-05,-3.3206176105897606e-05,7.5333,4.4667
1.50390625,-3.222676021133745e-05,-4.1505681411459515e-05,-6.83621545662622e-06,-3.662252728313115e-05,7.5333,4.4667
1.5078125,-4.9317799660486756e-05,-2.0023516672007317e-05,-3.076459904173342e-05,-3.222676021133745e-05,7.5333,4.4667
1.51171875,-2.929779609063858e-05,-4.394638392462042e-06,-5.615514379644465e-05,-3.808933023422598e-05,7.5333,4.4667
1.515625,-2.734824786449988e-05,-2.881040903410391e-05,-4.0530907298390166e-05,-3.7601943177691304e-05,7.5333,4.4667
1.51953125,-5.5180369683375285e-05,-3.7109914339665816e-05,-2.6368831969939717e-05,-3.271878904936293e-05,7.5333,4.4667
1.5234375,-6.055091086823834e-05,-1.904410077744716e-05,-1.8556713720912483e-05,-3.173937315480277e-05,7.5333,4.4667
1.52734375,-4.101829435492485e-05,-2.5394057856870368e-05,-2.3927254905775534e-05,-2.6368831969939717e-05,7.5333,4.4667
1.53125,-2.8323021977569233e-05,-2.3927254905775534e-05,-3.7109914339665816e-05,-1.904410077744716e-05,7.5333,4.4667
1.53515625,-4.0043520241855484e-05,-2.5394057856870368e-05,-2.783563492103456e-05,-2.3927254905775534e-05,7.5333,4.4667
1.5390625,-4.687622259632257e-05,-2.4906670800335697e-05,-1.465674271763177e-06,-2.6368831969939717e-05,7.5333,4.4667
1.54296875,-3.7109914339665816e-05,-2.246509373617151e-05,-2.246509373617151e-05,-2.68562190264744e-05,7.5333,4.4667
1.546875,-3.662252728313115e-05,-3.369356316243228e-05,-5.420095378881512e-05,-3.0277211985198745e-05,7.5333,4.4667
1.55078125,-4.443464553215838e-05,-1.8556713720912483e-05,-3.8576717290760654e-05,-2.68562190264744e-05,7.5333,4.4667
1.5546875,-3.7601943177691304e-05,-3.0277211985198745e-05,-3.3206176105897606e-05,-2.5394057856870368e-05,7.5333,4.4667
1.55859375,-2.5394057856870368e-05,-5.127198966811627e-05,-3.8576717290760654e-05,-3.662252728313115e-05,7.5333,4.4667
1.5625,-3.4668337275501636e-05,-4.297248436255435e-05,-4.297248436255435e-05,-4.5414061426718546e-05,7.5333,4.4667
1.56640625,-4.590144848325322e-05,-3.516036611352712e-05,-4.7855638490882725e-05,-4.394725847562371e-05,7.5333,4.4667
1.5703125,-3.9064104347295335e-05,-3.9064104347295335e-05,-4.3459871419089034e-05,-3.8576717290760654e-05,7.5333,4.4667
1.57421875,-2.6368831969939717e-05,-3.3206176105897606e-05,-3.369356316243228e-05,-3.3206176105897606e-05,7.5333,4.4667
1.578125,-2.881040903410391e-05,-2.3927254905775534e-05,-1.6115136656748296e-05,-3.173937315480277e-05,7.5333,4.4667
1.58203125,-2.4414641962310212e-05,-3.613514022659647e-05,-1.9531487833981835e-05,-2.5394057856870368e-05,7.5333,4.4667
1.5859375,-1.416094664911879e-05,-5.224676378118562e-05,-1.3673559592584111e-05,-2.3439867849240863e-05,7.5333,4.4667
1.58984375,-1.269878547951476e-05,-4.736360965285725e-05,-2.734824786449988e-05,-2.295248079270618e-05,7.5333,4.4667
1.59375,-1.9531487833981835e-05,-3.564775317006179e-05,-2.734824786449988e-05,-2.246509373617151e-05,7.5333,4.4667
1.59765625,-3.808933023422598e-05,-3.9064104347295335e-05,-1.4652975487144267e-05,-3.4668337275501636e-05,7.5333,4.4667
1.6015625,-4.248045552452887e-05,-4.883041260395208e-05,-2.1973064898146025e-05,-4.0530907298390166e-05,7.5333,4.4667
1.60546875,-3.076459904173342e-05,-3.516036611352712e-05,-1.9531487833981835e-05,-3.9064104347295335e-05,7.5333,4.4667
1.609375,-3.4668337275501636e-05,-1.416094664911879e-05,-3.662252728313115e-05,-3.955149140383001e-05,7.5333,4.4667
1.61328125,-5.761730496604867e-05,-2.8323021977569233e-05,-3.7601943177691304e-05,-3.955149140383001e-05,7.5333,4.4667
1.6171875,-4.1505681411459515e-05,-2.0998290785076676e-05,-3.369356316243228e-05,-3.9064104347295335e-05,7.5333,4.4667
1.62109375,-2.3927254905775534e-05,4.838739543755253e-07,-2.8323021977569233e-05,-3.662252728313115e-05,7.5333,4.4667
1.625,-4.1993068467994196e-05,-3.613514022659647e-05,-1.8556713720912483e-05,-3.3206176105897606e-05,7.5333,4.4667
1.62890625,-6.005888203021285e-05,-6.152568498130768e-05,-1.1719369584954599e-05,-3.516036611352712e-05,7.5333,4.4667
1.6328125,-4.0530907298390166e-05,-4.883041260395208e-05,-1.0744595471885247e-05,-3.418095021896696e-05,7.5333,4.4667
1.63671875,-3.222676021133745e-05,-1.5627749600213625e-05,-2.5394057856870368e-05,-2.881040903410391e-05,7.5333,4.4667
1.640625,-3.418095021896696e-05,-6.348828400091548e-06,-1.9531487833981835e-05,-3.1251986098268094e-05,7.5333,4.4667
1.64453125,-2.0998290785076676e-05,-2.4414641962310212e-05,-1.8556713720912483e-05,-3.418095021896696e-05,7.5333,4.4667
1.6484375,-1.6602523713282977e-05,-2.734824786449988e-05,-2.5881444913405046e-05,-3.076459904173342e-05,7.5333,4.4667
1.65234375,-2.4414641962310212e-05,-1.9531487833981835e-05,-3.369356316243228e-05,-3.222676021133745e-05,7.5333,4.4667
1.65625,-4.443464553215838e-05,-4.248045552452887e-05,-3.076459904173342e-05,-3.7601943177691304e-05,7.5333,4.4667
1.66015625,-4.297248436255435e-05,-3.564775317006179e-05,-2.5881444913405046e-05,-2.9785183147173263e-05,7.5333,4.4667
1.6640625,-2.783563492103456e-05,-3.564775317006179e-05,-3.222676021133745e-05,-2.68562190264744e-05,7.5333,4.4667
1.66796875,-2.4906670800335697e-05,-4.394725847562371e-05,-2.734824786449988e-05,-4.443464553215838e-05,7.5333,4.4667
1.671875,-3.7109914339665816e-05,-3.173937315480277e-05,-3.222676021133745e-05,-4.736360965285725e-05,7.5333,4.4667
1.67578125,-3.662252728313115e-05,-2.9785183147173263e-05,-2.5881444913405046e-05,-3.662252728313115e-05,7.5333,4.4667
1.6796875,-1.708991076981765e-05,-1.0257208415350575e-05,-1.758193960784313e-05,-3.3206176105897606e-05,7.5333,4.4667
1.68359375,-2.1973064898146025e-05,-2.6368831969939717e-05,-3.173937315480277e-05,-3.271878904936293e-05,7.5333,4.4667
1.6875,-3.1251986098268094e-05,-6.445464910200655e-05,-4.1993068467994196e-05,-4.1505681411459515e-05,7.5333,4.4667
1.69140625,-2.1485677841611347e-05,-2.881040903410391e-05,-3.4668337275501636e-05,-4.687622259632257e-05,7.5333,4.4667
1.6953125,-2.0510903728541995e-05,-2.0998290785076676e-05,-2.929779609063858e-05,-4.1993068467994196e-05,7.5333,4.4667
1.69921875,-3.0277211985198745e-05,-6.738361322270542e-05,-2.0023516672007317e-05,-3.8576717290760654e-05,7.5333,4.4667
1.703125,-2.734824786449988e-05,-4.0530907298390166e-05,-1.1719369584954599e-05,-3.222676021133745e-05,7.5333,4.4667
1.70703125,-2.0998290785076676e-05,-2.6368831969939717e-05,-2.5394057856870368e-05,-2.68562190264744e-05,7.5333,4.4667
1.7109375,-1.9531487833981835e-05,-3.271878904936293e-05,-3.564775317006179e-05,-2.4906670800335697e-05,7.5333,4.4667
1.71484375,-2.3439867849240863e-05,-8.303018407721068e-06,-2.9785183147173263e-05,-3.271878904936293e-05,7.5333,4.4667
1.71875,-5.615514379644465e-05,-1.3673559592584111e-05,-7.815631351186382e-06,-4.0530907298390166e-05,7.5333,4.4667
1.72265625,-4.9317799660486756e-05,-3.564775317006179e-05,-4.394638392462042e-06,-3.662252728313115e-05,7.5333,4.4667
1.7265625,-3.7601943177691304e-05,-3.173937315480277e-05,-4.0043520241855484e-05,-3.516036611352712e-05,7.5333,4.4667
1.73046875,-4.9317799660486756e-05,-1.6115136656748296e-05,-4.3459871419089034e-05,-3.4668337275501636e-05,7.5333,4.4667
1.734375,-4.101829435492485e-05,-2.295248079270618e-05,-2.783563492103456e-05,-3.369356316243228e-05,7.5333,4.4667
1.73828125,-3.076459904173342e-05,-3.173937315480277e-05,-2.9785183147173263e-05,-2.8323021977569233e-05,7.5333,4.4667
1.7421875,-2.0998290785076676e-05,-4.0530907298390166e-05,-8.790405464255741e-06,-2.1973064898146025e-05,7.5333,4.4667
1.74609375,-2.4414641962310212e-05,-6.396726204547188e-05,-1.6602523713282977e-05,-2.4906670800335697e-05,7.5333,4.4667
1.75,-3.613514022659647e-05,-5.712991790951399e-05,-3.564775317006179e-05,-3.271878904936293e-05,7.5333,4.4667
1.75390625,-3.662252728313115e-05,-4.297248436255435e-05,-3.271878904936293e-05,-3.7109914339665816e-05,7.5333,4.4667
1.7578125,-2.8323021977569233e-05,-3.7109914339665816e-05,-1.904410077744716e-05,-3.516036611352712e-05,7.5333,4.4667
1.76171875,-2.5881444913405046e-05,-1.6602523713282977e-05,-6.348828400091548e-06,-2.6368831969939717e-05,7.5333,4.4667
1.765625,-2.1973064898146025e-05,-1.904410077744716e-05,-1.4652975487144267e-05,-2.929779609063858e-05,7.5333,4.4667
1.76953125,-8.790405464255741e-06,-1.904410077744716e-05,-3.955149140383001e-05,-3.418095021896696e-05,7.5333,4.4667
1.7734375,-1.9531487833981835e-05,-2.783563492103456e-05,-2.4414641962310212e-05,-3.369356316243228e-05,7.5333,4.4667
1.77734375,-2.5881444913405046e-05,-2.9785183147173263e-05,-9.277792520790413e-06,-3.271878904936293e-05,7.5333,4.4667
1.78125,-1.3186172536049433e-05,-3.9064104347295335e-05,-2.1973064898146025e-05,-3.418095021896696e-05,7.5333,4.4667
1.78515625,-7.815631351186382e-06,-3.7109914339665816e-05,-2.8323021977569233e-05,-3.7601943177691304e-05,7.5333,4.4667
1.7890625,-1.269878547951476e-05,8.788021041428251e-06,-2.5394057856870368e-05,-3.7601943177691304e-05,7.5333,4.4667
1.79296875,-7.815631351186382e-06,-3.513102159146797e-09,-2.3927254905775534e-05,-3.8576717290760654e-05,7.5333,4.4667
1.796875,2.9254510185397177e-06,-3.564775317006179e-05,-3.418095021896696e-05,-4.1505681411459515e-05,7.5333,4.4667
1.80078125,-1.4652975487144267e-05,-4.1505681411459515e-05,-3.271878904936293e-05,-4.3459871419089034e-05,7.5333,4.4667
1.8046875,-1.806932666437781e-05,-1.416094664911879e-05,-3.271878904936293e-05,-4.1505681411459515e-05,7.5333,4.4667
1.80859375,-2.6368831969939717e-05,1.4158562226291294e-05,-1.708991076981765e-05,-4.101829435492485e-05,7.5333,4.4667
1.8125,-2.929779609063858e-05,-2.0510903728541995e-05,-2.68562190264744e-05,-4.590144848325322e-05,7.5333,4.4667
1.81640625,-9.769821358815903e-06,-6.201307203784237e-05,-4.394725847562371e-05,-4.883041260395208e-05,7.5333,4.4667
1.8203125,-1.9531487833981835e-05,-3.8576717290760654e-05,-2.4906670800335697e-05,-4.492203258869306e-05,7.5333,4.4667
1.82421875,-2.783563492103456e-05,-2.5881444913405046e-05,-2.8323021977569233e-05,-4.297248436255435e-05,7.5333,4.4667
1.828125,-2.1485677841611347e-05,-2.1973064898146025e-05,-2.6368831969939717e-05,-3.662252728313115e-05,7.5333,4.4667
1.83203125,-2.0998290785076676e-05,-2.8323021977569233e-05,-1.6115136656748296e-05,-3.808933023422598e-05,7.5333,4.4667
1.8359375,-2.295248079270618e-05,-5.861441343556876e-06,-5.861441343556876e-06,-3.9064104347295335e-05,7.5333,4.4667
1.83984375,-1.904410077744716e-05,2.0995906362249184e-05,-9.277792520790413e-06,-3.4668337275501636e-05,7.5333,4.4667
1.84375,-2.246509373617151e-05,-1.123198252841992e-05,-2.5881444913405046e-05,-3.173937315480277e-05,7.5333,4.4667
1.84765625,-4.0530907298390166e-05,-4.909001586938188e-07,-1.123198252841992e-05,-3.076459904173342e-05,7.5333,4.4667
1.8515625,-4.3459871419089034e-05,-1.3186172536049433e-05,-6.83621545662622e-06,-3.418095021896696e-05,7.5333,4.4667
1.85546875,-2.68562190264744e-05,-2.4906670800335697e-05,-3.662252728313115e-05,-3.662252728313115e-05,7.5333,4.4667
1.859375,-8.303018407721068e-06,-2.3439867849240863e-05,-3.418095021896696e-05,-3.516036611352712e-05,7.5333,4.4667
1.86328125,-1.269878547951476e-05,-6.83621545662622e-06,-2.0510903728541995e-05,-2.9785183147173263e-05,7.5333,4.4667
1.8671875,-3.369356316243228e-05,-2.4450901663233394e-06,-1.5140362543678947e-05,-3.173937315480277e-05,7.5333,4.4667
1.87109375,-4.492203258869306e-05,-3.808933023422598e-05,-2.1973064898146025e-05,-3.516036611352712e-05,7.5333,4.4667
1.875,-2.783563492103456e-05,-4.492203258869306e-05,-4.248045552452887e-05,-3.662252728313115e-05,7.5333,4.4667
1.87890625,-2.1973064898146025e-05,-4.1993068467994196e-05,-4.3459871419089034e-05,-3.564775317006179e-05,7.5333,4.4667
1.8828125,-3.3206176105897606e-05,-2.734824786449988e-05,-3.1251986098268094e-05,-2.3927254905775534e-05,7.5333,4.4667
1.88671875,-1.904410077744716e-05,-1.269878547951476e-05,-3.1251986098268094e-05,-2.8323021977569233e-05,7.5333,4.4667
1.890625,-1.904410077744716e-05,-1.904410077744716e-05,-2.3927254905775534e-05,-3.808933023422598e-05,7.5333,4.4667
1.89453125,-4.1993068467994196e-05,7.808605146868088e-06,-1.8556713720912483e-05,-4.0530907298390166e-05,7.5333,4.4667
1.8984375,-4.883041260395208e-05,-3.513102159146797e-09,-2.0998290785076676e-05,-4.1505681411459515e-05,7.5333,4.4667
1.90234375,-3.1251986098268094e-05,-3.808933023422598e-05,-2.246509373617151e-05,-4.1505681411459515e-05,7.5333,4.4667
1.90625,-2.0023516672007317e-05,-4.5414061426718546e-05,-2.1973064898146025e-05,-3.7109914339665816e-05,7.5333,4.4667
1.91015625,-2.9785183147173263e-05,-3.955149140383001e-05,-2.246509373617151e-05,-3.418095021896696e-05,7.5333,4.4667
1.9140625,-3.7109914339665816e-05,-2.783563492103456e-05,-2.246509373617151e-05,-3.1251986098268094e-05,7.5333,4.4667
1.91796875,-3.0277211985198745e-05,-2.4414641962310212e-05,-1.806932666437781e-05,-3.271878904936293e-05,7.5333,4.4667
1.921875,-2.8323021977569233e-05,-1.1719369584954599e-05,-2.246509373617151e-05,-4.248045552452887e-05,7.5333,4.4667
1.92578125,-3.955149140383001e-05,9.762795154497595e-06,-1.904410077744716e-05,-3.955149140383001e-05,7.5333,4.4667
1.9296875,-3.9064104347295335e-05,-1.3186172536049433e-05,-9.769821358815903e-06,-3.222676021133745e-05,7.5333,4.4667
1.93359375,-1.416094664911879e-05,-3.173937315480277e-05,-2.783563492103456e-05,-3.4668337275501636e-05,7.5333,4.4667
1.9375,-2.295248079270618e-05,-9.769821358815903e-06,-3.613514022659647e-05,-3.955149140383001e-05,7.5333,4.4667
1.94140625,-4.394725847562371e-05,-1.269878547951476e-05,-2.3927254905775534e-05,-4.0530907298390166e-05,7.5333,4.4667
1.9453125,-4.248045552452887e-05,-3.7601943177691304e-05,-2.0023516672007317e-05,-3.955149140383001e-05,7.5333,4.4667
1.94921875,-2.881040903410391e-05,-1.806932666437781e-05,-3.076459904173342e-05,-3.3206176105897606e-05,7.5333,4.4667
1.953125,-2.3927254905775534e-05,-2.9785183147173263e-05,-2.881040903410391e-05,-2.0510903728541995e-05,7.5333,4.4667
1.95703125,-3.8576717290760654e-05,-3.8576717290760654e-05,-1.904410077744716e-05,-2.4414641962310212e-05,7.5333,4.4667
1.9609375,-4.736360965285725e-05,-1.758193960784313e-05,-2.0998290785076676e-05,-3.222676021133745e-05,7.5333,4.4667
1.96484375,-4.1993068467994196e-05,-4.3459871419089034e-05,-2.6368831969939717e-05,-2.9785183147173263e-05,7.5333,4.4667
1.96875,-3.9064104347295335e-05,-4.101829435492485e-05,-2.8323021977569233e-05,-2.6368831969939717e-05,7.5333,4.4667
1.97265625,-4.5414061426718546e-05,-2.295248079270618e-05,-3.0277211985198745e-05,-2.3927254905775534e-05,7.5333,4.4667
1.9765625,-3.222676021133745e-05,-2.9324772228580114e-06,-9.769821358815903e-06,-2.4906670800335697e-05,7.5333,4.4667
1.98046875,-2.8323021977569233e-05,-1.123198252841992e-05,-9.78287215228505e-07,-2.68562190264744e-05,7.5333,4.4667
1.984375,-3.1251986098268094e-05,-5.712991790951399e-05,-2.4414641962310212e-05,-2.68562190264744e-05,7.5333,4.4667
1.98828125,-3.564775317006179e-05,-4.0043520241855484e-05,-3.613514022659647e-05,-3.076459904173342e-05,7.5333,4.4667
1.9921875,-3.369356316243228e-05,-1.221139842298008e-05,-2.8323021977569233e-05,-3.7601943177691304e-05,7.5333,4.4667
1.99609375,-1.708991076981765e-05,-4.0043520241855484e-05,-9.277792520790413e-06,-4.1505681411459515e-05,7.5333,4.4667
2.0,-2.295248079270618e-05,-4.0043520241855484e-05,-9.277792520790413e-06,-3.9064104347295335e-05,7.5333,4.4667
2.00390625,-4.1993068467994196e-05,-1.3186172536049433e-05,-2.6368831969939717e-05,-3.9064104347295335e-05,7.5333,4.4667
2.0078125,-1.9531487833981835e-05,-2.3439867849240863e-05,-9.769821358815903e-06,-3.173937315480277e-05,7.5333,4.4667
2.01171875,-1.1719369584954599e-05,-3.613514022659647e-05,-2.9785183147173263e-05,-2.68562190264744e-05,7.5333,4.4667
2.015625,-3.0277211985198745e-05,-2.8323021977569233e-05,-5.27387926192111e-05,-3.369356316243228e-05,7.5333,4.4667
2.01953125,-3.3206176105897606e-05,-1.5140362543678947e-05,-2.881040903410391e-05,-3.4668337275501636e-05,7.5333,4.4667
2.0234375,-2.734824786449988e-05,-2.3439867849240863e-05,-3.0277211985198745e-05,-3.662252728313115e-05,7.5333,4.4667
2.02734375,-2.3927254905775534e-05,-2.929779609063858e-05,-3.955149140383001e-05,-4.297248436255435e-05,7.5333,4.4667
2.03125,-3.173937315480277e-05,-3.516036611352712e-05,-4.0530907298390166e-05,-4.443464553215838e-05,7.5333,4.4667
2.03515625,-2.5881444913405046e-05,-3.3206176105897606e-05,-3.4668337275501636e-05,-3.7601943177691304e-05,7.5333,4.4667
2.0390625,-2.295248079270618e-05,-2.929779609063858e-05,-3.076459904173342e-05,-4.1505681411459515e-05,7.5333,4.4667
2.04296875,-2.5394057856870368e-05,-4.3459871419089034e-05,-3.516036611352712e-05,-4.687622259632257e-05,7.5333,4.4667
2.046875,-3.173937315480277e-05,-4.590144848325322e-05,-2.4414641962310212e-05,-4.0043520241855484e-05,7.5333,4.4667
2.05078125,-3.222676021133745e-05,-3.955149140383001e-05,-1.6115136656748296e-05,-3.369356316243228e-05,7.5333,4.4667
2.0546875,-4.8866672304875175e-06,-4.687622259632257e-05,-2.5394057856870368e-05,-3.7601943177691304e-05,7.5333,4.4667
2.05859375,-1.0257208415350575e-05,-4.248045552452887e-05,-2.1973064898146025e-05,-3.1251986098268094e-05,7.5333,4.4667
2.0625,-3.222676021133745e-05,-4.0530907298390166e-05,-1.758193960784313e-05,-2.881040903410391e-05,7.5333,4.4667
2.06640625,-2.1973064898146025e-05,-3.369356316243228e-05,-3.7601943177691304e-05,-3.418095021896696e-05,7.5333,4.4667
2.0703125,-1.5627749600213625e-05,-3.0277211985198745e-05,-4.3459871419089034e-05,-3.4668337275501636e-05,7.5333,4.4667
2.07421875,-2.246509373617151e-05,-3.173937315480277e-05,-2.3439867849240863e-05,-2.8323021977569233e-05,7.5333,4.4667
2.078125,-2.295248079270618e-05,-2.3927254905775534e-05,-3.1251986098268094e-05,-2.881040903410391e-05,7.5333,4.4667
2.08203125,-3.7601943177691304e-05,-3.369356316243228e-05,-4.736360965285725e-05,-3.369356316243228e-05,7.5333,4.4667
2.0859375,-2.5881444913405046e-05,-3.4668337275501636e-05,-4.394725847562371e-05,-2.734824786449988e-05,7.5333,4.4667
2.08984375,-1.269878547951476e-05,-1.5627749600213625e-05,-2.246509373617151e-05,-1.9531487833981835e-05,7.5333,4.4667
2.09375,-5.127198966811627e-05,-3.7109914339665816e-05,-6.83621545662622e-06,-2.68562190264744e-05,7.5333,4.4667
2.09765625,-4.101829435492485e-05,-6.396726204547188e-05,-3.8576717290760654e-05,-3.173937315480277e-05,7.5333,4.4667
2.1015625,-2.295248079270618e-05,-4.297248436255435e-05,-3.8576717290760654e-05,-2.0510903728541995e-05,7.5333,4.4667
2.10546875,-2.881040903410391e-05,-4.687622259632257e-05,-3.3206176105897606e-05,-1.5627749600213625e-05,7.5333,4.4667
2.109375,-1.5140362543678947e-05,-4.7855638490882725e-05,-4.248045552452887e-05,-1.6602523713282977e-05,7.5333,4.4667
2.11328125,-3.513102159146797e-09,-4.736360965285725e-05,-4.638883553978789e-05,-1.221139842298008e-05,7.5333,4.4667
2.1171875,-8.790405464255741e-06,-6.933780323033492e-05,-7.080460618142975e-05,-8.790405464255741e-06,7.5333,4.4667
2.12109375,-2.3439867849240863e-05,-4.7855638490882725e-05,-7.568311852826732e-05,-4.8866672304875175e-06,7.5333,4.4667
2.125,-2.6368831969939717e-05,-4.3459871419089034e-05,-6.201307203784237e-05,-9.277792520790413e-06,7.5333,4.4667
2.12890625,-3.173937315480277e-05,-9.911947327534903e-05,-8.593681384145875e-05,-1.8556713720912483e-05,7.5333,4.4667
2.1328125,-3.3206176105897606e-05,-0.00010693159152437627,-9.814005738078889e-05,-1.708991076981765e-05,7.5333,4.4667
2.13671875,-3.418095021896696e-05,-9.179474208285648e-05,-8.837839090562295e-05,-9.769821358815903e-06,7.5333,4.4667
2.140625,-4.687622259632257e-05,-0.00011376893566033416,-9.814005738078889e-05,-9.277792520790413e-06,7.5333,4.4667
2.14453125,-3.222676021133745e-05,-0.00011865208978866254,-0.00011523109682993819,-2.0998290785076676e-05,7.5333,4.4667
2.1484375,-3.4668337275501636e-05,-0.00011718528683756769,-0.00011962686390173189,-2.783563492103456e-05,7.5333,4.4667
2.15234375,-6.005888203021285e-05,-0.00013769267746395055,-0.0001274389821507591,-2.68562190264744e-05,7.5333,4.4667
2.15625,-4.590144848325322e-05,-0.00013329691039215685,-0.0001445300215999084,-2.783563492103456e-05,7.5333,4.4667
2.16015625,-4.101829435492485e-05,-0.00012451001803006026,-0.0001386674515770199,-2.4906670800335697e-05,7.5333,4.4667
2.1640625,-4.5414061426718546e-05,-0.00013085533332799266,-0.0001494131757282368,-1.806932666437781e-05,7.5333,4.4667
2.16796875,-4.0043520241855484e-05,-0.0001406216415846494,-0.0001728495304753185,-2.3927254905775534e-05,7.5333,4.4667
2.171875,-4.1993068467994196e-05,-0.00013329691039215685,-0.00016992056635461967,-2.9785183147173263e-05,7.5333,4.4667
2.17578125,-5.420095378881512e-05,-0.00013818006452048524,-0.00013720529040741586,-2.9785183147173263e-05,7.5333,4.4667
2.1796875,-5.029721555504692e-05,-0.00015429632985656519,-0.0001411090286411841,-2.929779609063858e-05,7.5333,4.4667
2.18359375,-4.5414061426718546e-05,-0.00014990056278477146,-0.00016455002516975662,-2.5394057856870368e-05,7.5333,4.4667
2.1875,-2.881040903410391e-05,-0.0001362258745128557,-0.00015478371691309985,-2.783563492103456e-05,7.5333,4.4667
2.19140625,-2.3927254905775534e-05,-0.00013915948041504536,-0.00016455002516975662,-2.734824786449988e-05,7.5333,4.4667
2.1953125,-3.7109914339665816e-05,-0.00010888578153200579,-0.0001430632186488136,-2.3439867849240863e-05,7.5333,4.4667
2.19921875,-3.369356316243228e-05,-0.00010546478857328145,-0.000112789519765774,-1.6602523713282977e-05,7.5333,4.4667
2.203125,-2.783563492103456e-05,-0.00013818006452048524,-0.00011571848388647286,-2.0023516672007317e-05,7.5333,4.4667
2.20703125,-3.1251986098268094e-05,-0.0001259721791996643,-0.00011718528683756769,-2.734824786449988e-05,7.5333,4.4667
2.2109375,-3.955149140383001e-05,-0.00010986055564507515,-8.05662726565957e-05,-2.68562190264744e-05,7.5333,4.4667
2.21484375,-3.955149140383001e-05,-7.373357030212862e-05,-6.055091086823834e-05,-2.246509373617151e-05,7.5333,4.4667
2.21875,-4.590144848325322e-05,-3.271878904936293e-05,-7.373357030212862e-05,-1.904410077744716e-05,7.5333,4.4667
2.22265625,-4.5414061426718546e-05,-3.7601943177691304e-05,-6.836302911726557e-05,-2.1485677841611347e-05,7.5333,4.4667
2.2265625,-5.127198966811627e-05,-4.687622259632257e-05,-5.420095378881512e-05,-2.9785183147173263e-05,7.5333,4.4667
2.23046875,-6.445464910200655e-05,-5.4688340845349804e-05,-3.3206176105897606e-05,-3.271878904936293e-05,7.5333,4.4667
2.234375,-3.418095021896696e-05,-5.712991790951399e-05,-3.564775317006179e-05,-3.222676021133745e-05,7.5333,4.4667
2.23828125,-3.7109914339665816e-05,-4.5414061426718546e-05,-4.0530907298390166e-05,-3.564775317006179e-05,7.5333,4.4667
2.2421875,-6.78756420607309e-05,-4.0530907298390166e-05,-2.1973064898146025e-05,-4.0530907298390166e-05,7.5333,4.4667
2.24609375,-5.761730496604867e-05,-3.173937315480277e-05,-1.3186172536049433e-05,-3.7109914339665816e-05,7.5333,4.4667
2.25,-4.7855638490882725e-05,-2.4906670800335697e-05,-2.3439867849240863e-05,-4.1505681411459515e-05,7.5333,4.4667
2.25390625,-5.615514379644465e-05,-9.277792520790413e-06,-8.790405464255741e-06,-5.029721555504692e-05,7.5333,4.4667
2.2578125,-6.055091086823834e-05,1.5620723395895326e-05,3.0270185780880453e-05,-4.83430255474174e-05,7.5333,4.4667
2.26171875,-4.590144848325322e-05,4.101126815060654e-05,1.8554329298084994e-05,-4.492203258869306e-05,7.5333,4.4667
2.265625,-4.83430255474174e-05,5.321915347142749e-05,-1.123198252841992e-05,-4.297248436255435e-05,7.5333,4.4667
2.26953125,-6.201307203784237e-05,2.8808024611276422e-05,-1.123198252841992e-05,-4.443464553215838e-05,7.5333,4.4667
2.2734375,-5.127198966811627e-05,-4.8866672304875175e-06,1.1716985162127116e-05,-4.5414061426718546e-05,7.5333,4.4667
2.27734375,-3.613514022659647e-05,6.346443977264059e-06,3.075757283741513e-05,-4.248045552452887e-05,7.5333,4.4667
2.28125,-2.3439867849240863e-05,1.6600139290455486e-05,3.856969108644236e-05,-4.297248436255435e-05,7.5333,4.4667
2.28515625,-1.904410077744716e-05,1.0250182211032282e-05,3.613275580376897e-05,-4.394725847562371e-05,7.5333,4.4667
2.2890625,-2.5881444913405046e-05,7.321218090333417e-06,3.173698873197528e-05,-4.101829435492485e-05,7.5333,4.4667
2.29296875,-1.6602523713282977e-05,1.3179146331731133e-05,3.31991499015793e-05,-3.9064104347295335e-05,7.5333,4.4667
2.296875,-2.3927254905775534e-05,3.613275580376897e-05,4.784861228656443e-05,-3.808933023422598e-05,7.5333,4.4667
2.30078125,-4.297248436255435e-05,4.2478071101701386e-05,4.83359993430991e-05,-3.808933023422598e-05,7.5333,4.4667
2.3046875,-4.5414061426718546e-05,3.271176284504463e-05,1.952910341115435e-05,-4.443464553215838e-05,7.5333,4.4667
2.30859375,-3.0277211985198745e-05,4.736122523002976e-05,1.3671175169756623e-05,-5.029721555504692e-05,7.5333,4.4667
2.3125,-3.222676021133745e-05,3.417856579613946e-05,2.0995906362249184e-05,-5.27387926192111e-05,7.5333,4.4667
2.31640625,-3.418095021896696e-05,2.0016490467689025e-05,2.0995906362249184e-05,-5.127198966811627e-05,7.5333,4.4667
2.3203125,-3.1251986098268094e-05,4.345284521477073e-05,1.1716985162127116e-05,-4.736360965285725e-05,7.5333,4.4667
2.32421875,-2.0998290785076676e-05,2.831599577325093e-05,2.24580675318532e-05,-4.7855638490882725e-05,7.5333,4.4667
2.328125,-2.3439867849240863e-05,7.321218090333417e-06,3.075757283741513e-05,-5.029721555504692e-05,7.5333,4.4667
2.33203125,-4.492203258869306e-05,2.4412257539482724e-05,3.31991499015793e-05,-5.029721555504692e-05,7.5333,4.4667
2.3359375,-4.5414061426718546e-05,2.148329341878386e-05,2.636644754711223e-05,-4.638883553978789e-05,7.5333,4.4667
2.33984375,-2.4414641962310212e-05,6.833831033798731e-06,1.0250182211032282e-05,-4.443464553215838e-05,7.5333,4.4667
2.34375,-2.3927254905775534e-05,4.838739543755253e-07,1.4158562226291294e-05,-4.394725847562371e-05,7.5333,4.4667
2.34765625,-4.736360965285725e-05,-4.394638392462042e-06,1.4645949282825967e-05,-3.808933023422598e-05,7.5333,4.4667
2.3515625,-3.808933023422598e-05,2.4380639620050317e-06,9.275408097962923e-06,-4.0043520241855484e-05,7.5333,4.4667
2.35546875,-2.8323021977569233e-05,1.3179146331731133e-05,1.61127522339208e-05,-4.0043520241855484e-05,7.5333,4.4667
2.359375,-3.564775317006179e-05,1.708752634699016e-05,1.61127522339208e-05,-4.101829435492485e-05,7.5333,4.4667
2.36328125,-4.980518671702143e-05,1.269175927519646e-05,7.321218090333417e-06,-4.883041260395208e-05,7.5333,4.4667
2.3671875,-3.955149140383001e-05,9.759027924010155e-07,5.367028082703897e-06,-4.590144848325322e-05,7.5333,4.4667
2.37109375,-2.3927254905775534e-05,-1.0257208415350575e-05,6.346443977264059e-06,-3.418095021896696e-05,7.5333,4.4667
2.375,-3.7601943177691304e-05,1.269175927519646e-05,3.904866913099866e-06,-2.734824786449988e-05,7.5333,4.4667
2.37890625,-5.420095378881512e-05,1.6600139290455486e-05,1.0250182211032282e-05,-2.734824786449988e-05,7.5333,4.4667
2.3828125,-3.955149140383001e-05,4.392253969634552e-06,8.300633984893565e-06,-3.808933023422598e-05,7.5333,4.4667
2.38671875,-2.881040903410391e-05,-9.769821358815903e-06,1.2204372218661787e-05,-4.5414061426718546e-05,7.5333,4.4667
2.390625,-3.564775317006179e-05,-1.416094664911879e-05,9.762795154497595e-06,-3.662252728313115e-05,7.5333,4.4667
2.39453125,-3.613514022659647e-05,6.346443977264059e-06,1.9506769054703597e-06,-3.076459904173342e-05,7.5333,4.4667
2.3984375,-3.369356316243228e-05,-1.416094664911879e-05,2.9254510185397177e-06,-3.516036611352712e-05,7.5333,4.4667
2.40234375,-3.076459904173342e-05,-2.3439867849240863e-05,-1.4652975487144267e-05,-4.101829435492485e-05,7.5333,4.4667
2.40625,-3.4668337275501636e-05,-1.1719369584954599e-05,-1.708991076981765e-05,-2.929779609063858e-05,7.5333,4.4667
2.41015625,-3.7109914339665816e-05,-2.4414641962310212e-05,-9.769821358815903e-06,-2.68562190264744e-05,7.5333,4.4667
2.4140625,-3.516036611352712e-05,-2.734824786449988e-05,-2.9324772228580114e-06,-3.173937315480277e-05,7.5333,4.4667
2.41796875,-1.9531487833981835e-05,-7.815631351186382e-06,-8.790405464255741e-06,-2.5394057856870368e-05,7.5333,4.4667
2.421875,-2.929779609063858e-05,3.904866913099866e-06,-1.416094664911879e-05,-2.881040903410391e-05,7.5333,4.4667
2.42578125,-3.808933023422598e-05,1.3671175169756623e-05,1.61127522339208e-05,-3.0277211985198745e-05,7.5333,4.4667
2.4296875,-4.394638392462042e-06,-6.83621545662622e-06,-5.861441343556876e-06,-2.3927254905775534e-05,7.5333,4.4667
2.43359375,-1.6602523713282977e-05,-3.7109914339665816e-05,-3.564775317006179e-05,-2.881040903410391e-05,7.5333,4.4667
2.4375,-3.4668337275501636e-05,-3.9064104347295335e-05,-2.9785183147173263e-05,-3.4668337275501636e-05,7.5333,4.4667
2.44140625,-1.758193960784313e-05,-3.613514022659647e-05,-2.734824786449988e-05,-3.222676021133745e-05,7.5333,4.4667
2.4453125,-1.269878547951476e-05,-6.348828400091548e-06,-1.6115136656748296e-05,-2.68562190264744e-05,7.5333,4.4667
2.44921875,-2.3927254905775534e-05,-7.32824429465171e-06,-1.221139842298008e-05,-3.271878904936293e-05,7.5333,4.4667
2.453125,-4.1505681411459515e-05,-2.0510903728541995e-05,-2.5881444913405046e-05,-3.808933023422598e-05,7.5333,4.4667
2.45703125,-4.0043520241855484e-05,-4.8866672304875175e-06,-2.929779609063858e-05,-3.4668337275501636e-05,7.5333,4.4667
2.4609375,-3.1251986098268094e-05,-1.0744595471885247e-05,-2.929779609063858e-05,-3.418095021896696e-05,7.5333,4.4667
2.46484375,-2.8323021977569233e-05,-2.8323021977569233e-05,-3.076459904173342e-05,-3.662252728313115e-05,7.5333,4.4667
2.46875,-3.662252728313115e-05,-2.295248079270618e-05,-7.815631351186382e-06,-3.222676021133745e-05,7.5333,4.4667
2.47265625,-1.4652975487144267e-05,-1.5627749600213625e-05,4.838739543755253e-07,-3.222676021133745e-05,7.5333,4.4667
2.4765625,-1.269878547951476e-05,-9.769821358815903e-06,-2.68562190264744e-05,-3.613514022659647e-05,7.5333,4.4667
2.48046875,-3.4668337275501636e-05,-1.5140362543678947e-05,-3.516036611352712e-05,-3.3206176105897606e-05,7.5333,4.4667
2.484375,-3.7601943177691304e-05,-1.708991076981765e-05,-2.0023516672007317e-05,-3.173937315480277e-05,7.5333,4.4667
2.48828125,-2.734824786449988e-05,9.762795154497595e-06,-9.769821358815903e-06,-3.4668337275501636e-05,7.5333,4.4667
2.4921875,-2.5394057856870368e-05,4.392253969634552e-06,-1.806932666437781e-05,-3.955149140383001e-05,7.5333,4.4667
2.49609375,-3.222676021133745e-05,-2.1485677841611347e-05,-2.295248079270618e-05,-3.613514022659647e-05,7.5333,4.4667
2.5,-3.7601943177691304e-05,-2.3927254905775534e-05,-1.5140362543678947e-05,-3.173937315480277e-05,7.5333,4.4667
2.50390625,-4.1505681411459515e-05,-2.1973064898146025e-05,-2.246509373617151e-05,-3.4668337275501636e-05,7.5333,4.4667
2.5078125,-3.662252728313115e-05,-2.5881444913405046e-05,-2.734824786449988e-05,-3.662252728313115e-05,7.5333,4.4667
2.51171875,-2.929779609063858e-05,-2.5881444913405046e-05,-1.4652975487144267e-05,-3.808933023422598e-05,7.5333,4.4667
2.515625,-3.271878904936293e-05,-2.5394057856870368e-05,-6.83621545662622e-06,-2.734824786449988e-05,7.5333,4.4667
2.51953125,-2.4906670800335697e-05,-2.0510903728541995e-05,-2.734824786449988e-05,-3.1251986098268094e-05,7.5333,4.4667
2.5234375,-3.0277211985198745e-05,-2.68562190264744e-05,-2.1973064898146025e-05,-4.101829435492485e-05,7.5333,4.4667
2.52734375,-4.297248436255435e-05,-1.6602523713282977e-05,-3.90725133592737e-06,-3.7601943177691304e-05,7.5333,4.4667
2.53125,-2.295248079270618e-05,-1.123198252841992e-05,-2.0510903728541995e-05,-4.736360965285725e-05,7.5333,4.4667
2.53515625,-1.3186172536049433e-05,-1.221139842298008e-05,-4.443464553215838e-05,-5.322617967574578e-05,7.5333,4.4667
2.5390625,-3.076459904173342e-05,-4.394638392462042e-06,-3.8576717290760654e-05,-4.3459871419089034e-05,7.5333,4.4667
2.54296875,-3.271878904936293e-05,-2.1973064898146025e-05,-2.3439867849240863e-05,-3.418095021896696e-05,7.5333,4.4667
2.546875,-2.0023516672007317e-05,-2.5394057856870368e-05,-1.708991076981765e-05,-3.3206176105897606e-05,7.5333,4.4667
2.55078125,-1.9531487833981835e-05,-3.4668337275501636e-05,-1.3186172536049433e-05,-3.369356316243228e-05,7.5333,4.4667
2.5546875,-2.295248079270618e-05,-2.6368831969939717e-05,-2.1973064898146025e-05,-3.516036611352712e-05,7.5333,4.4667
2.55859375,-3.173937315480277e-05,-1.3673559592584111e-05,-3.3206176105897606e-05,-4.492203258869306e-05,7.5333,4.4667
2.5625,-1.6115136656748296e-05,-3.0277211985198745e-05,-2.6368831969939717e-05,-4.492203258869306e-05,7.5333,4.4667
2.56640625,-1.4652975487144267e-05,-2.295248079270618e-05,-2.4906670800335697e-05,-4.248045552452887e-05,7.5333,4.4667
2.5703125,-3.613514022659647e-05,-1.4652975487144267e-05,-2.881040903410391e-05,-4.1993068467994196e-05,7.5333,4.4667
2.57421875,-3.369356316243228e-05,-2.295248079270618e-05,-2.3927254905775534e-05,-4.101829435492485e-05,7.5333,4.4667
2.578125,-3.564775317006179e-05,-2.68562190264744e-05,-1.8556713720912483e-05,-4.1993068467994196e-05,7.5333,4.4667
2.58203125,-4.1993068467994196e-05,-2.0510903728541995e-05,-3.662252728313115e-05,-4.248045552452887e-05,7.5333,4.4667
2.5859375,-3.613514022659647e-05,-2.3927254905775534e-05,-3.808933023422598e-05,-3.3206176105897606e-05,7.5333,4.4667
2.58984375,-2.0023516672007317e-05,-4.1505681411459515e-05,-2.9785183147173263e-05,-3.1251986098268094e-05,7.5333,4.4667
2.59375,-2.4414641962310212e-05,-4.1505681411459515e-05,-2.3439867849240863e-05,-4.1505681411459515e-05,7.5333,4.4667
2.59765625,-3.4668337275501636e-05,-3.418095021896696e-05,-1.904410077744716e-05,-4.101829435492485e-05,7.5333,4.4667
2.6015625,-3.222676021133745e-05,-3.516036611352712e-05,-2.0510903728541995e-05,-3.3206176105897606e-05,7.5333,4.4667
2.60546875,-4.101829435492485e-05,-4.3459871419089034e-05,-2.0510903728541995e-05,-3.418095021896696e-05,7.5333,4.4667
2.609375,-1.904410077744716e-05,-3.7109914339665816e-05,-1.758193960784313e-05,-3.808933023422598e-05,7.5333,4.4667
2.61328125,-1.3673559592584111e-05,-2.295248079270618e-05,-2.5394057856870368e-05,-3.7601943177691304e-05,7.5333,4.4667
2.6171875,-3.173937315480277e-05,-9.277792520790413e-06,-2.0023516672007317e-05,-3.418095021896696e-05,7.5333,4.4667
2.62109375,-2.734824786449988e-05,-1.0744595471885247e-05,-2.1485677841611347e-05,-3.3206176105897606e-05,7.5333,4.4667
2.625,-3.564775317006179e-05,-3.0277211985198745e-05,-2.8323021977569233e-05,-3.271878904936293e-05,7.5333,4.4667
2.62890625,-5.27387926192111e-05,-2.0998290785076676e-05,-1.758193960784313e-05,-2.8323021977569233e-05,7.5333,4.4667
2.6328125,-4.5414061426718546e-05,-3.90725133592737e-06,-6.83621545662622e-06,-2.5881444913405046e-05,7.5333,4.4667
2.63671875,-2.1485677841611347e-05,-9.277792520790413e-06,-9.769821358815903e-06,-2.6368831969939717e-05,7.5333,4.4667
2.640625,-2.4906670800335697e-05,-1.8556713720912483e-05,-1.6115136656748296e-05,-2.68562190264744e-05,7.5333,4.4667
2.64453125,-4.297248436255435e-05,-2.929779609063858e-05,-2.295248079270618e-05,-2.8323021977569233e-05,7.5333,4.4667
2.6484375,-3.955149140383001e-05,-3.222676021133745e-05,-1.0257208415350575e-05,-2.9785183147173263e-05,7.5333,4.4667
2.65234375,-1.806932666437781e-05,-2.1485677841611347e-05,6.833831033798731e-06,-2.3927254905775534e-05,7.5333,4.4667
2.65625,-7.815631351186382e-06,-5.861441343556876e-06,5.367028082703897e-06,-1.6115136656748296e-05,7.5333,4.4667
2.66015625,-2.1973064898146025e-05,4.392253969634552e-06,-1.0257208415350575e-05,-2.3439867849240863e-05,7.5333,4.4667
2.6640625,-3.1251986098268094e-05,1.9041716354619666e-05,-3.613514022659647e-05,-2.8323021977569233e-05,7.5333,4.4667
2.66796875,-1.0744595471885247e-05,4.838739543755253e-07,-3.564775317006179e-05,-2.68562190264744e-05,7.5333,4.4667
2.671875,-7.32824429465171e-06,-3.662252728313115e-05,-2.5394057856870368e-05,-2.68562190264744e-05,7.5333,4.4667
2.67578125,-1.9531487833981835e-05,-1.5627749600213625e-05,-2.8323021977569233e-05,-2.783563492103456e-05,7.5333,4.4667
2.6796875,-2.0998290785076676e-05,-2.9324772228580114e-06,-3.3206176105897606e-05,-3.1251986098268094e-05,7.5333,4.4667
2.68359375,-1.8556713720912483e-05,-2.783563492103456e-05,-3.0277211985198745e-05,-3.271878904936293e-05,7.5333,4.4667
2.6875,-2.783563492103456e-05,-2.4906670800335697e-05,-2.8323021977569233e-05,-3.955149140383001e-05,7.5333,4.4667
2.69140625,-2.8323021977569233e-05,-1.5140362543678947e-05,-3.076459904173342e-05,-3.613514022659647e-05,7.5333,4.4667
2.6953125,-2.9785183147173263e-05,-2.881040903410391e-05,-3.173937315480277e-05,-3.222676021133745e-05,7.5333,4.4667
2.69921875,-2.9785183147173263e-05,-3.613514022659647e-05,-1.6602523713282977e-05,-4.0043520241855484e-05,7.5333,4.4667
2.703125,-2.68562190264744e-05,-2.0998290785076676e-05,-7.815631351186382e-06,-4.1993068467994196e-05,7.5333,4.4667
2.70703125,-4.248045552452887e-05,-8.303018407721068e-06,-3.4668337275501636e-05,-3.8576717290760654e-05,7.5333,4.4667
2.7109375,-4.9317799660486756e-05,-2.3927254905775534e-05,-4.394725847562371e-05,-3.516036611352712e-05,7.5333,4.4667
2.71484375,-3.564775317006179e-05,-4.980518671702143e-05,-3.564775317006179e-05,-4.0530907298390166e-05,7.5333,4.4667
2.71875,-3.516036611352712e-05,-3.9064104347295335e-05,-1.6602523713282977e-05,-3.955149140383001e-05,7.5333,4.4667
2.72265625,-5.029721555504692e-05,-2.734824786449988e-05,-1.4652975487144267e-05,-3.0277211985198745e-05,7.5333,4.4667
2.7265625,-3.8576717290760654e-05,-2.9785183147173263e-05,-4.1993068467994196e-05,-3.271878904936293e-05,7.5333,4.4667
2.73046875,-2.929779609063858e-05,-2.783563492103456e-05,-3.564775317006179e-05,-3.369356316243228e-05,7.5333,4.4667
2.734375,-3.7109914339665816e-05,-1.806932666437781e-05,-2.9785183147173263e-05,-3.418095021896696e-05,7.5333,4.4667
2.73828125,-4.394725847562371e-05,-3.0277211985198745e-05,-2.9785183147173263e-05,-3.955149140383001e-05,7.5333,4.4667
2.7421875,-3.418095021896696e-05,-3.4668337275501636e-05,-2.4906670800335697e-05,-3.564775317006179e-05,7.5333,4.4667
2.74609375,-2.9785183147173263e-05,-1.0257208415350575e-05,-3.613514022659647e-05,-3.4668337275501636e-05,7.5333,4.4667
2.75,-3.222676021133745e-05,-1.9531487833981835e-05,-3.662252728313115e-05,-3.369356316243228e-05,7.5333,4.4667
2.75390625,-3.808933023422598e-05,-2.3927254905775534e-05,-6.348828400091548e-06,-2.1973064898146025e-05,7.5333,4.4667
2.7578125,-2.9785183147173263e-05,-2.295248079270618e-05,2.4380639620050317e-06,-2.929779609063858e-05,7.5333,4.4667
2.76171875,-2.929779609063858e-05,-4.297248436255435e-05,-2.4414641962310212e-05,-3.222676021133745e-05,7.5333,4.4667
2.765625,-3.3206176105897606e-05,-3.7109914339665816e-05,-3.271878904936293e-05,-2.3439867849240863e-05,7.5333,4.4667
2.76953125,-1.8556713720912483e-05,-3.3206176105897606e-05,-4.3459871419089034e-05,-3.0277211985198745e-05,7.5333,4.4667
2.7734375,-1.221139842298008e-05,-3.173937315480277e-05,-3.7601943177691304e-05,-3.271878904936293e-05,7.5333,4.4667
2.77734375,-2.295248079270618e-05,-2.5881444913405046e-05,-1.708991076981765e-05,-2.8323021977569233e-05,7.5333,4.4667
2.78125,-2.6368831969939717e-05,-2.4414641962310212e-05,-6.83621545662622e-06,-3.222676021133745e-05,7.5333,4.4667
2.78515625,-1.5627749600213625e-05,-3.513102159146797e-09,-2.4450901663233394e-06,-3.369356316243228e-05,7.5333,4.4667
2.7890625,-2.3927254905775534e-05,-4.394638392462042e-06,-1.269878547951476e-05,-2.929779609063858e-05,7.5333,4.4667
2.79296875,-2.3927254905775534e-05,-2.4414641962310212e-05,-2.0510903728541995e-05,-2.929779609063858e-05,7.5333,4.4667
2.796875,-2.4414641962310212e-05,-3.222676021133745e-05,-1.5627749600213625e-05,-2.9785183147173263e-05,7.5333,4.4667
2.80078125,-3.271878904936293e-05,-4.297248436255435e-05,-6.83621545662622e-06,-2.8323021977569233e-05,7.5333,4.4667
2.8046875,-1.806932666437781e-05,-3.613514022659647e-05,-2.9785183147173263e-05,-3.4668337275501636e-05,7.5333,4.4667
2.80859375,-1.3673559592584111e-05,-2.881040903410391e-05,-3.955149140383001e-05,-3.222676021133745e-05,7.5333,4.4667
2.8125,-2.3439867849240863e-05,-4.248045552452887e-05,-1.904410077744716e-05,-2.3927254905775534e-05,7.5333,4.4667
2.81640625,-2.0510903728541995e-05,-1.904410077744716e-05,-2.1973064898146025e-05,-2.6368831969939717e-05,7.5333,4.4667
2.8203125,-1.8556713720912483e-05,-2.9324772228580114e-06,-1.1719369584954599e-05,-3.173937315480277e-05,7.5333,4.4667
2.82421875,-3.222676021133745e-05,-1.9531487833981835e-05,-1.806932666437781e-05,-3.076459904173342e-05,7.5333,4.4667
2.828125,-3.564775317006179e-05,-3.0277211985198745e-05,-3.662252728313115e-05,-2.6368831969939717e-05,7.5333,4.4667
2.83203125,-2.9785183147173263e-05,-2.246509373617151e-05,-3.516036611352712e-05,-2.0510903728541995e-05,7.5333,4.4667
2.8359375,-1.708991076981765e-05,-2.8323021977569233e-05,-1.6115136656748296e-05,-2.1973064898146025e-05,7.5333,4.4667
2.83984375,-8.303018407721068e-06,-5.029721555504692e-05,-1.5627749600213625e-05,-2.5881444913405046e-05,7.5333,4.4667
2.84375,-3.0277211985198745e-05,-4.0530907298390166e-05,-2.9785183147173263e-05,-2.3439867849240863e-05,7.5333,4.4667
2.84765625,-2.1485677841611347e-05,-2.783563492103456e-05,-3.9064104347295335e-05,-2.3439867849240863e-05,7.5333,4.4667
2.8515625,-1.5140362543678947e-05,-2.783563492103456e-05,-5.0784602611581587e-05,-2.0510903728541995e-05,7.5333,4.4667
2.85546875,-2.881040903410391e-05,-3.1251986098268094e-05,-4.492203258869306e-05,-3.516036611352712e-05,7.5333,4.4667
2.859375,-2.929779609063858e-05,-4.5414061426718546e-05,-3.1251986098268094e-05,-3.613514022659647e-05,7.5333,4.4667
2.86328125,-2.5881444913405046e-05,-4.980518671702143e-05,-2.0510903728541995e-05,-2.0998290785076676e-05,7.5333,4.4667
2.8671875,-3.3206176105897606e-05,-1.904410077744716e-05,-2.295248079270618e-05,-2.0998290785076676e-05,7.5333,4.4667
2.87109375,-4.101829435492485e-05,-7.815631351186382e-06,-1.806932666437781e-05,-2.6368831969939717e-05,7.5333,4.4667
2.875,-2.68562190264744e-05,-3.3206176105897606e-05,-2.5394057856870368e-05,-2.929779609063858e-05,7.5333,4.4667
2.87890625,-1.9531487833981835e-05,-4.736360965285725e-05,-4.443464553215838e-05,-2.783563492103456e-05,7.5333,4.4667
2.8828125,-1.6115136656748296e-05,-2.734824786449988e-05,-3.369356316243228e-05,-2.4414641962310212e-05,7.5333,4.4667
2.88671875,-1.904410077744716e-05,-3.271878904936293e-05,-3.076459904173342e-05,-3.222676021133745e-05,7.5333,4.4667
2.890625,-2.6368831969939717e-05,-3.8576717290760654e-05,-3.222676021133745e-05,-4.1993068467994196e-05,7.5333,4.4667
2.89453125,4.879641026169224e-06,-2.6368831969939717e-05,-3.369356316243228e-05,-4.638883553978789e-05,7.5333,4.4667
2.8984375,9.759027924010155e-07,-2.734824786449988e-05,-3.955149140383001e-05,-4.248045552452887e-05,7.5333,4.4667
2.90234375,-2.3927254905775534e-05,-1.6602523713282977e-05,-3.613514022659647e-05,-3.418095021896696e-05,7.5333,4.4667
2.90625,-2.0998290785076676e-05,-3.90725133592737e-06,-3.564775317006179e-05,-2.929779609063858e-05,7.5333,4.4667
2.91015625,-1.9531487833981835e-05,-6.348828400091548e-06,-2.881040903410391e-05,-3.4668337275501636e-05,7.5333,4.4667
2.9140625,-3.0277211985198745e-05,-2.5881444913405046e-05,-2.0998290785076676e-05,-4.1505681411459515e-05,7.5333,4.4667
2.91796875,-4.736360965285725e-05,-3.418095021896696e-05,-1.6602523713282977e-05,-3.955149140383001e-05,7.5333,4.4667
2.921875,-4.3459871419089034e-05,3.904866913099866e-06,-1.708991076981765e-05,-3.955149140383001e-05,7.5333,4.4667
2.92578125,-3.7109914339665816e-05,-5.861441343556876e-06,-3.222676021133745e-05,-3.418095021896696e-05,7.5333,4.4667
2.9296875,-4.297248436255435e-05,-3.3206176105897606e-05,-2.4414641962310212e-05,-2.4414641962310212e-05,7.5333,4.4667
2.93359375,-4.687622259632257e-05,-1.3673559592584111e-05,3.904866913099866e-06,-1.708991076981765e-05,7.5333,4.4667
2.9375,-2.9785183147173263e-05,-1.269878547951476e-05,-8.790405464255741e-06,-1.806932666437781e-05,7.5333,4.4667
2.94140625,-1.904410077744716e-05,-2.246509373617151e-05,-2.783563492103456e-05,-2.246509373617151e-05,7.5333,4.4667
2.9453125,-3.564775317006179e-05,-2.5394057856870368e-05,-2.0998290785076676e-05,-2.5394057856870368e-05,7.5333,4.4667
2.94921875,-3.955149140383001e-05,-2.4414641962310212e-05,-1.9531487833981835e-05,-2.881040903410391e-05,7.5333,4.4667
2.953125,-4.0530907298390166e-05,-1.8556713720912483e-05,-3.564775317006179e-05,-2.4414641962310212e-05,7.5333,4.4667
2.95703125,-3.8576717290760654e-05,-2.68562190264744e-05,-3.1251986098268094e-05,-2.5881444913405046e-05,7.5333,4.4667
2.9609375,-4.394725847562371e-05,-2.5881444913405046e-05,-3.3206176105897606e-05,-2.6368831969939717e-05,7.5333,4.4667
2.96484375,-4.0530907298390166e-05,-1.3673559592584111e-05,-3.418095021896696e-05,-1.904410077744716e-05,7.5333,4.4667
2.96875,-3.3206176105897606e-05,-1.4652975487144267e-05,-3.271878904936293e-05,-2.3439867849240863e-05,7.5333,4.4667
2.97265625,-4.0043520241855484e-05,-2.783563492103456e-05,-2.1485677841611347e-05,-3.271878904936293e-05,7.5333,4.4667
2.9765625,-4.101829435492485e-05,-3.271878904936293e-05,-5.861441343556876e-06,-3.0277211985198745e-05,7.5333,4.4667
2.98046875,-4.1993068467994196e-05,-3.7109914339665816e-05,-1.9531487833981835e-05,-2.929779609063858e-05,7.5333,4.4667
2.984375,-3.516036611352712e-05,-4.3459871419089034e-05,-4.83430255474174e-05,-2.9785183147173263e-05,7.5333,4.4667
2.98828125,-4.1505681411459515e-05,-2.9785183147173263e-05,-5.3713566732280455e-05,-2.3927254905775534e-05,7.5333,4.4667
2.9921875,-5.4688340845349804e-05,-3.0277211985198745e-05,-4.3459871419089034e-05,-2.295248079270618e-05,7.5333,4.4667
2.99609375,-4.443464553215838e-05,-3.564775317006179e-05,-4.3459871419089034e-05,-2.4906670800335697e-05,7.5333,4.4667
3.0,-2.881040903410391e-05,-1.806932666437781e-05,-3.1251986098268094e-05,-9.277792520790413e-06,7.5333,4.4667
3.00390625,-3.3206176105897606e-05,-6.83621545662622e-06,-9.78287215228505e-07,-4.8866672304875175e-06,7.5333,4.4667
3.0078125,-5.27387926192111e-05,-4.1993068467994196e-05,-3.7601943177691304e-05,-2.0998290785076676e-05,7.5333,4.4667
3.01171875,-3.564775317006179e-05,-7.617050558480201e-05,-7.470834441519798e-05,-2.8323021977569233e-05,7.5333,4.4667
3.015625,-2.6368831969939717e-05,-7.763266675440603e-05,-6.299248793240253e-05,-1.9531487833981835e-05,7.5333,4.4667
3.01953125,-4.0043520241855484e-05,-7.861208264896619e-05,-7.909946970550086e-05,-1.9531487833981835e-05,7.5333,4.4667
3.0234375,-4.7855638490882725e-05,-7.373357030212862e-05,-7.812469559243151e-05,-2.5881444913405046e-05,7.5333,4.4667
3.02734375,-2.734824786449988e-05,-8.349523677729456e-05,-9.326154503395132e-05,-2.5881444913405046e-05,7.5333,4.4667
3.03125,-1.708991076981765e-05,-0.00011718528683756769,-0.0001362258745128557,-2.9785183147173263e-05,7.5333,4.4667
3.03515625,-1.123198252841992e-05,-0.00010986055564507515,-0.00011767267389410238,-2.3439867849240863e-05,7.5333,4.4667
3.0390625,-1.0744595471885247e-05,-0.00010302321150911726,-0.00011181474565270466,-2.783563492103456e-05,7.5333,4.4667
3.04296875,-2.0023516672007317e-05,-0.00012255582802243073,-0.0001318347492225528,-3.0277211985198745e-05,7.5333,4.4667
3.046875,-1.6115136656748296e-05,-0.00013964686747158005,-0.00015282952690547034,-2.1973064898146025e-05,7.5333,4.4667
3.05078125,-1.6602523713282977e-05,-0.00012646420803768976,-0.00015331691396200503,-8.790405464255741e-06,7.5333,4.4667
3.0546875,-1.8556713720912483e-05,-0.00012646420803768976,-0.00014843375983367664,-4.394638392462042e-06,7.5333,4.4667
3.05859375,-1.6115136656748296e-05,-0.00015673790692072935,-0.00016747898929045548,-4.394638392462042e-06,7.5333,4.4667
3.0625,-1.806932666437781e-05,-0.00016064164515449758,-0.00017577849459601735,-2.9324772228580114e-06,7.5333,4.4667
3.06640625,-1.758193960784313e-05,-0.00017773268460364688,-0.00021777269174334324,-1.0744595471885247e-05,7.5333,4.4667
3.0703125,-1.0257208415350575e-05,-0.0001879863799168383,-0.00021630588879224837,-5.861441343556876e-06,7.5333,4.4667
3.07421875,1.122959810559243e-05,-0.00016796637634699016,-0.00018603218990920878,-1.0257208415350575e-05,7.5333,4.4667
3.078125,2.148329341878386e-05,-0.00015038794984130618,-0.0002011690393507286,-1.0744595471885247e-05,7.5333,4.4667
3.08203125,6.346443977264059e-06,-0.00015234213984893568,-0.00020019426523765923,-9.769821358815903e-06,7.5333,4.4667
3.0859375,8.300633984893565e-06,-0.00016455002516975662,-0.00018114903578088043,-1.9531487833981835e-05,7.5333,4.4667
3.08984375,1.4158562226291294e-05,-0.00015429632985656519,-0.00016259583516212712,-1.3673559592584111e-05,7.5333,4.4667
3.09375,3.417479856565194e-06,-0.00013525110039978635,-0.0001616164192675669,-1.5627749600213625e-05,7.5333,4.4667
3.09765625,-3.513102159146797e-09,-0.00011865208978866254,-0.0001411090286411841,-2.1485677841611347e-05,7.5333,4.4667
3.1015625,1.8062300460059516e-05,-0.0001064442044678416,-0.00011571848388647286,-2.0510903728541995e-05,7.5333,4.4667
3.10546875,3.173698873197528e-05,-9.13073550263218e-05,-0.00011962686390173189,-2.5394057856870368e-05,7.5333,4.4667
3.109375,1.4158562226291294e-05,-8.544478500343326e-05,-0.00012939317215838862,-3.613514022659647e-05,7.5333,4.4667
3.11328125,-1.758193960784313e-05,-7.812469559243151e-05,-9.716528326771952e-05,-3.808933023422598e-05,7.5333,4.4667
3.1171875,-3.90725133592737e-06,-5.761730496604867e-05,-6.396726204547188e-05,-4.0530907298390166e-05,7.5333,4.4667
3.12109375,1.269175927519646e-05,-5.566775673990996e-05,-7.177938029449912e-05,-4.9317799660486756e-05,7.5333,4.4667
3.125,-8.790405464255741e-06,-4.687622259632257e-05,-5.6642530852979316e-05,-5.0784602611581587e-05,7.5333,4.4667
3.12890625,-3.662252728313115e-05,-4.1993068467994196e-05,-4.980518671702143e-05,-5.420095378881512e-05,7.5333,4.4667
3.1328125,-1.416094664911879e-05,-2.9785183147173263e-05,-5.029721555504692e-05,-6.299248793240253e-05,7.5333,4.4667
3.13671875,-7.32824429465171e-06,-1.1719369584954599e-05,-4.1993068467994196e-05,-6.885041617380025e-05,7.5333,4.4667
3.140625,-3.4668337275501636e-05,-2.3439867849240863e-05,-2.4414641962310212e-05,-6.98251902868696e-05,7.5333,4.4667
3.14453125,-3.418095021896696e-05,-2.881040903410391e-05,-1.904410077744716e-05,-6.98251902868696e-05,7.5333,4.4667
3.1484375,-2.0023516672007317e-05,-2.8323021977569233e-05,-1.708991076981765e-05,-6.689622616617074e-05,7.5333,4.4667
3.15234375,-2.734824786449988e-05,-1.5627749600213625e-05,-8.790405464255741e-06,-6.055091086823834e-05,7.5333,4.4667
3.15625,-2.783563492103456e-05,3.904866913099866e-06,-1.806932666437781e-05,-6.299248793240253e-05,7.5333,4.4667
3.16015625,-1.6602523713282977e-05,1.269175927519646e-05,-3.4198642793926834e-06,-6.640883910963606e-05,7.5333,4.4667
3.1640625,-1.708991076981765e-05,1.0737569267566953e-05,9.275408097962923e-06,-6.34798749889372e-05,7.5333,4.4667
3.16796875,-1.221139842298008e-05,5.859056920729387e-06,2.4380639620050317e-06,-6.250045909437704e-05,7.5333,4.4667
3.171875,-2.246509373617151e-05,2.0016490467689025e-05,2.294545458838789e-05,-6.055091086823834e-05,7.5333,4.4667
3.17578125,-2.9785183147173263e-05,2.5874418709086754e-05,1.952910341115435e-05,-6.152568498130768e-05,7.5333,4.4667
3.1796875,-1.6115136656748296e-05,2.148329341878386e-05,-5.374054287022204e-06,-5.5180369683375285e-05,7.5333,4.4667
3.18359375,-2.734824786449988e-05,1.708752634699016e-05,-5.374054287022204e-06,-5.3713566732280455e-05,7.5333,4.4667
3.1875,-3.516036611352712e-05,-4.909001586938188e-07,-7.815631351186382e-06,-5.90841079171435e-05,7.5333,4.4667
3.19140625,-2.3439867849240863e-05,-1.221139842298008e-05,-1.269878547951476e-05,-6.78756420607309e-05,7.5333,4.4667
3.1953125,-2.1485677841611347e-05,-4.394638392462042e-06,1.269175927519646e-05,-6.103829792477302e-05,7.5333,4.4667
3.19921875,-3.173937315480277e-05,1.9041716354619666e-05,1.122959810559243e-05,-5.322617967574578e-05,7.5333,4.4667
3.203125,-3.9064104347295335e-05,3.7594916973373e-05,4.838739543755253e-07,-5.3713566732280455e-05,7.5333,4.4667
3.20703125,-3.613514022659647e-05,3.3691178739604795e-05,4.443226110933089e-05,-4.687622259632257e-05,7.5333,4.4667
3.2109375,-3.7109914339665816e-05,1.8554329298084994e-05,3.6620142860303657e-05,-4.7855638490882725e-05,7.5333,4.4667
3.21484375,-3.0277211985198745e-05,3.222437578850996e-05,-7.815631351186382e-06,-4.736360965285725e-05,7.5333,4.4667
3.21875,-3.662252728313115e-05,3.222437578850996e-05,7.321218090333417e-06,-4.394725847562371e-05,7.5333,4.4667
3.22265625,-2.4414641962310212e-05,2.7341221660181588e-05,1.5620723395895326e-05,-4.101829435492485e-05,7.5333,4.4667
3.2265625,-1.9531487833981835e-05,2.3437483426413364e-05,6.346443977264059e-06,-4.0530907298390166e-05,7.5333,4.4667
3.23046875,-3.8576717290760654e-05,1.1716985162127116e-05,1.1716985162127116e-05,-4.297248436255435e-05,7.5333,4.4667
3.234375,-3.076459904173342e-05,8.300633984893565e-06,1.5133336339360653e-05,-3.955149140383001e-05,7.5333,4.4667
3.23828125,-2.68562190264744e-05,3.417479856565194e-06,1.3671175169756623e-05,-2.929779609063858e-05,7.5333,4.4667
3.2421875,-3.4668337275501636e-05,5.859056920729387e-06,9.762795154497595e-06,-3.076459904173342e-05,7.5333,4.4667
3.24609375,-4.394725847562371e-05,1.1716985162127116e-05,-4.8866672304875175e-06,-4.1993068467994196e-05,7.5333,4.4667
3.25,-4.5414061426718546e-05,1.6600139290455486e-05,5.859056920729387e-06,-3.662252728313115e-05,7.5333,4.4667
3.25390625,-3.7601943177691304e-05,2.4412257539482724e-05,4.879641026169224e-06,-3.564775317006179e-05,7.5333,4.4667
3.2578125,-3.369356316243228e-05,2.636644754711223e-05,-4.909001586938188e-07,-4.883041260395208e-05,7.5333,4.4667
3.26171875,-3.4668337275501636e-05,1.952910341115435e-05,7.321218090333417e-06,-5.224676378118562e-05,7.5333,4.4667
3.265625,-3.662252728313115e-05,1.2204372218661787e-05,7.808605146868088e-06,-4.101829435492485e-05,7.5333,4.4667
3.26953125,-2.0023516672007317e-05,8.788021041428251e-06,3.904866913099866e-06,-4.0043520241855484e-05,7.5333,4.4667
3.2734375,-2.4414641962310212e-05,2.24580675318532e-05,-1.957703109788653e-06,-4.883041260395208e-05,7.5333,4.4667
3.27734375,-4.297248436255435e-05,2.294545458838789e-05,-1.465674271763177e-06,-4.297248436255435e-05,7.5333,4.4667
3.28125,-3.8576717290760654e-05,-1.0744595471885247e-05,-8.303018407721068e-06,-4.297248436255435e-05,7.5333,4.4667
3.28515625,-3.9064104347295335e-05,-2.0998290785076676e-05,-9.277792520790413e-06,-4.980518671702143e-05,7.5333,4.4667
3.2890625,-4.883041260395208e-05,-1.3186172536049433e-05,-1.758193960784313e-05,-4.5414061426718546e-05,7.5333,4.4667
3.29296875,-4.980518671702143e-05,1.4632898489356875e-06,-9.277792520790413e-06,-4.248045552452887e-05,7.5333,4.4667
3.296875,-3.8576717290760654e-05,1.122959810559243e-05,1.3671175169756623e-05,-4.687622259632257e-05,7.5333,4.4667
3.30078125,-4.1505681411459515e-05,1.6600139290455486e-05,-4.394638392462042e-06,-4.736360965285725e-05,7.5333,4.4667
3.3046875,-4.297248436255435e-05,9.762795154497595e-06,-2.6368831969939717e-05,-4.0530907298390166e-05,7.5333,4.4667
3.30859375,-3.564775317006179e-05,-3.513102159146797e-09,-2.295248079270618e-05,-3.564775317006179e-05,7.5333,4.4667
3.3125,-2.6368831969939717e-05,-3.4198642793926834e-06,-2.295248079270618e-05,-3.7601943177691304e-05,7.5333,4.4667
3.31640625,-2.8323021977569233e-05,-2.0998290785076676e-05,-1.904410077744716e-05,-4.1505681411459515e-05,7.5333,4.4667
3.3203125,-4.297248436255435e-05,-2.9785183147173263e-05,-9.769821358815903e-06,-4.101829435492485e-05,7.5333,4.4667
3.32421875,-3.516036611352712e-05,-4.101829435492485e-05,-1.465674271763177e-06,-3.613514022659647e-05,7.5333,4.4667
3.328125,-2.4414641962310212e-05,-3.955149140383001e-05,-9.769821358815903e-06,-3.4668337275501636e-05,7.5333,4.4667
3.33203125,-2.3439867849240863e-05,9.759027924010155e-07,-1.3673559592584111e-05,-3.516036611352712e-05,7.5333,4.4667
3.3359375,-2.0998290785076676e-05,2.24580675318532e-05,1.4632898489356875e-06,-3.516036611352712e-05,7.5333,4.4667
3.33984375,-2.5881444913405046e-05,-2.1485677841611347e-05,-2.0998290785076676e-05,-3.418095021896696e-05,7.5333,4.4667
3.34375,-2.6368831969939717e-05,-4.687622259632257e-05,-2.246509373617151e-05,-3.076459904173342e-05,7.5333,4.4667
3.34765625,-3.516036611352712e-05,-7.815631351186382e-06,-1.957703109788653e-06,-3.076459904173342e-05,7.5333,4.4667
3.3515625,-3.1251986098268094e-05,-9.277792520790413e-06,-2.0998290785076676e-05,-3.1251986098268094e-05,7.5333,4.4667
3.35546875,-1.758193960784313e-05,-5.761730496604867e-05,-2.8323021977569233e-05,-3.3206176105897606e-05,7.5333,4.4667
3.359375,-1.4652975487144267e-05,-4.0043520241855484e-05,-1.5140362543678947e-05,-3.3206176105897606e-05,7.5333,4.4667
3.36328125,-2.3439867849240863e-05,-2.929779609063858e-05,-2.783563492103456e-05,-3.076459904173342e-05,7.5333,4.4667
3.3671875,-3.613514022659647e-05,-4.883041260395208e-05,-5.3713566732280455e-05,-3.4668337275501636e-05,7.5333,4.4667
3.37109375,-2.6368831969939717e-05,-2.734824786449988e-05,-4.7855638490882725e-05,-3.1251986098268094e-05,7.5333,4.4667
3.375,-1.904410077744716e-05,-2.0023516672007317e-05,-2.3927254905775534e-05,-2.6368831969939717e-05,7.5333,4.4667
3.37890625,-2.4906670800335697e-05,-7.815631351186382e-06,-2.295248079270618e-05,-3.418095021896696e-05,7.5333,4.4667
3.3828125,-4.297248436255435e-05,9.759027924010155e-07,-3.7601943177691304e-05,-4.101829435492485e-05,7.5333,4.4667
3.38671875,-4.248045552452887e-05,-2.6368831969939717e-05,-3.173937315480277e-05,-4.0043520241855484e-05,7.5333,4.4667
3.390625,-2.3927254905775534e-05,-1.904410077744716e-05,-3.1251986098268094e-05,-4.0043520241855484e-05,7.5333,4.4667
3.39453125,-3.564775317006179e-05,4.879641026169224e-06,-5.127198966811627e-05,-3.955149140383001e-05,7.5333,4.4667
3.3984375,-4.9317799660486756e-05,-3.4668337275501636e-05,-3.222676021133745e-05,-4.101829435492485e-05,7.5333,4.4667
3.40234375,-3.1251986098268094e-05,-5.566775673990996e-05,-9.769821358815903e-06,-3.7601943177691304e-05,7.5333,4.4667
3.40625,-2.5881444913405046e-05,-4.394725847562371e-05,-2.734824786449988e-05,-3.9064104347295335e-05,7.5333,4.4667
3.41015625,-4.1505681411459515e-05,-4.492203258869306e-05,-3.808933023422598e-05,-5.175937672465095e-05,7.5333,4.4667
3.4140625,-4.394725847562371e-05,-1.6115136656748296e-05,-1.3186172536049433e-05,-4.638883553978789e-05,7.5333,4.4667
3.41796875,-3.173937315480277e-05,4.838739543755253e-07,-8.790405464255741e-06,-3.9064104347295335e-05,7.5333,4.4667
3.421875,-2.6368831969939717e-05,-1.904410077744716e-05,-6.348828400091548e-06,-3.808933023422598e-05,7.5333,4.4667
3.42578125,-3.1251986098268094e-05,-8.790405464255741e-06,-3.90725133592737e-06,-2.783563492103456e-05,7.5333,4.4667
3.4296875,-2.4414641962310212e-05,-4.394638392462042e-06,-1.3673559592584111e-05,-2.0023516672007317e-05,7.5333,4.4667
3.43359375,-1.416094664911879e-05,-9.769821358815903e-06,-2.5394057856870368e-05,-3.076459904173342e-05,7.5333,4.4667
3.4375,-2.5394057856870368e-05,-5.861441343556876e-06,-2.5394057856870368e-05,-4.0043520241855484e-05,7.5333,4.4667
3.44140625,-4.83430255474174e-05,-3.8576717290760654e-05,-2.5394057856870368e-05,-3.662252728313115e-05,7.5333,4.4667
3.4453125,-5.224676378118562e-05,-6.34798749889372e-05,-2.881040903410391e-05,-3.369356316243228e-05,7.5333,4.4667
3.44921875,-4.83430255474174e-05,-5.3713566732280455e-05,-2.8323021977569233e-05,-3.955149140383001e-05,7.5333,4.4667
3.453125,-4.297248436255435e-05,-3.076459904173342e-05,-2.8323021977569233e-05,-3.9064104347295335e-05,7.5333,4.4667
3.45703125,-4.638883553978789e-05,-3.271878904936293e-05,-1.5140362543678947e-05,-3.418095021896696e-05,7.5333,4.4667
3.4609375,-5.27387926192111e-05,-3.7109914339665816e-05,-1.1719369584954599e-05,-3.808933023422598e-05,7.5333,4.4667
3.46484375,-3.173937315480277e-05,-1.806932666437781e-05,-2.0510903728541995e-05,-3.8576717290760654e-05,7.5333,4.4667
3.46875,-3.369356316243228e-05,-9.277792520790413e-06,-2.881040903410391e-05,-3.8576717290760654e-05,7.5333,4.4667
3.47265625,-3.808933023422598e-05,-2.5881444913405046e-05,-2.929779609063858e-05,-3.418095021896696e-05,7.5333,4.4667
3.4765625,-2.4906670800335697e-05,-5.3713566732280455e-05,-2.1973064898146025e-05,-3.369356316243228e-05,7.5333,4.4667
3.48046875,-2.3927254905775534e-05,-2.4414641962310212e-05,-4.394638392462042e-06,-3.1251986098268094e-05,7.5333,4.4667
3.484375,-2.5394057856870368e-05,-1.0744595471885247e-05,-2.0510903728541995e-05,-2.3439867849240863e-05,7.5333,4.4667
3.48828125,-4.883041260395208e-05,-4.9317799660486756e-05,-5.175937672465095e-05,-2.4906670800335697e-05,7.5333,4.4667
3.4921875,-3.8576717290760654e-05,-4.9317799660486756e-05,-3.173937315480277e-05,-2.929779609063858e-05,7.5333,4.4667
3.49609375,-1.806932666437781e-05,-2.246509373617151e-05,-3.662252728313115e-05,-2.783563492103456e-05,7.5333,4.4667
3.5,-3.564775317006179e-05,-3.955149140383001e-05,-4.5414061426718546e-05,-3.076459904173342e-05,7.5333,4.4667
3.50390625,-6.152568498130768e-05,-4.1505681411459515e-05,-2.295248079270618e-05,-3.1251986098268094e-05,7.5333,4.4667
3.5078125,-3.076459904173342e-05,-2.9785183147173263e-05,-2.783563492103456e-05,-3.9064104347295335e-05,7.5333,4.4667
3.51171875,-1.4652975487144267e-05,-1.269878547951476e-05,-3.3206176105897606e-05,-3.662252728313115e-05,7.5333,4.4667
3.515625,-4.0043520241855484e-05,-3.513102159146797e-09,-1.806932666437781e-05,-2.929779609063858e-05,7.5333,4.4667
3.51953125,-3.4668337275501636e-05,-2.6368831969939717e-05,-3.4668337275501636e-05,-3.7601943177691304e-05,7.5333,4.4667
3.5234375,-1.6602523713282977e-05,-4.638883553978789e-05,-5.6642530852979316e-05,-3.516036611352712e-05,7.5333,4.4667
3.52734375,-2.5394057856870368e-05,-4.638883553978789e-05,-4.5414061426718546e-05,-2.734824786449988e-05,7.5333,4.4667
3.53125,-4.248045552452887e-05,-2.783563492103456e-05,-4.1505681411459515e-05,-2.8323021977569233e-05,7.5333,4.4667
3.53515625,-4.590144848325322e-05,-1.5627749600213625e-05,-3.222676021133745e-05,-4.0530907298390166e-05,7.5333,4.4667
3.5390625,-4.3459871419089034e-05,-1.9531487833981835e-05,-2.4906670800335697e-05,-3.418095021896696e-05,7.5333,4.4667
3.54296875,-4.0530907298390166e-05,-6.201307203784237e-05,-4.297248436255435e-05,-2.0998290785076676e-05,7.5333,4.4667
3.546875,-4.736360965285725e-05,-6.78756420607309e-05,-4.101829435492485e-05,-2.4906670800335697e-05,7.5333,4.4667
3.55078125,-4.980518671702143e-05,-5.5180369683375285e-05,-3.7109914339665816e-05,-3.076459904173342e-05,7.5333,4.4667
3.5546875,-2.0023516672007317e-05,-6.201307203784237e-05,-5.3713566732280455e-05,-3.173937315480277e-05,7.5333,4.4667
3.55859375,-2.246509373617151e-05,-5.566775673990996e-05,-5.224676378118562e-05,-2.881040903410391e-05,7.5333,4.4667
3.5625,-4.1993068467994196e-05,-5.859672086060882e-05,-5.127198966811627e-05,-2.68562190264744e-05,7.5333,4.4667
3.56640625,-3.4668337275501636e-05,-6.885041617380025e-05,-5.5180369683375285e-05,-1.9531487833981835e-05,7.5333,4.4667
3.5703125,-1.806932666437781e-05,-5.859672086060882e-05,-5.4688340845349804e-05,-2.0998290785076676e-05,7.5333,4.4667
3.57421875,-2.929779609063858e-05,-4.248045552452887e-05,-5.615514379644465e-05,-3.173937315480277e-05,7.5333,4.4667
3.578125,-5.175937672465095e-05,-7.226676735103379e-05,-7.324618324559395e-05,-3.418095021896696e-05,7.5333,4.4667
3.58203125,-5.420095378881512e-05,-0.00011181474565270466,-8.69115879545281e-05,-2.5394057856870368e-05,7.5333,4.4667
3.5859375,-4.0043520241855484e-05,-9.179474208285648e-05,-9.472370620355533e-05,-1.708991076981765e-05,7.5333,4.4667
3.58984375,-2.881040903410391e-05,-8.495739794689858e-05,-0.00010253582445258257,-1.8556713720912483e-05,7.5333,4.4667
3.59375,-4.590144848325322e-05,-0.0001103479427016098,-0.0001103479427016098,-1.758193960784313e-05,7.5333,4.4667
3.59765625,-2.4906670800335697e-05,-9.863208621881436e-05,-9.911947327534903e-05,-1.0744595471885247e-05,7.5333,4.4667
3.6015625,-1.4652975487144267e-05,-8.837839090562295e-05,-9.228212913939115e-05,-1.3673559592584111e-05,7.5333,4.4667
3.60546875,-3.613514022659647e-05,-8.93531650186923e-05,-0.00010058163444495307,-2.1485677841611347e-05,7.5333,4.4667
3.609375,-3.564775317006179e-05,-0.00010986055564507515,-0.00011083532975814449,-1.3673559592584111e-05,7.5333,4.4667
3.61328125,-3.4668337275501636e-05,-0.0001103479427016098,-9.960686033188372e-05,-6.83621545662622e-06,7.5333,4.4667
3.6171875,-4.7855638490882725e-05,-9.765267032425421e-05,-0.00010058163444495307,-1.1719369584954599e-05,7.5333,4.4667
3.62109375,-4.883041260395208e-05,-0.00010790636563744562,-0.00011181474565270466,-1.221139842298008e-05,7.5333,4.4667
3.625,-4.297248436255435e-05,-0.00010741897858091096,-0.00010595681741130692,-1.0744595471885247e-05,7.5333,4.4667
3.62890625,-4.687622259632257e-05,-0.00013525110039978635,-0.0001298805592149233,-1.758193960784313e-05,7.5333,4.4667
3.6328125,-4.492203258869306e-05,-0.00015527110396963454,-0.0001298805592149233,-2.295248079270618e-05,7.5333,4.4667
3.63671875,-4.0530907298390166e-05,-0.00013036794627145797,-0.00010351524034714273,-2.3439867849240863e-05,7.5333,4.4667
3.640625,-3.8576717290760654e-05,-0.00011767267389410238,-0.00011571848388647286,-1.9531487833981835e-05,7.5333,4.4667
3.64453125,-1.5140362543678947e-05,-0.00010302321150911726,-0.0001191394768451972,-1.221139842298008e-05,7.5333,4.4667
3.6484375,-2.68562190264744e-05,-8.251582088273442e-05,-8.202843382619973e-05,-2.9324772228580114e-06,7.5333,4.4667
3.65234375,-6.055091086823834e-05,-9.619050915465018e-05,-9.276951619592583e-05,-4.8866672304875175e-06,7.5333,4.4667
3.65625,-5.5180369683375285e-05,-0.00011181474565270466,-0.00011425632271686885,-2.0998290785076676e-05,7.5333,4.4667
3.66015625,-6.055091086823834e-05,-9.179474208285648e-05,-7.861208264896619e-05,-2.0510903728541995e-05,7.5333,4.4667
3.6640625,-7.714527969787136e-05,-7.080460618142975e-05,-7.129199323796444e-05,-1.6115136656748296e-05,7.5333,4.4667
3.66796875,-8.544478500343326e-05,-7.129199323796444e-05,-7.373357030212862e-05,-2.5881444913405046e-05,7.5333,4.4667
3.671875,-8.642420089799343e-05,-7.275415440756847e-05,-4.638883553978789e-05,-3.173937315480277e-05,7.5333,4.4667
3.67578125,-9.619050915465018e-05,-4.1993068467994196e-05,-3.613514022659647e-05,-2.68562190264744e-05,7.5333,4.4667
3.6796875,-0.00010253582445258257,-2.5881444913405046e-05,-3.1251986098268094e-05,-2.6368831969939717e-05,7.5333,4.4667
3.68359375,-0.00010253582445258257,-4.1993068467994196e-05,-6.83621545662622e-06,-2.0998290785076676e-05,7.5333,4.4667
3.6875,-0.00010107366328297855,-5.566775673990996e-05,-5.861441343556876e-06,-1.806932666437781e-05,7.5333,4.4667
3.69140625,-0.00010497740151674677,-4.980518671702143e-05,-1.758193960784313e-05,-2.5394057856870368e-05,7.5333,4.4667
3.6953125,-0.00011376893566033416,-2.734824786449988e-05,-2.0023516672007317e-05,-3.3206176105897606e-05,7.5333,4.4667
3.69921875,-0.00011571848388647286,-7.815631351186382e-06,-6.348828400091548e-06,-2.881040903410391e-05,7.5333,4.4667
3.703125,-9.619050915465018e-05,1.5620723395895326e-05,6.833831033798731e-06,-3.271878904936293e-05,7.5333,4.4667
3.70703125,-9.423631914702066e-05,1.2204372218661787e-05,1.4645949282825967e-05,-3.564775317006179e-05,7.5333,4.4667
3.7109375,-0.00010253582445258257,-1.3673559592584111e-05,2.3924870482948035e-05,-3.1251986098268094e-05,7.5333,4.4667
3.71484375,-9.472370620355533e-05,-1.957703109788653e-06,4.052388109407187e-05,-2.929779609063858e-05,7.5333,4.4667
3.71875,-9.814005738078889e-05,1.2204372218661787e-05,3.9061719924467836e-05,-2.246509373617151e-05,7.5333,4.4667
3.72265625,-0.00010058163444495307,1.5620723395895326e-05,1.952910341115435e-05,-2.5881444913405046e-05,7.5333,4.4667
3.7265625,-9.56984803166247e-05,1.6600139290455486e-05,2.148329341878386e-05,-4.248045552452887e-05,7.5333,4.4667
3.73046875,-9.716528326771952e-05,2.0995906362249184e-05,5.0777576407263295e-05,-4.0530907298390166e-05,7.5333,4.4667
3.734375,-8.349523677729456e-05,4.101126815060654e-05,4.394487405279622e-05,-3.173937315480277e-05,7.5333,4.4667
3.73828125,-9.228212913939115e-05,3.6620142860303657e-05,2.9782798724345764e-05,-3.369356316243228e-05,7.5333,4.4667
3.7421875,-9.863208621881436e-05,2.148329341878386e-05,3.466595285267414e-05,-3.7601943177691304e-05,7.5333,4.4667
3.74609375,-7.42209573586633e-05,-9.78287215228505e-07,2.9782798724345764e-05,-4.0530907298390166e-05,7.5333,4.4667
3.75,-6.250045909437704e-05,-4.8866672304875175e-06,2.4899644596017395e-05,-3.516036611352712e-05,7.5333,4.4667
3.75390625,-6.396726204547188e-05,1.122959810559243e-05,3.173698873197528e-05,-3.0277211985198745e-05,7.5333,4.4667
3.7578125,-6.250045909437704e-05,1.3179146331731133e-05,2.831599577325093e-05,-2.734824786449988e-05,7.5333,4.4667
3.76171875,-5.127198966811627e-05,6.833831033798731e-06,2.294545458838789e-05,-2.9785183147173263e-05,7.5333,4.4667
3.765625,-4.83430255474174e-05,1.4645949282825967e-05,1.757491340352483e-05,-3.222676021133745e-05,7.5333,4.4667
3.76953125,-6.152568498130768e-05,1.952910341115435e-05,4.392253969634552e-06,-3.7601943177691304e-05,7.5333,4.4667
3.7734375,-6.885041617380025e-05,1.5620723395895326e-05,1.61127522339208e-05,-4.638883553978789e-05,7.5333,4.4667
3.77734375,-5.3713566732280455e-05,1.269175927519646e-05,2.8808024611276422e-05,-4.9317799660486756e-05,7.5333,4.4667
3.78125,-6.34798749889372e-05,8.788021041428251e-06,1.2204372218661787e-05,-4.883041260395208e-05,7.5333,4.4667
3.78515625,-7.958685676203555e-05,1.4645949282825967e-05,6.346443977264059e-06,-4.883041260395208e-05,7.5333,4.4667
3.7890625,-6.98251902868696e-05,3.904866913099866e-06,1.4632898489356875e-06,-4.0530907298390166e-05,7.5333,4.4667
3.79296875,-7.275415440756847e-05,-4.8866672304875175e-06,-1.957703109788653e-06,-3.271878904936293e-05,7.5333,4.4667
3.796875,-7.568311852826732e-05,3.417479856565194e-06,9.762795154497595e-06,-4.1993068467994196e-05,7.5333,4.4667
3.80078125,-6.640883910963606e-05,1.6600139290455486e-05,8.300633984893565e-06,-4.638883553978789e-05,7.5333,4.4667
3.8046875,-5.3713566732280455e-05,2.4380639620050317e-06,1.122959810559243e-05,-4.0043520241855484e-05,7.5333,4.4667
3.80859375,-4.1505681411459515e-05,-4.909001586938188e-07,3.417479856565194e-06,-4.0530907298390166e-05,7.5333,4.4667
3.8125,-5.0784602611581587e-05,1.8554329298084994e-05,-3.4198642793926834e-06,-3.662252728313115e-05,7.5333,4.4667
3.81640625,-5.615514379644465e-05,2.294545458838789e-05,1.0250182211032282e-05,-2.881040903410391e-05,7.5333,4.4667
3.8203125,-5.175937672465095e-05,2.9782798724345764e-05,2.0995906362249184e-05,-2.783563492103456e-05,7.5333,4.4667
3.82421875,-4.248045552452887e-05,2.9254510185397177e-06,5.859056920729387e-06,-2.929779609063858e-05,7.5333,4.4667
3.828125,-3.7109914339665816e-05,-1.5627749600213625e-05,-4.909001586938188e-07,-3.564775317006179e-05,7.5333,4.4667
3.83203125,-5.175937672465095e-05,-1.465674271763177e-06,1.0737569267566953e-05,-4.7855638490882725e-05,7.5333,4.4667
3.8359375,-5.029721555504692e-05,-7.32824429465171e-06,6.346443977264059e-06,-4.492203258869306e-05,7.5333,4.4667
3.83984375,-3.3206176105897606e-05,-1.8556713720912483e-05,-2.9324772228580114e-06,-4.101829435492485e-05,7.5333,4.4667
3.84375,-3.7109914339665816e-05,1.9506769054703597e-06,-9.78287215228505e-07,-3.7601943177691304e-05,7.5333,4.4667
3.84765625,-4.297248436255435e-05,2.636644754711223e-05,-4.909001586938188e-07,-3.369356316243228e-05,7.5333,4.4667
3.8515625,-3.808933023422598e-05,1.4645949282825967e-05,1.4645949282825967e-05,-3.613514022659647e-05,7.5333,4.4667
3.85546875,-3.0277211985198745e-05,-9.769821358815903e-06,5.859056920729387e-06,-3.271878904936293e-05,7.5333,4.4667
3.859375,-3.418095021896696e-05,-1.269878547951476e-05,-5.861441343556876e-06,-2.929779609063858e-05,7.5333,4.4667
3.86328125,-5.322617967574578e-05,-2.4906670800335697e-05,5.859056920729387e-06,-2.881040903410391e-05,7.5333,4.4667
3.8671875,-4.590144848325322e-05,-2.734824786449988e-05,-1.957703109788653e-06,-2.68562190264744e-05,7.5333,4.4667
3.87109375,-2.783563492103456e-05,-2.1973064898146025e-05,-1.3673559592584111e-05,-2.6368831969939717e-05,7.5333,4.4667
3.875,-3.271878904936293e-05,-2.5881444913405046e-05,-2.0510903728541995e-05,-2.3927254905775534e-05,7.5333,4.4667
3.87890625,-6.201307203784237e-05,-3.90725133592737e-06,-1.269878547951476e-05,-2.881040903410391e-05,7.5333,4.4667
3.8828125,-5.029721555504692e-05,-1.0744595471885247e-05,-2.4414641962310212e-05,-2.8323021977569233e-05,7.5333,4.4667
3.88671875,-3.8576717290760654e-05,-1.758193960784313e-05,-2.8323021977569233e-05,-2.5881444913405046e-05,7.5333,4.4667
3.890625,-4.638883553978789e-05,1.4632898489356875e-06,-2.1973064898146025e-05,-2.783563492103456e-05,7.5333,4.4667
3.89453125,-4.1993068467994196e-05,-2.9324772228580114e-06,-1.3673559592584111e-05,-2.783563492103456e-05,7.5333,4.4667
3.8984375,-3.516036611352712e-05,-1.5140362543678947e-05,-2.4450901663233394e-06,-2.3927254905775534e-05,7.5333,4.4667
3.90234375,-4.7855638490882725e-05,-1.6602523713282977e-05,-1.221139842298008e-05,-2.3927254905775534e-05,7.5333,4.4667
3.90625,-6.201307203784237e-05,-1.9531487833981835e-05,-8.303018407721068e-06,-2.3439867849240863e-05,7.5333,4.4667
3.91015625,-4.5414061426718546e-05,-1.0744595471885247e-05,4.392253969634552e-06,-2.929779609063858e-05,7.5333,4.4667
3.9140625,-2.68562190264744e-05,-1.0257208415350575e-05,-2.0023516672007317e-05,-3.369356316243228e-05,7.5333,4.4667
3.91796875,-2.3927254905775534e-05,-8.790405464255741e-06,-4.1505681411459515e-05,-3.076459904173342e-05,7.5333,4.4667
3.921875,-2.0998290785076676e-05,-2.0510903728541995e-05,-1.9531487833981835e-05,-3.418095021896696e-05,7.5333,4.4667
3.92578125,-3.076459904173342e-05,-4.3459871419089034e-05,-8.303018407721068e-06,-3.418095021896696e-05,7.5333,4.4667
3.9296875,-1.4652975487144267e-05,-3.222676021133745e-05,-1.6602523713282977e-05,-3.0277211985198745e-05,7.5333,4.4667
3.93359375,-2.0510903728541995e-05,-8.790405464255741e-06,-3.516036611352712e-05,-3.4668337275501636e-05,7.5333,4.4667
3.9375,-3.808933023422598e-05,-1.0257208415350575e-05,-4.248045552452887e-05,-3.7601943177691304e-05,7.5333,4.4667
3.94140625,-3.564775317006179e-05,-2.246509373617151e-05,-2.68562190264744e-05,-3.369356316243228e-05,7.5333,4.4667
3.9453125,-4.5414061426718546e-05,-2.4906670800335697e-05,-2.929779609063858e-05,-3.173937315480277e-05,7.5333,4.4667
3.94921875,-4.883041260395208e-05,-6.83621545662622e-06,-3.9064104347295335e-05,-3.4668337275501636e-05,7.5333,4.4667
3.953125,-4.83430255474174e-05,-2.783563492103456e-05,-3.8576717290760654e-05,-4.101829435492485e-05,7.5333,4.4667
3.95703125,-4.248045552452887e-05,-5.615514379644465e-05,-3.955149140383001e-05,-3.8576717290760654e-05,7.5333,4.4667
3.9609375,-2.6368831969939717e-05,-4.638883553978789e-05,-3.1251986098268094e-05,-3.662252728313115e-05,7.5333,4.4667
3.96484375,-2.783563492103456e-05,-3.271878904936293e-05,-1.416094664911879e-05,-4.0530907298390166e-05,7.5333,4.4667
3.96875,-3.564775317006179e-05,-1.6602523713282977e-05,-2.295248079270618e-05,-3.9064104347295335e-05,7.5333,4.4667
3.97265625,1.4632898489356875e-06,-3.90725133592737e-06,-3.418095021896696e-05,-3.613514022659647e-05,7.5333,4.4667
3.9765625,1.5133336339360653e-05,8.788021041428251e-06,-3.3206176105897606e-05,-3.955149140383001e-05,7.5333,4.4667
3.98046875,-9.769821358815903e-06,-1.416094664911879e-05,-4.248045552452887e-05,-3.808933023422598e-05,7.5333,4.4667
3.984375,-1.758193960784313e-05,-2.295248079270618e-05,-3.1251986098268094e-05,-2.8323021977569233e-05,7.5333,4.4667
3.98828125,-1.6115136656748296e-05,-1.6602523713282977e-05,-1.806932666437781e-05,-2.5881444913405046e-05,7.5333,4.4667
