timestamp,TP9,AF7,AF8,TP10,Valence,Arousal
0.0,-6.152339999999999e-05,-1.367343131151292e-05,3.414837376974148e-06,-5.615823282215609e-05,3.25,2.75
0.00390625,-5.957307019913023e-05,-1.0258593934538779e-05,7.322537880521864e-06,-4.102029393453879e-05,3.25,2.75
0.0078125,-4.4927994438086515e-05,-1.172310151064316e-05,-2.9360560540169303e-06,-4.639250201419088e-05,3.25,2.75
0.01171875,-4.150611615930418e-05,-7.815401007095432e-06,-1.1237279285877761e-05,-4.8342831815060644e-05,3.25,2.75
0.015625,-3.174038535133897e-05,-6.350893430991064e-06,3.9006596017395335e-06,-2.539653282215609e-05,3.25,2.75
0.01953125,-2.4417847470817115e-05,-8.794086358434412e-06,3.9006596017395335e-06,-2.051014696726939e-05,3.25,2.75
0.0234375,-3.4669400503547715e-05,-7.329578782330045e-06,-3.907700503547716e-06,-3.4183578278782316e-05,3.25,2.75
0.02734375,-3.51622636301213e-05,-1.2208923735408547e-05,-4.400563630121297e-06,-3.2719070702677955e-05,3.25,2.75
0.03125,-3.564808585488669e-05,-2.8325547974364836e-05,-1.367343131151292e-05,-3.4669400503547715e-05,3.25,2.75
0.03515625,-3.906292323186083e-05,-3.3204892927443346e-05,-2.051014696726939e-05,-3.906292323186083e-05,3.25,2.75
0.0390625,-3.955578635843441e-05,-2.051014696726939e-05,-1.3187609086747528e-05,-4.05274308079652e-05,3.25,2.75
0.04296875,-3.6626771206225676e-05,-9.765730807965198e-06,-2.9360560540169303e-06,-3.4183578278782316e-05,3.25,2.75
0.046875,-3.4183578278782316e-05,-1.5630802014190883e-05,-3.907700503547716e-06,-3.2233248477912556e-05,3.25,2.75
0.05078125,-2.6368177271686875e-05,-1.8066954039826035e-05,-8.794086358434412e-06,-4.58996388876173e-05,3.25,2.75
0.0546875,-1.8559817166399624e-05,-1.416629443808651e-05,-1.1237279285877761e-05,-4.785700959029525e-05,3.25,2.75
0.05859375,-2.539653282215609e-05,-1.172310151064316e-05,-7.815401007095432e-06,-3.613390807965208e-05,3.25,2.75
0.0625,-2.1003010093842973e-05,-1.7581131815060643e-05,-1.0744416159304179e-05,-2.9790055550469204e-05,3.25,2.75
0.06640625,-9.279908583199812e-06,-1.8559817166399624e-05,-1.7095309590295252e-05,-2.881137019913023e-05,3.25,2.75
0.0703125,-2.051014696726939e-05,-2.295333989471274e-05,-1.4652116662851901e-05,-2.7832684847791247e-05,3.25,2.75
0.07421875,-2.539653282215609e-05,-4.443513131151292e-05,-2.7346862623025855e-05,-3.6626771206225676e-05,3.25,2.75
0.078125,-1.4652116662851901e-05,-6.0058892423895626e-05,-4.297062373540855e-05,-3.564808585488669e-05,3.25,2.75
0.08203125,-1.4715484779125488e-06,-6.445945605401693e-05,-5.566536969558251e-05,-2.9790055550469204e-05,3.25,2.75
0.0859375,1.4159253536278341e-05,-7.811880556191347e-05,-7.178199393453878e-05,-3.8577101007095435e-05,3.25,2.75
0.08984375,1.5130897985809127e-05,-0.00010448698283360035,-8.544838434424354e-05,-3.2233248477912556e-05,3.25,2.75
0.09375,1.7574090913252476e-05,-0.00012401844444953077,-0.00010693017576104371,-1.4652116662851901e-05,3.25,2.75
0.09765625,4.247776060883498e-05,-0.0001176745919203479,-0.00010400116060883496,-9.786853513389673e-07,3.25,2.75
0.1015625,5.370799899290457e-05,-0.00014599309899290455,-0.00013769187576104371,-9.765730807965198e-06,3.25,2.75
0.10546875,6.542405960173953e-05,-0.00017821930656900894,-0.00017724062121766997,-1.8559817166399624e-05,3.25,2.75
0.109375,8.056199848935685e-05,-0.0001904282303044175,-0.00019384306768139163,9.27286768139163e-06,3.25,2.75
0.11328125,8.837739949645227e-05,-0.00020800232121766994,-0.00021191002172121767,3.4662359601739534e-05,3.25,2.75
0.1171875,0.00010400116060883498,-0.00022656213838406956,-0.0002368136914168002,3.564104495307852e-05,3.25,2.75
0.12109375,0.00011767459192034791,-0.00027538375152208743,-0.00027685530000000005,4.882161313801786e-05,3.25,2.75
0.125,0.00013183384545662624,-0.00028905718283360037,-0.0002841778378805219,7.177495303273062e-05,3.25,2.75
0.12890625,0.0001293906525291829,-0.000288571360608835,-0.00028368497475394827,6.591692272831312e-05,3.25,2.75
0.1328125,0.00012060360707255668,-0.00030175192879377437,-0.00028271333030441747,4.19919383840696e-05,3.25,2.75
0.13671875,0.00011230238384069582,-0.00029052169040970474,-0.0002763624368734264,3.7591374753948285e-05,3.25,2.75
0.140625,9.423542980086978e-05,-0.00027734112222476537,-0.0002519516303044175,3.222620757610438e-05,3.25,2.75
0.14453125,8.300519141680021e-05,-0.0002480439298008698,-0.00022362608233005265,2.9783014648661037e-05,3.25,2.75
0.1484375,6.688856717784392e-05,-0.0002299769757610437,-0.00021874673737697415,2.9783014648661037e-05,3.25,2.75
0.15234375,4.3942268184939365e-05,-0.0002104455141451133,-0.0001997010979858091,2.8318507072556655e-05,3.25,2.75
0.15625,2.8804329297322053e-05,-0.00017724062121766997,-0.00017138259091325247,4.003456768139164e-05,3.25,2.75
0.16015625,1.1230238384069594e-05,-0.00015770915960173953,-0.00016161686010528726,2.0995969192034806e-05,3.25,2.75
0.1640625,-4.400563630121297e-06,-0.0001381776979858091,-0.00014794342879377432,-7.815401007095432e-06,3.25,2.75
0.16796875,-5.865071206225664e-06,-0.00011132369848935683,-0.0001176745919203479,-1.2208923735408547e-05,3.25,2.75
0.171875,-4.886385854886697e-06,-9.277092222476538e-05,-8.642002879377432e-05,-2.1488832318608364e-05,3.25,2.75
0.17578125,-2.4903669695582506e-05,-6.445945605401693e-05,-6.396659292744334e-05,-2.1488832318608364e-05,3.25,2.75
0.1796875,-4.882865403982604e-05,-3.4669400503547715e-05,-4.639250201419088e-05,-1.7095309590295252e-05,3.25,2.75
0.18359375,-6.543110050354772e-05,-2.881137019913023e-05,-3.0275877775234596e-05,-3.51622636301213e-05,3.25,2.75
0.1875,-7.714716111238268e-05,-3.2719070702677955e-05,-3.711259343099107e-05,-3.8577101007095435e-05,3.25,2.75
0.19140625,-9.130641464866101e-05,-2.8325547974364836e-05,-2.7832684847791247e-05,-2.9790055550469204e-05,3.25,2.75
0.1953125,-9.814313030441748e-05,-1.367343131151292e-05,-1.416629443808651e-05,-4.58996388876173e-05,3.25,2.75
0.19921875,-8.837739949645226e-05,1.0737375257496012e-05,3.414837376974148e-06,-4.882865403982604e-05,3.25,2.75
0.203125,-7.61755166628519e-05,3.319785202563517e-05,2.538949192034792e-05,-3.4669400503547715e-05,3.25,2.75
0.20703125,-8.73987141451133e-05,3.369071515220875e-05,2.7825643945983073e-05,-4.05274308079652e-05,3.25,2.75
0.2109375,-9.862895252918288e-05,2.6853999496452287e-05,2.7339821721217688e-05,-4.980733939116501e-05,3.25,2.75
0.21484375,-9.325674444953078e-05,2.246047676813917e-05,3.271202980086977e-05,-4.785700959029525e-05,3.25,2.75
0.21875,-9.814313030441748e-05,3.66197303044175e-05,4.3456445960173966e-05,-5.273635454337376e-05,3.25,2.75
0.22265625,-0.00010888050556191347,3.9548745456626246e-05,4.784996868848708e-05,-6.201626312657359e-05,3.25,2.75
0.2265625,-9.862895252918288e-05,3.1733344449530804e-05,4.6871283337148095e-05,-5.566536969558251e-05,3.25,2.75
0.23046875,-9.911477475394827e-05,4.1499075257496e-05,4.0520389906157035e-05,-5.4693725246051724e-05,3.25,2.75
0.234375,-0.0001127882060654612,3.1247522224765406e-05,3.808423788052187e-05,-4.882865403982604e-05,3.25,2.75
0.23828125,-0.00011132369848935683,2.6853999496452287e-05,4.19919383840696e-05,-4.54138166628519e-05,3.25,2.75
0.2421875,-0.00010790886111238269,4.1499075257496e-05,4.784996868848708e-05,-5.8594384847791244e-05,3.25,2.75
0.24609375,-0.00010546566818493934,4.19919383840696e-05,4.589259798580912e-05,-6.0058892423895626e-05,3.25,2.75
0.25,-0.00010155796768139162,3.1247522224765406e-05,3.857006010528727e-05,-6.299494847791256e-05,3.25,2.75
0.25390625,-9.521411515220873e-05,2.8804329297322053e-05,4.0520389906157035e-05,-6.299494847791256e-05,3.25,2.75
0.2578125,-9.374960757610436e-05,3.417653737697415e-05,3.808423788052187e-05,-5.420086211947813e-05,3.25,2.75
0.26171875,-9.423542980086976e-05,2.7825643945983073e-05,4.247776060883498e-05,-5.8594384847791244e-05,3.25,2.75
0.265625,-8.446969899290455e-05,2.3432121217669957e-05,4.003456768139164e-05,-6.885297878233004e-05,3.25,2.75
0.26953125,-8.788453636987869e-05,2.246047676813917e-05,2.441080656900894e-05,-6.640978585488669e-05,3.25,2.75
0.2734375,-0.00010253665303273059,1.318056818493936e-05,2.148179141680019e-05,-6.689560807965209e-05,3.25,2.75
0.27734375,-0.00010204378990615702,1.2201882833600379e-05,3.1733344449530804e-05,-6.152339999999999e-05,3.25,2.75
0.28125,-8.398387676813916e-05,2.7339821721217688e-05,2.7825643945983073e-05,-5.517954747081711e-05,3.25,2.75
0.28515625,-8.251936919203479e-05,2.148179141680019e-05,1.903859848935684e-05,-4.980733939116501e-05,3.25,2.75
0.2890625,-8.69128919203479e-05,4.879344953078515e-06,1.5130897985809127e-05,-4.346348686198214e-05,3.25,2.75
0.29296875,-7.324650151064316e-05,1.4645075761043727e-05,1.0737375257496012e-05,-5.615823282215609e-05,3.25,2.75
0.296875,-6.592396363012131e-05,1.6595405561913493e-05,1.562376111238271e-05,-7.226781615930418e-05,3.25,2.75
0.30078125,-6.152339999999999e-05,1.1716060608834979e-05,1.562376111238271e-05,-6.689560807965209e-05,3.25,2.75
0.3046875,-6.738847120622568e-05,1.4159253536278341e-05,1.562376111238271e-05,-6.396659292744334e-05,3.25,2.75
0.30859375,-6.738847120622568e-05,1.562376111238271e-05,2.392498434424354e-05,-6.201626312657359e-05,3.25,2.75
0.3125,-5.273635454337376e-05,1.805991313801786e-05,2.3432121217669957e-05,-4.785700959029525e-05,3.25,2.75
0.31640625,-5.6644055046921484e-05,2.0995969192034806e-05,1.4159253536278341e-05,-3.51622636301213e-05,3.25,2.75
0.3203125,-6.640978585488669e-05,2.0017283840695825e-05,1.8552776264591457e-05,-2.2467517669947348e-05,3.25,2.75
0.32421875,-6.836011565575646e-05,1.2201882833600379e-05,1.0251553032730612e-05,-2.8325547974364836e-05,3.25,2.75
0.328125,-6.543110050354772e-05,9.716444495307997e-07,-2.443192927443334e-06,-5.0786024742503996e-05,3.25,2.75
0.33203125,-6.396659292744334e-05,1.950329800869781e-06,1.4645075761043812e-06,-4.687832423895628e-05,3.25,2.75
0.3359375,-6.152339999999999e-05,1.0251553032730612e-05,4.879344953078515e-06,-3.125456312657358e-05,3.25,2.75
0.33984375,-4.980733939116501e-05,1.4159253536278341e-05,1.4645075761043727e-05,-3.3697756054016925e-05,3.25,2.75
0.34375,-4.394930908674753e-05,3.9006596017395335e-06,1.8552776264591457e-05,-4.687832423895628e-05,3.25,2.75
0.34765625,-4.687832423895628e-05,-5.3722080796520826e-06,9.27286768139163e-06,-5.029316161593041e-05,3.25,2.75
0.3515625,-4.736414646372167e-05,-6.350893430991064e-06,3.9006596017395335e-06,-3.4669400503547715e-05,3.25,2.75
0.35546875,-5.029316161593041e-05,-8.301223231860831e-06,2.4361520256351667e-06,-3.3204892927443346e-05,3.25,2.75
0.359375,-6.10375777752346e-05,-1.2701786861982143e-05,-7.329578782330045e-06,-5.420086211947813e-05,3.25,2.75
0.36328125,-5.8594384847791244e-05,-4.400563630121297e-06,-5.3722080796520826e-06,-5.1271846967269395e-05,3.25,2.75
0.3671875,-4.980733939116501e-05,1.4210854715202003e-20,3.9006596017395335e-06,-2.881137019913023e-05,3.25,2.75
0.37109375,-3.955578635843441e-05,9.716444495307997e-07,-2.9360560540169303e-06,-3.759841565575646e-05,3.25,2.75
0.375,-3.8091278782330044e-05,4.858222247653998e-07,-1.1237279285877761e-05,-5.4693725246051724e-05,3.25,2.75
0.37890625,-5.615823282215609e-05,-3.421878278782316e-06,-1.416629443808651e-05,-6.10375777752346e-05,3.25,2.75
0.3828125,-5.762274039826046e-05,-5.3722080796520826e-06,-1.416629443808651e-05,-6.348077070267794e-05,3.25,2.75
0.38671875,-4.882865403982604e-05,-1.0258593934538779e-05,-5.3722080796520826e-06,-4.639250201419088e-05,3.25,2.75
0.390625,-5.1271846967269395e-05,-1.172310151064316e-05,-8.301223231860831e-06,-4.102029393453879e-05,3.25,2.75
0.39453125,-4.8342831815060644e-05,-4.400563630121297e-06,-1.660244646372167e-05,-4.2484801510643156e-05,3.25,2.75
0.3984375,-4.736414646372167e-05,-1.4715484779125488e-06,2.9290151522087485e-06,-2.8325547974364836e-05,3.25,2.75
0.40234375,-4.882865403982604e-05,-1.416629443808651e-05,1.0737375257496012e-05,-2.881137019913023e-05,3.25,2.75
0.40625,-3.51622636301213e-05,-1.367343131151292e-05,-2.9360560540169303e-06,-3.51622636301213e-05,3.25,2.75
0.41015625,-4.297062373540855e-05,-1.8559817166399624e-05,-9.279908583199812e-06,-4.54138166628519e-05,3.25,2.75
0.4140625,-6.689560807965209e-05,-3.174038535133897e-05,-1.7095309590295252e-05,-4.54138166628519e-05,3.25,2.75
0.41796875,-6.152339999999999e-05,-2.9297192423895622e-05,-9.765730807965198e-06,-4.102029393453879e-05,3.25,2.75
0.421875,-4.58996388876173e-05,-2.4903669695582506e-05,-9.765730807965198e-06,-4.346348686198214e-05,3.25,2.75
0.42578125,-4.2484801510643156e-05,-2.2467517669947348e-05,-1.0744416159304179e-05,-3.3697756054016925e-05,3.25,2.75
0.4296875,-4.785700959029525e-05,-2.295333989471274e-05,-1.5630802014190883e-05,-2.4417847470817115e-05,3.25,2.75
0.43359375,-4.687832423895628e-05,-1.953146161593041e-05,-2.051014696726939e-05,-2.0024324742504e-05,3.25,2.75
0.4375,-3.955578635843441e-05,-1.416629443808651e-05,-5.3722080796520826e-06,-1.367343131151292e-05,3.25,2.75
0.44140625,-3.613390807965208e-05,-1.6116624238956275e-05,-1.4715484779125488e-06,-1.8066954039826035e-05,3.25,2.75
0.4453125,-4.102029393453879e-05,-2.295333989471274e-05,-9.786853513389673e-07,-3.3697756054016925e-05,3.25,2.75
0.44921875,-5.615823282215609e-05,-3.6626771206225676e-05,-1.5630802014190883e-05,-4.58996388876173e-05,3.25,2.75
0.453125,-5.0786024742503996e-05,-2.051014696726939e-05,-1.6116624238956275e-05,-3.6626771206225676e-05,3.25,2.75
0.45703125,-4.1998979285877765e-05,-1.7581131815060643e-05,-8.794086358434412e-06,-3.4183578278782316e-05,3.25,2.75
0.4609375,-4.54138166628519e-05,-2.9297192423895622e-05,-1.367343131151292e-05,-3.759841565575646e-05,3.25,2.75
0.46484375,-3.564808585488669e-05,-2.4903669695582506e-05,-2.295333989471274e-05,-4.05274308079652e-05,3.25,2.75
0.46875,-4.443513131151292e-05,-2.8325547974364836e-05,-2.393202524605172e-05,-4.346348686198214e-05,3.25,2.75
0.47265625,-5.029316161593041e-05,-1.5137938887617294e-05,-3.907700503547716e-06,-3.3204892927443346e-05,3.25,2.75
0.4765625,-3.2719070702677955e-05,5.858030304417497e-06,1.269474596017396e-05,-1.2701786861982143e-05,3.25,2.75
0.48046875,-4.2484801510643156e-05,-2.9297192423895622e-05,-8.794086358434412e-06,-1.172310151064316e-05,3.25,2.75
0.484375,-5.566536969558251e-05,-6.10375777752346e-05,-4.05274308079652e-05,-2.881137019913023e-05,3.25,2.75
0.48828125,-5.4693725246051724e-05,-4.736414646372167e-05,-3.759841565575646e-05,-4.1998979285877765e-05,3.25,2.75
0.4921875,-5.517954747081711e-05,-5.615823282215609e-05,-3.4669400503547715e-05,-4.346348686198214e-05,3.25,2.75
0.49609375,-5.029316161593041e-05,-5.420086211947813e-05,-3.8577101007095435e-05,-4.2484801510643156e-05,3.25,2.75
0.5,-3.8577101007095435e-05,-2.343916211947813e-05,-2.4903669695582506e-05,-4.1998979285877765e-05,3.25,2.75
0.50390625,-3.8577101007095435e-05,-2.4903669695582506e-05,-8.301223231860831e-06,-3.3697756054016925e-05,3.25,2.75
0.5078125,-5.176471009384297e-05,-4.54138166628519e-05,-1.6116624238956275e-05,-3.3204892927443346e-05,3.25,2.75
0.51171875,-5.6644055046921484e-05,-4.297062373540855e-05,-2.8325547974364836e-05,-2.6861040398260464e-05,3.25,2.75
0.515625,-5.225053231860837e-05,-4.639250201419088e-05,-1.7581131815060643e-05,-2.1003010093842973e-05,3.25,2.75
0.51953125,-4.687832423895628e-05,-4.2484801510643156e-05,-2.0024324742504e-05,-3.3697756054016925e-05,3.25,2.75
0.5234375,-4.346348686198214e-05,-3.711259343099107e-05,-3.6626771206225676e-05,-4.150611615930418e-05,3.25,2.75
0.52734375,-4.394930908674753e-05,-3.613390807965208e-05,-3.4669400503547715e-05,-4.2484801510643156e-05,3.25,2.75
0.53125,-4.004160858319981e-05,-3.564808585488669e-05,-2.7346862623025855e-05,-4.2484801510643156e-05,3.25,2.75
0.53515625,-3.564808585488669e-05,-2.7832684847791247e-05,-2.4903669695582506e-05,-3.759841565575646e-05,3.25,2.75
0.5390625,-2.881137019913023e-05,-2.539653282215609e-05,-2.343916211947813e-05,-2.7832684847791247e-05,3.25,2.75
0.54296875,-1.8559817166399624e-05,-2.881137019913023e-05,-2.7346862623025855e-05,-2.8325547974364836e-05,3.25,2.75
0.546875,-2.197465454337376e-05,-1.660244646372167e-05,-1.7581131815060643e-05,-2.2467517669947348e-05,3.25,2.75
0.55078125,-3.4669400503547715e-05,-2.1488832318608364e-05,-2.197465454337376e-05,-2.393202524605172e-05,3.25,2.75
0.5546875,-4.932151716639963e-05,-3.2719070702677955e-05,-3.613390807965208e-05,-3.8091278782330044e-05,3.25,2.75
0.55859375,-4.443513131151292e-05,-2.4417847470817115e-05,-3.2233248477912556e-05,-3.613390807965208e-05,3.25,2.75
0.5625,-3.8577101007095435e-05,-2.9297192423895622e-05,-2.295333989471274e-05,-2.7346862623025855e-05,3.25,2.75
0.56640625,-4.1998979285877765e-05,-2.539653282215609e-05,-2.2467517669947348e-05,-2.4417847470817115e-05,3.25,2.75
0.5703125,-3.51622636301213e-05,-3.51622636301213e-05,-3.6626771206225676e-05,-3.3204892927443346e-05,3.25,2.75
0.57421875,-3.4669400503547715e-05,-4.150611615930418e-05,-4.05274308079652e-05,-4.394930908674753e-05,3.25,2.75
0.578125,-3.711259343099107e-05,-2.4903669695582506e-05,-3.3204892927443346e-05,-4.05274308079652e-05,3.25,2.75
0.58203125,-2.393202524605172e-05,-2.197465454337376e-05,-3.125456312657358e-05,-2.051014696726939e-05,3.25,2.75
0.5859375,-6.350893430991064e-06,-2.1003010093842973e-05,-3.174038535133897e-05,-9.765730807965198e-06,3.25,2.75
0.58984375,-5.3722080796520826e-06,-1.7581131815060643e-05,-3.564808585488669e-05,-1.8066954039826035e-05,3.25,2.75
0.59375,-3.125456312657358e-05,-3.2233248477912556e-05,-3.6626771206225676e-05,-3.174038535133897e-05,3.25,2.75
0.59765625,-4.882865403982604e-05,-3.8091278782330044e-05,-2.9297192423895622e-05,-3.174038535133897e-05,3.25,2.75
0.6015625,-3.3697756054016925e-05,-2.8325547974364836e-05,-4.004160858319981e-05,-1.5630802014190883e-05,3.25,2.75
0.60546875,-1.7581131815060643e-05,-4.102029393453879e-05,-4.58996388876173e-05,-1.6116624238956275e-05,3.25,2.75
0.609375,-2.393202524605172e-05,-5.273635454337376e-05,-4.785700959029525e-05,-2.295333989471274e-05,3.25,2.75
0.61328125,-2.197465454337376e-05,-5.762274039826046e-05,-5.957307019913023e-05,-2.9297192423895622e-05,3.25,2.75
0.6171875,-1.4652116662851901e-05,-6.933880100709544e-05,-5.908724797436484e-05,-3.174038535133897e-05,3.25,2.75
0.62109375,-1.6116624238956275e-05,-7.61755166628519e-05,-7.61755166628519e-05,-3.2233248477912556e-05,3.25,2.75
0.625,5.365167177843915e-06,-8.300519141680018e-05,-9.130641464866101e-05,-1.416629443808651e-05,3.25,2.75
0.62890625,2.441080656900894e-05,-9.76502671778439e-05,-9.618575960173953e-05,-5.3722080796520826e-06,3.25,2.75
0.6328125,2.392498434424354e-05,-0.00011083787626459144,-0.00012108942929732203,-3.174038535133897e-05,3.25,2.75
0.63671875,1.805991313801786e-05,-0.0001274403227283131,-0.00013964220556191348,-2.7346862623025855e-05,3.25,2.75
0.640625,2.0017283840695825e-05,-0.0001435499060654612,-0.00014110671313801785,-6.350893430991064e-06,3.25,2.75
0.64453125,4.003456768139164e-05,-0.00014110671313801785,-0.0001381776979858091,4.879344953078515e-06,3.25,2.75
0.6484375,7.031044545662624e-05,-0.00015722333737697413,-0.00015917366717784393,2.4361520256351667e-06,3.25,2.75
0.65234375,8.251936919203481e-05,-0.00018700635202563518,-0.000195307575257496,7.322537880521864e-06,3.25,2.75
0.65625,8.202650606546123e-05,-0.00020898100656900894,-0.00022069706717784389,2.2946298992904572e-05,3.25,2.75
0.66015625,9.521411515220876e-05,-0.00023290599091325246,-0.00023437049848935683,2.392498434424354e-05,3.25,2.75
0.6640625,0.00010107214545662626,-0.0002416930363698787,-0.00022851246818493935,3.222620757610438e-05,3.25,2.75
0.66796875,9.716444495307851e-05,-0.00025634515303273064,-0.0002309556611123827,3.9548745456626246e-05,3.25,2.75
0.671875,8.300519141680021e-05,-0.0002519516303044175,-0.00023925688434424356,2.392498434424354e-05,3.25,2.75
0.67578125,6.688856717784392e-05,-0.0002314414833371481,-0.00022899829040970473,1.3666390409704745e-05,3.25,2.75
0.6796875,5.956602929732204e-05,-0.00021874673737697415,-0.00021923255960173954,1.5130897985809127e-05,3.25,2.75
0.68359375,6.347372980086978e-05,-0.0001997010979858091,-0.00019921527576104373,2.441080656900894e-05,3.25,2.75
0.6875,5.956602929732204e-05,-0.00017626897676813915,-0.00018066249949645228,2.6361136369878708e-05,3.25,2.75
0.69140625,5.028612071412223e-05,-0.00016015235252918287,-0.00017089676868848707,1.0737375257496012e-05,3.25,2.75
0.6953125,3.222620757610438e-05,-0.00014452859141680016,-0.0001503866217212177,4.858222247653998e-07,3.25,2.75
0.69921875,1.0251553032730612e-05,-0.00011571722121766995,-0.00011913909949645227,7.808360105287263e-06,3.25,2.75
0.703125,1.1230238384069594e-05,-0.00010009346010528725,-8.73987141451133e-05,-5.865071206225664e-06,3.25,2.75
0.70703125,1.4645075761043812e-06,-8.544838434424354e-05,-7.324650151064316e-05,-2.588235504692148e-05,3.25,2.75
0.7109375,-2.051014696726939e-05,-6.836011565575646e-05,-6.152339999999999e-05,-2.4417847470817115e-05,3.25,2.75
0.71484375,-3.3204892927443346e-05,-5.273635454337376e-05,-4.346348686198214e-05,-6.836715655756449e-06,3.25,2.75
0.71875,-4.58996388876173e-05,-3.3204892927443346e-05,-2.8325547974364836e-05,-1.367343131151292e-05,3.25,2.75
0.72265625,-6.592396363012131e-05,-2.0024324742504e-05,-1.3187609086747528e-05,-4.394930908674753e-05,3.25,2.75
0.7265625,-7.811880556191347e-05,-5.3722080796520826e-06,4.858222247653998e-07,-5.908724797436484e-05,3.25,2.75
0.73046875,-8.056199848935682e-05,-3.907700503547716e-06,1.0737375257496012e-05,-5.0786024742503996e-05,3.25,2.75
0.734375,-7.61755166628519e-05,6.8296747539482816e-06,1.7574090913252476e-05,-3.4183578278782316e-05,3.25,2.75
0.73828125,-6.836011565575646e-05,2.2946298992904572e-05,3.222620757610438e-05,-3.2233248477912556e-05,3.25,2.75
0.7421875,-7.422518686198213e-05,3.6126867177843916e-05,4.589259798580912e-05,-3.076169999999999e-05,3.25,2.75
0.74609375,-8.300519141680018e-05,4.931447626459145e-05,4.882161313801786e-05,-4.8342831815060644e-05,3.25,2.75
0.75,-8.837739949645226e-05,4.19919383840696e-05,4.442809040970475e-05,-6.201626312657359e-05,3.25,2.75
0.75390625,-9.325674444953078e-05,3.7105552529182886e-05,4.931447626459145e-05,-5.176471009384297e-05,3.25,2.75
0.7578125,-9.960763788052185e-05,4.931447626459145e-05,5.224349141680019e-05,-5.322921766994734e-05,3.25,2.75
0.76171875,-0.000103022475257496,5.3222176768139175e-05,4.6871283337148095e-05,-6.10375777752346e-05,3.25,2.75
0.765625,-9.081355152208744e-05,5.615119192034791e-05,6.103053687342642e-05,-5.762274039826046e-05,3.25,2.75
0.76953125,-7.714716111238268e-05,6.15234e-05,7.811880556191348e-05,-4.882865403982604e-05,3.25,2.75
0.7734375,-8.398387676813916e-05,6.0544714648661024e-05,7.226077525749602e-05,-5.6644055046921484e-05,3.25,2.75
0.77734375,-8.886322172121767e-05,6.493823737697414e-05,6.445241515220877e-05,-5.8594384847791244e-05,3.25,2.75
0.78125,-8.300519141680018e-05,7.079626768139164e-05,6.15234e-05,-4.980733939116501e-05,3.25,2.75
0.78515625,-8.349101364156557e-05,5.858734394598306e-05,5.663701414511331e-05,-5.225053231860837e-05,3.25,2.75
0.7890625,-8.69128919203479e-05,6.298790757610438e-05,5.908020707255667e-05,-5.615823282215609e-05,3.25,2.75
0.79296875,-9.179223687342641e-05,5.663701414511331e-05,5.615119192034791e-05,-5.762274039826046e-05,3.25,2.75
0.796875,-9.22851e-05,2.9783014648661037e-05,4.6871283337148095e-05,-4.932151716639963e-05,3.25,2.75
0.80078125,-8.007617626459143e-05,4.638546111238271e-05,4.638546111238271e-05,-4.58996388876173e-05,3.25,2.75
0.8046875,-7.519683131151292e-05,5.370799899290457e-05,4.247776060883498e-05,-5.225053231860837e-05,3.25,2.75
0.80859375,-7.61755166628519e-05,4.9800298489356845e-05,3.808423788052187e-05,-5.1271846967269395e-05,3.25,2.75
0.8125,-6.933880100709544e-05,5.224349141680019e-05,4.882161313801786e-05,-4.980733939116501e-05,3.25,2.75
0.81640625,-6.933880100709544e-05,4.931447626459145e-05,4.296358283360038e-05,-5.8594384847791244e-05,3.25,2.75
0.8203125,-7.471100908674753e-05,4.0520389906157035e-05,3.7105552529182886e-05,-4.736414646372167e-05,3.25,2.75
0.82421875,-7.080330858319981e-05,3.1733344449530804e-05,4.1499075257496e-05,-3.125456312657358e-05,3.25,2.75
0.828125,-6.445945605401693e-05,3.271202980086977e-05,4.247776060883498e-05,-3.613390807965208e-05,3.25,2.75
0.83203125,-6.396659292744334e-05,2.1967613641565592e-05,3.271202980086977e-05,-4.346348686198214e-05,3.25,2.75
0.8359375,-5.7129877271686875e-05,2.246047676813917e-05,2.929015152208744e-05,-4.4927994438086515e-05,3.25,2.75
0.83984375,-6.0058892423895626e-05,3.0761700000000014e-05,4.19919383840696e-05,-4.150611615930418e-05,3.25,2.75
0.84375,-6.396659292744334e-05,1.9524420714122243e-05,4.003456768139164e-05,-4.150611615930418e-05,3.25,2.75
0.84765625,-5.810856262302586e-05,1.7574090913252476e-05,2.0017283840695825e-05,-5.371503989471274e-05,3.25,2.75
0.8515625,-6.0058892423895626e-05,2.0995969192034806e-05,2.148179141680019e-05,-6.0058892423895626e-05,3.25,2.75
0.85546875,-6.348077070267794e-05,2.1967613641565592e-05,2.5875314145113306e-05,-4.54138166628519e-05,3.25,2.75
0.859375,-5.615823282215609e-05,2.9783014648661037e-05,1.562376111238271e-05,-2.881137019913023e-05,3.25,2.75
0.86328125,-5.273635454337376e-05,2.050310606546121e-05,7.808360105287263e-06,-2.9790055550469204e-05,3.25,2.75
0.8671875,-5.7129877271686875e-05,9.75868990615703e-06,4.393522728313129e-06,-3.4183578278782316e-05,3.25,2.75
0.87109375,-5.810856262302586e-05,5.858030304417497e-06,2.9290151522087485e-06,-3.906292323186083e-05,3.25,2.75
0.875,-5.029316161593041e-05,4.858222247653998e-07,1.4645075761043812e-06,-4.394930908674753e-05,3.25,2.75
0.87890625,-4.785700959029525e-05,1.269474596017396e-05,-2.9360560540169303e-06,-4.05274308079652e-05,3.25,2.75
0.8828125,-4.8342831815060644e-05,4.879344953078515e-06,-1.9573707026779486e-06,-3.711259343099107e-05,3.25,2.75
0.88671875,-4.882865403982604e-05,1.950329800869781e-06,4.879344953078515e-06,-3.613390807965208e-05,3.25,2.75
0.890625,-5.1271846967269395e-05,6.343852529182896e-06,8.29418233005265e-06,-4.54138166628519e-05,3.25,2.75
0.89453125,-5.1271846967269395e-05,2.9290151522087485e-06,1.4210854715202003e-20,-4.882865403982604e-05,3.25,2.75
0.8984375,-5.273635454337376e-05,-7.815401007095432e-06,-8.794086358434412e-06,-3.759841565575646e-05,3.25,2.75
0.90234375,-4.443513131151292e-05,-3.421878278782316e-06,-2.9360560540169303e-06,-2.295333989471274e-05,3.25,2.75
0.90625,-4.150611615930418e-05,2.4361520256351667e-06,5.365167177843915e-06,-1.7095309590295252e-05,3.25,2.75
0.91015625,-4.1998979285877765e-05,-4.400563630121297e-06,6.343852529182896e-06,-3.4669400503547715e-05,3.25,2.75
0.9140625,-2.9297192423895622e-05,-1.9573707026779486e-06,9.716444495307997e-07,-4.54138166628519e-05,3.25,2.75
0.91796875,-2.0024324742504e-05,7.808360105287263e-06,1.950329800869781e-06,-3.564808585488669e-05,3.25,2.75
0.921875,-2.295333989471274e-05,1.5130897985809127e-05,1.4645075761043812e-06,-2.588235504692148e-05,3.25,2.75
0.92578125,-4.05274308079652e-05,-4.928631265735816e-07,-5.3722080796520826e-06,-3.906292323186083e-05,3.25,2.75
0.9296875,-5.420086211947813e-05,-1.953146161593041e-05,-1.5630802014190883e-05,-5.225053231860837e-05,3.25,2.75
0.93359375,-3.8091278782330044e-05,-1.0744416159304179e-05,-1.2208923735408547e-05,-3.076169999999999e-05,3.25,2.75
0.9375,-2.4903669695582506e-05,-5.865071206225664e-06,-7.815401007095432e-06,-1.416629443808651e-05,3.25,2.75
0.94140625,-3.6626771206225676e-05,-1.3187609086747528e-05,-1.2701786861982143e-05,-1.904563939116502e-05,3.25,2.75
0.9453125,-4.54138166628519e-05,4.393522728313129e-06,1.1716060608834979e-05,-2.1488832318608364e-05,3.25,2.75
0.94921875,-3.0275877775234596e-05,5.858030304417497e-06,3.414837376974148e-06,-3.3697756054016925e-05,3.25,2.75
0.953125,-2.6368177271686875e-05,-4.1998979285877765e-05,-5.029316161593041e-05,-3.711259343099107e-05,3.25,2.75
0.95703125,-3.076169999999999e-05,-5.029316161593041e-05,-6.445945605401693e-05,-2.9790055550469204e-05,3.25,2.75
0.9609375,-2.6368177271686875e-05,-4.687832423895628e-05,-5.6644055046921484e-05,-3.6626771206225676e-05,3.25,2.75
0.96484375,-1.904563939116502e-05,-4.980733939116501e-05,-7.276067928587777e-05,-5.517954747081711e-05,3.25,2.75
0.96875,-2.4903669695582506e-05,-7.080330858319981e-05,-8.642002879377432e-05,-4.882865403982604e-05,3.25,2.75
0.97265625,-3.955578635843441e-05,-9.76502671778439e-05,-0.00010009346010528725,-3.0275877775234596e-05,3.25,2.75
0.9765625,-4.297062373540855e-05,-0.00010204378990615702,-0.00011132369848935683,-4.150611615930418e-05,3.25,2.75
0.98046875,-4.58996388876173e-05,-0.00010790886111238269,-0.00010985919091325246,-5.615823282215609e-05,3.25,2.75
0.984375,-4.58996388876173e-05,-0.00010057928233005265,-9.76502671778439e-05,-4.932151716639963e-05,3.25,2.75
0.98828125,-4.05274308079652e-05,-8.495552121766994e-05,-8.73987141451133e-05,-3.6626771206225676e-05,3.25,2.75
0.9921875,-2.7832684847791247e-05,-7.128913080796521e-05,-8.15406838406958e-05,-3.3697756054016925e-05,3.25,2.75
0.99609375,-2.6861040398260464e-05,-6.10375777752346e-05,-7.128913080796521e-05,-4.2484801510643156e-05,3.25,2.75
1.0,-3.8577101007095435e-05,-5.7129877271686875e-05,-6.836011565575646e-05,-5.371503989471274e-05,3.25,2.75
1.00390625,-4.1998979285877765e-05,-6.0058892423895626e-05,-6.0551755550469205e-05,-4.297062373540855e-05,3.25,2.75
1.0078125,-3.3697756054016925e-05,-5.957307019913023e-05,-5.322921766994734e-05,-2.9790055550469204e-05,3.25,2.75
1.01171875,-2.6368177271686875e-05,-4.102029393453879e-05,-4.687832423895628e-05,-2.9790055550469204e-05,3.25,2.75
1.015625,-2.6861040398260464e-05,-3.4183578278782316e-05,-3.51622636301213e-05,-4.150611615930418e-05,3.25,2.75
1.01953125,-3.4669400503547715e-05,-4.4927994438086515e-05,-3.906292323186083e-05,-4.443513131151292e-05,3.25,2.75
1.0234375,-3.3697756054016925e-05,-4.4927994438086515e-05,-3.711259343099107e-05,-3.4183578278782316e-05,3.25,2.75
1.02734375,-3.564808585488669e-05,-4.394930908674753e-05,-4.2484801510643156e-05,-3.174038535133897e-05,3.25,2.75
1.03125,-4.4927994438086515e-05,-4.8342831815060644e-05,-5.420086211947813e-05,-3.564808585488669e-05,3.25,2.75
1.03515625,-4.443513131151292e-05,-5.615823282215609e-05,-5.1271846967269395e-05,-4.150611615930418e-05,3.25,2.75
1.0390625,-3.174038535133897e-05,-4.932151716639963e-05,-4.004160858319981e-05,-4.4927994438086515e-05,3.25,2.75
1.04296875,-3.076169999999999e-05,-4.2484801510643156e-05,-3.2719070702677955e-05,-4.443513131151292e-05,3.25,2.75
1.046875,-4.4927994438086515e-05,-4.05274308079652e-05,-4.8342831815060644e-05,-4.1998979285877765e-05,3.25,2.75
1.05078125,-3.51622636301213e-05,-3.711259343099107e-05,-4.4927994438086515e-05,-2.8325547974364836e-05,3.25,2.75
1.0546875,-2.0024324742504e-05,-4.443513131151292e-05,-3.759841565575646e-05,-2.588235504692148e-05,3.25,2.75
1.05859375,-3.2719070702677955e-05,-4.2484801510643156e-05,-4.4927994438086515e-05,-4.05274308079652e-05,3.25,2.75
1.0625,-4.639250201419088e-05,-3.564808585488669e-05,-4.687832423895628e-05,-4.443513131151292e-05,3.25,2.75
1.06640625,-3.759841565575646e-05,-4.785700959029525e-05,-5.371503989471274e-05,-4.102029393453879e-05,3.25,2.75
1.0703125,-2.4903669695582506e-05,-3.955578635843441e-05,-4.785700959029525e-05,-3.564808585488669e-05,3.25,2.75
1.07421875,-2.393202524605172e-05,-3.955578635843441e-05,-3.4669400503547715e-05,-4.443513131151292e-05,3.25,2.75
1.078125,-2.881137019913023e-05,-4.150611615930418e-05,-3.564808585488669e-05,-4.882865403982604e-05,3.25,2.75
1.08203125,-3.6626771206225676e-05,-3.906292323186083e-05,-4.394930908674753e-05,-4.1998979285877765e-05,3.25,2.75
1.0859375,-4.346348686198214e-05,-4.639250201419088e-05,-4.346348686198214e-05,-4.932151716639963e-05,3.25,2.75
1.08984375,-3.564808585488669e-05,-3.613390807965208e-05,-3.564808585488669e-05,-4.150611615930418e-05,3.25,2.75
1.09375,-1.660244646372167e-05,-3.6626771206225676e-05,-4.004160858319981e-05,-3.3697756054016925e-05,3.25,2.75
1.09765625,-2.7832684847791247e-05,-5.0786024742503996e-05,-4.980733939116501e-05,-4.687832423895628e-05,3.25,2.75
1.1015625,-4.297062373540855e-05,-3.613390807965208e-05,-4.980733939116501e-05,-4.297062373540855e-05,3.25,2.75
1.10546875,-4.05274308079652e-05,-3.51622636301213e-05,-4.932151716639963e-05,-3.3204892927443346e-05,3.25,2.75
1.109375,-4.297062373540855e-05,-4.932151716639963e-05,-4.8342831815060644e-05,-3.564808585488669e-05,3.25,2.75
1.11328125,-4.297062373540855e-05,-4.54138166628519e-05,-4.639250201419088e-05,-3.955578635843441e-05,3.25,2.75
1.1171875,-4.102029393453879e-05,-4.1998979285877765e-05,-4.346348686198214e-05,-4.2484801510643156e-05,3.25,2.75
1.12109375,-3.076169999999999e-05,-4.394930908674753e-05,-4.443513131151292e-05,-3.3204892927443346e-05,3.25,2.75
1.125,-2.8325547974364836e-05,-4.297062373540855e-05,-4.932151716639963e-05,-2.4903669695582506e-05,3.25,2.75
1.12890625,-4.004160858319981e-05,-3.711259343099107e-05,-4.882865403982604e-05,-3.125456312657358e-05,3.25,2.75
1.1328125,-4.639250201419088e-05,-4.150611615930418e-05,-4.58996388876173e-05,-3.3697756054016925e-05,3.25,2.75
1.13671875,-4.346348686198214e-05,-4.150611615930418e-05,-4.297062373540855e-05,-2.6861040398260464e-05,3.25,2.75
1.140625,-4.4927994438086515e-05,-4.346348686198214e-05,-4.58996388876173e-05,-2.9790055550469204e-05,3.25,2.75
1.14453125,-3.076169999999999e-05,-3.955578635843441e-05,-4.2484801510643156e-05,-3.4183578278782316e-05,3.25,2.75
1.1484375,-1.8559817166399624e-05,-2.539653282215609e-05,-4.05274308079652e-05,-3.8091278782330044e-05,3.25,2.75
1.15234375,-3.2233248477912556e-05,-3.6626771206225676e-05,-5.176471009384297e-05,-4.05274308079652e-05,3.25,2.75
1.15625,-4.4927994438086515e-05,-5.420086211947813e-05,-5.029316161593041e-05,-3.3697756054016925e-05,3.25,2.75
1.16015625,-4.687832423895628e-05,-4.932151716639963e-05,-4.8342831815060644e-05,-3.613390807965208e-05,3.25,2.75
1.1640625,-5.029316161593041e-05,-3.613390807965208e-05,-5.0786024742503996e-05,-3.6626771206225676e-05,3.25,2.75
1.16796875,-4.8342831815060644e-05,-9.765730807965198e-06,-3.8091278782330044e-05,-4.346348686198214e-05,3.25,2.75
1.171875,-4.102029393453879e-05,-1.4715484779125488e-06,-1.2208923735408547e-05,-4.346348686198214e-05,3.25,2.75
1.17578125,-3.4669400503547715e-05,-3.3204892927443346e-05,-2.588235504692148e-05,-3.174038535133897e-05,3.25,2.75
1.1796875,-2.7346862623025855e-05,-6.787429343099107e-05,-6.201626312657359e-05,-2.343916211947813e-05,3.25,2.75
1.18359375,-3.51622636301213e-05,-8.056199848935682e-05,-6.836011565575646e-05,-2.2467517669947348e-05,3.25,2.75
1.1875,-4.1998979285877765e-05,-7.763298333714808e-05,-6.0551755550469205e-05,-3.564808585488669e-05,3.25,2.75
1.19140625,-4.297062373540855e-05,-4.687832423895628e-05,-3.6626771206225676e-05,-3.564808585488669e-05,3.25,2.75
1.1953125,-5.273635454337376e-05,-5.566536969558251e-05,-2.4903669695582506e-05,-2.4417847470817115e-05,3.25,2.75
1.19921875,-6.201626312657359e-05,-7.568969443808652e-05,-3.711259343099107e-05,-2.9297192423895622e-05,3.25,2.75
1.203125,-5.762274039826046e-05,-7.031748635843441e-05,-4.54138166628519e-05,-3.955578635843441e-05,3.25,2.75
1.20703125,-4.932151716639963e-05,-6.543110050354772e-05,-5.225053231860837e-05,-3.4669400503547715e-05,3.25,2.75
1.2109375,-4.785700959029525e-05,-6.640978585488669e-05,-5.517954747081711e-05,-2.7832684847791247e-05,3.25,2.75
1.21484375,-5.273635454337376e-05,-6.0058892423895626e-05,-5.371503989471274e-05,-2.6368177271686875e-05,3.25,2.75
1.21875,-5.273635454337376e-05,-4.687832423895628e-05,-4.736414646372167e-05,-2.2467517669947348e-05,3.25,2.75
1.22265625,-4.687832423895628e-05,-3.3204892927443346e-05,-3.174038535133897e-05,-2.4903669695582506e-05,3.25,2.75
1.2265625,-5.273635454337376e-05,-4.150611615930418e-05,-4.05274308079652e-05,-3.51622636301213e-05,3.25,2.75
1.23046875,-5.7129877271686875e-05,-5.566536969558251e-05,-4.736414646372167e-05,-3.8091278782330044e-05,3.25,2.75
1.234375,-4.932151716639963e-05,-4.394930908674753e-05,-3.51622636301213e-05,-3.3697756054016925e-05,3.25,2.75
1.23828125,-4.004160858319981e-05,-3.076169999999999e-05,-2.6368177271686875e-05,-3.6626771206225676e-05,3.25,2.75
1.2421875,-3.6626771206225676e-05,-2.197465454337376e-05,-2.7346862623025855e-05,-3.6626771206225676e-05,3.25,2.75
1.24609375,-4.297062373540855e-05,-3.125456312657358e-05,-3.2719070702677955e-05,-1.904563939116502e-05,3.25,2.75
1.25,-4.785700959029525e-05,-3.906292323186083e-05,-2.539653282215609e-05,-1.367343131151292e-05,3.25,2.75
1.25390625,-4.297062373540855e-05,-4.102029393453879e-05,-2.7832684847791247e-05,-3.174038535133897e-05,3.25,2.75
1.2578125,-4.1998979285877765e-05,-4.1998979285877765e-05,-2.6368177271686875e-05,-3.6626771206225676e-05,3.25,2.75
1.26171875,-4.346348686198214e-05,-3.51622636301213e-05,-2.393202524605172e-05,-3.51622636301213e-05,3.25,2.75
1.265625,-4.58996388876173e-05,-3.711259343099107e-05,-2.9297192423895622e-05,-4.54138166628519e-05,3.25,2.75
1.26953125,-5.1271846967269395e-05,-4.346348686198214e-05,-2.9790055550469204e-05,-4.54138166628519e-05,3.25,2.75
1.2734375,-5.273635454337376e-05,-4.443513131151292e-05,-4.4927994438086515e-05,-2.8325547974364836e-05,3.25,2.75
1.27734375,-4.687832423895628e-05,-3.564808585488669e-05,-3.906292323186083e-05,-2.197465454337376e-05,3.25,2.75
1.28125,-3.8577101007095435e-05,-3.174038535133897e-05,-2.9790055550469204e-05,-3.174038535133897e-05,3.25,2.75
1.28515625,-3.8091278782330044e-05,-4.1998979285877765e-05,-2.9297192423895622e-05,-3.174038535133897e-05,3.25,2.75
1.2890625,-4.004160858319981e-05,-4.932151716639963e-05,-3.076169999999999e-05,-3.2719070702677955e-05,3.25,2.75
1.29296875,-3.759841565575646e-05,-3.076169999999999e-05,-3.076169999999999e-05,-3.955578635843441e-05,3.25,2.75
1.296875,-4.639250201419088e-05,-2.343916211947813e-05,-1.904563939116502e-05,-3.4183578278782316e-05,3.25,2.75
1.30078125,-4.297062373540855e-05,-3.8091278782330044e-05,-2.197465454337376e-05,-3.8091278782330044e-05,3.25,2.75
1.3046875,-3.0275877775234596e-05,-4.004160858319981e-05,-3.613390807965208e-05,-4.150611615930418e-05,3.25,2.75
1.30859375,-3.174038535133897e-05,-3.4183578278782316e-05,-2.7346862623025855e-05,-2.881137019913023e-05,3.25,2.75
1.3125,-3.8091278782330044e-05,-3.8091278782330044e-05,-2.539653282215609e-05,-3.564808585488669e-05,3.25,2.75
1.31640625,-5.176471009384297e-05,-5.517954747081711e-05,-3.51622636301213e-05,-4.297062373540855e-05,3.25,2.75
1.3203125,-4.932151716639963e-05,-4.639250201419088e-05,-2.8325547974364836e-05,-3.759841565575646e-05,3.25,2.75
1.32421875,-3.955578635843441e-05,-4.54138166628519e-05,-3.125456312657358e-05,-3.564808585488669e-05,3.25,2.75
1.328125,-3.955578635843441e-05,-4.8342831815060644e-05,-4.687832423895628e-05,-3.2233248477912556e-05,3.25,2.75
1.33203125,-3.4669400503547715e-05,-3.51622636301213e-05,-4.443513131151292e-05,-4.05274308079652e-05,3.25,2.75
1.3359375,-3.613390807965208e-05,-3.174038535133897e-05,-3.2233248477912556e-05,-3.3697756054016925e-05,3.25,2.75
1.33984375,-3.711259343099107e-05,-3.174038535133897e-05,-2.881137019913023e-05,-3.0275877775234596e-05,3.25,2.75
1.34375,-3.613390807965208e-05,-3.6626771206225676e-05,-2.588235504692148e-05,-4.297062373540855e-05,3.25,2.75
1.34765625,-3.955578635843441e-05,-3.711259343099107e-05,-2.9297192423895622e-05,-3.613390807965208e-05,3.25,2.75
1.3515625,-3.125456312657358e-05,-2.588235504692148e-05,-2.9790055550469204e-05,-2.051014696726939e-05,3.25,2.75
1.35546875,-3.564808585488669e-05,-2.051014696726939e-05,-2.343916211947813e-05,-2.7832684847791247e-05,3.25,2.75
1.359375,-4.150611615930418e-05,-2.9297192423895622e-05,-2.588235504692148e-05,-3.906292323186083e-05,3.25,2.75
1.36328125,-3.3204892927443346e-05,-3.51622636301213e-05,-3.2233248477912556e-05,-3.4669400503547715e-05,3.25,2.75
1.3671875,-2.6861040398260464e-05,-3.4183578278782316e-05,-2.9790055550469204e-05,-2.6861040398260464e-05,3.25,2.75
1.37109375,-2.393202524605172e-05,-3.174038535133897e-05,-1.8559817166399624e-05,-2.6368177271686875e-05,3.25,2.75
1.375,-2.588235504692148e-05,-2.9790055550469204e-05,-3.076169999999999e-05,-2.9790055550469204e-05,3.25,2.75
1.37890625,-4.687832423895628e-05,-3.51622636301213e-05,-4.297062373540855e-05,-4.639250201419088e-05,3.25,2.75
1.3828125,-5.176471009384297e-05,-3.4669400503547715e-05,-3.8091278782330044e-05,-5.420086211947813e-05,3.25,2.75
1.38671875,-3.564808585488669e-05,-3.2719070702677955e-05,-3.2719070702677955e-05,-3.2719070702677955e-05,3.25,2.75
1.390625,-3.564808585488669e-05,-3.2719070702677955e-05,-3.076169999999999e-05,-2.1003010093842973e-05,3.25,2.75
1.39453125,-3.3204892927443346e-05,-3.4183578278782316e-05,-3.711259343099107e-05,-3.6626771206225676e-05,3.25,2.75
1.3984375,-2.4417847470817115e-05,-3.4183578278782316e-05,-3.8577101007095435e-05,-4.54138166628519e-05,3.25,2.75
1.40234375,-2.7832684847791247e-05,-2.7346862623025855e-05,-2.9297192423895622e-05,-2.6861040398260464e-05,3.25,2.75
1.40625,-3.2719070702677955e-05,-2.4903669695582506e-05,-3.0275877775234596e-05,-2.295333989471274e-05,3.25,2.75
1.41015625,-3.3697756054016925e-05,-3.174038535133897e-05,-3.759841565575646e-05,-3.3204892927443346e-05,3.25,2.75
1.4140625,-3.2719070702677955e-05,-4.05274308079652e-05,-3.4669400503547715e-05,-3.4669400503547715e-05,3.25,2.75
1.41796875,-2.4903669695582506e-05,-2.9790055550469204e-05,-2.9790055550469204e-05,-2.2467517669947348e-05,3.25,2.75
1.421875,-2.588235504692148e-05,-2.9790055550469204e-05,-3.125456312657358e-05,-2.0024324742504e-05,3.25,2.75
1.42578125,-3.3697756054016925e-05,-2.7832684847791247e-05,-2.8325547974364836e-05,-3.125456312657358e-05,3.25,2.75
1.4296875,-3.6626771206225676e-05,-1.0744416159304179e-05,-9.765730807965198e-06,-3.076169999999999e-05,3.25,2.75
1.43359375,-2.6861040398260464e-05,-2.1488832318608364e-05,-3.421878278782316e-06,-4.1998979285877765e-05,3.25,2.75
1.4375,-1.5137938887617294e-05,-4.736414646372167e-05,-3.4669400503547715e-05,-4.58996388876173e-05,3.25,2.75
1.44140625,-1.8559817166399624e-05,-6.396659292744334e-05,-5.957307019913023e-05,-4.736414646372167e-05,3.25,2.75
1.4453125,-2.051014696726939e-05,-5.8594384847791244e-05,-6.201626312657359e-05,-4.687832423895628e-05,3.25,2.75
1.44921875,-2.2467517669947348e-05,-5.957307019913023e-05,-6.348077070267794e-05,-3.564808585488669e-05,3.25,2.75
1.453125,-1.8066954039826035e-05,-6.299494847791256e-05,-6.348077070267794e-05,-3.759841565575646e-05,3.25,2.75
1.45703125,-4.928631265735816e-07,-5.0786024742503996e-05,-5.517954747081711e-05,-4.1998979285877765e-05,3.25,2.75
1.4609375,3.414837376974148e-06,-4.346348686198214e-05,-4.639250201419088e-05,-4.102029393453879e-05,3.25,2.75
1.46484375,-9.279908583199812e-06,-3.759841565575646e-05,-4.297062373540855e-05,-3.8577101007095435e-05,3.25,2.75
1.46875,-1.8066954039826035e-05,-3.759841565575646e-05,-4.932151716639963e-05,-3.955578635843441e-05,3.25,2.75
1.47265625,-2.051014696726939e-05,-3.613390807965208e-05,-5.322921766994734e-05,-3.564808585488669e-05,3.25,2.75
1.4765625,-1.660244646372167e-05,-3.955578635843441e-05,-4.736414646372167e-05,-3.3697756054016925e-05,3.25,2.75
1.48046875,-1.367343131151292e-05,-3.4183578278782316e-05,-5.029316161593041e-05,-4.297062373540855e-05,3.25,2.75
1.484375,-1.7095309590295252e-05,-3.4183578278782316e-05,-5.420086211947813e-05,-4.297062373540855e-05,3.25,2.75
1.48828125,-1.6116624238956275e-05,-4.785700959029525e-05,-6.250208535133897e-05,-3.174038535133897e-05,3.25,2.75
1.4921875,-2.1003010093842973e-05,-5.517954747081711e-05,-5.908724797436484e-05,-3.0275877775234596e-05,3.25,2.75
1.49609375,-2.7346862623025855e-05,-4.785700959029525e-05,-5.6644055046921484e-05,-3.8091278782330044e-05,3.25,2.75
1.5,-2.6861040398260464e-05,-3.564808585488669e-05,-5.225053231860837e-05,-4.394930908674753e-05,3.25,2.75
1.50390625,-1.953146161593041e-05,-4.150611615930418e-05,-4.58996388876173e-05,-4.980733939116501e-05,3.25,2.75
1.5078125,-2.197465454337376e-05,-5.225053231860837e-05,-4.8342831815060644e-05,-5.225053231860837e-05,3.25,2.75
1.51171875,-3.125456312657358e-05,-4.297062373540855e-05,-4.736414646372167e-05,-4.54138166628519e-05,3.25,2.75
1.515625,-2.393202524605172e-05,-2.6368177271686875e-05,-3.564808585488669e-05,-2.9297192423895622e-05,3.25,2.75
1.51953125,-1.0258593934538779e-05,-3.0275877775234596e-05,-2.7832684847791247e-05,-2.343916211947813e-05,3.25,2.75
1.5234375,-1.367343131151292e-05,-3.174038535133897e-05,-2.7346862623025855e-05,-2.0024324742504e-05,3.25,2.75
1.52734375,-3.125456312657358e-05,-3.6626771206225676e-05,-2.9297192423895622e-05,-1.5137938887617294e-05,3.25,2.75
1.53125,-3.613390807965208e-05,-4.639250201419088e-05,-3.3204892927443346e-05,-2.295333989471274e-05,3.25,2.75
1.53515625,-3.125456312657358e-05,-4.297062373540855e-05,-4.05274308079652e-05,-3.0275877775234596e-05,3.25,2.75
1.5390625,-3.613390807965208e-05,-4.346348686198214e-05,-4.346348686198214e-05,-3.613390807965208e-05,3.25,2.75
1.54296875,-3.3204892927443346e-05,-4.4927994438086515e-05,-4.4927994438086515e-05,-4.58996388876173e-05,3.25,2.75
1.546875,-1.8559817166399624e-05,-4.4927994438086515e-05,-4.639250201419088e-05,-4.102029393453879e-05,3.25,2.75
1.55078125,-9.765730807965198e-06,-4.639250201419088e-05,-4.05274308079652e-05,-2.881137019913023e-05,3.25,2.75
1.5546875,-2.197465454337376e-05,-4.394930908674753e-05,-4.54138166628519e-05,-2.197465454337376e-05,3.25,2.75
1.55859375,-2.9297192423895622e-05,-4.102029393453879e-05,-4.932151716639963e-05,-9.765730807965198e-06,3.25,2.75
1.5625,-2.7832684847791247e-05,-3.759841565575646e-05,-5.4693725246051724e-05,-2.4903669695582506e-05,3.25,2.75
1.56640625,-2.7346862623025855e-05,-3.564808585488669e-05,-4.882865403982604e-05,-5.1271846967269395e-05,3.25,2.75
1.5703125,-2.9790055550469204e-05,-3.6626771206225676e-05,-4.004160858319981e-05,-5.1271846967269395e-05,3.25,2.75
1.57421875,-2.8325547974364836e-05,-4.394930908674753e-05,-4.785700959029525e-05,-4.394930908674753e-05,3.25,2.75
1.578125,-3.0275877775234596e-05,-4.882865403982604e-05,-4.1998979285877765e-05,-4.297062373540855e-05,3.25,2.75
1.58203125,-3.906292323186083e-05,-4.785700959029525e-05,-3.2719070702677955e-05,-4.785700959029525e-05,3.25,2.75
1.5859375,-4.150611615930418e-05,-4.1998979285877765e-05,-3.51622636301213e-05,-3.2719070702677955e-05,3.25,2.75
1.58984375,-2.9297192423895622e-05,-3.711259343099107e-05,-3.564808585488669e-05,-8.794086358434412e-06,3.25,2.75
1.59375,-1.953146161593041e-05,-3.955578635843441e-05,-4.1998979285877765e-05,-2.9790055550469204e-05,3.25,2.75
1.59765625,-2.4417847470817115e-05,-3.4183578278782316e-05,-4.4927994438086515e-05,-4.736414646372167e-05,3.25,2.75
1.6015625,-3.564808585488669e-05,-3.3697756054016925e-05,-4.54138166628519e-05,-4.2484801510643156e-05,3.25,2.75
1.60546875,-4.2484801510643156e-05,-3.6626771206225676e-05,-4.58996388876173e-05,-3.8091278782330044e-05,3.25,2.75
1.609375,-3.8577101007095435e-05,-3.076169999999999e-05,-4.2484801510643156e-05,-3.8091278782330044e-05,3.25,2.75
1.61328125,-3.174038535133897e-05,-3.711259343099107e-05,-4.004160858319981e-05,-3.8577101007095435e-05,3.25,2.75
1.6171875,-2.1488832318608364e-05,-4.8342831815060644e-05,-3.711259343099107e-05,-2.9790055550469204e-05,3.25,2.75
1.62109375,-9.279908583199812e-06,-3.4183578278782316e-05,-3.3697756054016925e-05,-2.197465454337376e-05,3.25,2.75
1.625,-1.416629443808651e-05,-2.1003010093842973e-05,-3.4669400503547715e-05,-2.1003010093842973e-05,3.25,2.75
1.62890625,-3.0275877775234596e-05,-3.125456312657358e-05,-3.711259343099107e-05,-2.4903669695582506e-05,3.25,2.75
1.6328125,-4.394930908674753e-05,-3.955578635843441e-05,-4.443513131151292e-05,-4.150611615930418e-05,3.25,2.75
1.63671875,-4.102029393453879e-05,-4.882865403982604e-05,-5.420086211947813e-05,-5.029316161593041e-05,3.25,2.75
1.640625,-3.564808585488669e-05,-4.687832423895628e-05,-4.736414646372167e-05,-3.759841565575646e-05,3.25,2.75
1.64453125,-3.2233248477912556e-05,-3.4669400503547715e-05,-2.7832684847791247e-05,-2.4417847470817115e-05,3.25,2.75
1.6484375,-2.7832684847791247e-05,-4.150611615930418e-05,-3.4669400503547715e-05,-1.904563939116502e-05,3.25,2.75
1.65234375,-2.539653282215609e-05,-3.906292323186083e-05,-5.029316161593041e-05,-2.0024324742504e-05,3.25,2.75
1.65625,-2.7346862623025855e-05,-3.6626771206225676e-05,-4.346348686198214e-05,-3.51622636301213e-05,3.25,2.75
1.66015625,-3.711259343099107e-05,-5.176471009384297e-05,-3.564808585488669e-05,-4.346348686198214e-05,3.25,2.75
1.6640625,-3.4669400503547715e-05,-2.7832684847791247e-05,-2.393202524605172e-05,-4.687832423895628e-05,3.25,2.75
1.66796875,-3.711259343099107e-05,-1.4652116662851901e-05,-2.539653282215609e-05,-4.004160858319981e-05,3.25,2.75
1.671875,-4.150611615930418e-05,-4.150611615930418e-05,-3.076169999999999e-05,-2.393202524605172e-05,3.25,2.75
1.67578125,-4.1998979285877765e-05,-3.2233248477912556e-05,-1.367343131151292e-05,-2.8325547974364836e-05,3.25,2.75
1.6796875,-5.762274039826046e-05,-1.416629443808651e-05,-5.865071206225664e-06,-4.1998979285877765e-05,3.25,2.75
1.68359375,-5.8594384847791244e-05,3.9006596017395335e-06,1.3666390409704745e-05,-3.4669400503547715e-05,3.25,2.75
1.6875,-6.445945605401693e-05,2.929015152208744e-05,3.369071515220875e-05,-2.9790055550469204e-05,3.25,2.75
1.69140625,-5.908724797436484e-05,3.66197303044175e-05,3.6126867177843916e-05,-3.51622636301213e-05,3.25,2.75
1.6953125,-4.58996388876173e-05,3.7591374753948285e-05,3.808423788052187e-05,-4.102029393453879e-05,3.25,2.75
1.69921875,-5.7129877271686875e-05,4.3456445960173966e-05,3.905588233005265e-05,-4.443513131151292e-05,3.25,2.75
1.703125,-5.1271846967269395e-05,4.19919383840696e-05,4.442809040970475e-05,-3.955578635843441e-05,3.25,2.75
1.70703125,-4.443513131151292e-05,2.538949192034792e-05,3.9548745456626246e-05,-2.8325547974364836e-05,3.25,2.75
1.7109375,-4.8342831815060644e-05,3.369071515220875e-05,3.4662359601739534e-05,-2.6861040398260464e-05,3.25,2.75
1.71484375,-4.785700959029525e-05,4.19919383840696e-05,3.905588233005265e-05,-3.613390807965208e-05,3.25,2.75
1.71875,-5.615823282215609e-05,3.369071515220875e-05,3.857006010528727e-05,-3.564808585488669e-05,3.25,2.75
1.72265625,-5.273635454337376e-05,2.9783014648661037e-05,3.808423788052187e-05,-2.9790055550469204e-05,3.25,2.75
1.7265625,-2.881137019913023e-05,3.417653737697415e-05,4.003456768139164e-05,-2.343916211947813e-05,3.25,2.75
1.73046875,-3.076169999999999e-05,2.0995969192034806e-05,2.9783014648661037e-05,-2.7832684847791247e-05,3.25,2.75
1.734375,-4.443513131151292e-05,1.2201882833600379e-05,2.6361136369878708e-05,-2.343916211947813e-05,3.25,2.75
1.73828125,-4.54138166628519e-05,1.6109583337148094e-05,2.441080656900894e-05,-2.0024324742504e-05,3.25,2.75
1.7421875,-4.8342831815060644e-05,1.7088268688487075e-05,1.318056818493936e-05,-1.953146161593041e-05,3.25,2.75
1.74609375,-4.346348686198214e-05,1.3666390409704745e-05,1.8552776264591457e-05,-3.076169999999999e-05,3.25,2.75
1.75,-4.150611615930418e-05,1.0737375257496012e-05,1.562376111238271e-05,-4.736414646372167e-05,3.25,2.75
1.75390625,-3.613390807965208e-05,5.858030304417497e-06,5.365167177843915e-06,-4.102029393453879e-05,3.25,2.75
1.7578125,-1.8066954039826035e-05,9.716444495307997e-07,8.29418233005265e-06,-3.2719070702677955e-05,3.25,2.75
1.76171875,-1.5630802014190883e-05,1.269474596017396e-05,1.0737375257496012e-05,-2.6368177271686875e-05,3.25,2.75
1.765625,-3.711259343099107e-05,7.322537880521864e-06,6.8296747539482816e-06,-2.393202524605172e-05,3.25,2.75
1.76953125,-4.346348686198214e-05,-2.9360560540169303e-06,-7.815401007095432e-06,-2.6861040398260464e-05,3.25,2.75
1.7734375,-3.3204892927443346e-05,2.4361520256351667e-06,-9.786853513389673e-07,-2.8325547974364836e-05,3.25,2.75
1.77734375,-3.174038535133897e-05,1.950329800869781e-06,4.879344953078515e-06,-2.6861040398260464e-05,3.25,2.75
1.78125,-3.125456312657358e-05,-1.4715484779125488e-06,4.858222247653998e-07,-3.125456312657358e-05,3.25,2.75
1.78515625,-2.393202524605172e-05,9.716444495307997e-07,-2.9360560540169303e-06,-3.711259343099107e-05,3.25,2.75
1.7890625,-1.1237279285877761e-05,4.393522728313129e-06,3.9006596017395335e-06,-2.7346862623025855e-05,3.25,2.75
1.79296875,-2.197465454337376e-05,-3.421878278782316e-06,2.9290151522087485e-06,-3.2719070702677955e-05,3.25,2.75
1.796875,-3.955578635843441e-05,-7.329578782330045e-06,-9.279908583199812e-06,-4.8342831815060644e-05,3.25,2.75
1.80078125,-3.4183578278782316e-05,2.9290151522087485e-06,9.716444495307997e-07,-2.539653282215609e-05,3.25,2.75
1.8046875,-3.613390807965208e-05,-7.815401007095432e-06,4.879344953078515e-06,-1.2701786861982143e-05,3.25,2.75
1.80859375,-4.2484801510643156e-05,-1.5630802014190883e-05,3.9006596017395335e-06,-2.9297192423895622e-05,3.25,2.75
1.8125,-3.3697756054016925e-05,1.4210854715202003e-20,-4.886385854886697e-06,-4.4927994438086515e-05,3.25,2.75
1.81640625,-2.8325547974364836e-05,2.4361520256351667e-06,-1.2701786861982143e-05,-4.394930908674753e-05,3.25,2.75
1.8203125,-2.6368177271686875e-05,9.716444495307997e-07,-6.836715655756449e-06,-2.9297192423895622e-05,3.25,2.75
1.82421875,-2.1488832318608364e-05,1.4210854715202003e-20,-6.350893430991064e-06,-2.588235504692148e-05,3.25,2.75
1.828125,-2.881137019913023e-05,-1.2701786861982143e-05,-1.2208923735408547e-05,-4.102029393453879e-05,3.25,2.75
1.83203125,-3.174038535133897e-05,-2.4903669695582506e-05,-2.197465454337376e-05,-4.150611615930418e-05,3.25,2.75
1.8359375,-3.076169999999999e-05,-2.6368177271686875e-05,-2.9790055550469204e-05,-3.8577101007095435e-05,3.25,2.75
1.83984375,-2.9790055550469204e-05,-2.295333989471274e-05,-2.539653282215609e-05,-5.322921766994734e-05,3.25,2.75
1.84375,-2.393202524605172e-05,-2.295333989471274e-05,-2.197465454337376e-05,-5.273635454337376e-05,3.25,2.75
1.84765625,-2.0024324742504e-05,-3.4183578278782316e-05,-3.0275877775234596e-05,-3.759841565575646e-05,3.25,2.75
1.8515625,-2.4417847470817115e-05,-1.8559817166399624e-05,-3.076169999999999e-05,-4.1998979285877765e-05,3.25,2.75
1.85546875,-2.9297192423895622e-05,-2.2467517669947348e-05,-2.6368177271686875e-05,-5.029316161593041e-05,3.25,2.75
1.859375,-2.4903669695582506e-05,-3.8091278782330044e-05,-2.7346862623025855e-05,-4.58996388876173e-05,3.25,2.75
1.86328125,-2.0024324742504e-05,-2.9790055550469204e-05,-3.4669400503547715e-05,-4.297062373540855e-05,3.25,2.75
1.8671875,-2.4903669695582506e-05,-3.125456312657358e-05,-3.613390807965208e-05,-3.8577101007095435e-05,3.25,2.75
1.87109375,-3.8091278782330044e-05,-2.6861040398260464e-05,-2.4417847470817115e-05,-3.564808585488669e-05,3.25,2.75
1.875,-5.029316161593041e-05,-2.539653282215609e-05,-2.1003010093842973e-05,-5.176471009384297e-05,3.25,2.75
1.87890625,-3.955578635843441e-05,-2.1003010093842973e-05,-1.953146161593041e-05,-5.517954747081711e-05,3.25,2.75
1.8828125,-1.7581131815060643e-05,-5.3722080796520826e-06,-8.794086358434412e-06,-4.05274308079652e-05,3.25,2.75
1.88671875,-2.343916211947813e-05,-6.350893430991064e-06,-8.794086358434412e-06,-3.0275877775234596e-05,3.25,2.75
1.890625,-3.564808585488669e-05,-2.343916211947813e-05,-1.5630802014190883e-05,-2.6368177271686875e-05,3.25,2.75
1.89453125,-3.4669400503547715e-05,-1.8066954039826035e-05,-8.301223231860831e-06,-2.343916211947813e-05,3.25,2.75
1.8984375,-3.2719070702677955e-05,3.414837376974148e-06,6.343852529182896e-06,-2.881137019913023e-05,3.25,2.75
1.90234375,-3.564808585488669e-05,-2.9360560540169303e-06,-4.928631265735816e-07,-3.8091278782330044e-05,3.25,2.75
1.90625,-3.4669400503547715e-05,-1.660244646372167e-05,-9.765730807965198e-06,-3.4669400503547715e-05,3.25,2.75
1.91015625,-3.613390807965208e-05,-2.343916211947813e-05,-1.2208923735408547e-05,-3.125456312657358e-05,3.25,2.75
1.9140625,-3.2719070702677955e-05,-1.953146161593041e-05,-1.8559817166399624e-05,-3.759841565575646e-05,3.25,2.75
1.91796875,-2.7346862623025855e-05,-1.660244646372167e-05,-1.904563939116502e-05,-4.05274308079652e-05,3.25,2.75
1.921875,-3.3204892927443346e-05,-2.4417847470817115e-05,-1.2701786861982143e-05,-2.881137019913023e-05,3.25,2.75
1.92578125,-4.05274308079652e-05,-1.953146161593041e-05,-6.836715655756449e-06,-2.343916211947813e-05,3.25,2.75
1.9296875,-4.1998979285877765e-05,-2.1003010093842973e-05,-1.0258593934538779e-05,-3.0275877775234596e-05,3.25,2.75
1.93359375,-3.906292323186083e-05,-2.4903669695582506e-05,-9.765730807965198e-06,-3.0275877775234596e-05,3.25,2.75
1.9375,-3.2233248477912556e-05,-2.4417847470817115e-05,-9.765730807965198e-06,-2.393202524605172e-05,3.25,2.75
1.94140625,-3.6626771206225676e-05,-1.904563939116502e-05,-1.7095309590295252e-05,-3.613390807965208e-05,3.25,2.75
1.9453125,-3.6626771206225676e-05,-8.794086358434412e-06,-1.1237279285877761e-05,-4.297062373540855e-05,3.25,2.75
1.94921875,-2.0024324742504e-05,-1.7581131815060643e-05,-9.765730807965198e-06,-2.9297192423895622e-05,3.25,2.75
1.953125,-2.295333989471274e-05,-3.125456312657358e-05,-1.6116624238956275e-05,-3.613390807965208e-05,3.25,2.75
1.95703125,-4.297062373540855e-05,-3.6626771206225676e-05,-2.539653282215609e-05,-5.420086211947813e-05,3.25,2.75
1.9609375,-4.980733939116501e-05,-3.174038535133897e-05,-2.4903669695582506e-05,-4.102029393453879e-05,3.25,2.75
1.96484375,-4.980733939116501e-05,-2.295333989471274e-05,-1.953146161593041e-05,-2.9790055550469204e-05,3.25,2.75
1.96875,-4.639250201419088e-05,-2.588235504692148e-05,-2.197465454337376e-05,-4.1998979285877765e-05,3.25,2.75
1.97265625,-3.51622636301213e-05,-3.8577101007095435e-05,-2.9790055550469204e-05,-3.8577101007095435e-05,3.25,2.75
1.9765625,-3.3204892927443346e-05,-3.2719070702677955e-05,-2.8325547974364836e-05,-2.588235504692148e-05,3.25,2.75
1.98046875,-2.295333989471274e-05,-2.4903669695582506e-05,-2.588235504692148e-05,-3.0275877775234596e-05,3.25,2.75
1.984375,-2.539653282215609e-05,-2.393202524605172e-05,-3.174038535133897e-05,-4.4927994438086515e-05,3.25,2.75
1.98828125,-4.05274308079652e-05,-2.539653282215609e-05,-3.3204892927443346e-05,-4.150611615930418e-05,3.25,2.75
1.9921875,-4.2484801510643156e-05,-2.588235504692148e-05,-3.4669400503547715e-05,-2.7346862623025855e-05,3.25,2.75
1.99609375,-5.1271846967269395e-05,-2.1488832318608364e-05,-3.4183578278782316e-05,-3.564808585488669e-05,3.25,2.75
2.0,-4.346348686198214e-05,-2.6368177271686875e-05,-2.4903669695582506e-05,-4.785700959029525e-05,3.25,2.75
2.00390625,-2.393202524605172e-05,-2.2467517669947348e-05,-1.172310151064316e-05,-4.004160858319981e-05,3.25,2.75
2.0078125,-2.2467517669947348e-05,-2.393202524605172e-05,-1.4652116662851901e-05,-2.393202524605172e-05,3.25,2.75
2.01171875,-1.7095309590295252e-05,-1.953146161593041e-05,-1.7095309590295252e-05,-1.5630802014190883e-05,3.25,2.75
2.015625,-7.815401007095432e-06,-5.865071206225664e-06,-1.367343131151292e-05,-1.0744416159304179e-05,3.25,2.75
2.01953125,-2.295333989471274e-05,-1.5137938887617294e-05,-2.539653282215609e-05,-1.416629443808651e-05,3.25,2.75
2.0234375,-3.6626771206225676e-05,-2.4417847470817115e-05,-3.51622636301213e-05,-3.4183578278782316e-05,3.25,2.75
2.02734375,-3.6626771206225676e-05,-2.343916211947813e-05,-3.0275877775234596e-05,-4.394930908674753e-05,3.25,2.75
2.03125,-3.51622636301213e-05,-2.9790055550469204e-05,-3.0275877775234596e-05,-4.004160858319981e-05,3.25,2.75
2.03515625,-3.2233248477912556e-05,-2.197465454337376e-05,-3.3697756054016925e-05,-3.51622636301213e-05,3.25,2.75
2.0390625,-2.2467517669947348e-05,-2.1488832318608364e-05,-1.8559817166399624e-05,-3.076169999999999e-05,3.25,2.75
2.04296875,-1.2208923735408547e-05,-2.343916211947813e-05,-1.4652116662851901e-05,-2.9297192423895622e-05,3.25,2.75
2.046875,-9.279908583199812e-06,-2.393202524605172e-05,-1.2208923735408547e-05,-1.953146161593041e-05,3.25,2.75
2.05078125,-2.9360560540169303e-06,-2.9790055550469204e-05,-9.765730807965198e-06,-2.9360560540169303e-06,3.25,2.75
2.0546875,-6.836715655756449e-06,-3.955578635843441e-05,-3.711259343099107e-05,-1.172310151064316e-05,3.25,2.75
2.05859375,-2.1488832318608364e-05,-5.176471009384297e-05,-5.6644055046921484e-05,-4.1998979285877765e-05,3.25,2.75
2.0625,-2.539653282215609e-05,-6.396659292744334e-05,-6.543110050354772e-05,-4.394930908674753e-05,3.25,2.75
2.06640625,-9.786853513389673e-07,-6.885297878233004e-05,-6.885297878233004e-05,-2.1003010093842973e-05,3.25,2.75
2.0703125,1.7088268688487075e-05,-7.471100908674753e-05,-7.568969443808652e-05,-1.416629443808651e-05,3.25,2.75
2.07421875,2.538949192034792e-05,-8.15406838406958e-05,-8.300519141680018e-05,-1.7095309590295252e-05,3.25,2.75
2.078125,5.2729313641565596e-05,-8.251936919203479e-05,-9.374960757610436e-05,-7.815401007095432e-06,3.25,2.75
2.08203125,6.103053687342642e-05,-0.00010985919091325246,-0.0001127882060654612,6.343852529182896e-06,3.25,2.75
2.0859375,6.347372980086978e-05,-0.00011132369848935683,-0.00012060360707255665,6.8296747539482816e-06,3.25,2.75
2.08984375,6.688856717784392e-05,-0.00013036933788052187,-0.00014501441364156556,5.365167177843915e-06,3.25,2.75
2.09375,7.616847576104374e-05,-0.0001894495449530785,-0.0001850560222247654,8.29418233005265e-06,3.25,2.75
2.09765625,8.007617626459145e-05,-0.00020849518434424354,-0.00020116560556191347,2.3432121217669957e-05,3.25,2.75
2.1015625,9.032772929732205e-05,-0.0002153319,-0.0002104455141451133,3.7591374753948285e-05,3.25,2.75
2.10546875,9.228510000000002e-05,-0.00022704796060883499,-0.0002314414833371481,4.6871283337148095e-05,3.25,2.75
2.109375,8.398387676813917e-05,-0.00022899829040970473,-0.00024413622929732204,5.175766919203479e-05,3.25,2.75
2.11328125,8.739871414511333e-05,-0.000245114914648661,-0.00024999425960173954,4.589259798580912e-05,3.25,2.75
2.1171875,9.228510000000002e-05,-0.0002602528535362783,-0.0002602528535362783,4.3456445960173966e-05,3.25,2.75
2.12109375,8.691289192034793e-05,-0.00024999425960173954,-0.0002582954828336004,4.540677576104373e-05,3.25,2.75
2.125,7.079626768139164e-05,-0.0002495084373769741,-0.00024852975202563517,4.296358283360038e-05,3.25,2.75
2.12890625,5.908020707255667e-05,-0.00022899829040970473,-0.00023388467626459146,3.4662359601739534e-05,3.25,2.75
2.1328125,4.9800298489356845e-05,-0.00021728222980086975,-0.00023290599091325246,1.4645075761043727e-05,3.25,2.75
2.13671875,2.9783014648661037e-05,-0.00022949115353627832,-0.00023974270656900893,-2.443192927443334e-06,3.25,2.75
2.140625,1.0737375257496012e-05,-0.0002050733060654612,-0.00021191002172121767,-1.0258593934538779e-05,3.25,2.75
2.14453125,9.75868990615703e-06,-0.00017919799192034791,-0.00018700635202563518,-7.329578782330045e-06,3.25,2.75
2.1484375,6.8296747539482816e-06,-0.00016747489040970474,-0.00017186841313801784,1.4210854715202003e-20,3.25,2.75
2.15234375,-7.815401007095432e-06,-0.00014794342879377432,-0.0001484362919203479,1.2201882833600379e-05,3.25,2.75
2.15625,-2.1003010093842973e-05,-0.00014257122071412222,-0.00014062089091325248,1.950329800869781e-06,3.25,2.75
2.16015625,-4.150611615930418e-05,-0.00013524868283360035,-0.00013134098233005264,-1.5137938887617294e-05,3.25,2.75
2.1640625,-6.689560807965209e-05,-0.0001269474596017395,-0.00011328106919203478,-2.539653282215609e-05,3.25,2.75
2.16796875,-6.201626312657359e-05,-0.00010693017576104371,-0.00010400116060883496,-4.58996388876173e-05,3.25,2.75
2.171875,-4.639250201419088e-05,-9.081355152208744e-05,-9.814313030441748e-05,-4.2484801510643156e-05,3.25,2.75
2.17578125,-4.785700959029525e-05,-9.22851e-05,-8.15406838406958e-05,-2.1488832318608364e-05,3.25,2.75
2.1796875,-5.566536969558251e-05,-8.349101364156557e-05,-7.958331313801784e-05,-2.6861040398260464e-05,3.25,2.75
2.18359375,-7.811880556191347e-05,-7.519683131151292e-05,-6.836011565575646e-05,-3.51622636301213e-05,3.25,2.75
2.1875,-0.00010107214545662622,-8.15406838406958e-05,-6.299494847791256e-05,-4.785700959029525e-05,3.25,2.75
2.19140625,-9.667862272831311e-05,-7.861166868848707e-05,-6.640978585488669e-05,-6.250208535133897e-05,3.25,2.75
2.1953125,-8.593420656900892e-05,-6.348077070267794e-05,-5.420086211947813e-05,-6.0551755550469205e-05,3.25,2.75
2.19921875,-8.886322172121767e-05,-5.029316161593041e-05,-5.225053231860837e-05,-6.396659292744334e-05,3.25,2.75
2.203125,-9.472125202563515e-05,-4.150611615930418e-05,-3.711259343099107e-05,-7.178199393453878e-05,3.25,2.75
2.20703125,-9.472125202563515e-05,-4.102029393453879e-05,-2.9790055550469204e-05,-6.592396363012131e-05,3.25,2.75
2.2109375,-9.862895252918288e-05,-3.0275877775234596e-05,-2.9790055550469204e-05,-6.0058892423895626e-05,3.25,2.75
2.21484375,-9.911477475394827e-05,-2.2467517669947348e-05,-3.125456312657358e-05,-6.933880100709544e-05,3.25,2.75
2.21875,-9.032772929732203e-05,-1.6116624238956275e-05,-3.759841565575646e-05,-7.471100908674753e-05,3.25,2.75
2.22265625,-7.958331313801784e-05,-2.443192927443334e-06,-2.197465454337376e-05,-6.0058892423895626e-05,3.25,2.75
2.2265625,-6.933880100709544e-05,2.4361520256351667e-06,-4.400563630121297e-06,-4.687832423895628e-05,3.25,2.75
2.23046875,-7.324650151064316e-05,-5.865071206225664e-06,1.950329800869781e-06,-6.201626312657359e-05,3.25,2.75
2.234375,-8.446969899290455e-05,-7.815401007095432e-06,-9.786853513389673e-07,-7.373232373540855e-05,3.25,2.75
2.23828125,-8.007617626459143e-05,-4.928631265735816e-07,-3.421878278782316e-06,-6.152339999999999e-05,3.25,2.75
2.2421875,-6.933880100709544e-05,5.858030304417497e-06,-1.4715484779125488e-06,-4.785700959029525e-05,3.25,2.75
2.24609375,-6.494527827878232e-05,1.3666390409704745e-05,-1.4715484779125488e-06,-5.371503989471274e-05,3.25,2.75
2.25,-6.885297878233004e-05,-4.886385854886697e-06,-1.172310151064316e-05,-6.640978585488669e-05,3.25,2.75
2.25390625,-6.494527827878232e-05,-1.4715484779125488e-06,-6.350893430991064e-06,-5.517954747081711e-05,3.25,2.75
2.2578125,-5.957307019913023e-05,1.0737375257496012e-05,1.4210854715202003e-20,-4.58996388876173e-05,3.25,2.75
2.26171875,-6.640978585488669e-05,1.0251553032730612e-05,-9.786853513389673e-07,-4.58996388876173e-05,3.25,2.75
2.265625,-7.031748635843441e-05,1.3666390409704745e-05,-4.928631265735816e-07,-4.346348686198214e-05,3.25,2.75
2.26953125,-7.226781615930418e-05,-8.301223231860831e-06,-6.350893430991064e-06,-4.687832423895628e-05,3.25,2.75
2.2734375,-6.592396363012131e-05,-2.443192927443334e-06,-7.329578782330045e-06,-4.102029393453879e-05,3.25,2.75
2.27734375,-6.0551755550469205e-05,4.879344953078515e-06,-1.172310151064316e-05,-5.0786024742503996e-05,3.25,2.75
2.28125,-5.371503989471274e-05,-5.865071206225664e-06,-1.2208923735408547e-05,-5.6644055046921484e-05,3.25,2.75
2.28515625,-4.8342831815060644e-05,1.4645075761043812e-06,-8.301223231860831e-06,-4.980733939116501e-05,3.25,2.75
2.2890625,-5.762274039826046e-05,-5.3722080796520826e-06,-7.329578782330045e-06,-5.6644055046921484e-05,3.25,2.75
2.29296875,-5.762274039826046e-05,-4.886385854886697e-06,-5.865071206225664e-06,-4.394930908674753e-05,3.25,2.75
2.296875,-6.0551755550469205e-05,-3.421878278782316e-06,-1.3187609086747528e-05,-3.4669400503547715e-05,3.25,2.75
2.30078125,-6.396659292744334e-05,-9.279908583199812e-06,-1.7581131815060643e-05,-3.906292323186083e-05,3.25,2.75
2.3046875,-5.029316161593041e-05,-4.886385854886697e-06,-1.416629443808651e-05,-4.394930908674753e-05,3.25,2.75
2.30859375,-5.4693725246051724e-05,-8.794086358434412e-06,-1.8559817166399624e-05,-3.613390807965208e-05,3.25,2.75
2.3125,-5.4693725246051724e-05,-1.6116624238956275e-05,-2.4417847470817115e-05,-3.51622636301213e-05,3.25,2.75
2.31640625,-4.687832423895628e-05,-1.7581131815060643e-05,-3.125456312657358e-05,-6.933880100709544e-05,3.25,2.75
2.3203125,-5.322921766994734e-05,-1.172310151064316e-05,-2.6861040398260464e-05,-7.909749091325245e-05,3.25,2.75
2.32421875,-5.371503989471274e-05,-1.8066954039826035e-05,-1.7095309590295252e-05,-4.736414646372167e-05,3.25,2.75
2.328125,-6.152339999999999e-05,-2.7832684847791247e-05,-1.660244646372167e-05,-3.759841565575646e-05,3.25,2.75
2.33203125,-5.615823282215609e-05,-1.953146161593041e-05,-8.301223231860831e-06,-3.8577101007095435e-05,3.25,2.75
2.3359375,-2.9790055550469204e-05,-4.886385854886697e-06,-4.928631265735816e-07,-1.8066954039826035e-05,3.25,2.75
2.33984375,-2.539653282215609e-05,-1.0744416159304179e-05,-1.2701786861982143e-05,-1.904563939116502e-05,3.25,2.75
2.34375,-3.6626771206225676e-05,-1.0258593934538779e-05,-2.197465454337376e-05,-3.613390807965208e-05,3.25,2.75
2.34765625,-4.150611615930418e-05,-1.367343131151292e-05,-2.1003010093842973e-05,-4.980733939116501e-05,3.25,2.75
2.3515625,-4.687832423895628e-05,-2.539653282215609e-05,-1.172310151064316e-05,-5.957307019913023e-05,3.25,2.75
2.35546875,-5.1271846967269395e-05,-1.953146161593041e-05,-1.7095309590295252e-05,-5.273635454337376e-05,3.25,2.75
2.359375,-5.322921766994734e-05,-3.125456312657358e-05,-2.7346862623025855e-05,-5.029316161593041e-05,3.25,2.75
2.36328125,-4.882865403982604e-05,-2.4417847470817115e-05,-1.7095309590295252e-05,-4.394930908674753e-05,3.25,2.75
2.3671875,-3.955578635843441e-05,-1.904563939116502e-05,-1.5630802014190883e-05,-2.539653282215609e-05,3.25,2.75
2.37109375,-3.4669400503547715e-05,-3.6626771206225676e-05,-1.953146161593041e-05,-3.125456312657358e-05,3.25,2.75
2.375,-4.102029393453879e-05,-3.51622636301213e-05,-2.295333989471274e-05,-3.759841565575646e-05,3.25,2.75
2.37890625,-5.4693725246051724e-05,-3.8091278782330044e-05,-2.4903669695582506e-05,-3.4183578278782316e-05,3.25,2.75
2.3828125,-5.810856262302586e-05,-3.613390807965208e-05,-2.588235504692148e-05,-4.58996388876173e-05,3.25,2.75
2.38671875,-4.785700959029525e-05,-3.51622636301213e-05,-2.4903669695582506e-05,-5.7129877271686875e-05,3.25,2.75
2.390625,-4.1998979285877765e-05,-3.174038535133897e-05,-2.1488832318608364e-05,-4.932151716639963e-05,3.25,2.75
2.39453125,-3.759841565575646e-05,-3.0275877775234596e-05,-2.393202524605172e-05,-4.54138166628519e-05,3.25,2.75
2.3984375,-3.4669400503547715e-05,-2.6368177271686875e-05,-1.416629443808651e-05,-4.1998979285877765e-05,3.25,2.75
2.40234375,-4.346348686198214e-05,-2.393202524605172e-05,-1.8559817166399624e-05,-3.3204892927443346e-05,3.25,2.75
2.40625,-5.225053231860837e-05,-3.759841565575646e-05,-3.8091278782330044e-05,-3.174038535133897e-05,3.25,2.75
2.41015625,-4.8342831815060644e-05,-3.613390807965208e-05,-2.881137019913023e-05,-3.759841565575646e-05,3.25,2.75
2.4140625,-4.394930908674753e-05,-2.6368177271686875e-05,-2.2467517669947348e-05,-4.54138166628519e-05,3.25,2.75
2.41796875,-4.785700959029525e-05,-1.953146161593041e-05,-2.881137019913023e-05,-4.54138166628519e-05,3.25,2.75
2.421875,-4.2484801510643156e-05,-2.7832684847791247e-05,-3.0275877775234596e-05,-4.882865403982604e-05,3.25,2.75
2.42578125,-3.613390807965208e-05,-4.004160858319981e-05,-2.881137019913023e-05,-5.420086211947813e-05,3.25,2.75
2.4296875,-3.076169999999999e-05,-3.613390807965208e-05,-3.2719070702677955e-05,-4.687832423895628e-05,3.25,2.75
2.43359375,-3.174038535133897e-05,-3.711259343099107e-05,-3.4669400503547715e-05,-3.076169999999999e-05,3.25,2.75
2.4375,-3.4669400503547715e-05,-2.295333989471274e-05,-2.197465454337376e-05,-3.076169999999999e-05,3.25,2.75
2.44140625,-2.7346862623025855e-05,-1.5630802014190883e-05,-1.172310151064316e-05,-2.9297192423895622e-05,3.25,2.75
2.4453125,-2.4417847470817115e-05,-2.7346862623025855e-05,-2.295333989471274e-05,-2.9790055550469204e-05,3.25,2.75
2.44921875,-2.9297192423895622e-05,-3.2719070702677955e-05,-3.4669400503547715e-05,-4.443513131151292e-05,3.25,2.75
2.453125,-3.613390807965208e-05,-3.613390807965208e-05,-3.4183578278782316e-05,-4.394930908674753e-05,3.25,2.75
2.45703125,-3.759841565575646e-05,-3.174038535133897e-05,-3.955578635843441e-05,-4.54138166628519e-05,3.25,2.75
2.4609375,-3.6626771206225676e-05,-2.7346862623025855e-05,-3.711259343099107e-05,-4.932151716639963e-05,3.25,2.75
2.46484375,-3.3697756054016925e-05,-2.7832684847791247e-05,-3.613390807965208e-05,-3.8577101007095435e-05,3.25,2.75
2.46875,-3.3204892927443346e-05,-4.004160858319981e-05,-2.881137019913023e-05,-3.51622636301213e-05,3.25,2.75
2.47265625,-3.906292323186083e-05,-2.6368177271686875e-05,-1.172310151064316e-05,-2.9790055550469204e-05,3.25,2.75
2.4765625,-2.1003010093842973e-05,-2.197465454337376e-05,-2.588235504692148e-05,-2.197465454337376e-05,3.25,2.75
2.48046875,-1.367343131151292e-05,-4.58996388876173e-05,-5.322921766994734e-05,-3.3204892927443346e-05,3.25,2.75
2.484375,-2.881137019913023e-05,-5.225053231860837e-05,-4.932151716639963e-05,-5.273635454337376e-05,3.25,2.75
2.48828125,-3.4183578278782316e-05,-5.176471009384297e-05,-4.4927994438086515e-05,-4.882865403982604e-05,3.25,2.75
2.4921875,-3.613390807965208e-05,-4.2484801510643156e-05,-5.1271846967269395e-05,-4.102029393453879e-05,3.25,2.75
2.49609375,-2.9297192423895622e-05,-4.2484801510643156e-05,-4.8342831815060644e-05,-4.1998979285877765e-05,3.25,2.75
2.5,-2.4903669695582506e-05,-4.150611615930418e-05,-4.58996388876173e-05,-2.9297192423895622e-05,3.25,2.75
2.50390625,-2.1488832318608364e-05,-3.906292323186083e-05,-4.58996388876173e-05,-1.6116624238956275e-05,3.25,2.75
2.5078125,-1.904563939116502e-05,-3.4183578278782316e-05,-4.736414646372167e-05,-2.295333989471274e-05,3.25,2.75
2.51171875,-2.1003010093842973e-05,-4.394930908674753e-05,-3.6626771206225676e-05,-3.0275877775234596e-05,3.25,2.75
2.515625,-2.8325547974364836e-05,-4.394930908674753e-05,-3.3204892927443346e-05,-3.4669400503547715e-05,3.25,2.75
2.51953125,-4.2484801510643156e-05,-4.102029393453879e-05,-4.639250201419088e-05,-4.736414646372167e-05,3.25,2.75
2.5234375,-3.906292323186083e-05,-3.8091278782330044e-05,-3.711259343099107e-05,-3.613390807965208e-05,3.25,2.75
2.52734375,-2.6368177271686875e-05,-2.8325547974364836e-05,-2.8325547974364836e-05,-1.7095309590295252e-05,3.25,2.75
2.53125,-2.9297192423895622e-05,-4.102029393453879e-05,-4.1998979285877765e-05,-2.0024324742504e-05,3.25,2.75
2.53515625,-2.8325547974364836e-05,-4.1998979285877765e-05,-4.443513131151292e-05,-3.8577101007095435e-05,3.25,2.75
2.5390625,-2.588235504692148e-05,-3.174038535133897e-05,-3.711259343099107e-05,-3.8091278782330044e-05,3.25,2.75
2.54296875,-2.9790055550469204e-05,-3.0275877775234596e-05,-3.8091278782330044e-05,-1.953146161593041e-05,3.25,2.75
2.546875,-3.4669400503547715e-05,-3.076169999999999e-05,-4.004160858319981e-05,-2.343916211947813e-05,3.25,2.75
2.55078125,-3.8577101007095435e-05,-3.4183578278782316e-05,-4.2484801510643156e-05,-2.6861040398260464e-05,3.25,2.75
2.5546875,-3.125456312657358e-05,-3.125456312657358e-05,-4.8342831815060644e-05,-2.6861040398260464e-05,3.25,2.75
2.55859375,-1.953146161593041e-05,-2.0024324742504e-05,-3.174038535133897e-05,-3.2719070702677955e-05,3.25,2.75
2.5625,-1.1237279285877761e-05,-2.0024324742504e-05,-2.2467517669947348e-05,-1.7095309590295252e-05,3.25,2.75
2.56640625,-1.416629443808651e-05,-3.3204892927443346e-05,-3.2719070702677955e-05,-1.953146161593041e-05,3.25,2.75
2.5703125,-2.539653282215609e-05,-3.711259343099107e-05,-3.125456312657358e-05,-4.639250201419088e-05,3.25,2.75
2.57421875,-2.9790055550469204e-05,-3.3697756054016925e-05,-2.7832684847791247e-05,-4.1998979285877765e-05,3.25,2.75
2.578125,-2.7832684847791247e-05,-3.955578635843441e-05,-3.125456312657358e-05,-3.51622636301213e-05,3.25,2.75
2.58203125,-3.711259343099107e-05,-3.3204892927443346e-05,-3.3697756054016925e-05,-3.51622636301213e-05,3.25,2.75
2.5859375,-3.759841565575646e-05,-1.953146161593041e-05,-2.197465454337376e-05,-3.174038535133897e-05,3.25,2.75
2.58984375,-1.7095309590295252e-05,-1.953146161593041e-05,-2.539653282215609e-05,-2.6861040398260464e-05,3.25,2.75
2.59375,-1.367343131151292e-05,-2.343916211947813e-05,-3.51622636301213e-05,-2.197465454337376e-05,3.25,2.75
2.59765625,-2.539653282215609e-05,-2.6368177271686875e-05,-3.6626771206225676e-05,-2.7346862623025855e-05,3.25,2.75
2.6015625,-2.9790055550469204e-05,-2.051014696726939e-05,-3.4669400503547715e-05,-3.174038535133897e-05,3.25,2.75
2.60546875,-2.343916211947813e-05,-1.8559817166399624e-05,-2.4417847470817115e-05,-4.297062373540855e-05,3.25,2.75
2.609375,-2.295333989471274e-05,-2.8325547974364836e-05,-3.174038535133897e-05,-4.4927994438086515e-05,3.25,2.75
2.61328125,-4.004160858319981e-05,-2.9790055550469204e-05,-3.711259343099107e-05,-4.102029393453879e-05,3.25,2.75
2.6171875,-3.8091278782330044e-05,-2.4903669695582506e-05,-2.2467517669947348e-05,-2.881137019913023e-05,3.25,2.75
2.62109375,-2.7832684847791247e-05,-2.197465454337376e-05,-1.8559817166399624e-05,-2.1488832318608364e-05,3.25,2.75
2.625,-2.539653282215609e-05,-3.51622636301213e-05,-3.2719070702677955e-05,-2.539653282215609e-05,3.25,2.75
2.62890625,-2.7346862623025855e-05,-3.955578635843441e-05,-3.711259343099107e-05,-2.8325547974364836e-05,3.25,2.75
2.6328125,-2.7346862623025855e-05,-3.0275877775234596e-05,-3.174038535133897e-05,-3.3204892927443346e-05,3.25,2.75
2.63671875,-3.4183578278782316e-05,-3.6626771206225676e-05,-3.564808585488669e-05,-4.394930908674753e-05,3.25,2.75
2.640625,-2.9297192423895622e-05,-2.8325547974364836e-05,-2.588235504692148e-05,-4.102029393453879e-05,3.25,2.75
2.64453125,-8.301223231860831e-06,-1.0744416159304179e-05,-1.8559817166399624e-05,-2.6861040398260464e-05,3.25,2.75
2.6484375,-2.0024324742504e-05,-2.051014696726939e-05,-3.0275877775234596e-05,-2.393202524605172e-05,3.25,2.75
2.65234375,-4.004160858319981e-05,-3.174038535133897e-05,-4.004160858319981e-05,-3.076169999999999e-05,3.25,2.75
2.65625,-3.6626771206225676e-05,-3.906292323186083e-05,-2.8325547974364836e-05,-3.2233248477912556e-05,3.25,2.75
2.66015625,-3.4669400503547715e-05,-2.8325547974364836e-05,-2.539653282215609e-05,-2.393202524605172e-05,3.25,2.75
2.6640625,-3.711259343099107e-05,-2.1003010093842973e-05,-3.076169999999999e-05,-3.125456312657358e-05,3.25,2.75
2.66796875,-3.4669400503547715e-05,-3.2233248477912556e-05,-2.343916211947813e-05,-3.0275877775234596e-05,3.25,2.75
2.671875,-1.660244646372167e-05,-2.539653282215609e-05,-2.4417847470817115e-05,-1.7095309590295252e-05,3.25,2.75
2.67578125,-2.197465454337376e-05,-2.8325547974364836e-05,-3.076169999999999e-05,-1.7095309590295252e-05,3.25,2.75
2.6796875,-3.564808585488669e-05,-3.2719070702677955e-05,-3.125456312657358e-05,-2.9790055550469204e-05,3.25,2.75
2.68359375,-3.711259343099107e-05,-2.295333989471274e-05,-2.588235504692148e-05,-3.8577101007095435e-05,3.25,2.75
2.6875,-4.4927994438086515e-05,-2.8325547974364836e-05,-2.881137019913023e-05,-3.2233248477912556e-05,3.25,2.75
2.69140625,-3.51622636301213e-05,-2.6368177271686875e-05,-2.539653282215609e-05,-2.1488832318608364e-05,3.25,2.75
2.6953125,-2.881137019913023e-05,-2.6368177271686875e-05,-2.1488832318608364e-05,-2.7832684847791247e-05,3.25,2.75
2.69921875,-3.076169999999999e-05,-3.2233248477912556e-05,-2.295333989471274e-05,-3.711259343099107e-05,3.25,2.75
2.703125,-3.076169999999999e-05,-3.564808585488669e-05,-2.1003010093842973e-05,-2.8325547974364836e-05,3.25,2.75
2.70703125,-2.295333989471274e-05,-3.3204892927443346e-05,-1.8559817166399624e-05,-2.2467517669947348e-05,3.25,2.75
2.7109375,-2.7346862623025855e-05,-2.295333989471274e-05,-1.953146161593041e-05,-3.51622636301213e-05,3.25,2.75
2.71484375,-4.102029393453879e-05,-1.0744416159304179e-05,-1.367343131151292e-05,-4.2484801510643156e-05,3.25,2.75
2.71875,-3.564808585488669e-05,-5.865071206225664e-06,-4.400563630121297e-06,-4.394930908674753e-05,3.25,2.75
2.72265625,-3.2233248477912556e-05,-1.8066954039826035e-05,-1.8066954039826035e-05,-4.882865403982604e-05,3.25,2.75
2.7265625,-3.8577101007095435e-05,-2.881137019913023e-05,-3.174038535133897e-05,-3.711259343099107e-05,3.25,2.75
2.73046875,-4.932151716639963e-05,-1.5137938887617294e-05,-1.2701786861982143e-05,-3.0275877775234596e-05,3.25,2.75
2.734375,-5.7129877271686875e-05,1.950329800869781e-06,1.7574090913252476e-05,-3.8091278782330044e-05,3.25,2.75
2.73828125,-5.029316161593041e-05,1.7088268688487075e-05,3.0761700000000014e-05,-4.394930908674753e-05,3.25,2.75
2.7421875,-4.932151716639963e-05,2.2946298992904572e-05,2.929015152208744e-05,-4.394930908674753e-05,3.25,2.75
2.74609375,-4.394930908674753e-05,3.905588233005265e-05,3.857006010528727e-05,-4.150611615930418e-05,3.25,2.75
2.75,-3.4669400503547715e-05,4.003456768139164e-05,4.492095353627833e-05,-4.639250201419088e-05,3.25,2.75
2.75390625,-4.2484801510643156e-05,3.905588233005265e-05,4.247776060883498e-05,-4.932151716639963e-05,3.25,2.75
2.7578125,-4.05274308079652e-05,5.028612071412223e-05,4.638546111238271e-05,-3.8091278782330044e-05,3.25,2.75
2.76171875,-3.8091278782330044e-05,4.0520389906157035e-05,3.808423788052187e-05,-3.125456312657358e-05,3.25,2.75
2.765625,-3.8091278782330044e-05,3.905588233005265e-05,3.369071515220875e-05,-3.613390807965208e-05,3.25,2.75
2.76953125,-2.9297192423895622e-05,4.492095353627833e-05,4.3456445960173966e-05,-4.150611615930418e-05,3.25,2.75
2.7734375,-2.8325547974364836e-05,4.0520389906157035e-05,5.1264806065461214e-05,-4.58996388876173e-05,3.25,2.75
2.77734375,-3.759841565575646e-05,3.7105552529182886e-05,5.077898384069583e-05,-5.0786024742503996e-05,3.25,2.75
2.78125,-3.4669400503547715e-05,3.6126867177843916e-05,4.784996868848708e-05,-4.102029393453879e-05,3.25,2.75
2.78515625,-1.953146161593041e-05,3.0761700000000014e-05,4.931447626459145e-05,-3.125456312657358e-05,3.25,2.75
2.7890625,-2.051014696726939e-05,2.1967613641565592e-05,4.1499075257496e-05,-2.7346862623025855e-05,3.25,2.75
2.79296875,-3.076169999999999e-05,1.562376111238271e-05,2.5875314145113306e-05,-2.197465454337376e-05,3.25,2.75
2.796875,-3.6626771206225676e-05,1.805991313801786e-05,2.8318507072556655e-05,-2.197465454337376e-05,3.25,2.75
2.80078125,-3.8091278782330044e-05,2.0995969192034806e-05,2.441080656900894e-05,-3.125456312657358e-05,3.25,2.75
2.8046875,-4.150611615930418e-05,8.787045456626245e-06,1.1230238384069594e-05,-4.687832423895628e-05,3.25,2.75
2.80859375,-3.51622636301213e-05,1.1230238384069594e-05,1.7574090913252476e-05,-4.004160858319981e-05,3.25,2.75
2.8125,-2.051014696726939e-05,1.8552776264591457e-05,2.538949192034792e-05,-2.1003010093842973e-05,3.25,2.75
2.81640625,-2.2467517669947348e-05,1.5130897985809127e-05,1.2201882833600379e-05,-2.7346862623025855e-05,3.25,2.75
2.8203125,-3.564808585488669e-05,1.7574090913252476e-05,1.0737375257496012e-05,-3.564808585488669e-05,3.25,2.75
2.82421875,-3.613390807965208e-05,6.8296747539482816e-06,1.7574090913252476e-05,-3.711259343099107e-05,3.25,2.75
2.828125,-3.3204892927443346e-05,4.879344953078515e-06,1.562376111238271e-05,-4.394930908674753e-05,3.25,2.75
2.83203125,-3.8091278782330044e-05,8.787045456626245e-06,1.903859848935684e-05,-3.51622636301213e-05,3.25,2.75
2.8359375,-2.7832684847791247e-05,1.4645075761043727e-05,2.1967613641565592e-05,-1.8559817166399624e-05,3.25,2.75
2.83984375,-1.2208923735408547e-05,2.246047676813917e-05,2.050310606546121e-05,-1.953146161593041e-05,3.25,2.75
2.84375,-2.4903669695582506e-05,1.562376111238271e-05,2.2946298992904572e-05,-2.539653282215609e-05,3.25,2.75
2.84765625,-3.076169999999999e-05,1.4159253536278341e-05,2.3432121217669957e-05,-2.7346862623025855e-05,3.25,2.75
2.8515625,-1.8066954039826035e-05,1.4159253536278341e-05,1.562376111238271e-05,-3.0275877775234596e-05,3.25,2.75
2.85546875,-1.8066954039826035e-05,5.858030304417497e-06,3.414837376974148e-06,-2.6368177271686875e-05,3.25,2.75
2.859375,-2.588235504692148e-05,7.808360105287263e-06,1.950329800869781e-06,-2.7346862623025855e-05,3.25,2.75
2.86328125,-2.7832684847791247e-05,3.9006596017395335e-06,1.4645075761043812e-06,-4.05274308079652e-05,3.25,2.75
2.8671875,-2.539653282215609e-05,-4.400563630121297e-06,-9.786853513389673e-07,-5.1271846967269395e-05,3.25,2.75
2.87109375,-3.076169999999999e-05,-1.172310151064316e-05,3.414837376974148e-06,-4.05274308079652e-05,3.25,2.75
2.875,-2.588235504692148e-05,-6.350893430991064e-06,1.950329800869781e-06,-2.4417847470817115e-05,3.25,2.75
2.87890625,-3.174038535133897e-05,-4.928631265735816e-07,-9.786853513389673e-07,-2.539653282215609e-05,3.25,2.75
2.8828125,-4.54138166628519e-05,-1.9573707026779486e-06,5.365167177843915e-06,-2.4417847470817115e-05,3.25,2.75
2.88671875,-2.6861040398260464e-05,2.9290151522087485e-06,1.4159253536278341e-05,-1.416629443808651e-05,3.25,2.75
2.890625,-2.343916211947813e-05,-4.886385854886697e-06,6.343852529182896e-06,-1.5137938887617294e-05,3.25,2.75
2.89453125,-3.0275877775234596e-05,-1.0258593934538779e-05,-5.865071206225664e-06,-2.343916211947813e-05,3.25,2.75
2.8984375,-3.51622636301213e-05,-1.2208923735408547e-05,-1.2208923735408547e-05,-2.588235504692148e-05,3.25,2.75
2.90234375,-4.05274308079652e-05,-1.5630802014190883e-05,-1.2208923735408547e-05,-2.7832684847791247e-05,3.25,2.75
2.90625,-2.881137019913023e-05,-6.836715655756449e-06,-1.0744416159304179e-05,-3.3204892927443346e-05,3.25,2.75
2.91015625,-2.6861040398260464e-05,-3.421878278782316e-06,-2.295333989471274e-05,-2.8325547974364836e-05,3.25,2.75
2.9140625,-2.881137019913023e-05,-2.295333989471274e-05,-2.539653282215609e-05,-2.051014696726939e-05,3.25,2.75
2.91796875,-9.279908583199812e-06,-1.4652116662851901e-05,-1.172310151064316e-05,-2.1488832318608364e-05,3.25,2.75
2.921875,-9.786853513389673e-07,-1.1237279285877761e-05,-1.0744416159304179e-05,-2.7346862623025855e-05,3.25,2.75
2.92578125,-1.904563939116502e-05,-2.4417847470817115e-05,-1.1237279285877761e-05,-2.197465454337376e-05,3.25,2.75
2.9296875,-2.6368177271686875e-05,-2.7346862623025855e-05,-1.5137938887617294e-05,-2.1488832318608364e-05,3.25,2.75
2.93359375,-2.588235504692148e-05,-1.7581131815060643e-05,-1.5630802014190883e-05,-2.4903669695582506e-05,3.25,2.75
2.9375,-3.076169999999999e-05,-1.8559817166399624e-05,-1.0744416159304179e-05,-3.0275877775234596e-05,3.25,2.75
2.94140625,-2.6861040398260464e-05,-2.197465454337376e-05,-1.953146161593041e-05,-3.3204892927443346e-05,3.25,2.75
2.9453125,-1.8559817166399624e-05,-1.7581131815060643e-05,-2.4903669695582506e-05,-3.2719070702677955e-05,3.25,2.75
2.94921875,-2.6368177271686875e-05,-2.051014696726939e-05,-1.416629443808651e-05,-3.3697756054016925e-05,3.25,2.75
2.953125,-3.125456312657358e-05,-1.904563939116502e-05,-3.907700503547716e-06,-2.393202524605172e-05,3.25,2.75
2.95703125,-3.711259343099107e-05,-2.8325547974364836e-05,-1.660244646372167e-05,-2.197465454337376e-05,3.25,2.75
2.9609375,-4.297062373540855e-05,-3.076169999999999e-05,-1.7581131815060643e-05,-1.8559817166399624e-05,3.25,2.75
2.96484375,-3.2719070702677955e-05,-1.416629443808651e-05,-4.886385854886697e-06,-8.794086358434412e-06,3.25,2.75
2.96875,-3.125456312657358e-05,-2.2467517669947348e-05,-2.051014696726939e-05,-2.4903669695582506e-05,3.25,2.75
2.97265625,-3.759841565575646e-05,-4.346348686198214e-05,-2.9790055550469204e-05,-3.6626771206225676e-05,3.25,2.75
2.9765625,-4.05274308079652e-05,-3.906292323186083e-05,-2.539653282215609e-05,-3.3697756054016925e-05,3.25,2.75
2.98046875,-3.4669400503547715e-05,-2.881137019913023e-05,-2.0024324742504e-05,-3.0275877775234596e-05,3.25,2.75
2.984375,-3.759841565575646e-05,-2.9297192423895622e-05,-2.588235504692148e-05,-3.711259343099107e-05,3.25,2.75
2.98828125,-5.1271846967269395e-05,-4.346348686198214e-05,-3.125456312657358e-05,-3.906292323186083e-05,3.25,2.75
2.9921875,-5.225053231860837e-05,-4.639250201419088e-05,-2.9297192423895622e-05,-2.7346862623025855e-05,3.25,2.75
2.99609375,-4.346348686198214e-05,-4.102029393453879e-05,-2.8325547974364836e-05,-2.343916211947813e-05,3.25,2.75
3.0,-4.102029393453879e-05,-2.7832684847791247e-05,-2.9297192423895622e-05,-2.343916211947813e-05,3.25,2.75
3.00390625,-3.955578635843441e-05,-2.9297192423895622e-05,-2.881137019913023e-05,-2.6368177271686875e-05,3.25,2.75
3.0078125,-2.9297192423895622e-05,-4.1998979285877765e-05,-2.7346862623025855e-05,-2.9297192423895622e-05,3.25,2.75
3.01171875,-3.711259343099107e-05,-4.05274308079652e-05,-3.125456312657358e-05,-3.2719070702677955e-05,3.25,2.75
3.015625,-4.882865403982604e-05,-3.8091278782330044e-05,-2.8325547974364836e-05,-3.4669400503547715e-05,3.25,2.75
3.01953125,-5.566536969558251e-05,-4.58996388876173e-05,-2.6861040398260464e-05,-3.759841565575646e-05,3.25,2.75
3.0234375,-5.0786024742503996e-05,-4.932151716639963e-05,-1.7581131815060643e-05,-2.539653282215609e-05,3.25,2.75
3.02734375,-4.102029393453879e-05,-4.785700959029525e-05,-2.1003010093842973e-05,-2.6368177271686875e-05,3.25,2.75
3.03125,-3.6626771206225676e-05,-5.029316161593041e-05,-3.564808585488669e-05,-4.102029393453879e-05,3.25,2.75
3.03515625,-3.2233248477912556e-05,-4.05274308079652e-05,-3.0275877775234596e-05,-3.906292323186083e-05,3.25,2.75
3.0390625,-3.0275877775234596e-05,-3.6626771206225676e-05,-3.174038535133897e-05,-3.8091278782330044e-05,3.25,2.75
3.04296875,-2.343916211947813e-05,-3.564808585488669e-05,-3.2233248477912556e-05,-3.0275877775234596e-05,3.25,2.75
3.046875,-2.197465454337376e-05,-3.0275877775234596e-05,-2.7832684847791247e-05,-2.4417847470817115e-05,3.25,2.75
3.05078125,-3.3697756054016925e-05,-3.2719070702677955e-05,-2.8325547974364836e-05,-2.295333989471274e-05,3.25,2.75
3.0546875,-4.4927994438086515e-05,-3.3204892927443346e-05,-3.906292323186083e-05,-1.6116624238956275e-05,3.25,2.75
3.05859375,-4.736414646372167e-05,-3.564808585488669e-05,-4.4927994438086515e-05,-3.51622636301213e-05,3.25,2.75
3.0625,-4.346348686198214e-05,-4.2484801510643156e-05,-3.6626771206225676e-05,-6.0058892423895626e-05,3.25,2.75
3.06640625,-4.05274308079652e-05,-4.443513131151292e-05,-3.613390807965208e-05,-4.882865403982604e-05,3.25,2.75
3.0703125,-3.174038535133897e-05,-2.7832684847791247e-05,-3.2233248477912556e-05,-3.759841565575646e-05,3.25,2.75
3.07421875,-2.4903669695582506e-05,-3.174038535133897e-05,-3.3204892927443346e-05,-3.174038535133897e-05,3.25,2.75
3.078125,-3.564808585488669e-05,-4.54138166628519e-05,-3.8577101007095435e-05,-1.904563939116502e-05,3.25,2.75
3.08203125,-3.613390807965208e-05,-3.906292323186083e-05,-3.4183578278782316e-05,-4.400563630121297e-06,3.25,2.75
3.0859375,-3.2719070702677955e-05,-3.955578635843441e-05,-3.759841565575646e-05,-8.794086358434412e-06,3.25,2.75
3.08984375,-4.004160858319981e-05,-4.102029393453879e-05,-4.102029393453879e-05,-3.4669400503547715e-05,3.25,2.75
3.09375,-3.51622636301213e-05,-4.2484801510643156e-05,-4.297062373540855e-05,-5.517954747081711e-05,3.25,2.75
3.09765625,-2.881137019913023e-05,-3.8091278782330044e-05,-4.58996388876173e-05,-5.6644055046921484e-05,3.25,2.75
3.1015625,-2.8325547974364836e-05,-2.6368177271686875e-05,-3.2719070702677955e-05,-5.1271846967269395e-05,3.25,2.75
3.10546875,-2.7346862623025855e-05,-2.7832684847791247e-05,-3.076169999999999e-05,-4.150611615930418e-05,3.25,2.75
3.109375,-2.881137019913023e-05,-2.8325547974364836e-05,-3.4669400503547715e-05,-3.2233248477912556e-05,3.25,2.75
3.11328125,-3.51622636301213e-05,-3.076169999999999e-05,-2.393202524605172e-05,-2.6861040398260464e-05,3.25,2.75
3.1171875,-2.197465454337376e-05,-2.9297192423895622e-05,-2.197465454337376e-05,-1.7095309590295252e-05,3.25,2.75
3.12109375,-8.794086358434412e-06,-3.125456312657358e-05,-3.076169999999999e-05,-2.4903669695582506e-05,3.25,2.75
3.125,-1.660244646372167e-05,-3.4669400503547715e-05,-3.8091278782330044e-05,-4.05274308079652e-05,3.25,2.75
3.12890625,-1.8066954039826035e-05,-2.7832684847791247e-05,-3.4183578278782316e-05,-4.1998979285877765e-05,3.25,2.75
3.1328125,-2.539653282215609e-05,-3.906292323186083e-05,-3.759841565575646e-05,-4.8342831815060644e-05,3.25,2.75
3.13671875,-4.346348686198214e-05,-4.297062373540855e-05,-4.102029393453879e-05,-4.54138166628519e-05,3.25,2.75
3.140625,-4.882865403982604e-05,-3.51622636301213e-05,-4.004160858319981e-05,-3.4669400503547715e-05,3.25,2.75
3.14453125,-3.759841565575646e-05,-3.4669400503547715e-05,-3.6626771206225676e-05,-3.906292323186083e-05,3.25,2.75
3.1484375,-2.9790055550469204e-05,-3.564808585488669e-05,-3.906292323186083e-05,-3.711259343099107e-05,3.25,2.75
3.15234375,-2.881137019913023e-05,-2.8325547974364836e-05,-4.2484801510643156e-05,-2.8325547974364836e-05,3.25,2.75
3.15625,-2.9297192423895622e-05,-2.6368177271686875e-05,-3.174038535133897e-05,-1.5630802014190883e-05,3.25,2.75
3.16015625,-2.7346862623025855e-05,-2.7346862623025855e-05,-3.076169999999999e-05,-2.4903669695582506e-05,3.25,2.75
3.1640625,-3.8577101007095435e-05,-3.6626771206225676e-05,-4.394930908674753e-05,-4.882865403982604e-05,3.25,2.75
3.16796875,-4.8342831815060644e-05,-4.687832423895628e-05,-5.1271846967269395e-05,-4.4927994438086515e-05,3.25,2.75
3.171875,-4.2484801510643156e-05,-4.4927994438086515e-05,-4.2484801510643156e-05,-3.4183578278782316e-05,3.25,2.75
3.17578125,-4.102029393453879e-05,-4.639250201419088e-05,-4.004160858319981e-05,-2.6861040398260464e-05,3.25,2.75
3.1796875,-3.8577101007095435e-05,-3.4183578278782316e-05,-3.4669400503547715e-05,-2.6861040398260464e-05,3.25,2.75
3.18359375,-2.9790055550469204e-05,-2.539653282215609e-05,-2.6368177271686875e-05,-4.05274308079652e-05,3.25,2.75
3.1875,-2.7832684847791247e-05,-2.881137019913023e-05,-2.393202524605172e-05,-3.0275877775234596e-05,3.25,2.75
3.19140625,-2.9790055550469204e-05,-3.0275877775234596e-05,-2.1003010093842973e-05,-2.197465454337376e-05,3.25,2.75
3.1953125,-3.3697756054016925e-05,-2.539653282215609e-05,-3.076169999999999e-05,-3.2719070702677955e-05,3.25,2.75
3.19921875,-4.346348686198214e-05,-2.2467517669947348e-05,-3.2719070702677955e-05,-2.4417847470817115e-05,3.25,2.75
3.203125,-5.0786024742503996e-05,-3.2233248477912556e-05,-3.613390807965208e-05,-3.2719070702677955e-05,3.25,2.75
3.20703125,-3.906292323186083e-05,-3.51622636301213e-05,-3.4183578278782316e-05,-4.54138166628519e-05,3.25,2.75
3.2109375,-2.197465454337376e-05,-2.6861040398260464e-05,-3.2233248477912556e-05,-3.2233248477912556e-05,3.25,2.75
3.21484375,-3.125456312657358e-05,-3.4183578278782316e-05,-4.150611615930418e-05,-3.759841565575646e-05,3.25,2.75
3.21875,-4.004160858319981e-05,-4.102029393453879e-05,-3.51622636301213e-05,-5.1271846967269395e-05,3.25,2.75
3.22265625,-4.297062373540855e-05,-3.711259343099107e-05,-3.8091278782330044e-05,-5.517954747081711e-05,3.25,2.75
3.2265625,-3.564808585488669e-05,-4.346348686198214e-05,-4.394930908674753e-05,-4.394930908674753e-05,3.25,2.75
3.23046875,-2.881137019913023e-05,-4.346348686198214e-05,-2.9790055550469204e-05,-2.393202524605172e-05,3.25,2.75
3.234375,-3.711259343099107e-05,-3.759841565575646e-05,-4.443513131151292e-05,-3.125456312657358e-05,3.25,2.75
3.23828125,-3.6626771206225676e-05,-3.3204892927443346e-05,-4.58996388876173e-05,-3.613390807965208e-05,3.25,2.75
3.2421875,-3.4669400503547715e-05,-3.3204892927443346e-05,-2.9790055550469204e-05,-2.8325547974364836e-05,3.25,2.75
3.24609375,-3.711259343099107e-05,-2.9790055550469204e-05,-2.9790055550469204e-05,-2.4903669695582506e-05,3.25,2.75
3.25,-3.6626771206225676e-05,-3.711259343099107e-05,-3.0275877775234596e-05,-3.174038535133897e-05,3.25,2.75
3.25390625,-4.004160858319981e-05,-3.711259343099107e-05,-3.076169999999999e-05,-3.906292323186083e-05,3.25,2.75
3.2578125,-4.736414646372167e-05,-4.297062373540855e-05,-3.955578635843441e-05,-3.6626771206225676e-05,3.25,2.75
3.26171875,-4.05274308079652e-05,-4.4927994438086515e-05,-3.6626771206225676e-05,-3.51622636301213e-05,3.25,2.75
3.265625,-2.7346862623025855e-05,-2.2467517669947348e-05,-1.953146161593041e-05,-3.2719070702677955e-05,3.25,2.75
3.26953125,-2.4903669695582506e-05,-1.904563939116502e-05,-1.953146161593041e-05,-3.3204892927443346e-05,3.25,2.75
3.2734375,-2.7346862623025855e-05,-4.150611615930418e-05,-4.150611615930418e-05,-4.394930908674753e-05,3.25,2.75
3.27734375,-3.076169999999999e-05,-4.8342831815060644e-05,-5.566536969558251e-05,-4.687832423895628e-05,3.25,2.75
3.28125,-4.4927994438086515e-05,-4.58996388876173e-05,-4.980733939116501e-05,-2.7832684847791247e-05,3.25,2.75
3.28515625,-4.687832423895628e-05,-4.639250201419088e-05,-4.150611615930418e-05,-1.5137938887617294e-05,3.25,2.75
3.2890625,-2.4903669695582506e-05,-3.613390807965208e-05,-3.51622636301213e-05,-2.9297192423895622e-05,3.25,2.75
3.29296875,-2.295333989471274e-05,-3.759841565575646e-05,-3.8577101007095435e-05,-4.2484801510643156e-05,3.25,2.75
3.296875,-3.2719070702677955e-05,-4.346348686198214e-05,-4.102029393453879e-05,-3.51622636301213e-05,3.25,2.75
3.30078125,-2.7832684847791247e-05,-2.9297192423895622e-05,-2.6861040398260464e-05,-3.4183578278782316e-05,3.25,2.75
3.3046875,-3.3204892927443346e-05,-3.3697756054016925e-05,-2.7832684847791247e-05,-4.4927994438086515e-05,3.25,2.75
3.30859375,-4.1998979285877765e-05,-4.785700959029525e-05,-3.3204892927443346e-05,-3.906292323186083e-05,3.25,2.75
3.3125,-4.004160858319981e-05,-4.102029393453879e-05,-2.8325547974364836e-05,-2.197465454337376e-05,3.25,2.75
3.31640625,-2.7832684847791247e-05,-4.102029393453879e-05,-3.4183578278782316e-05,-2.1003010093842973e-05,3.25,2.75
3.3203125,-2.9790055550469204e-05,-3.4183578278782316e-05,-4.150611615930418e-05,-3.8091278782330044e-05,3.25,2.75
3.32421875,-3.6626771206225676e-05,-3.3204892927443346e-05,-3.6626771206225676e-05,-4.297062373540855e-05,3.25,2.75
3.328125,-3.076169999999999e-05,-5.322921766994734e-05,-3.759841565575646e-05,-3.2233248477912556e-05,3.25,2.75
3.33203125,-2.4903669695582506e-05,-4.4927994438086515e-05,-4.394930908674753e-05,-3.0275877775234596e-05,3.25,2.75
3.3359375,-3.564808585488669e-05,-3.125456312657358e-05,-3.906292323186083e-05,-3.955578635843441e-05,3.25,2.75
3.33984375,-3.4669400503547715e-05,-3.2233248477912556e-05,-4.346348686198214e-05,-3.906292323186083e-05,3.25,2.75
3.34375,-2.881137019913023e-05,-4.443513131151292e-05,-4.297062373540855e-05,-3.076169999999999e-05,3.25,2.75
3.34765625,-3.8577101007095435e-05,-4.102029393453879e-05,-5.029316161593041e-05,-2.4903669695582506e-05,3.25,2.75
3.3515625,-4.102029393453879e-05,-4.394930908674753e-05,-5.7129877271686875e-05,-2.0024324742504e-05,3.25,2.75
3.35546875,-4.102029393453879e-05,-4.736414646372167e-05,-4.004160858319981e-05,-2.7832684847791247e-05,3.25,2.75
3.359375,-4.05274308079652e-05,-4.150611615930418e-05,-3.906292323186083e-05,-3.564808585488669e-05,3.25,2.75
3.36328125,-4.2484801510643156e-05,-4.004160858319981e-05,-4.58996388876173e-05,-3.6626771206225676e-05,3.25,2.75
3.3671875,-3.3204892927443346e-05,-4.1998979285877765e-05,-4.4927994438086515e-05,-3.3204892927443346e-05,3.25,2.75
3.37109375,-2.881137019913023e-05,-3.6626771206225676e-05,-4.736414646372167e-05,-4.004160858319981e-05,3.25,2.75
3.375,-3.4669400503547715e-05,-3.759841565575646e-05,-5.322921766994734e-05,-4.394930908674753e-05,3.25,2.75
3.37890625,-3.6626771206225676e-05,-4.443513131151292e-05,-5.273635454337376e-05,-2.881137019913023e-05,3.25,2.75
3.3828125,-3.2719070702677955e-05,-3.076169999999999e-05,-4.736414646372167e-05,-2.393202524605172e-05,3.25,2.75
3.38671875,-2.9297192423895622e-05,-3.759841565575646e-05,-4.54138166628519e-05,-3.125456312657358e-05,3.25,2.75
3.390625,-2.539653282215609e-05,-4.443513131151292e-05,-4.102029393453879e-05,-2.7832684847791247e-05,3.25,2.75
3.39453125,-2.6861040398260464e-05,-3.8091278782330044e-05,-3.906292323186083e-05,-3.174038535133897e-05,3.25,2.75
3.3984375,-2.539653282215609e-05,-4.346348686198214e-05,-4.297062373540855e-05,-4.102029393453879e-05,3.25,2.75
3.40234375,-1.953146161593041e-05,-4.4927994438086515e-05,-4.004160858319981e-05,-2.7346862623025855e-05,3.25,2.75
3.40625,-2.1003010093842973e-05,-3.8091278782330044e-05,-3.759841565575646e-05,-1.904563939116502e-05,3.25,2.75
3.41015625,-1.7581131815060643e-05,-3.2719070702677955e-05,-4.346348686198214e-05,-2.7832684847791247e-05,3.25,2.75
3.4140625,-1.6116624238956275e-05,-3.8577101007095435e-05,-4.980733939116501e-05,-3.2719070702677955e-05,3.25,2.75
3.41796875,-1.416629443808651e-05,-4.1998979285877765e-05,-5.0786024742503996e-05,-2.7346862623025855e-05,3.25,2.75
3.421875,-1.4715484779125488e-06,-4.150611615930418e-05,-4.394930908674753e-05,-2.197465454337376e-05,3.25,2.75
3.42578125,1.950329800869781e-06,-5.810856262302586e-05,-5.517954747081711e-05,-2.1488832318608364e-05,3.25,2.75
3.4296875,2.4361520256351667e-06,-8.20265060654612e-05,-8.349101364156557e-05,-2.0024324742504e-05,3.25,2.75
3.43359375,1.0251553032730612e-05,-9.179223687342641e-05,-9.667862272831311e-05,-3.4183578278782316e-05,3.25,2.75
3.4375,2.2946298992904572e-05,-0.00010253665303273059,-0.00011083787626459144,-3.3697756054016925e-05,3.25,2.75
3.44140625,5.028612071412223e-05,-9.618575960173953e-05,-0.00010937336868848706,-1.2701786861982143e-05,3.25,2.75
3.4453125,5.5658328793774326e-05,-0.00010644435353627832,-0.00010595149040970472,-9.765730807965198e-06,3.25,2.75
3.44921875,5.615119192034791e-05,-0.00015136530707255663,-0.00014599309899290455,-1.2701786861982143e-05,3.25,2.75
3.453125,7.177495303273062e-05,-0.00018163414394598305,-0.00018652052980086978,-9.279908583199812e-06,3.25,2.75
3.45703125,8.691289192034793e-05,-0.00019872945353627833,-0.00020116560556191347,-3.907700503547716e-06,3.25,2.75
3.4609375,9.325674444953079e-05,-0.00021581772222476538,-0.00022314026010528725,7.808360105287263e-06,3.25,2.75
3.46484375,0.00010009346010528728,-0.0002299769757610437,-0.0002353491838406958,2.0017283840695825e-05,3.25,2.75
3.46875,0.00010351533838406959,-0.0002426717217212177,-0.00025438778233005264,1.3666390409704745e-05,3.25,2.75
3.47265625,0.00010448698283360038,-0.00025878834596017395,-0.00026855407676813916,9.75868990615703e-06,3.25,2.75
3.4765625,0.00010204378990615703,-0.0002729475994964523,-0.00026952572121766996,2.0017283840695825e-05,3.25,2.75
3.48046875,9.179223687342644e-05,-0.00026220318333714806,-0.0002636676909132525,3.222620757610438e-05,3.25,2.75
3.484375,8.446969899290457e-05,-0.0002465794222247654,-0.0002504871227283131,3.222620757610438e-05,3.25,2.75
3.48828125,6.835307475394827e-05,-0.00024852975202563517,-0.00025683097525749596,1.562376111238271e-05,3.25,2.75
3.4921875,5.4193821217669944e-05,-0.0002548806454566262,-0.0002582954828336004,1.5130897985809127e-05,3.25,2.75
3.49609375,5.077898384069583e-05,-0.0002470652444495308,-0.0002519516303044175,1.7088268688487075e-05,3.25,2.75
3.5,3.7591374753948285e-05,-0.00022949115353627832,-0.0002426717217212177,3.414837376974148e-06,3.25,2.75
3.50390625,1.7088268688487075e-05,-0.00021728222980086975,-0.00021239584394598307,-3.421878278782316e-06,3.25,2.75
3.5078125,1.1230238384069594e-05,-0.00020703067676813914,-0.00019432888990615702,-3.907700503547716e-06,3.25,2.75
3.51171875,8.787045456626245e-06,-0.00020067978333714807,-0.00018847085960173952,-1.3187609086747528e-05,3.25,2.75
3.515625,-6.836715655756449e-06,-0.0001855418444495308,-0.00017919799192034791,-1.7095309590295252e-05,3.25,2.75
3.51953125,-3.2233248477912556e-05,-0.00016161686010528726,-0.00016113103788052184,-1.5137938887617294e-05,3.25,2.75
3.5234375,-4.150611615930418e-05,-0.00014745760656900892,-0.00014062089091325248,-1.6116624238956275e-05,3.25,2.75
3.52734375,-3.955578635843441e-05,-0.00013867056111238268,-0.00013085516010528727,-1.7095309590295252e-05,3.25,2.75
3.53125,-4.980733939116501e-05,-0.00011621008434424353,-0.00012353262222476537,-3.4183578278782316e-05,3.25,2.75
3.53515625,-5.908724797436484e-05,-0.00010009346010528725,-0.00011328106919203478,-4.8342831815060644e-05,3.25,2.75
3.5390625,-6.10375777752346e-05,-8.69128919203479e-05,-8.886322172121767e-05,-4.2484801510643156e-05,3.25,2.75
3.54296875,-6.885297878233004e-05,-7.178199393453878e-05,-6.689560807965209e-05,-4.687832423895628e-05,3.25,2.75
3.546875,-8.056199848935682e-05,-6.982462323186084e-05,-6.201626312657359e-05,-6.689560807965209e-05,3.25,2.75
3.55078125,-8.73987141451133e-05,-6.10375777752346e-05,-6.10375777752346e-05,-6.299494847791256e-05,3.25,2.75
3.5546875,-8.007617626459143e-05,-5.176471009384297e-05,-4.639250201419088e-05,-4.2484801510643156e-05,3.25,2.75
3.55859375,-7.178199393453878e-05,-3.613390807965208e-05,-3.2719070702677955e-05,-2.881137019913023e-05,3.25,2.75
3.5625,-8.15406838406958e-05,-2.6368177271686875e-05,-2.7832684847791247e-05,-3.8577101007095435e-05,3.25,2.75
3.56640625,-8.15406838406958e-05,-2.9297192423895622e-05,-2.1003010093842973e-05,-5.371503989471274e-05,3.25,2.75
3.5703125,-8.300519141680018e-05,-1.7581131815060643e-05,-1.5630802014190883e-05,-5.1271846967269395e-05,3.25,2.75
3.57421875,-9.130641464866101e-05,-1.1237279285877761e-05,-1.2701786861982143e-05,-5.029316161593041e-05,3.25,2.75
3.578125,-9.277092222476538e-05,-1.367343131151292e-05,-1.1237279285877761e-05,-6.348077070267794e-05,3.25,2.75
3.58203125,-9.862895252918288e-05,-1.367343131151292e-05,-2.443192927443334e-06,-7.861166868848707e-05,3.25,2.75
3.5859375,-9.325674444953078e-05,-1.0258593934538779e-05,5.365167177843915e-06,-7.61755166628519e-05,3.25,2.75
3.58984375,-8.495552121766994e-05,-4.400563630121297e-06,6.8296747539482816e-06,-4.4927994438086515e-05,3.25,2.75
3.59375,-8.495552121766994e-05,2.9290151522087485e-06,1.0251553032730612e-05,-2.2467517669947348e-05,3.25,2.75
3.59765625,-8.446969899290455e-05,4.858222247653998e-07,1.4645075761043727e-05,-3.564808585488669e-05,3.25,2.75
3.6015625,-8.495552121766994e-05,-4.928631265735816e-07,3.9006596017395335e-06,-4.58996388876173e-05,3.25,2.75
3.60546875,-8.837739949645226e-05,7.808360105287263e-06,4.879344953078515e-06,-4.346348686198214e-05,3.25,2.75
3.609375,-9.130641464866101e-05,-3.907700503547716e-06,9.75868990615703e-06,-5.371503989471274e-05,3.25,2.75
3.61328125,-8.056199848935682e-05,-6.350893430991064e-06,5.365167177843915e-06,-7.128913080796521e-05,3.25,2.75
3.6171875,-8.056199848935682e-05,-6.350893430991064e-06,-4.886385854886697e-06,-7.422518686198213e-05,3.25,2.75
3.62109375,-8.593420656900892e-05,-4.928631265735816e-07,-4.886385854886697e-06,-5.7129877271686875e-05,3.25,2.75
3.625,-7.958331313801784e-05,1.0737375257496012e-05,9.75868990615703e-06,-4.58996388876173e-05,3.25,2.75
3.62890625,-7.178199393453878e-05,1.269474596017396e-05,1.1230238384069594e-05,-4.443513131151292e-05,3.25,2.75
3.6328125,-7.422518686198213e-05,9.75868990615703e-06,1.4645075761043812e-06,-3.906292323186083e-05,3.25,2.75
3.63671875,-6.982462323186084e-05,1.0737375257496012e-05,6.343852529182896e-06,-3.906292323186083e-05,3.25,2.75
3.640625,-6.299494847791256e-05,1.1230238384069594e-05,1.805991313801786e-05,-3.564808585488669e-05,3.25,2.75
3.64453125,-6.445945605401693e-05,2.9290151522087485e-06,1.1716060608834979e-05,-3.8091278782330044e-05,3.25,2.75
3.6484375,-5.420086211947813e-05,6.343852529182896e-06,1.5130897985809127e-05,-5.615823282215609e-05,3.25,2.75
3.65234375,-5.6644055046921484e-05,3.414837376974148e-06,1.3666390409704745e-05,-5.371503989471274e-05,3.25,2.75
3.65625,-6.299494847791256e-05,1.950329800869781e-06,9.27286768139163e-06,-4.785700959029525e-05,3.25,2.75
3.66015625,-5.908724797436484e-05,1.6109583337148094e-05,1.805991313801786e-05,-4.54138166628519e-05,3.25,2.75
3.6640625,-6.299494847791256e-05,6.343852529182896e-06,1.2201882833600379e-05,-4.1998979285877765e-05,3.25,2.75
3.66796875,-6.543110050354772e-05,-8.301223231860831e-06,2.9290151522087485e-06,-3.759841565575646e-05,3.25,2.75
3.671875,-6.445945605401693e-05,-1.0744416159304179e-05,-1.4715484779125488e-06,-3.955578635843441e-05,3.25,2.75
3.67578125,-6.0058892423895626e-05,-6.836715655756449e-06,-7.815401007095432e-06,-4.785700959029525e-05,3.25,2.75
3.6796875,-4.980733939116501e-05,-1.4715484779125488e-06,-9.765730807965198e-06,-5.225053231860837e-05,3.25,2.75
3.68359375,-5.0786024742503996e-05,-2.443192927443334e-06,-6.836715655756449e-06,-5.371503989471274e-05,3.25,2.75
3.6875,-5.810856262302586e-05,-1.5137938887617294e-05,-6.350893430991064e-06,-4.58996388876173e-05,3.25,2.75
3.69140625,-5.6644055046921484e-05,-1.8066954039826035e-05,-1.5137938887617294e-05,-3.8577101007095435e-05,3.25,2.75
3.6953125,-6.250208535133897e-05,-1.7581131815060643e-05,-1.953146161593041e-05,-4.736414646372167e-05,3.25,2.75
3.69921875,-7.178199393453878e-05,-1.8559817166399624e-05,-1.5630802014190883e-05,-5.225053231860837e-05,3.25,2.75
3.703125,-5.225053231860837e-05,-3.421878278782316e-06,-1.416629443808651e-05,-3.759841565575646e-05,3.25,2.75
3.70703125,-4.346348686198214e-05,4.393522728313129e-06,-1.172310151064316e-05,-2.4903669695582506e-05,3.25,2.75
3.7109375,-5.420086211947813e-05,-6.350893430991064e-06,-6.350893430991064e-06,-3.0275877775234596e-05,3.25,2.75
3.71484375,-4.58996388876173e-05,-4.886385854886697e-06,1.4210854715202003e-20,-3.759841565575646e-05,3.25,2.75
3.71875,-2.7832684847791247e-05,-4.928631265735816e-07,1.4210854715202003e-20,-3.2719070702677955e-05,3.25,2.75
3.72265625,-2.1003010093842973e-05,-2.443192927443334e-06,-9.279908583199812e-06,-2.7346862623025855e-05,3.25,2.75
3.7265625,-2.588235504692148e-05,1.4645075761043812e-06,-6.836715655756449e-06,-2.6368177271686875e-05,3.25,2.75
3.73046875,-3.2233248477912556e-05,-2.4903669695582506e-05,-1.2208923735408547e-05,-3.564808585488669e-05,3.25,2.75
3.734375,-2.6368177271686875e-05,-3.8577101007095435e-05,-2.6368177271686875e-05,-3.3204892927443346e-05,3.25,2.75
3.73828125,-1.5137938887617294e-05,-3.759841565575646e-05,-3.4183578278782316e-05,-2.588235504692148e-05,3.25,2.75
3.7421875,-1.3187609086747528e-05,-4.785700959029525e-05,-4.687832423895628e-05,-2.539653282215609e-05,3.25,2.75
3.74609375,-9.279908583199812e-06,-5.615823282215609e-05,-5.957307019913023e-05,-2.2467517669947348e-05,3.25,2.75
3.75,4.879344953078515e-06,-8.593420656900892e-05,-8.251936919203479e-05,-2.588235504692148e-05,3.25,2.75
3.75390625,2.148179141680019e-05,-0.00010546566818493934,-0.00010400116060883496,-1.904563939116502e-05,3.25,2.75
3.7578125,3.319785202563517e-05,-0.00012206811464866102,-0.00012548295202563514,-1.7095309590295252e-05,3.25,2.75
3.76171875,4.73571055619135e-05,-0.00013427703838406958,-0.0001318338454566262,-1.7581131815060643e-05,3.25,2.75
3.765625,6.78672525291829e-05,-0.00013476286060883498,-0.00014110671313801785,-1.660244646372167e-05,3.25,2.75
3.76953125,8.154068384069583e-05,-0.0001743116060654612,-0.00018407733687342642,-1.0258593934538779e-05,3.25,2.75
3.7734375,9.374960757610438e-05,-0.0002314414833371481,-0.00021630354444953078,8.787045456626245e-06,3.25,2.75
3.77734375,0.00012646163737697414,-0.0002514587671778439,-0.00023339181313801783,1.9524420714122243e-05,3.25,2.75
3.78125,0.00014940793636987872,-0.0002582954828336004,-0.00026415351313801785,3.319785202563517e-05,3.25,2.75
3.78515625,0.00014306408384069584,-0.00028368497475394827,-0.00028612816768139164,3.808423788052187e-05,3.25,2.75
3.7890625,0.00014159957626459145,-0.0002968725838406958,-0.00029491521313801785,2.6361136369878708e-05,3.25,2.75
3.79296875,0.00014159957626459145,-0.0002968725838406958,-0.0003027306141451133,1.4159253536278341e-05,3.25,2.75
3.796875,0.00013964220556191348,-0.00029345070556191353,-0.00029345070556191353,1.6109583337148094e-05,3.25,2.75
3.80078125,0.00013085516010528727,-0.0002856423454566262,-0.00027441210707255663,2.050310606546121e-05,3.25,2.75
3.8046875,0.0001196249217212177,-0.0002817346449530785,-0.0002709902287937743,1.903859848935684e-05,3.25,2.75
3.80859375,0.00011523139899290459,-0.00026318186868848706,-0.0002617173611123827,2.8804329297322053e-05,3.25,2.75
3.8125,0.00011621008434424356,-0.0002475581075761044,-0.00024218589949645227,2.7825643945983073e-05,3.25,2.75
3.81640625,0.00011278820606546122,-0.00023925688434424356,-0.00023827819899290456,1.1716060608834979e-05,3.25,2.75
3.8203125,9.179223687342644e-05,-0.00023876402121766993,-0.00024022852879377433,1.7088268688487075e-05,3.25,2.75
3.82421875,6.73814303044175e-05,-0.00022899829040970473,-0.00021972542272831312,1.8552776264591457e-05,3.25,2.75
3.828125,5.370799899290457e-05,-0.00020946682879377434,-0.0002001939611123827,6.8296747539482816e-06,3.25,2.75
3.83203125,5.028612071412223e-05,-0.00018993536717784386,-0.00018261282929732202,1.2201882833600379e-05,3.25,2.75
3.8359375,4.784996868848708e-05,-0.0001689393979858091,-0.00015820202272831313,2.0995969192034806e-05,3.25,2.75
3.83984375,4.589259798580912e-05,-0.00014697178434424352,-0.00014794342879377432,1.7574090913252476e-05,3.25,2.75
3.84375,3.1733344449530804e-05,-0.00012597581515220874,-0.000132805489906157,1.6109583337148094e-05,3.25,2.75
3.84765625,2.4361520256351667e-06,-0.00012157525152208742,-0.00012206811464866102,1.4645075761043812e-06,3.25,2.75
3.8515625,-2.1003010093842973e-05,-0.00010644435353627832,-0.00011034501313801786,-7.329578782330045e-06,3.25,2.75
3.85546875,-2.7832684847791247e-05,-8.20265060654612e-05,-7.714716111238268e-05,-7.329578782330045e-06,3.25,2.75
3.859375,-4.2484801510643156e-05,-6.836011565575646e-05,-5.225053231860837e-05,-3.174038535133897e-05,3.25,2.75
3.86328125,-5.908724797436484e-05,-4.882865403982604e-05,-3.4669400503547715e-05,-3.955578635843441e-05,3.25,2.75
3.8671875,-5.908724797436484e-05,-2.7346862623025855e-05,-1.5137938887617294e-05,-2.6368177271686875e-05,3.25,2.75
3.87109375,-6.885297878233004e-05,-1.660244646372167e-05,-4.400563630121297e-06,-2.9297192423895622e-05,3.25,2.75
3.875,-9.032772929732203e-05,-5.3722080796520826e-06,-2.9360560540169303e-06,-3.564808585488669e-05,3.25,2.75
3.87890625,-0.00010448698283360035,1.562376111238271e-05,3.9006596017395335e-06,-3.51622636301213e-05,3.25,2.75
3.8828125,-0.00011425271364156558,2.7825643945983073e-05,2.4896628793774326e-05,-4.2484801510643156e-05,3.25,2.75
3.88671875,-0.00012157525152208742,3.515522272831313e-05,3.7591374753948285e-05,-4.150611615930418e-05,3.25,2.75
3.890625,-0.00011816041414511328,3.905588233005265e-05,4.19919383840696e-05,-4.687832423895628e-05,3.25,2.75
3.89453125,-0.00011180952071412221,5.077898384069583e-05,4.492095353627833e-05,-6.640978585488669e-05,3.25,2.75
3.8984375,-0.00010546566818493934,5.908020707255667e-05,4.9800298489356845e-05,-7.178199393453878e-05,3.25,2.75
3.90234375,-0.00011180952071412221,4.540677576104373e-05,6.73814303044175e-05,-8.104782071412222e-05,3.25,2.75
3.90625,-0.00011523139899290455,5.370799899290457e-05,6.688856717784392e-05,-8.15406838406958e-05,3.25,2.75
3.91015625,-0.0001176745919203479,5.7615699496452294e-05,5.663701414511331e-05,-6.201626312657359e-05,3.25,2.75
3.9140625,-0.00013085516010528727,5.3222176768139175e-05,5.5658328793774326e-05,-5.8594384847791244e-05,3.25,2.75
3.91796875,-0.00013622736818493932,5.908020707255667e-05,5.7615699496452294e-05,-6.640978585488669e-05,3.25,2.75
3.921875,-0.000133784175257496,6.347372980086978e-05,6.73814303044175e-05,-6.250208535133897e-05,3.25,2.75
3.92578125,-0.00012353262222476537,6.0544714648661024e-05,8.251936919203481e-05,-5.517954747081711e-05,3.25,2.75
3.9296875,-0.00012011074394598305,5.4193821217669944e-05,7.909749091325246e-05,-6.689560807965209e-05,3.25,2.75
3.93359375,-0.00012548295202563514,5.7615699496452294e-05,7.079626768139164e-05,-7.324650151064316e-05,3.25,2.75
3.9375,-0.00012206811464866102,6.0544714648661024e-05,7.470396818493936e-05,-7.178199393453878e-05,3.25,2.75
3.94140625,-0.00011864623636987868,7.27536383840696e-05,7.031044545662624e-05,-7.909749091325245e-05,3.25,2.75
3.9453125,-0.00011864623636987868,7.372528283360037e-05,5.908020707255667e-05,-7.471100908674753e-05,3.25,2.75
3.94921875,-0.00010644435353627832,7.031044545662624e-05,6.395955202563515e-05,-6.445945605401693e-05,3.25,2.75
3.953125,-9.130641464866101e-05,7.665429798580914e-05,6.298790757610438e-05,-4.736414646372167e-05,3.25,2.75
3.95703125,-0.00010057928233005265,6.640274495307852e-05,5.3222176768139175e-05,-3.564808585488669e-05,3.25,2.75
3.9609375,-0.00012157525152208742,5.224349141680019e-05,4.589259798580912e-05,-5.8594384847791244e-05,3.25,2.75
3.96484375,-0.00011571722121766995,4.003456768139164e-05,3.515522272831313e-05,-6.787429343099107e-05,3.25,2.75
3.96875,-0.00010400116060883496,4.3456445960173966e-05,3.7591374753948285e-05,-6.152339999999999e-05,3.25,2.75
3.97265625,-9.325674444953078e-05,5.028612071412223e-05,3.905588233005265e-05,-6.201626312657359e-05,3.25,2.75
3.9765625,-8.398387676813916e-05,4.003456768139164e-05,3.417653737697415e-05,-6.250208535133897e-05,3.25,2.75
3.98046875,-8.886322172121767e-05,3.66197303044175e-05,4.003456768139164e-05,-5.6644055046921484e-05,3.25,2.75
3.984375,-9.374960757610436e-05,4.589259798580912e-05,4.589259798580912e-05,-4.58996388876173e-05,3.25,2.75
3.98828125,-9.130641464866101e-05,3.66197303044175e-05,4.638546111238271e-05,-4.687832423895628e-05,3.25,2.75
3.9921875,-8.984190707255664e-05,3.857006010528727e-05,3.0268836873426422e-05,-5.273635454337376e-05,3.25,2.75
3.99609375,-8.544838434424354e-05,4.247776060883498e-05,3.271202980086977e-05,-5.371503989471274e-05,3.25,2.75
4.0,-7.276067928587777e-05,3.319785202563517e-05,4.19919383840696e-05,-4.785700959029525e-05,3.25,2.75
4.00390625,-6.396659292744334e-05,4.247776060883498e-05,4.784996868848708e-05,-3.759841565575646e-05,3.25,2.75
4.0078125,-6.885297878233004e-05,4.1013253032730614e-05,5.077898384069583e-05,-4.150611615930418e-05,3.25,2.75
4.01171875,-7.226781615930418e-05,3.271202980086977e-05,3.9548745456626246e-05,-4.443513131151292e-05,3.25,2.75
4.015625,-7.128913080796521e-05,3.1247522224765406e-05,3.1733344449530804e-05,-5.225053231860837e-05,3.25,2.75
4.01953125,-7.373232373540855e-05,2.441080656900894e-05,2.3432121217669957e-05,-5.7129877271686875e-05,3.25,2.75
4.0234375,-7.178199393453878e-05,2.8318507072556655e-05,2.7339821721217688e-05,-4.785700959029525e-05,3.25,2.75
4.02734375,-5.810856262302586e-05,2.929015152208744e-05,3.319785202563517e-05,-3.906292323186083e-05,3.25,2.75
4.03125,-5.322921766994734e-05,2.4896628793774326e-05,2.929015152208744e-05,-5.322921766994734e-05,3.25,2.75
4.03515625,-5.0786024742503996e-05,2.6361136369878708e-05,2.6361136369878708e-05,-6.250208535133897e-05,3.25,2.75
4.0390625,-4.980733939116501e-05,1.7574090913252476e-05,2.148179141680019e-05,-6.0058892423895626e-05,3.25,2.75
4.04296875,-5.615823282215609e-05,1.2201882833600379e-05,1.805991313801786e-05,-5.517954747081711e-05,3.25,2.75
4.046875,-5.908724797436484e-05,1.0737375257496012e-05,1.6595405561913493e-05,-4.8342831815060644e-05,3.25,2.75
4.05078125,-5.810856262302586e-05,-4.928631265735816e-07,6.8296747539482816e-06,-4.980733939116501e-05,3.25,2.75
4.0546875,-5.908724797436484e-05,-1.0258593934538779e-05,-9.786853513389673e-07,-5.176471009384297e-05,3.25,2.75
4.05859375,-6.445945605401693e-05,-1.367343131151292e-05,5.365167177843915e-06,-4.54138166628519e-05,3.25,2.75
4.0625,-6.0058892423895626e-05,-1.0744416159304179e-05,8.787045456626245e-06,-4.1998979285877765e-05,3.25,2.75
4.06640625,-6.0551755550469205e-05,-1.3187609086747528e-05,-3.421878278782316e-06,-4.639250201419088e-05,3.25,2.75
4.0703125,-5.7129877271686875e-05,-1.0258593934538779e-05,-4.400563630121297e-06,-4.687832423895628e-05,3.25,2.75
4.07421875,-4.1998979285877765e-05,4.879344953078515e-06,-2.443192927443334e-06,-4.58996388876173e-05,3.25,2.75
4.078125,-4.05274308079652e-05,4.393522728313129e-06,4.393522728313129e-06,-3.3697756054016925e-05,3.25,2.75
4.08203125,-4.443513131151292e-05,1.950329800869781e-06,9.27286768139163e-06,-2.588235504692148e-05,3.25,2.75
4.0859375,-4.8342831815060644e-05,-9.786853513389673e-07,-4.928631265735816e-07,-4.443513131151292e-05,3.25,2.75
4.08984375,-5.420086211947813e-05,-1.2208923735408547e-05,-5.865071206225664e-06,-3.8577101007095435e-05,3.25,2.75
4.09375,-5.420086211947813e-05,-1.1237279285877761e-05,-7.815401007095432e-06,-2.8325547974364836e-05,3.25,2.75
4.09765625,-4.639250201419088e-05,-5.3722080796520826e-06,-2.443192927443334e-06,-3.4183578278782316e-05,3.25,2.75
4.1015625,-4.882865403982604e-05,-6.836715655756449e-06,-3.907700503547716e-06,-3.3204892927443346e-05,3.25,2.75
4.10546875,-5.762274039826046e-05,-5.3722080796520826e-06,-1.172310151064316e-05,-4.297062373540855e-05,3.25,2.75
4.109375,-5.371503989471274e-05,-1.7095309590295252e-05,-2.588235504692148e-05,-4.639250201419088e-05,3.25,2.75
4.11328125,-5.371503989471274e-05,-2.8325547974364836e-05,-3.125456312657358e-05,-3.955578635843441e-05,3.25,2.75
4.1171875,-4.785700959029525e-05,-2.4903669695582506e-05,-2.539653282215609e-05,-4.004160858319981e-05,3.25,2.75
4.12109375,-3.955578635843441e-05,-2.6861040398260464e-05,-3.076169999999999e-05,-3.125456312657358e-05,3.25,2.75
4.125,-3.613390807965208e-05,-2.881137019913023e-05,-2.588235504692148e-05,-2.1488832318608364e-05,3.25,2.75
4.12890625,-3.8577101007095435e-05,-3.4183578278782316e-05,-2.7346862623025855e-05,-3.613390807965208e-05,3.25,2.75
4.1328125,-5.1271846967269395e-05,-3.906292323186083e-05,-3.076169999999999e-05,-4.443513131151292e-05,3.25,2.75
4.13671875,-5.1271846967269395e-05,-3.2233248477912556e-05,-2.9297192423895622e-05,-4.1998979285877765e-05,3.25,2.75
4.140625,-4.932151716639963e-05,-2.7832684847791247e-05,-3.2719070702677955e-05,-3.906292323186083e-05,3.25,2.75
4.14453125,-5.371503989471274e-05,-3.4183578278782316e-05,-3.2233248477912556e-05,-3.955578635843441e-05,3.25,2.75
4.1484375,-4.980733939116501e-05,-3.564808585488669e-05,-2.197465454337376e-05,-4.150611615930418e-05,3.25,2.75
