timestamp,TP9,AF7,AF8,TP10,Valence,Arousal
0.0,-3.857904589913785e-05,-2.1488620828564875e-05,-2.978578133821621e-05,-6.152925070572975e-05,3.25,2.75
0.00390625,-3.955687417410543e-05,5.854621301594591e-06,-1.3184270405127022e-05,-5.66472992446784e-05,3.25,2.75
0.0078125,-3.174143788815135e-05,1.6596352498664855e-05,3.906154665445967e-06,-6.445554561684594e-05,3.25,2.75
0.01171875,-3.66233893492027e-05,2.441178878461892e-05,3.1249396795605405e-05,-5.957359415579459e-05,3.25,2.75
0.015625,-3.809013176165406e-05,4.34506804913405e-05,4.540633704127566e-05,-5.371381441977567e-05,3.25,2.75
0.01953125,-3.809013176165406e-05,4.248004213015946e-05,3.222003515678645e-05,-5.078751950865949e-05,3.25,2.75
0.0234375,-3.613447521171892e-05,4.78509077286946e-05,2.8804826108186487e-05,-3.906796003662164e-05,3.25,2.75
0.02734375,-3.760121762417027e-05,7.812044476997025e-05,3.905764316777296e-05,-4.394991149767298e-05,3.25,2.75
0.03125,-4.394991149767298e-05,8.495805278095672e-05,7.714261649500267e-05,-5.224707200732432e-05,3.25,2.75
0.03515625,-3.320818030060272e-05,7.079392262149998e-05,7.519414985885404e-05,-3.4186008575570295e-05,3.25,2.75
0.0390625,-3.271926616311893e-05,6.34745903868162e-05,4.589525117875945e-05,-3.467492271305408e-05,3.25,2.75
0.04296875,-3.515664693675134e-05,6.835654184786755e-05,4.540633704127566e-05,-4.5898378133821604e-05,3.25,2.75
0.046875,-3.271926616311893e-05,7.909827304493782e-05,4.7361993591210816e-05,-4.3460997360189195e-05,3.25,2.75
0.05078125,-3.467492271305408e-05,6.737871357289998e-05,5.1266116777294594e-05,-3.955687417410543e-05,3.25,2.75
0.0546875,-3.7112303486686485e-05,6.737871357289998e-05,5.859263892576487e-05,-4.541665391012435e-05,3.25,2.75
0.05859375,-4.1016426672770264e-05,7.128283675898376e-05,5.859263892576487e-05,-5.8106851743343236e-05,3.25,2.75
0.0625,-3.809013176165406e-05,6.103001969939728e-05,5.028828850232702e-05,-5.761793760585945e-05,3.25,2.75
0.06640625,-3.515664693675134e-05,6.39635045243e-05,5.224394505226215e-05,-5.6158385107194615e-05,3.25,2.75
0.0703125,-3.955687417410543e-05,5.419241168841077e-05,5.1755030914778355e-05,-5.66472992446784e-05,3.25,2.75
0.07421875,-4.443882563515677e-05,6.445241866178377e-05,5.371068746471351e-05,-5.859576588082703e-05,3.25,2.75
0.078125,-4.004578831158922e-05,6.542305702296483e-05,5.419241168841077e-05,-5.371381441977567e-05,3.25,2.75
0.08203125,-4.004578831158922e-05,5.371068746471351e-05,4.687307945372703e-05,-4.004578831158922e-05,3.25,2.75
0.0859375,-3.809013176165406e-05,5.1755030914778355e-05,4.199112799267567e-05,-3.906796003662164e-05,3.25,2.75
0.08984375,-3.906796003662164e-05,5.5659154100862134e-05,5.5170239963378346e-05,-4.63872922713054e-05,3.25,2.75
0.09375,-3.906796003662164e-05,8.30023962310216e-05,7.226066503395133e-05,-4.150534081025405e-05,3.25,2.75
0.09765625,-3.4186008575570295e-05,7.421632158388647e-05,6.249676211184862e-05,-3.4186008575570295e-05,3.25,2.75
0.1015625,-3.174143788815135e-05,5.71258965133135e-05,5.028828850232702e-05,-3.515664693675134e-05,3.25,2.75
0.10546875,-2.637057228961622e-05,4.931046022735944e-05,4.248004213015946e-05,-3.760121762417027e-05,3.25,2.75
0.109375,-3.369709443808651e-05,4.78509077286946e-05,3.3686777569237814e-05,-3.7112303486686485e-05,3.25,2.75
0.11328125,-4.150534081025405e-05,5.371068746471351e-05,3.3197863431754026e-05,-3.467492271305408e-05,3.25,2.75
0.1171875,-3.7112303486686485e-05,5.028828850232702e-05,3.3686777569237814e-05,-3.271926616311893e-05,3.25,2.75
0.12109375,-3.125252375066756e-05,6.005219142442971e-05,3.1249396795605405e-05,-3.7112303486686485e-05,3.25,2.75
0.125,-3.4186008575570295e-05,5.028828850232702e-05,2.6360255420767543e-05,-2.295536324101624e-05,3.25,2.75
0.12890625,-3.66233893492027e-05,3.417569170672161e-05,2.1967218097199973e-05,-1.0746889631494611e-05,3.25,2.75
0.1328125,-3.223035202563514e-05,4.2961766353856714e-05,3.270894929427024e-05,-1.5628841092545953e-05,3.25,2.75
0.13671875,-2.7837314702067585e-05,3.75909007553216e-05,2.294504637216755e-05,-1.7095583504997323e-05,3.25,2.75
0.140625,-2.539274401464864e-05,2.441178878461892e-05,2.928326390478389e-06,-1.4162098680094587e-05,3.25,2.75
0.14453125,-3.125252375066756e-05,3.222003515678645e-05,2.441178878461892e-05,-9.280147219043243e-06,3.25,2.75
0.1484375,-2.4903829877164867e-05,4.0524385580224305e-05,2.928326390478389e-06,-9.769061356527033e-06,3.25,2.75
0.15234375,-2.0999706691081088e-05,4.638416531624324e-05,-2.002187841611351e-05,-1.1724717906462188e-05,3.25,2.75
0.15625,-2.7837314702067585e-05,2.5389617059586496e-05,1.2203315175097287e-05,-1.5139926955062164e-05,3.25,2.75
0.16015625,-3.467492271305408e-05,3.564243411917297e-05,1.513680000000002e-05,-2.3444277378500032e-05,3.25,2.75
0.1640625,-3.4186008575570295e-05,3.564243411917297e-05,4.837557030594439e-07,-3.223035202563514e-05,3.25,2.75
0.16796875,-2.3444277378500032e-05,1.4647885862516233e-05,-2.9314533455405322e-06,-3.0274695475699998e-05,3.25,2.75
0.171875,-1.4162098680094587e-05,1.7085266636148646e-05,-3.90928162050811e-06,-2.0999706691081088e-05,3.25,2.75
0.17578125,-2.0510792553597297e-05,1.7085266636148646e-05,1.073657276264592e-05,-1.7095583504997323e-05,3.25,2.75
0.1796875,-2.5881658152132428e-05,-3.90928162050811e-06,1.950498115510811e-06,-2.1488620828564875e-05,3.25,2.75
0.18359375,-2.1488620828564875e-05,-3.4203674830243215e-06,-7.81340480659189e-06,-2.6859486427100007e-05,3.25,2.75
0.1875,-2.002187841611351e-05,2.441178878461892e-05,-4.3981957579918996e-06,-2.539274401464864e-05,3.25,2.75
0.19140625,-1.9532964278629732e-05,1.952983732356756e-05,-4.940725719081342e-07,-1.9532964278629732e-05,3.25,2.75
0.1953125,-2.295536324101624e-05,1.4158971725032444e-05,-1.9536250705729686e-06,-2.1977534966048663e-05,3.25,2.75
0.19921875,-2.8326228839551376e-05,4.387878889143224e-06,-1.0746889631494611e-05,-2.4414915739681076e-05,3.25,2.75
0.203125,-2.978578133821621e-05,-1.3184270405127022e-05,-2.539274401464864e-05,-2.637057228961622e-05,3.25,2.75
0.20703125,-3.613447521171892e-05,-1.6117755230029744e-05,-3.076360961318379e-05,-4.004578831158922e-05,3.25,2.75
0.2109375,-3.906796003662164e-05,-1.3184270405127022e-05,-1.1724717906462188e-05,-4.63872922713054e-05,3.25,2.75
0.21484375,-3.076360961318379e-05,-9.829867093919233e-07,-5.376024032959478e-06,-2.4903829877164867e-05,3.25,2.75
0.21875,-3.0274695475699998e-05,-7.324490669108101e-06,-1.6117755230029744e-05,-1.8555136003662153e-05,3.25,2.75
0.22265625,-2.539274401464864e-05,-1.3673184542610811e-05,-1.660666936751353e-05,-2.539274401464864e-05,3.25,2.75
0.2265625,-2.3444277378500032e-05,-8.302318944075678e-06,-1.8073411779964884e-05,-1.8555136003662153e-05,3.25,2.75
0.23046875,-2.4903829877164867e-05,-9.769061356527033e-06,-1.0257975494010822e-05,-1.2213632043945977e-05,3.25,2.75
0.234375,-2.8815142977035164e-05,-9.769061356527033e-06,-4.3981957579918996e-06,-1.4162098680094587e-05,3.25,2.75
0.23828125,-3.564556107423513e-05,-1.3673184542610811e-05,-1.2695356267643233e-05,-2.5881658152132428e-05,3.25,2.75
0.2421875,-3.369709443808651e-05,-1.1235803768978399e-05,-1.758449764248111e-05,-2.3926001602197288e-05,3.25,2.75
0.24609375,-2.5881658152132428e-05,-1.1235803768978399e-05,-2.3926001602197288e-05,-1.2695356267643233e-05,3.25,2.75
0.25,-2.002187841611351e-05,-3.90928162050811e-06,-2.2466449103532454e-05,-1.7095583504997323e-05,3.25,2.75
0.25390625,-2.0510792553597297e-05,-6.8427664454108306e-06,-1.8555136003662153e-05,-2.5881658152132428e-05,3.25,2.75
0.2578125,-1.9532964278629732e-05,-1.1724717906462188e-05,-1.9044050141145944e-05,-1.9044050141145944e-05,3.25,2.75
0.26171875,-2.1488620828564875e-05,-2.3926001602197288e-05,-2.1977534966048663e-05,-5.8649381704432665e-06,3.25,2.75
0.265625,-2.7348400564583798e-05,-2.8326228839551376e-05,-4.0527512535286476e-05,-2.002187841611351e-05,3.25,2.75
0.26953125,-2.1488620828564875e-05,-1.1724717906462188e-05,-4.150534081025405e-05,-1.8073411779964884e-05,3.25,2.75
0.2734375,-2.0999706691081088e-05,-2.295536324101624e-05,-5.712902346837566e-05,-4.940725719081342e-07,3.25,2.75
0.27734375,-9.769061356527033e-06,-2.637057228961622e-05,-6.347771734187838e-05,-1.660666936751353e-05,3.25,2.75
0.28125,-1.758449764248111e-05,-5.3224900282291896e-05,-5.6158385107194615e-05,-1.4162098680094587e-05,3.25,2.75
0.28515625,-2.6859486427100007e-05,-9.863639575799188e-05,-7.813076163881893e-05,1.024765862516213e-05,3.25,2.75
0.2890625,-2.1488620828564875e-05,-0.00011865311573968107,-0.00011084486936751352,2.5389617059586496e-05,3.25,2.75
0.29296875,-2.1977534966048663e-05,-0.00012305334297703515,-0.0001357363508964675,3.076048265812162e-05,3.25,2.75
0.296875,-2.4903829877164867e-05,-0.00013964766399633783,-0.00016210895466544593,2.0989389822232394e-05,3.25,2.75
0.30078125,-3.223035202563514e-05,-0.00017528806663614862,-0.00018749654024567024,3.564243411917297e-05,3.25,2.75
0.3046875,-2.978578133821621e-05,-0.00019823827144274049,-0.00020019392799267564,6.494133279926757e-05,3.25,2.75
0.30859375,-3.0274695475699998e-05,-0.0002275371701228351,-0.00022362585702296478,8.154284373235677e-05,3.25,2.75
0.3125,-3.174143788815135e-05,-0.00025634715466544595,-0.00025780670716411076,7.616478822003508e-05,3.25,2.75
0.31640625,-2.929686720073242e-05,-0.00027977908369573504,-0.00026562214345006484,7.714261649500267e-05,3.25,2.75
0.3203125,-1.1724717906462188e-05,-0.00030468494505226214,-0.0002788012554207675,9.569978397802702e-05,3.25,2.75
0.32421875,4.837557030594439e-07,-0.00030761123996337833,-0.0002910097290302891,9.716652639047836e-05,3.25,2.75
0.328125,-4.940725719081342e-07,-0.00029686950876630806,-0.0002890612623941405,0.00010009282130159457,3.25,2.75
0.33203125,4.876793026627012e-06,-0.00028222365438315396,-0.00028271256852063775,0.00010937499999999999,3.25,2.75
0.3359375,8.788106126497297e-06,-0.00029589168049134047,-0.00027099300904859995,0.00010497477276264592,3.25,2.75
0.33984375,-3.4203674830243215e-06,-0.0002910097290302891,-0.00026464431517509725,0.00010107064957656214,3.25,2.75
0.34375,-1.3184270405127022e-05,-0.00025488041225299457,-0.00026025127785152973,9.765544052796216e-05,3.25,2.75
0.34765625,-1.758449764248111e-05,-0.0002431608527809567,-0.00023583433063248646,9.618869811551079e-05,3.25,2.75
0.3515625,-1.5139926955062164e-05,-0.00022948563675898373,-0.00020116456635385668,9.716652639047836e-05,3.25,2.75
0.35546875,-1.5628841092545953e-05,-0.00018651871197070265,-0.00017138394345006484,9.618869811551079e-05,3.25,2.75
0.359375,-2.7837314702067585e-05,-0.00017138394345006484,-0.00014452961545738914,7.958718718242162e-05,3.25,2.75
0.36328125,-3.515664693675134e-05,-0.00016991720103761346,-0.00012549072375066757,7.616478822003508e-05,3.25,2.75
0.3671875,-3.564556107423513e-05,-0.0001362252650339513,-0.00010937812695506215,7.665370235751888e-05,3.25,2.75
0.37109375,-3.760121762417027e-05,-0.00010645183204394596,-8.593900801098648e-05,5.614806823834593e-05,3.25,2.75
0.375,-4.394991149767298e-05,-9.81474816205081e-05,-8.49611797360189e-05,4.0035471442740544e-05,3.25,2.75
0.37890625,-5.175815786984053e-05,-0.00011816420160219727,-7.715293336385136e-05,4.83398218661784e-05,3.25,2.75
0.3828125,-4.7365120546272974e-05,-0.00010302943308155946,-4.1016426672770264e-05,4.3939594628824296e-05,3.25,2.75
0.38671875,-4.785403468375675e-05,-2.929686720073242e-05,-2.002187841611351e-05,3.1249396795605405e-05,3.25,2.75
0.390625,-4.8342948821240535e-05,-9.829867093919233e-07,-5.8649381704432665e-06,2.684916955825133e-05,3.25,2.75
0.39453125,-5.175815786984053e-05,-5.15843442434516e-09,5.3657071641108015e-06,1.4158971725032444e-05,3.25,2.75
0.3984375,-6.055142243076217e-05,1.3181143450064866e-05,2.1478303959716185e-05,4.876793026627012e-06,3.25,2.75
0.40234375,-5.957359415579459e-05,1.952983732356756e-05,4.589525117875945e-05,-4.3981957579918996e-06,3.25,2.75
0.40625,-6.152925070572975e-05,2.294504637216755e-05,6.0541105561913494e-05,-1.6117755230029744e-05,3.25,2.75
0.41015625,-5.859576588082703e-05,5.028828850232702e-05,6.591197116044861e-05,-3.90928162050811e-06,3.25,2.75
0.4140625,-6.055142243076217e-05,7.031219839780272e-05,6.786762771038377e-05,-8.302318944075678e-06,3.25,2.75
0.41796875,-6.104033656824596e-05,5.371068746471351e-05,7.177175089646755e-05,-2.8326228839551376e-05,3.25,2.75
0.421875,-5.712902346837566e-05,4.83398218661784e-05,7.274957917143513e-05,-2.3444277378500032e-05,3.25,2.75
0.42578125,-5.175815786984053e-05,7.812044476997025e-05,8.93510901045243e-05,-2.295536324101624e-05,3.25,2.75
0.4296875,-4.394991149767298e-05,7.568306399633784e-05,9.716652639047836e-05,-3.857904589913785e-05,3.25,2.75
0.43359375,-4.8342948821240535e-05,7.860935890745403e-05,9.716652639047836e-05,-4.5898378133821604e-05,3.25,2.75
0.4375,-5.029860537117569e-05,9.032891837949187e-05,9.325521329060808e-05,-4.297208322270541e-05,3.25,2.75
0.44140625,-4.932077709620812e-05,8.64247951934081e-05,9.179566079194324e-05,-4.6876206408789186e-05,3.25,2.75
0.4453125,-5.029860537117569e-05,7.616478822003508e-05,8.495805278095672e-05,-5.1276433646143274e-05,3.25,2.75
0.44921875,-4.9809691233691905e-05,6.884545598535135e-05,8.00761013199054e-05,-5.273598614480811e-05,3.25,2.75
0.453125,-4.7365120546272974e-05,6.982328426031892e-05,8.837326182955672e-05,-4.883186295872433e-05,3.25,2.75
0.45703125,-4.785403468375675e-05,8.202456795605403e-05,9.27662991531243e-05,-4.3460997360189195e-05,3.25,2.75
0.4609375,-5.3224900282291896e-05,7.714261649500267e-05,8.34913103685054e-05,-5.078751950865949e-05,3.25,2.75
0.46484375,-5.371381441977567e-05,6.249676211184862e-05,7.519414985885404e-05,-5.8106851743343236e-05,3.25,2.75
0.46875,-4.9809691233691905e-05,8.544696691844052e-05,6.542305702296483e-05,-5.518055683222704e-05,3.25,2.75
0.47265625,-4.9809691233691905e-05,8.00761013199054e-05,6.445241866178377e-05,-5.175815786984053e-05,3.25,2.75
0.4765625,-5.273598614480811e-05,7.079392262149998e-05,7.421632158388647e-05,-5.9084680018310805e-05,3.25,2.75
0.48046875,-4.63872922713054e-05,9.081783251697567e-05,7.177175089646755e-05,-5.761793760585945e-05,3.25,2.75
0.484375,-4.150534081025405e-05,7.323849330891892e-05,7.177175089646755e-05,-5.1276433646143274e-05,3.25,2.75
0.48828125,-4.394991149767298e-05,5.761481065079729e-05,7.274957917143513e-05,-5.273598614480811e-05,3.25,2.75
0.4921875,-4.199425494773784e-05,7.274957917143513e-05,6.786762771038377e-05,-5.175815786984053e-05,3.25,2.75
0.49609375,-4.0527512535286476e-05,6.982328426031892e-05,8.154284373235677e-05,-5.469164269474325e-05,3.25,2.75
0.5,-3.223035202563514e-05,5.859263892576487e-05,7.665370235751888e-05,-3.857904589913785e-05,3.25,2.75
0.50390625,-2.6859486427100007e-05,6.786762771038377e-05,6.103001969939728e-05,-2.8815142977035164e-05,3.25,2.75
0.5078125,-2.8326228839551376e-05,6.34745903868162e-05,4.931046022735944e-05,-3.760121762417027e-05,3.25,2.75
0.51171875,-3.076360961318379e-05,5.028828850232702e-05,4.34506804913405e-05,-4.004578831158922e-05,3.25,2.75
0.515625,-2.929686720073242e-05,5.8103724788281085e-05,4.83398218661784e-05,-3.076360961318379e-05,3.25,2.75
0.51953125,-2.5881658152132428e-05,5.468132582589456e-05,4.199112799267567e-05,-2.8815142977035164e-05,3.25,2.75
0.5234375,-2.637057228961622e-05,5.1755030914778355e-05,2.5389617059586496e-05,-4.150534081025405e-05,3.25,2.75
0.52734375,-2.4414915739681076e-05,3.8568729030289175e-05,2.1967218097199973e-05,-3.809013176165406e-05,3.25,2.75
0.53125,-2.8815142977035164e-05,5.468132582589456e-05,2.392287464713513e-05,-3.320818030060272e-05,3.25,2.75
0.53515625,-2.8815142977035164e-05,4.687307945372703e-05,2.5878531197070287e-05,-4.004578831158922e-05,3.25,2.75
0.5390625,-2.978578133821621e-05,5.3657071641108015e-06,3.4664605844205396e-05,-4.150534081025405e-05,3.25,2.75
0.54296875,-3.515664693675134e-05,3.222003515678645e-05,3.3686777569237814e-05,-3.125252375066756e-05,3.25,2.75
0.546875,-3.320818030060272e-05,4.491742290379187e-05,2.9293740245670248e-05,-2.5881658152132428e-05,3.25,2.75
0.55078125,-3.4186008575570295e-05,3.270894929427024e-05,3.3197863431754026e-05,-3.467492271305408e-05,3.25,2.75
0.5546875,-3.467492271305408e-05,3.222003515678645e-05,3.4664605844205396e-05,-4.004578831158922e-05,3.25,2.75
0.55859375,-3.564556107423513e-05,3.0271568520637826e-05,2.5389617059586496e-05,-3.564556107423513e-05,3.25,2.75
0.5625,-3.809013176165406e-05,2.83159119707027e-05,2.5389617059586496e-05,-2.978578133821621e-05,3.25,2.75
0.56640625,-3.0274695475699998e-05,2.441178878461892e-05,2.294504637216755e-05,-2.8326228839551376e-05,3.25,2.75
0.5703125,-2.7837314702067585e-05,7.32136371404593e-06,1.8552009048599985e-05,-2.8815142977035164e-05,3.25,2.75
0.57421875,-3.369709443808651e-05,1.1714401037613498e-05,2.3433960509651342e-05,-2.2466449103532454e-05,3.25,2.75
0.578125,-3.0274695475699998e-05,2.733808369573512e-05,2.5878531197070287e-05,-1.8555136003662153e-05,3.25,2.75
0.58203125,-3.125252375066756e-05,1.024765862516213e-05,2.2456132234683764e-05,-2.8815142977035164e-05,3.25,2.75
0.5859375,-3.564556107423513e-05,-8.302318944075678e-06,2.684916955825133e-05,-3.174143788815135e-05,3.25,2.75
0.58984375,-3.125252375066756e-05,-4.887109895475689e-06,1.6107438361181068e-05,-1.5139926955062164e-05,3.25,2.75
0.59375,-3.4186008575570295e-05,-2.9314533455405322e-06,-5.15843442434516e-09,-1.1724717906462188e-05,3.25,2.75
0.59765625,-3.125252375066756e-05,6.34353543907838e-06,9.72669840543233e-07,-2.3926001602197288e-05,3.25,2.75
0.6015625,-2.4903829877164867e-05,9.758744487678342e-06,2.050766559853514e-05,-2.3444277378500032e-05,3.25,2.75
0.60546875,-2.4414915739681076e-05,-1.5139926955062164e-05,9.758744487678342e-06,-6.8427664454108306e-06,3.25,2.75
0.609375,-2.637057228961622e-05,-1.5139926955062164e-05,-1.7095583504997323e-05,-5.376024032959478e-06,3.25,2.75
0.61328125,-3.564556107423513e-05,-2.9314533455405322e-06,2.2456132234683764e-05,-5.376024032959478e-06,3.25,2.75
0.6171875,-3.369709443808651e-05,-3.90928162050811e-06,1.073657276264592e-05,-4.887109895475689e-06,3.25,2.75
0.62109375,-2.6859486427100007e-05,4.837557030594439e-07,-7.324490669108101e-06,1.461583978027022e-06,3.25,2.75
0.625,-3.076360961318379e-05,-1.0257975494010822e-05,4.837557030594439e-07,1.950498115510811e-06,3.25,2.75
0.62890625,-3.906796003662164e-05,-8.791233081559454e-06,-7.81340480659189e-06,-8.302318944075678e-06,3.25,2.75
0.6328125,-3.809013176165406e-05,-6.8427664454108306e-06,-1.4719008468756982e-06,1.4158971725032444e-05,3.25,2.75
0.63671875,-3.857904589913785e-05,-1.7095583504997323e-05,-6.8427664454108306e-06,2.3433960509651342e-05,3.25,2.75
0.640625,-4.150534081025405e-05,-2.6859486427100007e-05,-2.9314533455405322e-06,6.34353543907838e-06,3.25,2.75
0.64453125,-4.5898378133821604e-05,-1.660666936751353e-05,8.788106126497297e-06,4.837557030594439e-07,3.25,2.75
0.6484375,-3.906796003662164e-05,-6.353852307927056e-06,8.299191989013508e-06,1.5618524223697277e-05,3.25,2.75
0.65234375,-3.223035202563514e-05,-6.353852307927056e-06,1.2203315175097287e-05,1.4647885862516233e-05,3.25,2.75
0.65625,-3.4186008575570295e-05,-4.940725719081342e-07,1.950498115510811e-06,1.950498115510811e-06,3.25,2.75
0.66015625,-3.857904589913785e-05,-4.887109895475689e-06,-1.4162098680094587e-05,5.3657071641108015e-06,3.25,2.75
0.6640625,-3.760121762417027e-05,-1.5139926955062164e-05,-6.8427664454108306e-06,1.024765862516213e-05,3.25,2.75
0.66796875,-3.320818030060272e-05,-9.769061356527033e-06,-1.4719008468756982e-06,1.4158971725032444e-05,3.25,2.75
0.671875,-3.174143788815135e-05,1.3181143450064866e-05,-4.940725719081342e-07,2.4394122529946003e-06,3.25,2.75
0.67578125,-3.271926616311893e-05,1.7574180773632434e-05,-4.887109895475689e-06,-8.791233081559454e-06,3.25,2.75
0.6796875,-2.978578133821621e-05,-5.15843442434516e-09,-1.1235803768978399e-05,-1.9536250705729686e-06,3.25,2.75
0.68359375,-2.5881658152132428e-05,1.950498115510811e-06,-1.5139926955062164e-05,-6.353852307927056e-06,3.25,2.75
0.6875,-3.076360961318379e-05,-3.90928162050811e-06,-1.660666936751353e-05,-2.1488620828564875e-05,3.25,2.75
0.69140625,-3.369709443808651e-05,-2.539274401464864e-05,-1.2213632043945977e-05,-2.3926001602197288e-05,3.25,2.75
0.6953125,-2.6859486427100007e-05,-5.15843442434516e-09,-1.660666936751353e-05,-1.2213632043945977e-05,3.25,2.75
0.69921875,-2.8815142977035164e-05,7.32136371404593e-06,-2.539274401464864e-05,-1.2213632043945977e-05,3.25,2.75
0.703125,-3.564556107423513e-05,-1.7095583504997323e-05,-3.467492271305408e-05,-2.2466449103532454e-05,3.25,2.75
0.70703125,-3.515664693675134e-05,-1.660666936751353e-05,-3.174143788815135e-05,-2.7348400564583798e-05,3.25,2.75
0.7109375,-3.076360961318379e-05,-6.353852307927056e-06,-2.7837314702067585e-05,-2.3926001602197288e-05,3.25,2.75
0.71484375,-2.978578133821621e-05,-4.3981957579918996e-06,-2.295536324101624e-05,-2.539274401464864e-05,3.25,2.75
0.71875,-3.369709443808651e-05,-3.4203674830243215e-06,-3.174143788815135e-05,-3.613447521171892e-05,3.25,2.75
0.72265625,-3.613447521171892e-05,-1.0746889631494611e-05,-3.760121762417027e-05,-4.248316908522161e-05,3.25,2.75
0.7265625,-3.4186008575570295e-05,-2.5881658152132428e-05,-2.637057228961622e-05,-3.7112303486686485e-05,3.25,2.75
0.73046875,-3.174143788815135e-05,-2.8815142977035164e-05,-3.369709443808651e-05,-3.174143788815135e-05,3.25,2.75
0.734375,-3.66233893492027e-05,-4.940725719081342e-07,-2.5881658152132428e-05,-3.613447521171892e-05,3.25,2.75
0.73828125,-3.320818030060272e-05,7.32136371404593e-06,-1.4162098680094587e-05,-3.076360961318379e-05,3.25,2.75
0.7421875,-2.5881658152132428e-05,-1.2213632043945977e-05,-2.637057228961622e-05,-2.1977534966048663e-05,3.25,2.75
0.74609375,-3.4186008575570295e-05,-3.515664693675134e-05,-1.758449764248111e-05,-2.978578133821621e-05,3.25,2.75
0.75,-3.467492271305408e-05,-2.2466449103532454e-05,-3.223035202563514e-05,-4.004578831158922e-05,3.25,2.75
0.75390625,-2.6859486427100007e-05,2.928326390478389e-06,-4.4927739772640564e-05,-3.4186008575570295e-05,3.25,2.75
0.7578125,-2.539274401464864e-05,-9.280147219043243e-06,-3.906796003662164e-05,-2.539274401464864e-05,3.25,2.75
0.76171875,-2.929686720073242e-05,-2.3444277378500032e-05,-4.8342948821240535e-05,-2.7837314702067585e-05,3.25,2.75
0.765625,-3.076360961318379e-05,-4.0527512535286476e-05,-5.3224900282291896e-05,-3.467492271305408e-05,3.25,2.75
0.76953125,-2.7837314702067585e-05,-2.5881658152132428e-05,-4.883186295872433e-05,-3.320818030060272e-05,3.25,2.75
0.7734375,-2.978578133821621e-05,-1.7095583504997323e-05,-5.078751950865949e-05,-2.7348400564583798e-05,3.25,2.75
0.77734375,-3.467492271305408e-05,-3.369709443808651e-05,-5.469164269474325e-05,-2.4903829877164867e-05,3.25,2.75
0.78125,-3.515664693675134e-05,-1.4162098680094587e-05,-4.004578831158922e-05,-3.223035202563514e-05,3.25,2.75
0.78515625,-2.2466449103532454e-05,-3.4203674830243215e-06,-3.955687417410543e-05,-2.1977534966048663e-05,3.25,2.75
0.7890625,-2.1977534966048663e-05,-2.4425392080567574e-06,-4.7365120546272974e-05,-1.6117755230029744e-05,3.25,2.75
0.79296875,-2.4903829877164867e-05,-1.5628841092545953e-05,-4.004578831158922e-05,-2.0999706691081088e-05,3.25,2.75
0.796875,-2.539274401464864e-05,-2.7348400564583798e-05,-4.150534081025405e-05,-2.002187841611351e-05,3.25,2.75
0.80078125,-2.5881658152132428e-05,-2.002187841611351e-05,-4.1016426672770264e-05,-1.8073411779964884e-05,3.25,2.75
0.8046875,-2.6859486427100007e-05,-3.66233893492027e-05,-4.0527512535286476e-05,-2.4414915739681076e-05,3.25,2.75
0.80859375,-2.929686720073242e-05,-3.369709443808651e-05,-4.785403468375675e-05,-3.369709443808651e-05,3.25,2.75
0.8125,-2.2466449103532454e-05,-1.5139926955062164e-05,-5.1276433646143274e-05,-3.174143788815135e-05,3.25,2.75
0.81640625,-2.4903829877164867e-05,-3.174143788815135e-05,-4.6876206408789186e-05,-2.5881658152132428e-05,3.25,2.75
0.8203125,-2.978578133821621e-05,-3.467492271305408e-05,-5.66472992446784e-05,-2.295536324101624e-05,3.25,2.75
0.82421875,-3.4186008575570295e-05,-2.3444277378500032e-05,-5.8106851743343236e-05,-3.223035202563514e-05,3.25,2.75
0.828125,-3.613447521171892e-05,-2.7348400564583798e-05,-3.174143788815135e-05,-2.978578133821621e-05,3.25,2.75
0.83203125,-2.6859486427100007e-05,-1.1724717906462188e-05,-1.9044050141145944e-05,-2.0510792553597297e-05,3.25,2.75
0.8359375,-2.295536324101624e-05,-8.791233081559454e-06,-2.539274401464864e-05,-2.7348400564583798e-05,3.25,2.75
0.83984375,-2.4414915739681076e-05,-1.5628841092545953e-05,-4.5898378133821604e-05,-2.7348400564583798e-05,3.25,2.75
0.84375,-2.7837314702067585e-05,-2.5881658152132428e-05,-4.3460997360189195e-05,-2.2466449103532454e-05,3.25,2.75
0.84765625,-2.1977534966048663e-05,-3.955687417410543e-05,-2.002187841611351e-05,-1.9532964278629732e-05,3.25,2.75
0.8515625,-2.0510792553597297e-05,-2.0999706691081088e-05,1.950498115510811e-06,-2.6859486427100007e-05,3.25,2.75
0.85546875,-2.5881658152132428e-05,-2.1977534966048663e-05,4.837557030594439e-07,-2.8815142977035164e-05,3.25,2.75
0.859375,-2.3444277378500032e-05,-4.297208322270541e-05,-2.3444277378500032e-05,-2.637057228961622e-05,3.25,2.75
0.86328125,-2.637057228961622e-05,-4.0527512535286476e-05,-3.760121762417027e-05,-2.978578133821621e-05,3.25,2.75
0.8671875,-2.637057228961622e-05,-4.443882563515677e-05,-7.764184750133514e-05,-3.125252375066756e-05,3.25,2.75
0.87109375,-3.174143788815135e-05,-4.297208322270541e-05,-5.957359415579459e-05,-3.515664693675134e-05,3.25,2.75
0.875,-2.7837314702067585e-05,-1.3673184542610811e-05,-3.369709443808651e-05,-2.1977534966048663e-05,3.25,2.75
0.87890625,-1.0257975494010822e-05,-1.758449764248111e-05,-6.152925070572975e-05,-2.5881658152132428e-05,3.25,2.75
0.8828125,-1.0257975494010822e-05,-5.1276433646143274e-05,-7.178206776531622e-05,-4.004578831158922e-05,3.25,2.75
0.88671875,-1.2695356267643233e-05,-5.371381441977567e-05,-6.690011630426488e-05,-3.906796003662164e-05,3.25,2.75
0.890625,-1.2695356267643233e-05,-6.298880320439458e-05,-6.787794457923246e-05,-3.809013176165406e-05,3.25,2.75
0.89453125,-1.8073411779964884e-05,-7.031532535286487e-05,-6.835966880292972e-05,-4.8342948821240535e-05,3.25,2.75
0.8984375,-1.5139926955062164e-05,-4.5898378133821604e-05,-6.787794457923246e-05,-5.859576588082703e-05,3.25,2.75
0.90234375,-6.8427664454108306e-06,-4.394991149767298e-05,-6.104033656824596e-05,-5.66472992446784e-05,3.25,2.75
0.90625,-9.280147219043243e-06,-4.785403468375675e-05,-5.078751950865949e-05,-5.9084680018310805e-05,3.25,2.75
0.91015625,-1.3673184542610811e-05,-3.467492271305408e-05,-3.7112303486686485e-05,-7.373053440146485e-05,3.25,2.75
0.9140625,-1.3184270405127022e-05,-2.929686720073242e-05,-2.0999706691081088e-05,-8.399054137483786e-05,3.25,2.75
0.91796875,-1.8073411779964884e-05,-4.541665391012435e-05,-4.7365120546272974e-05,-9.130987360952161e-05,3.25,2.75
0.921875,-1.4651012817578376e-05,-4.63872922713054e-05,-7.178206776531622e-05,-7.959031413748377e-05,3.25,2.75
0.92578125,-1.0746889631494611e-05,-3.66233893492027e-05,-8.25237989623865e-05,-7.031532535286487e-05,3.25,2.75
0.9296875,-1.3184270405127022e-05,-5.029860537117569e-05,-7.910139999999997e-05,-8.593900801098648e-05,3.25,2.75
0.93359375,-1.3673184542610811e-05,-5.175815786984053e-05,-5.761793760585945e-05,-7.910139999999997e-05,3.25,2.75
0.9375,-1.2213632043945977e-05,-2.7837314702067585e-05,-4.4927739772640564e-05,-6.93374970778973e-05,3.25,2.75
0.94140625,-1.4162098680094587e-05,-3.66233893492027e-05,-4.7365120546272974e-05,-7.910139999999997e-05,3.25,2.75
0.9453125,-1.660666936751353e-05,-4.4927739772640564e-05,-4.8342948821240535e-05,-8.203488482490271e-05,3.25,2.75
0.94921875,-1.5628841092545953e-05,-2.929686720073242e-05,-3.955687417410543e-05,-7.031532535286487e-05,3.25,2.75
0.953125,-1.4651012817578376e-05,-1.7095583504997323e-05,-3.271926616311893e-05,-6.249988906691079e-05,3.25,2.75
0.95703125,-1.660666936751353e-05,-1.7095583504997323e-05,-3.125252375066756e-05,-7.031532535286487e-05,3.25,2.75
0.9609375,-1.8555136003662153e-05,-1.8555136003662153e-05,-2.637057228961622e-05,-7.470836267643243e-05,3.25,2.75
0.96484375,-1.3673184542610811e-05,-1.8555136003662153e-05,-2.7348400564583798e-05,-5.3224900282291896e-05,3.25,2.75
0.96875,-1.5139926955062164e-05,-2.1488620828564875e-05,-2.637057228961622e-05,-5.078751950865949e-05,3.25,2.75
0.97265625,-2.0999706691081088e-05,-2.8815142977035164e-05,-2.539274401464864e-05,-6.201816484321354e-05,3.25,2.75
0.9765625,-2.1488620828564875e-05,-3.4186008575570295e-05,-3.076360961318379e-05,-6.641120216678109e-05,3.25,2.75
0.98046875,-2.3444277378500032e-05,-3.906796003662164e-05,-4.1016426672770264e-05,-7.080423949034866e-05,3.25,2.75
0.984375,-2.0510792553597297e-05,-4.6876206408789186e-05,-4.150534081025405e-05,-6.445554561684594e-05,3.25,2.75
0.98828125,-2.4903829877164867e-05,-3.515664693675134e-05,-3.613447521171892e-05,-6.249988906691079e-05,3.25,2.75
0.9921875,-2.1488620828564875e-05,-1.1235803768978399e-05,-2.0999706691081088e-05,-5.859576588082703e-05,3.25,2.75
0.99609375,-1.8555136003662153e-05,-9.769061356527033e-06,-2.295536324101624e-05,-5.3224900282291896e-05,3.25,2.75
1.0,-2.6859486427100007e-05,-2.4903829877164867e-05,-4.6876206408789186e-05,-6.104033656824596e-05,3.25,2.75
1.00390625,-2.5881658152132428e-05,-2.4414915739681076e-05,-2.8326228839551376e-05,-5.9084680018310805e-05,3.25,2.75
1.0078125,-2.002187841611351e-05,-2.0510792553597297e-05,-1.5628841092545953e-05,-5.078751950865949e-05,3.25,2.75
1.01171875,-1.8073411779964884e-05,-2.0510792553597297e-05,-6.8427664454108306e-06,-4.443882563515677e-05,3.25,2.75
1.015625,-2.002187841611351e-05,-1.5628841092545953e-05,-2.5881658152132428e-05,-4.785403468375675e-05,3.25,2.75
1.01953125,-1.8073411779964884e-05,-2.2466449103532454e-05,-5.1276433646143274e-05,-5.859576588082703e-05,3.25,2.75
1.0234375,-1.758449764248111e-05,-2.3926001602197288e-05,-5.029860537117569e-05,-5.1276433646143274e-05,3.25,2.75
1.02734375,-2.002187841611351e-05,-9.280147219043243e-06,-4.785403468375675e-05,-4.150534081025405e-05,3.25,2.75
1.03125,-2.1488620828564875e-05,-3.90928162050811e-06,-3.955687417410543e-05,-4.5898378133821604e-05,3.25,2.75
1.03515625,-2.4414915739681076e-05,-7.81340480659189e-06,-3.125252375066756e-05,-4.5898378133821604e-05,3.25,2.75
1.0390625,-2.3926001602197288e-05,-1.1724717906462188e-05,-3.076360961318379e-05,-3.613447521171892e-05,3.25,2.75
1.04296875,-1.9532964278629732e-05,-1.660666936751353e-05,-3.174143788815135e-05,-2.7837314702067585e-05,3.25,2.75
1.046875,-1.758449764248111e-05,-1.758449764248111e-05,-2.8326228839551376e-05,-2.8815142977035164e-05,3.25,2.75
1.05078125,-2.1488620828564875e-05,-7.81340480659189e-06,-1.1235803768978399e-05,-3.271926616311893e-05,3.25,2.75
1.0546875,-2.0999706691081088e-05,-1.0257975494010822e-05,-1.8073411779964884e-05,-3.4186008575570295e-05,3.25,2.75
1.05859375,-1.6117755230029744e-05,-1.5628841092545953e-05,-3.4186008575570295e-05,-3.174143788815135e-05,3.25,2.75
1.0625,-1.758449764248111e-05,-1.4162098680094587e-05,-3.125252375066756e-05,-3.369709443808651e-05,3.25,2.75
1.06640625,-2.4414915739681076e-05,-1.2213632043945977e-05,-2.2466449103532454e-05,-4.004578831158922e-05,3.25,2.75
1.0703125,-2.0999706691081088e-05,-4.887109895475689e-06,-2.1977534966048663e-05,-2.3926001602197288e-05,3.25,2.75
1.07421875,-2.1488620828564875e-05,-1.2695356267643233e-05,-1.5628841092545953e-05,-2.4414915739681076e-05,3.25,2.75
1.078125,-2.2466449103532454e-05,-3.320818030060272e-05,-1.1724717906462188e-05,-3.320818030060272e-05,3.25,2.75
1.08203125,-2.1488620828564875e-05,-3.467492271305408e-05,-1.758449764248111e-05,-3.076360961318379e-05,3.25,2.75
1.0859375,-2.295536324101624e-05,-1.9532964278629732e-05,-2.5881658152132428e-05,-2.7348400564583798e-05,3.25,2.75
1.08984375,-2.295536324101624e-05,-7.324490669108101e-06,-2.2466449103532454e-05,-2.978578133821621e-05,3.25,2.75
1.09375,-2.637057228961622e-05,-1.2213632043945977e-05,-1.8555136003662153e-05,-3.760121762417027e-05,3.25,2.75
1.09765625,-2.8326228839551376e-05,-3.174143788815135e-05,-3.760121762417027e-05,-3.955687417410543e-05,3.25,2.75
1.1015625,-2.5881658152132428e-05,-2.7348400564583798e-05,-4.541665391012435e-05,-3.076360961318379e-05,3.25,2.75
1.10546875,-2.3444277378500032e-05,-2.3926001602197288e-05,-4.932077709620812e-05,-2.002187841611351e-05,3.25,2.75
1.109375,-2.929686720073242e-05,-3.857904589913785e-05,-4.248316908522161e-05,-2.7837314702067585e-05,3.25,2.75
1.11328125,-2.929686720073242e-05,-1.1235803768978399e-05,-2.637057228961622e-05,-2.5881658152132428e-05,3.25,2.75
1.1171875,-2.002187841611351e-05,1.1714401037613498e-05,-4.394991149767298e-05,-2.1977534966048663e-05,3.25,2.75
1.12109375,-2.2466449103532454e-05,-1.4162098680094587e-05,-4.883186295872433e-05,-2.295536324101624e-05,3.25,2.75
1.125,-2.929686720073242e-05,-2.4903829877164867e-05,-5.518055683222704e-05,-3.223035202563514e-05,3.25,2.75
1.12890625,-2.3444277378500032e-05,-1.2213632043945977e-05,-4.9809691233691905e-05,-2.6859486427100007e-05,3.25,2.75
1.1328125,-2.0510792553597297e-05,-4.887109895475689e-06,-3.4186008575570295e-05,-1.9044050141145944e-05,3.25,2.75
1.13671875,-2.6859486427100007e-05,-1.5628841092545953e-05,-3.66233893492027e-05,-2.1977534966048663e-05,3.25,2.75
1.140625,-2.6859486427100007e-05,-3.369709443808651e-05,-4.3460997360189195e-05,-1.758449764248111e-05,3.25,2.75
1.14453125,-2.1977534966048663e-05,-3.66233893492027e-05,-3.809013176165406e-05,-1.3184270405127022e-05,3.25,2.75
1.1484375,-2.637057228961622e-05,-3.0274695475699998e-05,-2.7837314702067585e-05,-1.2213632043945977e-05,3.25,2.75
1.15234375,-2.978578133821621e-05,-2.4414915739681076e-05,-2.5881658152132428e-05,-1.8073411779964884e-05,3.25,2.75
1.15625,-2.7348400564583798e-05,-2.3926001602197288e-05,-3.174143788815135e-05,-1.9044050141145944e-05,3.25,2.75
1.16015625,-2.8815142977035164e-05,-4.0527512535286476e-05,-4.004578831158922e-05,-1.5628841092545953e-05,3.25,2.75
1.1640625,-2.7348400564583798e-05,-4.150534081025405e-05,-4.5898378133821604e-05,-1.8555136003662153e-05,3.25,2.75
1.16796875,-2.929686720073242e-05,-3.467492271305408e-05,-4.004578831158922e-05,-2.1977534966048663e-05,3.25,2.75
1.171875,-3.613447521171892e-05,-3.125252375066756e-05,-1.5139926955062164e-05,-2.978578133821621e-05,3.25,2.75
1.17578125,-3.076360961318379e-05,-2.5881658152132428e-05,-1.9532964278629732e-05,-2.1977534966048663e-05,3.25,2.75
1.1796875,-2.7837314702067585e-05,-3.320818030060272e-05,-3.857904589913785e-05,-2.1488620828564875e-05,3.25,2.75
1.18359375,-3.0274695475699998e-05,-3.271926616311893e-05,-3.564556107423513e-05,-2.3926001602197288e-05,3.25,2.75
1.1875,-2.637057228961622e-05,-2.7837314702067585e-05,-2.3444277378500032e-05,-1.7095583504997323e-05,3.25,2.75
1.19140625,-2.978578133821621e-05,-3.564556107423513e-05,-1.8073411779964884e-05,-1.9532964278629732e-05,3.25,2.75
1.1953125,-3.125252375066756e-05,-3.320818030060272e-05,-2.539274401464864e-05,-2.0999706691081088e-05,3.25,2.75
1.19921875,-2.7837314702067585e-05,-3.66233893492027e-05,-3.857904589913785e-05,-2.1488620828564875e-05,3.25,2.75
1.203125,-2.4414915739681076e-05,-5.761793760585945e-05,-4.5898378133821604e-05,-1.3673184542610811e-05,3.25,2.75
1.20703125,-2.1977534966048663e-05,-5.518055683222704e-05,-6.347771734187838e-05,-5.8649381704432665e-06,3.25,2.75
1.2109375,-3.0274695475699998e-05,-4.443882563515677e-05,-4.6876206408789186e-05,-1.0257975494010822e-05,3.25,2.75
1.21484375,-3.4186008575570295e-05,-4.004578831158922e-05,-3.955687417410543e-05,-1.8555136003662153e-05,3.25,2.75
1.21875,-2.929686720073242e-05,-3.613447521171892e-05,-8.25237989623865e-05,-1.7095583504997323e-05,3.25,2.75
1.22265625,-2.5881658152132428e-05,-3.760121762417027e-05,-8.691683628595404e-05,-7.324490669108101e-06,3.25,2.75
1.2265625,-2.8815142977035164e-05,-4.394991149767298e-05,-6.592228802929731e-05,-1.2213632043945977e-05,3.25,2.75
1.23046875,-3.515664693675134e-05,-3.809013176165406e-05,-5.859576588082703e-05,-2.0999706691081088e-05,3.25,2.75
1.234375,-3.223035202563514e-05,-3.955687417410543e-05,-5.66472992446784e-05,-2.0510792553597297e-05,3.25,2.75
1.23828125,-2.8326228839551376e-05,-5.078751950865949e-05,-4.8342948821240535e-05,-2.2466449103532454e-05,3.25,2.75
1.2421875,-3.076360961318379e-05,-3.760121762417027e-05,-4.8342948821240535e-05,-2.295536324101624e-05,3.25,2.75
1.24609375,-2.8815142977035164e-05,-2.7348400564583798e-05,-3.467492271305408e-05,-3.076360961318379e-05,3.25,2.75
1.25,-2.2466449103532454e-05,-2.1488620828564875e-05,-2.3926001602197288e-05,-2.0510792553597297e-05,3.25,2.75
1.25390625,-2.1977534966048663e-05,-1.4162098680094587e-05,-3.223035202563514e-05,-1.2213632043945977e-05,3.25,2.75
1.2578125,-2.4903829877164867e-05,-2.0510792553597297e-05,-3.076360961318379e-05,-2.0510792553597297e-05,3.25,2.75
1.26171875,-2.637057228961622e-05,-2.2466449103532454e-05,-2.978578133821621e-05,-2.1488620828564875e-05,3.25,2.75
1.265625,-2.637057228961622e-05,-1.5139926955062164e-05,-3.076360961318379e-05,-2.3926001602197288e-05,3.25,2.75
1.26953125,-3.0274695475699998e-05,-1.758449764248111e-05,-3.223035202563514e-05,-2.0999706691081088e-05,3.25,2.75
1.2734375,-3.515664693675134e-05,-2.8326228839551376e-05,-3.467492271305408e-05,-2.2466449103532454e-05,3.25,2.75
1.27734375,-3.174143788815135e-05,-2.929686720073242e-05,-3.223035202563514e-05,-2.3444277378500032e-05,3.25,2.75
1.28125,-2.8326228839551376e-05,-3.7112303486686485e-05,-1.9044050141145944e-05,-1.6117755230029744e-05,3.25,2.75
1.28515625,-2.929686720073242e-05,-3.515664693675134e-05,-2.539274401464864e-05,-2.2466449103532454e-05,3.25,2.75
1.2890625,-3.0274695475699998e-05,-1.5628841092545953e-05,-4.199425494773784e-05,-3.613447521171892e-05,3.25,2.75
1.29296875,-2.929686720073242e-05,-1.5628841092545953e-05,-3.223035202563514e-05,-3.174143788815135e-05,3.25,2.75
1.296875,-2.929686720073242e-05,-2.5881658152132428e-05,-3.076360961318379e-05,-2.1977534966048663e-05,3.25,2.75
1.30078125,-3.0274695475699998e-05,-3.320818030060272e-05,-4.297208322270541e-05,-2.637057228961622e-05,3.25,2.75
1.3046875,-2.929686720073242e-05,-2.6859486427100007e-05,-4.297208322270541e-05,-3.125252375066756e-05,3.25,2.75
1.30859375,-2.3926001602197288e-05,-3.0274695475699998e-05,-3.515664693675134e-05,-2.5881658152132428e-05,3.25,2.75
1.3125,-2.3926001602197288e-05,-3.125252375066756e-05,-2.5881658152132428e-05,-2.7837314702067585e-05,3.25,2.75
1.31640625,-2.637057228961622e-05,-2.0510792553597297e-05,-2.5881658152132428e-05,-3.125252375066756e-05,3.25,2.75
1.3203125,-2.637057228961622e-05,-2.7348400564583798e-05,-3.467492271305408e-05,-3.174143788815135e-05,3.25,2.75
1.32421875,-2.4414915739681076e-05,-3.7112303486686485e-05,-4.883186295872433e-05,-3.174143788815135e-05,3.25,2.75
1.328125,-1.9044050141145944e-05,-3.66233893492027e-05,-6.543337389181351e-05,-2.978578133821621e-05,3.25,2.75
1.33203125,-1.9044050141145944e-05,-4.1016426672770264e-05,-4.785403468375675e-05,-3.613447521171892e-05,3.25,2.75
1.3359375,-2.8326228839551376e-05,-5.029860537117569e-05,-2.8326228839551376e-05,-5.420272855725946e-05,3.25,2.75
1.33984375,-2.4414915739681076e-05,-5.9084680018310805e-05,-3.076360961318379e-05,-4.541665391012435e-05,3.25,2.75
1.34375,-2.4414915739681076e-05,-5.3224900282291896e-05,-4.8342948821240535e-05,-3.809013176165406e-05,3.25,2.75
1.34765625,-2.1977534966048663e-05,-4.541665391012435e-05,-5.9084680018310805e-05,-3.955687417410543e-05,3.25,2.75
1.3515625,-1.758449764248111e-05,-4.150534081025405e-05,-4.297208322270541e-05,-3.613447521171892e-05,3.25,2.75
1.35546875,-2.2466449103532454e-05,-4.8342948821240535e-05,-4.3460997360189195e-05,-4.1016426672770264e-05,3.25,2.75
1.359375,-2.539274401464864e-05,-5.029860537117569e-05,-4.7365120546272974e-05,-4.63872922713054e-05,3.25,2.75
1.36328125,-2.7837314702067585e-05,-5.029860537117569e-05,-4.443882563515677e-05,-4.785403468375675e-05,3.25,2.75
1.3671875,-2.5881658152132428e-05,-5.420272855725946e-05,-4.394991149767298e-05,-2.7837314702067585e-05,3.25,2.75
1.37109375,-2.295536324101624e-05,-4.248316908522161e-05,-3.906796003662164e-05,-3.4203674830243215e-06,3.25,2.75
1.375,-2.4414915739681076e-05,-3.564556107423513e-05,-3.564556107423513e-05,4.876793026627012e-06,3.25,2.75
1.37890625,-2.8326228839551376e-05,-4.541665391012435e-05,-4.1016426672770264e-05,-4.887109895475689e-06,3.25,2.75
1.3828125,-2.1488620828564875e-05,-5.078751950865949e-05,-3.857904589913785e-05,-7.81340480659189e-06,3.25,2.75
1.38671875,-1.2695356267643233e-05,-4.785403468375675e-05,-3.955687417410543e-05,-6.353852307927056e-06,3.25,2.75
1.390625,-1.8555136003662153e-05,-4.248316908522161e-05,-3.955687417410543e-05,-2.0999706691081088e-05,3.25,2.75
1.39453125,-2.0999706691081088e-05,-3.320818030060272e-05,-3.809013176165406e-05,-2.6859486427100007e-05,3.25,2.75
1.3984375,-2.2466449103532454e-05,-3.809013176165406e-05,-4.199425494773784e-05,9.72669840543233e-07,3.25,2.75
1.40234375,-3.174143788815135e-05,-5.273598614480811e-05,-5.273598614480811e-05,1.4158971725032444e-05,3.25,2.75
1.40625,-3.125252375066756e-05,-4.932077709620812e-05,-5.712902346837566e-05,8.788106126497297e-06,3.25,2.75
1.41015625,-1.6117755230029744e-05,-4.4927739772640564e-05,-6.249988906691079e-05,1.3181143450064866e-05,3.25,2.75
1.4140625,-1.9536250705729686e-06,-6.298880320439458e-05,-8.642792214847026e-05,5.854621301594591e-06,3.25,2.75
1.41796875,-1.0746889631494611e-05,-8.447945551232163e-05,-0.00010986704109254595,1.1225486900129709e-05,3.25,2.75
1.421875,-1.2695356267643233e-05,-0.0001113337835049973,-0.0001367141791714351,1.4647885862516233e-05,3.25,2.75
1.42578125,-1.660666936751353e-05,-0.0001489226527809567,-0.0001845630554207675,-7.324490669108101e-06,3.25,2.75
1.4296875,-1.2213632043945977e-05,-0.0001718728575875486,-0.000208491088502327,1.461583978027022e-06,3.25,2.75
1.43359375,9.277020263981085e-06,-0.0001845630554207675,-0.00021728435306324863,3.173831093308919e-05,3.25,2.75
1.4375,1.7085266636148646e-05,-0.00020898000263981076,-0.0002455982335545891,2.9293740245670248e-05,3.25,2.75
1.44140625,1.4647885862516233e-05,-0.00027050409491111615,-0.00028222365438315396,6.8324495765621405e-06,3.25,2.75
1.4453125,2.5389617059586496e-05,-0.0003085890682383459,-0.00032470166503395124,1.3181143450064866e-05,3.25,2.75
1.44921875,3.076048265812162e-05,-0.0003100558106507973,-0.0003403253476920729,2.2456132234683764e-05,3.25,2.75
1.453125,2.392287464713513e-05,-0.00031103363892576484,-0.00034325883251697564,1.2692229312581076e-05,3.25,2.75
1.45703125,2.5878531197070287e-05,-0.00031542667624933236,-0.0003579046869001297,3.906154665445967e-06,3.25,2.75
1.4609375,3.5153519981689183e-05,-0.0003095668965133135,-0.00036181599999999994,-1.4719008468756982e-06,3.25,2.75
1.46484375,3.564243411917297e-05,-0.0002875945199816891,-0.0003383768810559243,-1.4162098680094587e-05,3.25,2.75
1.46875,2.83159119707027e-05,-0.00026219974448767833,-0.0003178640570229648,-3.271926616311893e-05,3.25,2.75
1.47265625,2.978265438315404e-05,-0.00024022736795605397,-0.00029686950876630806,-4.248316908522161e-05,3.25,2.75
1.4765625,2.8804826108186487e-05,-0.00022118847624933238,-0.00026708888586251617,-4.6876206408789186e-05,3.25,2.75
1.48046875,2.3433960509651342e-05,-0.0002070243460898756,-0.00023974564373235673,-5.518055683222704e-05,3.25,2.75
1.484375,1.7574180773632434e-05,-0.00018310350292210267,-0.00021728435306324863,-7.959031413748377e-05,3.25,2.75
1.48828125,1.3181143450064866e-05,-0.00015380460424200805,-0.00018994111093308916,-9.277661602197298e-05,3.25,2.75
1.4921875,1.3181143450064866e-05,-0.0001264613621118486,-0.0001552713466544594,-9.57101008468757e-05,3.25,2.75
1.49609375,3.906154665445967e-06,-0.00010547400376897839,-0.00012549072375066757,-0.0001049850896314946,3.25,2.75
1.5,-3.4203674830243215e-06,-7.470836267643243e-05,-9.912530989547568e-05,-0.00011768247737850001,3.25,2.75
1.50390625,2.4394122529946003e-06,-4.932077709620812e-05,-0.00010547400376897839,-0.0001210976864271,3.25,2.75
1.5078125,-4.940725719081342e-07,-4.5898378133821604e-05,-0.00010156269066910809,-0.00011572682082856486,3.25,2.75
1.51171875,-5.8649381704432665e-06,-2.8815142977035164e-05,-6.298880320439458e-05,-0.00011865311573968107,3.25,2.75
1.515625,-1.5139926955062164e-05,-5.8649381704432665e-06,-3.0274695475699998e-05,-0.00013818092158388644,3.25,2.75
1.51953125,-1.6117755230029744e-05,4.387878889143224e-06,-2.637057228961622e-05,-0.0001367141791714351,3.25,2.75
1.5234375,-1.5139926955062164e-05,7.32136371404593e-06,-2.002187841611351e-05,-0.00011963094401464864,3.25,2.75
1.52734375,-2.0999706691081088e-05,1.3181143450064866e-05,2.4394122529946003e-06,-0.0001220755147020676,3.25,2.75
1.53125,-2.6859486427100007e-05,2.8804826108186487e-05,2.001875146105135e-05,-0.00013427679839780266,3.25,2.75
1.53515625,-1.9532964278629732e-05,3.4664605844205396e-05,5.854621301594591e-06,-0.0001274391903868162,3.25,2.75
1.5390625,-1.8073411779964884e-05,1.7085266636148646e-05,1.461583978027022e-06,-0.0001206087722896162,3.25,2.75
1.54296875,-2.1488620828564875e-05,7.810277851529719e-06,4.876793026627012e-06,-0.00011328225014114593,3.25,2.75
1.546875,-1.8555136003662153e-05,2.5878531197070287e-05,2.1967218097199973e-05,-9.522118670939191e-05,3.25,2.75
1.55078125,-1.6117755230029744e-05,4.3939594628824296e-05,4.248004213015946e-05,-9.716965334554053e-05,3.25,2.75
1.5546875,-1.8073411779964884e-05,4.0035471442740544e-05,3.3686777569237814e-05,-0.00010351834721904324,3.25,2.75
1.55859375,-2.4414915739681076e-05,4.2961766353856714e-05,2.0989389822232394e-05,-0.00010840029868009459,3.25,2.75
1.5625,-2.0999706691081088e-05,7.128283675898376e-05,9.72669840543233e-07,-0.0001079113845426108,3.25,2.75
1.56640625,-2.2466449103532454e-05,4.882154608987565e-05,1.073657276264592e-05,-0.00010108096644541083,3.25,2.75
1.5703125,-2.6859486427100007e-05,3.3197863431754026e-05,1.4158971725032444e-05,-9.424335843442434e-05,3.25,2.75
1.57421875,-2.4903829877164867e-05,5.273285918974594e-05,1.952983732356756e-05,-9.375444429694054e-05,3.25,2.75
1.578125,-2.539274401464864e-05,4.7361993591210816e-05,3.417569170672161e-05,-8.25237989623865e-05,3.25,2.75
1.58203125,-2.295536324101624e-05,4.491742290379187e-05,2.294504637216755e-05,-6.641120216678109e-05,3.25,2.75
1.5859375,-2.0999706691081088e-05,4.882154608987565e-05,1.7085266636148646e-05,-7.324881017776758e-05,3.25,2.75
1.58984375,-2.295536324101624e-05,4.491742290379187e-05,2.1967218097199973e-05,-7.51972768139162e-05,3.25,2.75
1.59375,-2.3926001602197288e-05,4.491742290379187e-05,2.5878531197070287e-05,-7.031532535286487e-05,3.25,2.75
1.59765625,-1.758449764248111e-05,4.199112799267567e-05,3.4664605844205396e-05,-6.347771734187838e-05,3.25,2.75
1.6015625,-1.8073411779964884e-05,3.173831093308919e-05,3.222003515678645e-05,-6.006250829327838e-05,3.25,2.75
1.60546875,-2.539274401464864e-05,2.392287464713513e-05,1.8552009048599985e-05,-6.152925070572975e-05,3.25,2.75
1.609375,-2.7837314702067585e-05,2.6360255420767543e-05,1.952983732356756e-05,-5.957359415579459e-05,3.25,2.75
1.61328125,-2.978578133821621e-05,3.1249396795605405e-05,3.270894929427024e-05,-5.712902346837566e-05,3.25,2.75
1.6171875,-2.929686720073242e-05,2.3433960509651342e-05,4.101329971770809e-05,-5.8106851743343236e-05,3.25,2.75
1.62109375,-2.637057228961622e-05,1.6596352498664855e-05,2.782699783321891e-05,-6.298880320439458e-05,3.25,2.75
1.625,-2.295536324101624e-05,2.0989389822232394e-05,-1.9536250705729686e-06,-5.3224900282291896e-05,3.25,2.75
1.62890625,-2.0510792553597297e-05,2.978265438315404e-05,-2.4425392080567574e-06,-4.4927739772640564e-05,3.25,2.75
1.6328125,-2.1488620828564875e-05,3.3686777569237814e-05,1.513680000000002e-05,-5.273598614480811e-05,3.25,2.75
1.63671875,-2.3444277378500032e-05,2.8804826108186487e-05,1.2692229312581076e-05,-5.518055683222704e-05,3.25,2.75
1.640625,-2.539274401464864e-05,5.854621301594591e-06,-3.4203674830243215e-06,-4.932077709620812e-05,3.25,2.75
1.64453125,-1.8555136003662153e-05,1.2692229312581076e-05,-4.3981957579918996e-06,-4.5898378133821604e-05,3.25,2.75
1.6484375,-1.5139926955062164e-05,3.4664605844205396e-05,3.4172405279621784e-06,-4.6876206408789186e-05,3.25,2.75
1.65234375,-1.660666936751353e-05,3.3686777569237814e-05,2.4394122529946003e-06,-4.7365120546272974e-05,3.25,2.75
1.65625,-1.3673184542610811e-05,2.0989389822232394e-05,-2.9314533455405322e-06,-5.469164269474325e-05,3.25,2.75
1.66015625,-1.8555136003662153e-05,9.72669840543233e-07,-7.81340480659189e-06,-5.273598614480811e-05,3.25,2.75
1.6640625,-3.125252375066756e-05,-5.376024032959478e-06,2.4394122529946003e-06,-4.4927739772640564e-05,3.25,2.75
1.66796875,-2.539274401464864e-05,7.810277851529719e-06,6.8324495765621405e-06,-3.809013176165406e-05,3.25,2.75
1.671875,-1.4162098680094587e-05,7.32136371404593e-06,-7.81340480659189e-06,-2.4414915739681076e-05,3.25,2.75
1.67578125,-1.7095583504997323e-05,3.906154665445967e-06,-4.887109895475689e-06,-3.515664693675134e-05,3.25,2.75
1.6796875,-1.9532964278629732e-05,7.32136371404593e-06,-1.1724717906462188e-05,-5.078751950865949e-05,3.25,2.75
1.68359375,-1.9532964278629732e-05,7.810277851529719e-06,-1.9044050141145944e-05,-5.029860537117569e-05,3.25,2.75
1.6875,-2.002187841611351e-05,4.387878889143224e-06,7.810277851529719e-06,-5.078751950865949e-05,3.25,2.75
1.69140625,-1.8073411779964884e-05,9.277020263981085e-06,4.638416531624324e-05,-4.4927739772640564e-05,3.25,2.75
1.6953125,-2.0510792553597297e-05,3.4172405279621784e-06,1.7085266636148646e-05,-3.955687417410543e-05,3.25,2.75
1.69921875,-1.9532964278629732e-05,-6.353852307927056e-06,-6.592228802929731e-05,-4.0527512535286476e-05,3.25,2.75
1.703125,-1.9532964278629732e-05,-8.791233081559454e-06,-7.373053440146485e-05,-3.7112303486686485e-05,3.25,2.75
1.70703125,-1.9532964278629732e-05,-6.353852307927056e-06,-4.297208322270541e-05,-4.5898378133821604e-05,3.25,2.75
1.7109375,-2.1488620828564875e-05,3.4172405279621784e-06,-2.637057228961622e-05,-5.761793760585945e-05,3.25,2.75
1.71484375,-1.9044050141145944e-05,5.3657071641108015e-06,-2.6859486427100007e-05,-4.1016426672770264e-05,3.25,2.75
1.71875,-2.0510792553597297e-05,2.928326390478389e-06,-3.174143788815135e-05,-3.076360961318379e-05,3.25,2.75
1.72265625,-2.4414915739681076e-05,-9.280147219043243e-06,-3.174143788815135e-05,-3.809013176165406e-05,3.25,2.75
1.7265625,-2.5881658152132428e-05,-1.660666936751353e-05,-2.8815142977035164e-05,-3.7112303486686485e-05,3.25,2.75
1.73046875,-2.7348400564583798e-05,-1.8555136003662153e-05,-2.5881658152132428e-05,-3.4186008575570295e-05,3.25,2.75
1.734375,-2.8815142977035164e-05,-1.660666936751353e-05,-2.539274401464864e-05,-4.004578831158922e-05,3.25,2.75
1.73828125,-3.174143788815135e-05,-2.1488620828564875e-05,-3.271926616311893e-05,-4.9809691233691905e-05,3.25,2.75
1.7421875,-3.174143788815135e-05,-2.637057228961622e-05,-4.004578831158922e-05,-5.175815786984053e-05,3.25,2.75
1.74609375,-2.8815142977035164e-05,-2.0999706691081088e-05,-3.076360961318379e-05,-4.541665391012435e-05,3.25,2.75
1.75,-3.125252375066756e-05,-2.4903829877164867e-05,-2.8815142977035164e-05,-3.955687417410543e-05,3.25,2.75
1.75390625,-3.613447521171892e-05,-2.3926001602197288e-05,-2.8326228839551376e-05,-4.7365120546272974e-05,3.25,2.75
1.7578125,-3.515664693675134e-05,-2.539274401464864e-05,-2.7348400564583798e-05,-4.541665391012435e-05,3.25,2.75
1.76171875,-3.223035202563514e-05,-3.223035202563514e-05,-3.174143788815135e-05,-3.7112303486686485e-05,3.25,2.75
1.765625,-2.7837314702067585e-05,-3.174143788815135e-05,-2.8815142977035164e-05,-3.66233893492027e-05,3.25,2.75
1.76953125,-2.637057228961622e-05,-2.2466449103532454e-05,-2.1977534966048663e-05,-4.248316908522161e-05,3.25,2.75
1.7734375,-2.4414915739681076e-05,-1.660666936751353e-05,-2.4414915739681076e-05,-3.906796003662164e-05,3.25,2.75
1.77734375,-2.5881658152132428e-05,-1.7095583504997323e-05,-2.5881658152132428e-05,-3.7112303486686485e-05,3.25,2.75
1.78125,-3.076360961318379e-05,-2.929686720073242e-05,-2.295536324101624e-05,-4.5898378133821604e-05,3.25,2.75
1.78515625,-2.637057228961622e-05,-3.223035202563514e-05,-2.4903829877164867e-05,-4.7365120546272974e-05,3.25,2.75
1.7890625,-2.5881658152132428e-05,-2.6859486427100007e-05,-2.637057228961622e-05,-3.564556107423513e-05,3.25,2.75
1.79296875,-2.978578133821621e-05,-2.7837314702067585e-05,-2.5881658152132428e-05,-3.223035202563514e-05,3.25,2.75
1.796875,-2.5881658152132428e-05,-3.515664693675134e-05,-3.7112303486686485e-05,-3.0274695475699998e-05,3.25,2.75
1.80078125,-2.295536324101624e-05,-3.613447521171892e-05,-4.3460997360189195e-05,-3.760121762417027e-05,3.25,2.75
1.8046875,-2.2466449103532454e-05,-3.0274695475699998e-05,-4.150534081025405e-05,-3.564556107423513e-05,3.25,2.75
1.80859375,-2.0510792553597297e-05,-3.0274695475699998e-05,-4.4927739772640564e-05,-2.4414915739681076e-05,3.25,2.75
1.8125,-2.295536324101624e-05,-2.6859486427100007e-05,-3.271926616311893e-05,-3.271926616311893e-05,3.25,2.75
1.81640625,-3.125252375066756e-05,-2.4903829877164867e-05,-1.6117755230029744e-05,-4.004578831158922e-05,3.25,2.75
1.8203125,-2.637057228961622e-05,-3.66233893492027e-05,-3.369709443808651e-05,-2.002187841611351e-05,3.25,2.75
1.82421875,-2.1488620828564875e-05,-4.150534081025405e-05,-6.104033656824596e-05,-2.0510792553597297e-05,3.25,2.75
1.828125,-3.174143788815135e-05,-4.150534081025405e-05,-5.66472992446784e-05,-3.515664693675134e-05,3.25,2.75
1.83203125,-2.637057228961622e-05,-3.7112303486686485e-05,-5.1276433646143274e-05,-3.4186008575570295e-05,3.25,2.75
1.8359375,-1.2695356267643233e-05,-3.467492271305408e-05,-5.3224900282291896e-05,-2.295536324101624e-05,3.25,2.75
1.83984375,-2.002187841611351e-05,-5.420272855725946e-05,-5.859576588082703e-05,-2.7348400564583798e-05,3.25,2.75
1.84375,-2.295536324101624e-05,-5.859576588082703e-05,-6.347771734187838e-05,-4.0527512535286476e-05,3.25,2.75
1.84765625,-1.4162098680094587e-05,-4.6876206408789186e-05,-4.5898378133821604e-05,-1.7095583504997323e-05,3.25,2.75
1.8515625,-1.3673184542610811e-05,-6.055142243076217e-05,-5.6158385107194615e-05,-1.4651012817578376e-05,3.25,2.75
1.85546875,-9.280147219043243e-06,-6.152925070572975e-05,-7.910139999999997e-05,-3.760121762417027e-05,3.25,2.75
1.859375,-9.280147219043243e-06,-7.617510508888378e-05,-9.228770188448919e-05,-2.3444277378500032e-05,3.25,2.75
1.86328125,-7.324490669108101e-06,-0.00013134331357289998,-0.0001328100559853513,1.6596352498664855e-05,3.25,2.75
1.8671875,-1.5139926955062164e-05,-0.00016503524957656214,-0.00016893937276264587,2.1967218097199973e-05,3.25,2.75
1.87109375,-1.9044050141145944e-05,-0.00017626589491111615,-0.00017577698077363236,1.7085266636148646e-05,3.25,2.75
1.875,-1.3184270405127022e-05,-0.00020214239462882426,-0.0001953119765316243,1.9040923186083773e-05,3.25,2.75
1.87890625,-1.1724717906462188e-05,-0.0002431608527809567,-0.00022558151357289995,4.4428508766308083e-05,3.25,2.75
1.8828125,-1.2213632043945977e-05,-0.00027489713223468373,-0.00025145801329060807,6.982328426031892e-05,3.25,2.75
1.88671875,-1.0746889631494611e-05,-0.0002768527887846189,-0.000253902583978027,6.591197116044861e-05,3.25,2.75
1.890625,-9.769061356527033e-06,-0.0002568288788891432,-0.0002455982335545891,5.859263892576487e-05,3.25,2.75
1.89453125,-5.376024032959478e-06,-0.0002499984607919432,-0.0002431608527809567,6.542305702296483e-05,3.25,2.75
1.8984375,-9.280147219043243e-06,-0.00027197083732356754,-0.00026219974448767833,6.445241866178377e-05,3.25,2.75
1.90234375,-1.4651012817578376e-05,-0.0002768527887846189,-0.000253902583978027,5.859263892576487e-05,3.25,2.75
1.90625,-1.6117755230029744e-05,-0.00026611105758754864,-0.0002270482559853513,5.1266116777294594e-05,3.25,2.75
1.91015625,-2.002187841611351e-05,-0.00024511650933089184,-0.00021239521168841077,5.908155306324866e-05,3.25,2.75
1.9140625,-1.8073411779964884e-05,-0.000219721733836881,-0.0001884743685206378,4.101329971770809e-05,3.25,2.75
1.91796875,-1.8555136003662153e-05,-0.00020312022290379183,-0.00017382132422369724,1.5618524223697277e-05,3.25,2.75
1.921875,-2.0510792553597297e-05,-0.00019579370075532157,-0.0001660130778515297,2.050766559853514e-05,3.25,2.75
1.92578125,-2.295536324101624e-05,-0.00017773263732356754,-0.00015087830933089186,2.050766559853514e-05,3.25,2.75
1.9296875,-2.8326228839551376e-05,-0.0001430628730449378,-0.0001220755147020676,1.024765862516213e-05,3.25,2.75
1.93359375,-2.8815142977035164e-05,-0.00012011985815213244,-9.863639575799188e-05,4.387878889143224e-06,3.25,2.75
1.9375,-3.7112303486686485e-05,-0.0001264613621118486,-9.57101008468757e-05,3.906154665445967e-06,3.25,2.75
1.94140625,-4.004578831158922e-05,-0.00011279333600366214,-7.470836267643243e-05,-9.280147219043243e-06,3.25,2.75
1.9453125,-3.760121762417027e-05,-7.715293336385136e-05,-5.029860537117569e-05,-2.0999706691081088e-05,3.25,2.75
1.94921875,-4.443882563515677e-05,-6.249988906691079e-05,-3.857904589913785e-05,-2.929686720073242e-05,3.25,2.75
1.953125,-3.857904589913785e-05,-4.3460997360189195e-05,-2.295536324101624e-05,-2.637057228961622e-05,3.25,2.75
1.95703125,-3.223035202563514e-05,-3.125252375066756e-05,4.387878889143224e-06,-1.0746889631494611e-05,3.25,2.75
1.9609375,-3.613447521171892e-05,-2.295536324101624e-05,1.7574180773632434e-05,-2.3444277378500032e-05,3.25,2.75
1.96484375,-4.199425494773784e-05,-6.353852307927056e-06,-2.295536324101624e-05,-4.248316908522161e-05,3.25,2.75
1.96875,-3.809013176165406e-05,4.876793026627012e-06,-1.7095583504997323e-05,-4.004578831158922e-05,3.25,2.75
1.97265625,-2.978578133821621e-05,1.8552009048599985e-05,7.32136371404593e-06,-3.0274695475699998e-05,3.25,2.75
1.9765625,-3.613447521171892e-05,2.8804826108186487e-05,8.299191989013508e-06,-3.7112303486686485e-05,3.25,2.75
1.98046875,-3.369709443808651e-05,3.270894929427024e-05,1.1225486900129709e-05,-4.785403468375675e-05,3.25,2.75
1.984375,-3.515664693675134e-05,3.5153519981689183e-05,5.3657071641108015e-06,-4.7365120546272974e-05,3.25,2.75
1.98828125,-4.150534081025405e-05,3.8568729030289175e-05,2.050766559853514e-05,-5.1276433646143274e-05,3.25,2.75
1.9921875,-4.199425494773784e-05,3.75909007553216e-05,3.5153519981689183e-05,-5.8106851743343236e-05,3.25,2.75
1.99609375,-4.394991149767298e-05,3.710917653162434e-05,4.248004213015946e-05,-6.445554561684594e-05,3.25,2.75
2.0,-4.1016426672770264e-05,3.0271568520637826e-05,4.150221385519188e-05,-5.3224900282291896e-05,3.25,2.75
2.00390625,-3.564556107423513e-05,2.294504637216755e-05,3.417569170672161e-05,-5.029860537117569e-05,3.25,2.75
2.0078125,-3.760121762417027e-05,3.564243411917297e-05,3.8568729030289175e-05,-5.8106851743343236e-05,3.25,2.75
2.01171875,-4.1016426672770264e-05,4.78509077286946e-05,4.101329971770809e-05,-5.420272855725946e-05,3.25,2.75
2.015625,-3.809013176165406e-05,4.34506804913405e-05,5.1266116777294594e-05,-4.932077709620812e-05,3.25,2.75
2.01953125,-3.7112303486686485e-05,4.34506804913405e-05,4.638416531624324e-05,-5.3224900282291896e-05,3.25,2.75
2.0234375,-4.1016426672770264e-05,4.4428508766308083e-05,3.270894929427024e-05,-5.712902346837566e-05,3.25,2.75
2.02734375,-3.760121762417027e-05,4.540633704127566e-05,3.75909007553216e-05,-4.7365120546272974e-05,3.25,2.75
2.03125,-3.515664693675134e-05,4.34506804913405e-05,4.491742290379187e-05,-4.63872922713054e-05,3.25,2.75
2.03515625,-3.955687417410543e-05,3.4664605844205396e-05,3.662026239414055e-05,-5.1276433646143274e-05,3.25,2.75
2.0390625,-4.248316908522161e-05,3.173831093308919e-05,3.076048265812162e-05,-5.469164269474325e-05,3.25,2.75
2.04296875,-3.857904589913785e-05,2.684916955825133e-05,3.710917653162434e-05,-5.175815786984053e-05,3.25,2.75
2.046875,-3.515664693675134e-05,1.9040923186083773e-05,2.441178878461892e-05,-4.6876206408789186e-05,3.25,2.75
2.05078125,-3.809013176165406e-05,1.9040923186083773e-05,2.1967218097199973e-05,-5.420272855725946e-05,3.25,2.75
2.0546875,-3.7112303486686485e-05,2.1478303959716185e-05,3.564243411917297e-05,-4.9809691233691905e-05,3.25,2.75
2.05859375,-3.369709443808651e-05,1.9040923186083773e-05,3.3686777569237814e-05,-4.8342948821240535e-05,3.25,2.75
2.0625,-3.467492271305408e-05,1.1714401037613498e-05,2.3433960509651342e-05,-4.883186295872433e-05,3.25,2.75
2.06640625,-3.223035202563514e-05,1.3181143450064866e-05,2.1478303959716185e-05,-4.443882563515677e-05,3.25,2.75
2.0703125,-2.929686720073242e-05,2.1478303959716185e-05,2.001875146105135e-05,-4.63872922713054e-05,3.25,2.75
2.07421875,-2.637057228961622e-05,2.3433960509651342e-05,2.0989389822232394e-05,-4.6876206408789186e-05,3.25,2.75
2.078125,-2.6859486427100007e-05,1.513680000000002e-05,2.1967218097199973e-05,-4.150534081025405e-05,3.25,2.75
2.08203125,-3.320818030060272e-05,1.024765862516213e-05,2.2456132234683764e-05,-4.8342948821240535e-05,3.25,2.75
2.0859375,-3.66233893492027e-05,1.073657276264592e-05,2.83159119707027e-05,-5.420272855725946e-05,3.25,2.75
2.08984375,-2.929686720073242e-05,2.0989389822232394e-05,2.684916955825133e-05,-3.7112303486686485e-05,3.25,2.75
2.09375,-3.076360961318379e-05,2.83159119707027e-05,2.1478303959716185e-05,-3.857904589913785e-05,3.25,2.75
2.09765625,-3.857904589913785e-05,8.788106126497297e-06,7.810277851529719e-06,-5.469164269474325e-05,3.25,2.75
2.1015625,-3.125252375066756e-05,-5.15843442434516e-09,9.72669840543233e-07,-4.8342948821240535e-05,3.25,2.75
2.10546875,-2.3444277378500032e-05,1.1714401037613498e-05,8.788106126497297e-06,-3.760121762417027e-05,3.25,2.75
2.109375,-3.076360961318379e-05,1.1225486900129709e-05,1.024765862516213e-05,-4.0527512535286476e-05,3.25,2.75
2.11328125,-3.223035202563514e-05,1.3181143450064866e-05,1.7085266636148646e-05,-3.369709443808651e-05,3.25,2.75
2.1171875,-3.076360961318379e-05,8.299191989013508e-06,1.3181143450064866e-05,-3.0274695475699998e-05,3.25,2.75
2.12109375,-3.271926616311893e-05,-3.4203674830243215e-06,2.4394122529946003e-06,-3.613447521171892e-05,3.25,2.75
2.125,-3.174143788815135e-05,1.461583978027022e-06,-5.15843442434516e-09,-3.760121762417027e-05,3.25,2.75
2.12890625,-3.467492271305408e-05,1.024765862516213e-05,9.277020263981085e-06,-4.004578831158922e-05,3.25,2.75
2.1328125,-3.515664693675134e-05,1.024765862516213e-05,2.3433960509651342e-05,-4.0527512535286476e-05,3.25,2.75
2.13671875,-2.7348400564583798e-05,1.2203315175097287e-05,3.076048265812162e-05,-2.978578133821621e-05,3.25,2.75
2.140625,-2.7837314702067585e-05,1.513680000000002e-05,2.1478303959716185e-05,-2.539274401464864e-05,3.25,2.75
2.14453125,-2.8815142977035164e-05,7.810277851529719e-06,1.9040923186083773e-05,-3.613447521171892e-05,3.25,2.75
2.1484375,-2.637057228961622e-05,-6.8427664454108306e-06,1.3181143450064866e-05,-3.564556107423513e-05,3.25,2.75
2.15234375,-2.8815142977035164e-05,-5.8649381704432665e-06,1.2203315175097287e-05,-3.4186008575570295e-05,3.25,2.75
2.15625,-2.8815142977035164e-05,-3.90928162050811e-06,1.2692229312581076e-05,-3.906796003662164e-05,3.25,2.75
2.16015625,-2.539274401464864e-05,-1.0746889631494611e-05,7.810277851529719e-06,-3.515664693675134e-05,3.25,2.75
2.1640625,-2.3444277378500032e-05,-1.0746889631494611e-05,-5.8649381704432665e-06,-3.125252375066756e-05,3.25,2.75
2.16796875,-2.1977534966048663e-05,1.461583978027022e-06,-1.2213632043945977e-05,-3.271926616311893e-05,3.25,2.75
2.171875,-2.7837314702067585e-05,-3.4203674830243215e-06,-7.81340480659189e-06,-3.613447521171892e-05,3.25,2.75
2.17578125,-3.174143788815135e-05,-1.1235803768978399e-05,-6.353852307927056e-06,-3.906796003662164e-05,3.25,2.75
2.1796875,-2.539274401464864e-05,-9.769061356527033e-06,-1.0746889631494611e-05,-2.929686720073242e-05,3.25,2.75
2.18359375,-2.295536324101624e-05,-2.002187841611351e-05,-1.9532964278629732e-05,-1.9044050141145944e-05,3.25,2.75
2.1875,-2.4414915739681076e-05,-1.8555136003662153e-05,-1.6117755230029744e-05,-2.8326228839551376e-05,3.25,2.75
2.19140625,-2.295536324101624e-05,-5.8649381704432665e-06,-5.376024032959478e-06,-3.223035202563514e-05,3.25,2.75
2.1953125,-1.8073411779964884e-05,-9.829867093919233e-07,-3.90928162050811e-06,-1.8073411779964884e-05,3.25,2.75
2.19921875,-2.0999706691081088e-05,-9.280147219043243e-06,-1.8555136003662153e-05,-2.3444277378500032e-05,3.25,2.75
2.203125,-2.7348400564583798e-05,-1.9044050141145944e-05,-2.3444277378500032e-05,-4.150534081025405e-05,3.25,2.75
2.20703125,-2.8326228839551376e-05,-2.002187841611351e-05,-1.8555136003662153e-05,-4.3460997360189195e-05,3.25,2.75
2.2109375,-2.3926001602197288e-05,-1.758449764248111e-05,-1.9532964278629732e-05,-3.0274695475699998e-05,3.25,2.75
2.21484375,-2.2466449103532454e-05,-1.1235803768978399e-05,-4.887109895475689e-06,-2.8815142977035164e-05,3.25,2.75
2.21875,-2.3926001602197288e-05,-1.9044050141145944e-05,8.788106126497297e-06,-2.637057228961622e-05,3.25,2.75
2.22265625,-2.3926001602197288e-05,-2.3926001602197288e-05,-2.9314533455405322e-06,-2.8815142977035164e-05,3.25,2.75
2.2265625,-2.8326228839551376e-05,-1.6117755230029744e-05,-2.8326228839551376e-05,-3.564556107423513e-05,3.25,2.75
2.23046875,-2.637057228961622e-05,-5.376024032959478e-06,-4.443882563515677e-05,-3.320818030060272e-05,3.25,2.75
2.234375,-2.2466449103532454e-05,-3.4203674830243215e-06,-4.6876206408789186e-05,-3.7112303486686485e-05,3.25,2.75
2.23828125,-2.3444277378500032e-05,-1.5628841092545953e-05,-4.443882563515677e-05,-3.271926616311893e-05,3.25,2.75
2.2421875,-2.0999706691081088e-05,-2.1488620828564875e-05,-3.809013176165406e-05,-2.4903829877164867e-05,3.25,2.75
2.24609375,-2.539274401464864e-05,-2.2466449103532454e-05,-3.369709443808651e-05,-3.564556107423513e-05,3.25,2.75
2.25,-2.7348400564583798e-05,-2.7837314702067585e-05,-2.4414915739681076e-05,-3.857904589913785e-05,3.25,2.75
2.25390625,-2.0510792553597297e-05,-2.929686720073242e-05,-1.7095583504997323e-05,-2.0999706691081088e-05,3.25,2.75
2.2578125,-2.1488620828564875e-05,-3.369709443808651e-05,-2.6859486427100007e-05,-2.1977534966048663e-05,3.25,2.75
2.26171875,-2.637057228961622e-05,-4.1016426672770264e-05,-2.295536324101624e-05,-2.8815142977035164e-05,3.25,2.75
2.265625,-2.978578133821621e-05,-3.7112303486686485e-05,-1.8073411779964884e-05,-3.564556107423513e-05,3.25,2.75
2.26953125,-3.076360961318379e-05,-2.5881658152132428e-05,-2.6859486427100007e-05,-3.564556107423513e-05,3.25,2.75
2.2734375,-2.3444277378500032e-05,-2.1488620828564875e-05,-2.1488620828564875e-05,-2.295536324101624e-05,3.25,2.75
2.27734375,-2.8326228839551376e-05,-2.7837314702067585e-05,-1.758449764248111e-05,-2.929686720073242e-05,3.25,2.75
2.28125,-3.564556107423513e-05,-3.369709443808651e-05,-1.4162098680094587e-05,-4.248316908522161e-05,3.25,2.75
2.28515625,-2.637057228961622e-05,-3.467492271305408e-05,-2.929686720073242e-05,-2.8326228839551376e-05,3.25,2.75
2.2890625,-2.637057228961622e-05,-2.978578133821621e-05,-3.320818030060272e-05,-2.4414915739681076e-05,3.25,2.75
2.29296875,-2.637057228961622e-05,-2.7837314702067585e-05,-3.0274695475699998e-05,-3.174143788815135e-05,3.25,2.75
2.296875,-2.4903829877164867e-05,-3.369709443808651e-05,-3.613447521171892e-05,-3.369709443808651e-05,3.25,2.75
2.30078125,-2.7837314702067585e-05,-4.443882563515677e-05,-4.1016426672770264e-05,-3.857904589913785e-05,3.25,2.75
2.3046875,-2.7348400564583798e-05,-4.785403468375675e-05,-4.199425494773784e-05,-3.564556107423513e-05,3.25,2.75
2.30859375,-2.637057228961622e-05,-3.369709443808651e-05,-4.150534081025405e-05,-3.760121762417027e-05,3.25,2.75
2.3125,-2.0999706691081088e-05,-2.3926001602197288e-05,-4.394991149767298e-05,-4.150534081025405e-05,3.25,2.75
2.31640625,-2.1488620828564875e-05,-2.929686720073242e-05,-4.297208322270541e-05,-4.199425494773784e-05,3.25,2.75
2.3203125,-2.2466449103532454e-05,-3.857904589913785e-05,-4.248316908522161e-05,-3.857904589913785e-05,3.25,2.75
2.32421875,-2.2466449103532454e-05,-3.857904589913785e-05,-3.857904589913785e-05,-3.271926616311893e-05,3.25,2.75
2.328125,-2.637057228961622e-05,-3.613447521171892e-05,-2.7348400564583798e-05,-2.8815142977035164e-05,3.25,2.75
2.33203125,-2.8326228839551376e-05,-2.2466449103532454e-05,-1.8555136003662153e-05,-2.4414915739681076e-05,3.25,2.75
2.3359375,-2.3926001602197288e-05,-1.4162098680094587e-05,-2.0999706691081088e-05,-3.076360961318379e-05,3.25,2.75
2.33984375,-1.7095583504997323e-05,-3.0274695475699998e-05,-3.955687417410543e-05,-3.760121762417027e-05,3.25,2.75
2.34375,-1.6117755230029744e-05,-3.467492271305408e-05,-4.541665391012435e-05,-3.857904589913785e-05,3.25,2.75
2.34765625,-1.3673184542610811e-05,-3.4186008575570295e-05,-4.785403468375675e-05,-3.515664693675134e-05,3.25,2.75
2.3515625,-1.1724717906462188e-05,-2.0999706691081088e-05,-4.150534081025405e-05,-4.1016426672770264e-05,3.25,2.75
2.35546875,-1.5139926955062164e-05,-1.5139926955062164e-05,-4.394991149767298e-05,-4.541665391012435e-05,3.25,2.75
2.359375,-2.1977534966048663e-05,-4.004578831158922e-05,-6.641120216678109e-05,-4.1016426672770264e-05,3.25,2.75
2.36328125,-1.9532964278629732e-05,-4.5898378133821604e-05,-6.298880320439458e-05,-5.6158385107194615e-05,3.25,2.75
2.3671875,-2.2466449103532454e-05,-3.4186008575570295e-05,-4.63872922713054e-05,-5.957359415579459e-05,3.25,2.75
2.37109375,-2.7348400564583798e-05,-2.929686720073242e-05,-3.076360961318379e-05,-5.273598614480811e-05,3.25,2.75
2.375,-1.758449764248111e-05,-4.004578831158922e-05,-4.1016426672770264e-05,-3.906796003662164e-05,3.25,2.75
2.37890625,-1.5139926955062164e-05,-4.541665391012435e-05,-6.445554561684594e-05,-3.66233893492027e-05,3.25,2.75
2.3828125,-1.8555136003662153e-05,-4.932077709620812e-05,-5.518055683222704e-05,-4.248316908522161e-05,3.25,2.75
2.38671875,-1.4162098680094587e-05,-4.6876206408789186e-05,-3.809013176165406e-05,-3.760121762417027e-05,3.25,2.75
2.390625,-1.2695356267643233e-05,-3.467492271305408e-05,-4.150534081025405e-05,-3.809013176165406e-05,3.25,2.75
2.39453125,-1.9532964278629732e-05,-2.8326228839551376e-05,-4.5898378133821604e-05,-4.199425494773784e-05,3.25,2.75
2.3984375,-2.2466449103532454e-05,-3.515664693675134e-05,-4.4927739772640564e-05,-4.248316908522161e-05,3.25,2.75
2.40234375,-1.758449764248111e-05,-4.7365120546272974e-05,-4.297208322270541e-05,-3.369709443808651e-05,3.25,2.75
2.40625,-1.1724717906462188e-05,-3.809013176165406e-05,-4.150534081025405e-05,-3.320818030060272e-05,3.25,2.75
2.41015625,-1.0257975494010822e-05,-2.2466449103532454e-05,-4.150534081025405e-05,-3.809013176165406e-05,3.25,2.75
2.4140625,-1.0257975494010822e-05,-1.7095583504997323e-05,-2.978578133821621e-05,-4.443882563515677e-05,3.25,2.75
2.41796875,-1.1724717906462188e-05,-2.978578133821621e-05,-2.3926001602197288e-05,-3.809013176165406e-05,3.25,2.75
2.421875,-1.3673184542610811e-05,-3.809013176165406e-05,-3.613447521171892e-05,-3.467492271305408e-05,3.25,2.75
2.42578125,-1.9044050141145944e-05,-3.174143788815135e-05,-4.541665391012435e-05,-4.150534081025405e-05,3.25,2.75
2.4296875,-2.539274401464864e-05,-2.929686720073242e-05,-3.271926616311893e-05,-4.443882563515677e-05,3.25,2.75
2.43359375,-2.1488620828564875e-05,-3.271926616311893e-05,-2.637057228961622e-05,-3.955687417410543e-05,3.25,2.75
2.4375,-2.1488620828564875e-05,-4.248316908522161e-05,-4.1016426672770264e-05,-3.906796003662164e-05,3.25,2.75
2.44140625,-2.637057228961622e-05,-4.63872922713054e-05,-3.7112303486686485e-05,-3.857904589913785e-05,3.25,2.75
2.4453125,-2.295536324101624e-05,-3.857904589913785e-05,-2.978578133821621e-05,-4.0527512535286476e-05,3.25,2.75
2.44921875,-1.6117755230029744e-05,-3.0274695475699998e-05,-3.320818030060272e-05,-3.760121762417027e-05,3.25,2.75
2.453125,-2.0999706691081088e-05,-2.4414915739681076e-05,-3.271926616311893e-05,-3.369709443808651e-05,3.25,2.75
2.45703125,-2.4414915739681076e-05,-2.929686720073242e-05,-2.7348400564583798e-05,-4.394991149767298e-05,3.25,2.75
2.4609375,-2.1977534966048663e-05,-3.076360961318379e-05,-1.3184270405127022e-05,-5.029860537117569e-05,3.25,2.75
2.46484375,-1.3673184542610811e-05,-1.9532964278629732e-05,-1.3184270405127022e-05,-2.7348400564583798e-05,3.25,2.75
2.46875,-1.5139926955062164e-05,-1.758449764248111e-05,-2.1977534966048663e-05,-1.8073411779964884e-05,3.25,2.75
2.47265625,-2.4414915739681076e-05,-2.3444277378500032e-05,-2.5881658152132428e-05,-2.929686720073242e-05,3.25,2.75
2.4765625,-2.8326228839551376e-05,-2.539274401464864e-05,-4.5898378133821604e-05,-3.760121762417027e-05,3.25,2.75
2.48046875,-2.7348400564583798e-05,-3.809013176165406e-05,-5.078751950865949e-05,-3.66233893492027e-05,3.25,2.75
2.484375,-2.4903829877164867e-05,-3.857904589913785e-05,-2.7348400564583798e-05,-2.978578133821621e-05,3.25,2.75
2.48828125,-2.8326228839551376e-05,-2.6859486427100007e-05,-1.758449764248111e-05,-3.7112303486686485e-05,3.25,2.75
2.4921875,-2.929686720073242e-05,-2.2466449103532454e-05,-3.174143788815135e-05,-3.955687417410543e-05,3.25,2.75
2.49609375,-2.6859486427100007e-05,-2.3444277378500032e-05,-3.809013176165406e-05,-2.7348400564583798e-05,3.25,2.75
2.5,-2.7837314702067585e-05,-2.978578133821621e-05,-3.760121762417027e-05,-2.3926001602197288e-05,3.25,2.75
2.50390625,-3.271926616311893e-05,-3.467492271305408e-05,-4.150534081025405e-05,-3.174143788815135e-05,3.25,2.75
2.5078125,-3.125252375066756e-05,-2.8815142977035164e-05,-3.955687417410543e-05,-3.076360961318379e-05,3.25,2.75
2.51171875,-2.2466449103532454e-05,-2.6859486427100007e-05,-2.637057228961622e-05,-2.539274401464864e-05,3.25,2.75
2.515625,-2.6859486427100007e-05,-2.929686720073242e-05,-1.4651012817578376e-05,-3.223035202563514e-05,3.25,2.75
2.51953125,-3.0274695475699998e-05,-3.7112303486686485e-05,-1.3184270405127022e-05,-4.199425494773784e-05,3.25,2.75
2.5234375,-1.8073411779964884e-05,-4.1016426672770264e-05,-3.0274695475699998e-05,-3.467492271305408e-05,3.25,2.75
2.52734375,-1.8073411779964884e-05,-3.4186008575570295e-05,-4.4927739772640564e-05,-3.076360961318379e-05,3.25,2.75
2.53125,-2.1488620828564875e-05,-2.539274401464864e-05,-2.8815142977035164e-05,-3.857904589913785e-05,3.25,2.75
2.53515625,-1.5139926955062164e-05,-2.5881658152132428e-05,-2.8815142977035164e-05,-2.978578133821621e-05,3.25,2.75
2.5390625,-1.3184270405127022e-05,-2.978578133821621e-05,-3.0274695475699998e-05,-1.9044050141145944e-05,3.25,2.75
2.54296875,-1.660666936751353e-05,-3.760121762417027e-05,-3.955687417410543e-05,-1.660666936751353e-05,3.25,2.75
2.546875,-2.002187841611351e-05,-4.004578831158922e-05,-3.760121762417027e-05,-2.1488620828564875e-05,3.25,2.75
2.55078125,-2.539274401464864e-05,-3.271926616311893e-05,-2.0999706691081088e-05,-3.076360961318379e-05,3.25,2.75
2.5546875,-2.1488620828564875e-05,-3.906796003662164e-05,-3.320818030060272e-05,-2.539274401464864e-05,3.25,2.75
2.55859375,-1.8555136003662153e-05,-4.63872922713054e-05,-3.66233893492027e-05,-1.4162098680094587e-05,3.25,2.75
2.5625,-2.637057228961622e-05,-4.004578831158922e-05,-2.3926001602197288e-05,-2.539274401464864e-05,3.25,2.75
2.56640625,-1.7095583504997323e-05,-3.955687417410543e-05,-3.076360961318379e-05,-4.150534081025405e-05,3.25,2.75
2.5703125,-4.3981957579918996e-06,-4.150534081025405e-05,-4.394991149767298e-05,-3.613447521171892e-05,3.25,2.75
2.57421875,-8.791233081559454e-06,-3.809013176165406e-05,-5.078751950865949e-05,-3.857904589913785e-05,3.25,2.75
2.578125,-1.2213632043945977e-05,-4.199425494773784e-05,-4.7365120546272974e-05,-4.199425494773784e-05,3.25,2.75
2.58203125,-7.81340480659189e-06,-5.957359415579459e-05,-4.541665391012435e-05,-5.029860537117569e-05,3.25,2.75
2.5859375,-5.376024032959478e-06,-6.396663147936216e-05,-7.51972768139162e-05,-5.273598614480811e-05,3.25,2.75
2.58984375,-2.9314533455405322e-06,-5.371381441977567e-05,-7.813076163881893e-05,-5.566947096971083e-05,3.25,2.75
2.59375,-1.4719008468756982e-06,-5.420272855725946e-05,-7.227098190280002e-05,-6.88485829404135e-05,3.25,2.75
2.59765625,-5.8649381704432665e-06,-6.494445975432972e-05,-9.57101008468757e-05,-8.007922827496756e-05,3.25,2.75
2.6015625,-6.8427664454108306e-06,-6.543337389181351e-05,-9.912530989547568e-05,-8.49611797360189e-05,3.25,2.75
2.60546875,-3.4203674830243215e-06,-6.201816484321354e-05,-9.81474816205081e-05,-8.399054137483786e-05,3.25,2.75
2.609375,-8.791233081559454e-06,-6.298880320439458e-05,-9.375444429694054e-05,-9.033204533455404e-05,3.25,2.75
2.61328125,-3.90928162050811e-06,-6.298880320439458e-05,-8.203488482490271e-05,-9.326553015945676e-05,3.25,2.75
2.6171875,4.837557030594439e-07,-5.8106851743343236e-05,-8.789466456092163e-05,-8.447945551232163e-05,3.25,2.75
2.62109375,-8.791233081559454e-06,-5.371381441977567e-05,-8.691683628595404e-05,-8.54500938735027e-05,3.25,2.75
2.625,-8.791233081559454e-06,-5.1276433646143274e-05,-8.007922827496756e-05,-8.691683628595404e-05,3.25,2.75
2.62890625,-8.791233081559454e-06,-5.175815786984053e-05,-7.324881017776758e-05,-7.813076163881893e-05,3.25,2.75
2.6328125,-1.2695356267643233e-05,-4.8342948821240535e-05,-6.543337389181351e-05,-7.959031413748377e-05,3.25,2.75
2.63671875,-1.5628841092545953e-05,-5.371381441977567e-05,-6.543337389181351e-05,-7.617510508888378e-05,3.25,2.75
2.640625,-1.8555136003662153e-05,-5.469164269474325e-05,-6.494445975432972e-05,-7.324881017776758e-05,3.25,2.75
2.64453125,-2.1977534966048663e-05,-4.394991149767298e-05,-5.566947096971083e-05,-6.982641121538109e-05,3.25,2.75
2.6484375,-1.9044050141145944e-05,-4.004578831158922e-05,-5.078751950865949e-05,-5.761793760585945e-05,3.25,2.75
2.65234375,-1.1724717906462188e-05,-2.978578133821621e-05,-5.566947096971083e-05,-5.761793760585945e-05,3.25,2.75
2.65625,-1.8555136003662153e-05,-3.320818030060272e-05,-3.613447521171892e-05,-6.93374970778973e-05,3.25,2.75
2.66015625,-1.6117755230029744e-05,-4.3460997360189195e-05,-3.467492271305408e-05,-5.420272855725946e-05,3.25,2.75
2.6640625,-9.769061356527033e-06,-3.613447521171892e-05,-4.394991149767298e-05,-4.4927739772640564e-05,3.25,2.75
2.66796875,-1.0257975494010822e-05,-2.3926001602197288e-05,-3.515664693675134e-05,-6.690011630426488e-05,3.25,2.75
2.671875,-1.1235803768978399e-05,-2.1488620828564875e-05,-2.8815142977035164e-05,-8.203488482490271e-05,3.25,2.75
2.67578125,-1.2695356267643233e-05,-2.7348400564583798e-05,-2.3926001602197288e-05,-5.175815786984053e-05,3.25,2.75
2.6796875,-1.660666936751353e-05,-3.0274695475699998e-05,-2.295536324101624e-05,-2.8326228839551376e-05,3.25,2.75
2.68359375,-2.5881658152132428e-05,-3.320818030060272e-05,-3.125252375066756e-05,-4.6876206408789186e-05,3.25,2.75
2.6875,-2.539274401464864e-05,-1.5628841092545953e-05,-3.857904589913785e-05,-5.175815786984053e-05,3.25,2.75
2.69140625,-1.5628841092545953e-05,-4.3981957579918996e-06,-3.076360961318379e-05,-7.51972768139162e-05,3.25,2.75
2.6953125,-2.1977534966048663e-05,-2.2466449103532454e-05,-4.199425494773784e-05,-6.738903044174866e-05,3.25,2.75
2.69921875,-2.929686720073242e-05,-2.978578133821621e-05,-4.3460997360189195e-05,-4.199425494773784e-05,3.25,2.75
2.703125,-2.8326228839551376e-05,-3.174143788815135e-05,-2.978578133821621e-05,-4.785403468375675e-05,3.25,2.75
2.70703125,-1.9044050141145944e-05,-2.4414915739681076e-05,-3.613447521171892e-05,-8.791233081559454e-06,3.25,2.75
2.7109375,-1.7095583504997323e-05,-1.0746889631494611e-05,-3.613447521171892e-05,6.8324495765621405e-06,3.25,2.75
2.71484375,-2.0510792553597297e-05,-1.1724717906462188e-05,-3.4186008575570295e-05,-2.8815142977035164e-05,3.25,2.75
2.71875,-1.5139926955062164e-05,-1.2213632043945977e-05,-2.929686720073242e-05,-2.978578133821621e-05,3.25,2.75
2.72265625,-1.3673184542610811e-05,-1.8073411779964884e-05,-3.271926616311893e-05,-4.3981957579918996e-06,3.25,2.75
2.7265625,-2.295536324101624e-05,-2.4903829877164867e-05,-4.199425494773784e-05,-2.8815142977035164e-05,3.25,2.75
2.73046875,-2.3444277378500032e-05,-1.0746889631494611e-05,-3.320818030060272e-05,-3.467492271305408e-05,3.25,2.75
2.734375,-1.9044050141145944e-05,-1.0257975494010822e-05,-2.978578133821621e-05,-1.9532964278629732e-05,3.25,2.75
2.73828125,-2.4903829877164867e-05,-2.539274401464864e-05,-3.857904589913785e-05,-3.369709443808651e-05,3.25,2.75
2.7421875,-3.223035202563514e-05,-3.4186008575570295e-05,-5.029860537117569e-05,-5.3224900282291896e-05,3.25,2.75
2.74609375,-3.174143788815135e-05,-3.174143788815135e-05,-2.978578133821621e-05,-5.712902346837566e-05,3.25,2.75
2.75,-2.2466449103532454e-05,-1.9044050141145944e-05,-1.2695356267643233e-05,-3.613447521171892e-05,3.25,2.75
2.75390625,-1.7095583504997323e-05,-1.5628841092545953e-05,-1.5139926955062164e-05,-3.271926616311893e-05,3.25,2.75
2.7578125,-2.637057228961622e-05,-3.125252375066756e-05,-2.8326228839551376e-05,-5.224707200732432e-05,3.25,2.75
2.76171875,-3.271926616311893e-05,-4.0527512535286476e-05,-3.7112303486686485e-05,-5.8106851743343236e-05,3.25,2.75
2.765625,-3.076360961318379e-05,-3.564556107423513e-05,-3.0274695475699998e-05,-5.175815786984053e-05,3.25,2.75
2.76953125,-3.125252375066756e-05,-3.320818030060272e-05,-2.1977534966048663e-05,-4.4927739772640564e-05,3.25,2.75
2.7734375,-3.4186008575570295e-05,-3.0274695475699998e-05,-1.9532964278629732e-05,-4.63872922713054e-05,3.25,2.75
2.77734375,-3.4186008575570295e-05,-3.564556107423513e-05,-3.174143788815135e-05,-4.443882563515677e-05,3.25,2.75
2.78125,-3.271926616311893e-05,-4.199425494773784e-05,-3.7112303486686485e-05,-5.66472992446784e-05,3.25,2.75
2.78515625,-3.174143788815135e-05,-3.857904589913785e-05,-3.760121762417027e-05,-4.199425494773784e-05,3.25,2.75
2.7890625,-2.8326228839551376e-05,-2.929686720073242e-05,-3.906796003662164e-05,-1.7095583504997323e-05,3.25,2.75
2.79296875,-2.2466449103532454e-05,-2.4903829877164867e-05,-3.7112303486686485e-05,-1.9532964278629732e-05,3.25,2.75
2.796875,-2.295536324101624e-05,-2.6859486427100007e-05,-3.125252375066756e-05,-2.002187841611351e-05,3.25,2.75
2.80078125,-2.1488620828564875e-05,-2.637057228961622e-05,-2.7348400564583798e-05,-1.8555136003662153e-05,3.25,2.75
2.8046875,-2.0999706691081088e-05,-2.8326228839551376e-05,-3.271926616311893e-05,-3.076360961318379e-05,3.25,2.75
2.80859375,-2.3926001602197288e-05,-3.271926616311893e-05,-2.978578133821621e-05,-3.906796003662164e-05,3.25,2.75
2.8125,-2.4414915739681076e-05,-3.076360961318379e-05,-2.7837314702067585e-05,-2.3444277378500032e-05,3.25,2.75
2.81640625,-2.4414915739681076e-05,-3.271926616311893e-05,-2.5881658152132428e-05,-1.8555136003662153e-05,3.25,2.75
2.8203125,-3.174143788815135e-05,-4.0527512535286476e-05,-3.0274695475699998e-05,-2.3444277378500032e-05,3.25,2.75
2.82421875,-3.0274695475699998e-05,-4.443882563515677e-05,-3.271926616311893e-05,-1.5628841092545953e-05,3.25,2.75
2.828125,-2.6859486427100007e-05,-4.1016426672770264e-05,-3.809013176165406e-05,-1.2213632043945977e-05,3.25,2.75
2.83203125,-3.271926616311893e-05,-3.857904589913785e-05,-4.004578831158922e-05,-2.3444277378500032e-05,3.25,2.75
2.8359375,-3.467492271305408e-05,-4.248316908522161e-05,-2.8326228839551376e-05,-3.613447521171892e-05,3.25,2.75
2.83984375,-2.8815142977035164e-05,-5.1276433646143274e-05,-3.320818030060272e-05,-2.1488620828564875e-05,3.25,2.75
2.84375,-2.8815142977035164e-05,-5.078751950865949e-05,-4.5898378133821604e-05,-1.0746889631494611e-05,3.25,2.75
2.84765625,-2.929686720073242e-05,-3.564556107423513e-05,-3.906796003662164e-05,-2.1977534966048663e-05,3.25,2.75
2.8515625,-2.8326228839551376e-05,-3.369709443808651e-05,-2.4903829877164867e-05,-2.6859486427100007e-05,3.25,2.75
2.85546875,-2.7837314702067585e-05,-4.7365120546272974e-05,-2.6859486427100007e-05,-1.8073411779964884e-05,3.25,2.75
2.859375,-2.7837314702067585e-05,-5.078751950865949e-05,-3.369709443808651e-05,-1.8073411779964884e-05,3.25,2.75
2.86328125,-2.8815142977035164e-05,-5.1276433646143274e-05,-3.66233893492027e-05,-2.295536324101624e-05,3.25,2.75
2.8671875,-2.3926001602197288e-05,-5.078751950865949e-05,-4.199425494773784e-05,-2.2466449103532454e-05,3.25,2.75
2.87109375,-2.1977534966048663e-05,-4.394991149767298e-05,-5.175815786984053e-05,-1.9044050141145944e-05,3.25,2.75
2.875,-2.637057228961622e-05,-3.515664693675134e-05,-4.443882563515677e-05,-2.1488620828564875e-05,3.25,2.75
2.87890625,-2.7348400564583798e-05,-4.1016426672770264e-05,-4.0527512535286476e-05,-3.0274695475699998e-05,3.25,2.75
2.8828125,-2.4903829877164867e-05,-5.224707200732432e-05,-4.7365120546272974e-05,-2.7348400564583798e-05,3.25,2.75
2.88671875,-2.0510792553597297e-05,-4.5898378133821604e-05,-5.175815786984053e-05,-1.4651012817578376e-05,3.25,2.75
2.890625,-2.1488620828564875e-05,-4.199425494773784e-05,-4.394991149767298e-05,-1.3184270405127022e-05,3.25,2.75
2.89453125,-2.7837314702067585e-05,-4.0527512535286476e-05,-4.443882563515677e-05,-2.3444277378500032e-05,3.25,2.75
2.8984375,-1.8073411779964884e-05,-3.515664693675134e-05,-4.932077709620812e-05,-2.978578133821621e-05,3.25,2.75
2.90234375,-1.3673184542610811e-05,-3.613447521171892e-05,-4.150534081025405e-05,-2.637057228961622e-05,3.25,2.75
2.90625,-3.125252375066756e-05,-4.9809691233691905e-05,-4.63872922713054e-05,-2.539274401464864e-05,3.25,2.75
2.91015625,-3.564556107423513e-05,-4.6876206408789186e-05,-3.66233893492027e-05,-1.9532964278629732e-05,3.25,2.75
2.9140625,-3.0274695475699998e-05,-4.4927739772640564e-05,-2.1488620828564875e-05,-5.376024032959478e-06,3.25,2.75
2.91796875,-2.8815142977035164e-05,-3.809013176165406e-05,-1.8555136003662153e-05,-6.353852307927056e-06,3.25,2.75
2.921875,-3.320818030060272e-05,-3.271926616311893e-05,-1.7095583504997323e-05,-1.8073411779964884e-05,3.25,2.75
2.92578125,-3.906796003662164e-05,-4.4927739772640564e-05,-1.5139926955062164e-05,-1.3184270405127022e-05,3.25,2.75
2.9296875,-3.7112303486686485e-05,-3.515664693675134e-05,-5.15843442434516e-09,-5.8649381704432665e-06,3.25,2.75
2.93359375,-3.613447521171892e-05,-2.0510792553597297e-05,1.7574180773632434e-05,-1.4719008468756982e-06,3.25,2.75
2.9375,-3.809013176165406e-05,-2.1977534966048663e-05,2.684916955825133e-05,-7.81340480659189e-06,3.25,2.75
2.94140625,-3.760121762417027e-05,-2.3444277378500032e-05,3.0271568520637826e-05,-1.8555136003662153e-05,3.25,2.75
2.9453125,-3.223035202563514e-05,-2.3444277378500032e-05,1.1225486900129709e-05,-6.8427664454108306e-06,3.25,2.75
2.94921875,-3.613447521171892e-05,-2.3444277378500032e-05,-4.940725719081342e-07,-1.0257975494010822e-05,3.25,2.75
2.953125,-4.150534081025405e-05,-1.8073411779964884e-05,4.876793026627012e-06,-1.4651012817578376e-05,3.25,2.75
2.95703125,-3.66233893492027e-05,-2.0510792553597297e-05,5.3657071641108015e-06,-1.2213632043945977e-05,3.25,2.75
2.9609375,-3.271926616311893e-05,-2.8815142977035164e-05,-3.4203674830243215e-06,-1.9044050141145944e-05,3.25,2.75
2.96484375,-3.515664693675134e-05,-2.4414915739681076e-05,-3.90928162050811e-06,-1.5139926955062164e-05,3.25,2.75
2.96875,-3.955687417410543e-05,-1.5139926955062164e-05,7.810277851529719e-06,-1.1724717906462188e-05,3.25,2.75
2.97265625,-3.760121762417027e-05,-1.7095583504997323e-05,8.788106126497297e-06,-1.660666936751353e-05,3.25,2.75
2.9765625,-3.076360961318379e-05,-1.7095583504997323e-05,-1.1724717906462188e-05,-1.4651012817578376e-05,3.25,2.75
2.98046875,-2.978578133821621e-05,-2.0510792553597297e-05,-2.6859486427100007e-05,-1.0746889631494611e-05,3.25,2.75
2.984375,-3.467492271305408e-05,-2.1488620828564875e-05,-2.295536324101624e-05,-1.5628841092545953e-05,3.25,2.75
2.98828125,-3.271926616311893e-05,-1.758449764248111e-05,-1.4651012817578376e-05,-9.280147219043243e-06,3.25,2.75
2.9921875,-2.7348400564583798e-05,-1.1724717906462188e-05,-1.9532964278629732e-05,-4.3981957579918996e-06,3.25,2.75
2.99609375,-2.8815142977035164e-05,-1.6117755230029744e-05,-3.174143788815135e-05,-2.4414915739681076e-05,3.25,2.75
3.0,-2.8815142977035164e-05,-2.295536324101624e-05,-3.66233893492027e-05,-2.929686720073242e-05,3.25,2.75
3.00390625,-2.4903829877164867e-05,-2.8326228839551376e-05,-4.248316908522161e-05,-1.8073411779964884e-05,3.25,2.75
3.0078125,-2.1488620828564875e-05,-2.4903829877164867e-05,-4.0527512535286476e-05,-1.8555136003662153e-05,3.25,2.75
3.01171875,-2.1488620828564875e-05,-2.1488620828564875e-05,-3.223035202563514e-05,-3.125252375066756e-05,3.25,2.75
3.015625,-2.295536324101624e-05,-2.978578133821621e-05,-2.978578133821621e-05,-3.223035202563514e-05,3.25,2.75
3.01953125,-2.0510792553597297e-05,-4.1016426672770264e-05,-1.4651012817578376e-05,-2.3444277378500032e-05,3.25,2.75
3.0234375,-1.6117755230029744e-05,-3.857904589913785e-05,-2.6859486427100007e-05,-2.002187841611351e-05,3.25,2.75
3.02734375,-1.6117755230029744e-05,-3.125252375066756e-05,-6.055142243076217e-05,-1.758449764248111e-05,3.25,2.75
3.03125,-2.0510792553597297e-05,-2.3926001602197288e-05,-4.6876206408789186e-05,-3.613447521171892e-05,3.25,2.75
3.03515625,-7.324490669108101e-06,-1.4651012817578376e-05,-3.076360961318379e-05,-7.324490669108101e-06,3.25,2.75
3.0390625,-6.8427664454108306e-06,-2.929686720073242e-05,-4.248316908522161e-05,-3.4203674830243215e-06,3.25,2.75
3.04296875,-1.7095583504997323e-05,-5.469164269474325e-05,-5.66472992446784e-05,-3.857904589913785e-05,3.25,2.75
3.046875,-3.90928162050811e-06,-5.175815786984053e-05,-5.9084680018310805e-05,-1.4651012817578376e-05,3.25,2.75
3.05078125,1.1225486900129709e-05,-4.443882563515677e-05,-5.518055683222704e-05,7.32136371404593e-06,3.25,2.75
3.0546875,-2.9314533455405322e-06,-8.350162723735407e-05,-9.130987360952161e-05,-6.353852307927056e-06,3.25,2.75
3.05859375,-1.1235803768978399e-05,-0.0001220755147020676,-0.00012549072375066757,-1.1724717906462188e-05,3.25,2.75
3.0625,1.950498115510811e-06,-0.00014843373864347292,-0.00014598916795605397,1.3181143450064866e-05,3.25,2.75
3.06640625,9.277020263981085e-06,-0.0001855408836957351,-0.00018700762610818645,1.952983732356756e-05,3.25,2.75
3.0703125,1.073657276264592e-05,-0.00021679543892576483,-0.00021386195410086212,1.1714401037613498e-05,3.25,2.75
3.07421875,2.050766559853514e-05,-0.0002304634650339513,-0.00021532869651331345,1.9040923186083773e-05,3.25,2.75
3.078125,2.0989389822232394e-05,-0.0002636664869001297,-0.00024218302450598912,2.5878531197070287e-05,3.25,2.75
3.08203125,1.4647885862516233e-05,-0.0002895501765316243,-0.00028271256852063775,5.3657071641108015e-06,3.25,2.75
3.0859375,2.392287464713513e-05,-0.0002768527887846189,-0.0002875945199816891,-1.0257975494010822e-05,3.25,2.75
3.08984375,2.3433960509651342e-05,-0.00027440821809719993,-0.00026757779999999996,-1.2695356267643233e-05,3.25,2.75
3.09375,1.8552009048599985e-05,-0.0002783195311970702,-0.00026464431517509725,-7.324490669108101e-06,3.25,2.75
3.09765625,2.5878531197070287e-05,-0.0002519469274280918,-0.00025634715466544595,-5.8649381704432665e-06,3.25,2.75
3.1015625,2.3433960509651342e-05,-0.00023730107304493778,-0.0002304634650339513,-1.4651012817578376e-05,3.25,2.75
3.10546875,1.8552009048599985e-05,-0.00021288412582589456,-0.00021386195410086212,-1.2695356267643233e-05,3.25,2.75
3.109375,1.2203315175097287e-05,-0.00018261458878461888,-0.00019335631998168915,-1.0746889631494611e-05,3.25,2.75
3.11328125,-2.4425392080567574e-06,-0.00016503524957656214,-0.00014598916795605397,-2.295536324101624e-05,3.25,2.75
3.1171875,-6.353852307927056e-06,-0.00013915874985885403,-0.000107422470405127,-4.0527512535286476e-05,3.25,2.75
3.12109375,-1.0746889631494611e-05,-0.00011621573496604866,-0.00010205160480659188,-4.443882563515677e-05,3.25,2.75
3.125,-1.2695356267643233e-05,-9.228770188448919e-05,-0.00010400726135652703,-3.66233893492027e-05,3.25,2.75
3.12890625,-1.660666936751353e-05,-6.006250829327838e-05,-8.593900801098648e-05,-3.7112303486686485e-05,3.25,2.75
3.1328125,-3.076360961318379e-05,-4.394991149767298e-05,-4.9809691233691905e-05,-4.4927739772640564e-05,3.25,2.75
3.13671875,-3.125252375066756e-05,-3.271926616311893e-05,-2.3926001602197288e-05,-4.785403468375675e-05,3.25,2.75
3.140625,-2.7348400564583798e-05,-9.769061356527033e-06,-1.758449764248111e-05,-4.8342948821240535e-05,3.25,2.75
3.14453125,-3.66233893492027e-05,7.32136371404593e-06,-3.90928162050811e-06,-4.9809691233691905e-05,3.25,2.75
3.1484375,-4.199425494773784e-05,2.2456132234683764e-05,1.2692229312581076e-05,-5.078751950865949e-05,3.25,2.75
3.15234375,-4.3460997360189195e-05,3.75909007553216e-05,2.3433960509651342e-05,-5.273598614480811e-05,3.25,2.75
3.15625,-3.857904589913785e-05,4.0524385580224305e-05,2.6360255420767543e-05,-5.9084680018310805e-05,3.25,2.75
3.16015625,-3.809013176165406e-05,4.589525117875945e-05,3.270894929427024e-05,-5.469164269474325e-05,3.25,2.75
3.1640625,-4.785403468375675e-05,4.78509077286946e-05,4.4428508766308083e-05,-6.249988906691079e-05,3.25,2.75
3.16796875,-5.175815786984053e-05,4.540633704127566e-05,5.956327728694592e-05,-7.27598960402838e-05,3.25,2.75
3.171875,-4.297208322270541e-05,4.931046022735944e-05,6.591197116044861e-05,-6.249988906691079e-05,3.25,2.75
3.17578125,-4.248316908522161e-05,5.3221773327229724e-05,6.835654184786755e-05,-6.835966880292972e-05,3.25,2.75
3.1796875,-4.443882563515677e-05,5.1755030914778355e-05,7.128283675898376e-05,-7.470836267643243e-05,3.25,2.75
3.18359375,-4.297208322270541e-05,5.273285918974594e-05,6.933437012283514e-05,-7.421944853894863e-05,3.25,2.75
3.1875,-3.515664693675134e-05,6.884545598535135e-05,7.568306399633784e-05,-6.494445975432972e-05,3.25,2.75
3.19140625,-3.760121762417027e-05,7.860935890745403e-05,7.812044476997025e-05,-5.6158385107194615e-05,3.25,2.75
3.1953125,-4.785403468375675e-05,7.470523572137025e-05,7.665370235751888e-05,-5.859576588082703e-05,3.25,2.75
3.19921875,-4.150534081025405e-05,6.737871357289998e-05,7.421632158388647e-05,-5.078751950865949e-05,3.25,2.75
3.203125,-3.564556107423513e-05,6.494133279926757e-05,8.398022450598918e-05,-4.7365120546272974e-05,3.25,2.75
3.20703125,-4.0527512535286476e-05,6.591197116044861e-05,8.93510901045243e-05,-6.347771734187838e-05,3.25,2.75
3.2109375,-4.297208322270541e-05,6.0541105561913494e-05,7.616478822003508e-05,-7.470836267643243e-05,3.25,2.75
3.21484375,-3.906796003662164e-05,5.614806823834593e-05,5.859263892576487e-05,-5.9084680018310805e-05,3.25,2.75
3.21875,-3.906796003662164e-05,5.371068746471351e-05,5.1266116777294594e-05,-4.785403468375675e-05,3.25,2.75
3.22265625,-4.150534081025405e-05,4.882154608987565e-05,5.077720263981081e-05,-5.029860537117569e-05,3.25,2.75
3.2265625,-3.760121762417027e-05,4.540633704127566e-05,4.979937436484323e-05,-5.3224900282291896e-05,3.25,2.75
3.23046875,-3.076360961318379e-05,5.3221773327229724e-05,5.5659154100862134e-05,-4.63872922713054e-05,3.25,2.75
3.234375,-3.4186008575570295e-05,4.78509077286946e-05,5.761481065079729e-05,-4.150534081025405e-05,3.25,2.75
3.23828125,-3.467492271305408e-05,3.417569170672161e-05,5.273285918974594e-05,-4.932077709620812e-05,3.25,2.75
3.2421875,-2.978578133821621e-05,2.782699783321891e-05,4.2961766353856714e-05,-4.9809691233691905e-05,3.25,2.75
3.24609375,-2.8815142977035164e-05,2.83159119707027e-05,3.5153519981689183e-05,-4.4927739772640564e-05,3.25,2.75
3.25,-3.369709443808651e-05,3.4664605844205396e-05,3.954655730525675e-05,-4.1016426672770264e-05,3.25,2.75
3.25390625,-3.66233893492027e-05,3.0271568520637826e-05,4.3939594628824296e-05,-4.5898378133821604e-05,3.25,2.75
3.2578125,-3.174143788815135e-05,2.3433960509651342e-05,3.3686777569237814e-05,-4.5898378133821604e-05,3.25,2.75
3.26171875,-3.0274695475699998e-05,1.3181143450064866e-05,2.050766559853514e-05,-3.613447521171892e-05,3.25,2.75
3.265625,-3.369709443808651e-05,1.073657276264592e-05,2.0989389822232394e-05,-3.7112303486686485e-05,3.25,2.75
3.26953125,-3.174143788815135e-05,1.9040923186083773e-05,2.294504637216755e-05,-4.394991149767298e-05,3.25,2.75
3.2734375,-2.7837314702067585e-05,2.050766559853514e-05,1.952983732356756e-05,-3.955687417410543e-05,3.25,2.75
3.27734375,-2.5881658152132428e-05,7.810277851529719e-06,7.32136371404593e-06,-3.906796003662164e-05,3.25,2.75
3.28125,-2.6859486427100007e-05,-7.324490669108101e-06,-8.791233081559454e-06,-4.7365120546272974e-05,3.25,2.75
3.28515625,-3.174143788815135e-05,-9.280147219043243e-06,-1.1724717906462188e-05,-4.6876206408789186e-05,3.25,2.75
3.2890625,-2.978578133821621e-05,-5.376024032959478e-06,-1.2695356267643233e-05,-4.150534081025405e-05,3.25,2.75
3.29296875,-2.3926001602197288e-05,1.950498115510811e-06,-1.3673184542610811e-05,-3.467492271305408e-05,3.25,2.75
3.296875,-2.5881658152132428e-05,-5.8649381704432665e-06,-7.81340480659189e-06,-4.0527512535286476e-05,3.25,2.75
3.30078125,-3.369709443808651e-05,-2.4903829877164867e-05,-5.15843442434516e-09,-4.932077709620812e-05,3.25,2.75
3.3046875,-2.539274401464864e-05,-5.029860537117569e-05,-2.978578133821621e-05,-2.929686720073242e-05,3.25,2.75
3.30859375,-2.3444277378500032e-05,-6.152925070572975e-05,-5.3224900282291896e-05,-5.8649381704432665e-06,3.25,2.75
3.3125,-3.223035202563514e-05,-7.080423949034866e-05,-4.932077709620812e-05,-4.887109895475689e-06,3.25,2.75
3.31640625,-2.539274401464864e-05,-9.57101008468757e-05,-6.104033656824596e-05,-4.887109895475689e-06,3.25,2.75
3.3203125,-1.8073411779964884e-05,-0.00012305334297703515,-9.961422403295946e-05,1.2203315175097287e-05,3.25,2.75
3.32421875,-2.7348400564583798e-05,-0.00015770872742809183,-0.00014794482450598915,2.0989389822232394e-05,3.25,2.75
3.328125,-2.5881658152132428e-05,-0.00016893937276264587,-0.00017968110395971614,1.3670057587548655e-05,3.25,2.75
3.33203125,-8.302318944075678e-06,-0.0001660130778515297,-0.00018212567464713508,2.782699783321891e-05,3.25,2.75
3.3359375,-1.1724717906462188e-05,-0.00021874390556191346,-0.00021386195410086212,4.979937436484323e-05,3.25,2.75
3.33984375,-2.0999706691081088e-05,-0.0002680595242236973,-0.0002524358415655756,5.5659154100862134e-05,3.25,2.75
3.34375,-1.1235803768978399e-05,-0.000268548438361181,-0.0002568288788891432,5.5659154100862134e-05,3.25,2.75
3.34765625,-8.302318944075678e-06,-0.0002758749605096513,-0.00027099300904859995,5.859263892576487e-05,3.25,2.75
3.3515625,-6.8427664454108306e-06,-0.00027977908369573504,-0.00027391930395971614,7.177175089646755e-05,3.25,2.75
3.35546875,-2.4425392080567574e-06,-0.00028222365438315396,-0.00026952626663614857,8.691370933089189e-05,3.25,2.75
3.359375,-7.81340480659189e-06,-0.0002910097290302891,-0.0002778306170595864,6.786762771038377e-05,3.25,2.75
3.36328125,-1.1724717906462188e-05,-0.0002788012554207675,-0.00025145801329060807,6.151893383688108e-05,3.25,2.75
3.3671875,-1.2213632043945977e-05,-0.00026708888586251617,-0.00024169411036850536,8.544696691844052e-05,3.25,2.75
3.37109375,-1.5628841092545953e-05,-0.0002470649759670405,-0.00023144129330891888,7.616478822003508e-05,3.25,2.75
3.375,-1.1235803768978399e-05,-0.0002075132602273594,-0.00020165348049134047,5.5170239963378346e-05,3.25,2.75
3.37890625,-9.280147219043243e-06,-0.00019237849170672156,-0.00019433414825665673,5.273285918974594e-05,3.25,2.75
3.3828125,-1.5628841092545953e-05,-0.00017528806663614862,-0.00018651871197070265,4.83398218661784e-05,3.25,2.75
3.38671875,-2.8326228839551376e-05,-0.00015184894769207293,-0.0001557602607919432,2.9293740245670248e-05,3.25,2.75
3.390625,-3.7112303486686485e-05,-0.00012549072375066757,-0.00011963094401464864,1.073657276264592e-05,3.25,2.75
3.39453125,-3.467492271305408e-05,-0.00010596291790646218,-9.326553015945676e-05,5.3657071641108015e-06,3.25,2.75
3.3984375,-3.809013176165406e-05,-0.00010449617549401081,-8.203488482490271e-05,3.906154665445967e-06,3.25,2.75
3.40234375,-4.4927739772640564e-05,-8.88724928358892e-05,-7.178206776531622e-05,-9.280147219043243e-06,3.25,2.75
3.40625,-5.029860537117569e-05,-6.298880320439458e-05,-3.4186008575570295e-05,-3.223035202563514e-05,3.25,2.75
3.41015625,-4.004578831158922e-05,-3.564556107423513e-05,9.72669840543233e-07,-2.6859486427100007e-05,3.25,2.75
3.4140625,-3.564556107423513e-05,-1.758449764248111e-05,5.3657071641108015e-06,-2.4414915739681076e-05,3.25,2.75
3.41796875,-4.541665391012435e-05,-1.2695356267643233e-05,9.758744487678342e-06,-3.076360961318379e-05,3.25,2.75
3.421875,-4.6876206408789186e-05,-3.90928162050811e-06,2.294504637216755e-05,-3.174143788815135e-05,3.25,2.75
3.42578125,-5.029860537117569e-05,-2.4425392080567574e-06,2.1478303959716185e-05,-3.955687417410543e-05,3.25,2.75
3.4296875,-5.029860537117569e-05,5.854621301594591e-06,2.5878531197070287e-05,-4.7365120546272974e-05,3.25,2.75
3.43359375,-5.1276433646143274e-05,1.8552009048599985e-05,3.076048265812162e-05,-5.859576588082703e-05,3.25,2.75
3.4375,-5.1276433646143274e-05,1.8063094911116194e-05,3.5153519981689183e-05,-6.298880320439458e-05,3.25,2.75
3.44140625,-4.932077709620812e-05,1.4647885862516233e-05,3.905764316777296e-05,-6.835966880292972e-05,3.25,2.75
3.4453125,-5.224707200732432e-05,1.8552009048599985e-05,3.8568729030289175e-05,-6.787794457923246e-05,3.25,2.75
3.44921875,-5.469164269474325e-05,2.441178878461892e-05,6.0541105561913494e-05,-6.835966880292972e-05,3.25,2.75
3.453125,-5.3224900282291896e-05,2.5389617059586496e-05,7.958718718242162e-05,-6.347771734187838e-05,3.25,2.75
3.45703125,-4.785403468375675e-05,2.392287464713513e-05,7.909827304493782e-05,-5.029860537117569e-05,3.25,2.75
3.4609375,-4.6876206408789186e-05,3.076048265812162e-05,4.687307945372703e-05,-5.273598614480811e-05,3.25,2.75
3.46484375,-5.078751950865949e-05,4.101329971770809e-05,3.710917653162434e-05,-6.592228802929731e-05,3.25,2.75
3.46875,-4.63872922713054e-05,4.589525117875945e-05,4.3939594628824296e-05,-6.787794457923246e-05,3.25,2.75
3.47265625,-3.271926616311893e-05,5.224394505226215e-05,5.077720263981081e-05,-5.420272855725946e-05,3.25,2.75
3.4765625,-3.66233893492027e-05,4.150221385519188e-05,5.908155306324866e-05,-6.201816484321354e-05,3.25,2.75
3.48046875,-4.199425494773784e-05,3.3197863431754026e-05,5.419241168841077e-05,-7.178206776531622e-05,3.25,2.75
3.484375,-3.809013176165406e-05,3.222003515678645e-05,3.270894929427024e-05,-6.494445975432972e-05,3.25,2.75
3.48828125,-3.955687417410543e-05,3.270894929427024e-05,2.1967218097199973e-05,-6.641120216678109e-05,3.25,2.75
3.4921875,-3.515664693675134e-05,4.491742290379187e-05,3.905764316777296e-05,-6.445554561684594e-05,3.25,2.75
3.49609375,-3.4186008575570295e-05,4.4428508766308083e-05,5.614806823834593e-05,-6.543337389181351e-05,3.25,2.75
3.5,-2.978578133821621e-05,3.710917653162434e-05,6.005219142442971e-05,-5.078751950865949e-05,3.25,2.75
3.50390625,-3.076360961318379e-05,3.662026239414055e-05,4.589525117875945e-05,-4.6876206408789186e-05,3.25,2.75
3.5078125,-3.223035202563514e-05,4.0524385580224305e-05,3.75909007553216e-05,-5.3224900282291896e-05,3.25,2.75
3.51171875,-2.637057228961622e-05,4.199112799267567e-05,4.3939594628824296e-05,-4.63872922713054e-05,3.25,2.75
3.515625,-2.637057228961622e-05,3.3197863431754026e-05,4.2961766353856714e-05,-4.199425494773784e-05,3.25,2.75
3.51953125,-3.076360961318379e-05,2.0989389822232394e-05,3.75909007553216e-05,-4.3460997360189195e-05,3.25,2.75
3.5234375,-3.320818030060272e-05,1.9040923186083773e-05,4.34506804913405e-05,-5.420272855725946e-05,3.25,2.75
3.52734375,-3.174143788815135e-05,2.294504637216755e-05,4.78509077286946e-05,-4.8342948821240535e-05,3.25,2.75
3.53125,-3.4186008575570295e-05,2.83159119707027e-05,5.1266116777294594e-05,-4.004578831158922e-05,3.25,2.75
3.53515625,-3.515664693675134e-05,1.9040923186083773e-05,7.372740744640267e-05,-3.906796003662164e-05,3.25,2.75
3.5390625,-3.223035202563514e-05,5.854621301594591e-06,7.079392262149998e-05,-4.0527512535286476e-05,3.25,2.75
3.54296875,-2.929686720073242e-05,6.34353543907838e-06,-6.8427664454108306e-06,-4.6876206408789186e-05,3.25,2.75
3.546875,-3.174143788815135e-05,1.2203315175097287e-05,-3.320818030060272e-05,-4.1016426672770264e-05,3.25,2.75
3.55078125,-3.271926616311893e-05,1.8552009048599985e-05,1.950498115510811e-06,-4.150534081025405e-05,3.25,2.75
3.5546875,-3.4186008575570295e-05,7.810277851529719e-06,1.3670057587548655e-05,-4.199425494773784e-05,3.25,2.75
3.55859375,-3.515664693675134e-05,9.72669840543233e-07,2.1967218097199973e-05,-3.613447521171892e-05,3.25,2.75
3.5625,-3.223035202563514e-05,2.4394122529946003e-06,2.1967218097199973e-05,-4.199425494773784e-05,3.25,2.75
3.56640625,-3.125252375066756e-05,-4.3981957579918996e-06,3.4172405279621784e-06,-4.297208322270541e-05,3.25,2.75
3.5703125,-3.613447521171892e-05,-2.4425392080567574e-06,-8.791233081559454e-06,-3.7112303486686485e-05,3.25,2.75
3.57421875,-3.613447521171892e-05,-1.9536250705729686e-06,-2.7348400564583798e-05,-3.906796003662164e-05,3.25,2.75
3.578125,-3.369709443808651e-05,-6.8427664454108306e-06,-2.8326228839551376e-05,-3.857904589913785e-05,3.25,2.75
3.58203125,-3.564556107423513e-05,-1.758449764248111e-05,-2.002187841611351e-05,-4.4927739772640564e-05,3.25,2.75
3.5859375,-3.174143788815135e-05,-1.9044050141145944e-05,-2.0999706691081088e-05,-4.6876206408789186e-05,3.25,2.75
3.58984375,-2.929686720073242e-05,-1.4162098680094587e-05,-1.5139926955062164e-05,-4.199425494773784e-05,3.25,2.75
3.59375,-2.7837314702067585e-05,-2.2466449103532454e-05,-1.7095583504997323e-05,-4.199425494773784e-05,3.25,2.75
3.59765625,-2.8326228839551376e-05,-2.7348400564583798e-05,-1.9044050141145944e-05,-4.443882563515677e-05,3.25,2.75
3.6015625,-3.613447521171892e-05,-2.1977534966048663e-05,-1.1235803768978399e-05,-5.420272855725946e-05,3.25,2.75
3.60546875,-2.978578133821621e-05,-2.3444277378500032e-05,-1.6117755230029744e-05,-4.199425494773784e-05,3.25,2.75
3.609375,-2.6859486427100007e-05,-1.8073411779964884e-05,-1.9532964278629732e-05,-2.8815142977035164e-05,3.25,2.75
3.61328125,-2.8815142977035164e-05,-4.3981957579918996e-06,-1.0746889631494611e-05,-3.320818030060272e-05,3.25,2.75
3.6171875,-2.2466449103532454e-05,-5.376024032959478e-06,-1.2695356267643233e-05,-3.467492271305408e-05,3.25,2.75
3.62109375,-2.2466449103532454e-05,-1.4162098680094587e-05,-1.5628841092545953e-05,-3.223035202563514e-05,3.25,2.75
3.625,-2.002187841611351e-05,-7.324490669108101e-06,-1.0257975494010822e-05,-2.978578133821621e-05,3.25,2.75
3.62890625,-1.9532964278629732e-05,-8.302318944075678e-06,-1.0257975494010822e-05,-3.223035202563514e-05,3.25,2.75
3.6328125,-1.3673184542610811e-05,5.854621301594591e-06,-2.4425392080567574e-06,-3.66233893492027e-05,3.25,2.75
3.63671875,-9.280147219043243e-06,5.3657071641108015e-06,-9.829867093919233e-07,-3.223035202563514e-05,3.25,2.75
3.640625,-1.660666936751353e-05,-2.4903829877164867e-05,-1.9044050141145944e-05,-2.0510792553597297e-05,3.25,2.75
3.64453125,-2.539274401464864e-05,-3.0274695475699998e-05,-2.3444277378500032e-05,-2.0999706691081088e-05,3.25,2.75
3.6484375,-3.125252375066756e-05,-3.760121762417027e-05,-2.4903829877164867e-05,-1.8555136003662153e-05,3.25,2.75
3.65234375,-2.8326228839551376e-05,-2.929686720073242e-05,-3.0274695475699998e-05,-1.758449764248111e-05,3.25,2.75
3.65625,-2.7348400564583798e-05,-2.539274401464864e-05,-2.5881658152132428e-05,-1.660666936751353e-05,3.25,2.75
3.66015625,-3.320818030060272e-05,-5.371381441977567e-05,-3.760121762417027e-05,-1.3673184542610811e-05,3.25,2.75
3.6640625,-3.223035202563514e-05,-5.8106851743343236e-05,-3.369709443808651e-05,-4.3981957579918996e-06,3.25,2.75
3.66796875,-2.8326228839551376e-05,-4.6876206408789186e-05,-2.1488620828564875e-05,9.758744487678342e-06,3.25,2.75
3.671875,-3.66233893492027e-05,-4.541665391012435e-05,-2.002187841611351e-05,3.4172405279621784e-06,3.25,2.75
3.67578125,-4.3460997360189195e-05,-3.857904589913785e-05,-1.8555136003662153e-05,-1.1724717906462188e-05,3.25,2.75
3.6796875,-3.613447521171892e-05,-4.1016426672770264e-05,-1.9532964278629732e-05,-6.8427664454108306e-06,3.25,2.75
3.68359375,-3.076360961318379e-05,-4.785403468375675e-05,-2.0999706691081088e-05,-9.829867093919233e-07,3.25,2.75
3.6875,-3.174143788815135e-05,-4.1016426672770264e-05,-2.4425392080567574e-06,-1.0257975494010822e-05,3.25,2.75
3.69140625,-3.467492271305408e-05,-3.174143788815135e-05,5.854621301594591e-06,-1.4651012817578376e-05,3.25,2.75
3.6953125,-2.637057228961622e-05,-2.6859486427100007e-05,-3.076360961318379e-05,-4.887109895475689e-06,3.25,2.75
3.69921875,-2.4903829877164867e-05,-2.978578133821621e-05,-3.955687417410543e-05,-7.324490669108101e-06,3.25,2.75
3.703125,-2.8815142977035164e-05,-3.515664693675134e-05,-2.7837314702067585e-05,-1.2695356267643233e-05,3.25,2.75
3.70703125,-2.5881658152132428e-05,-2.6859486427100007e-05,-3.076360961318379e-05,-1.0746889631494611e-05,3.25,2.75
3.7109375,-2.295536324101624e-05,-1.8073411779964884e-05,-2.5881658152132428e-05,-7.324490669108101e-06,3.25,2.75
3.71484375,-2.637057228961622e-05,-2.1488620828564875e-05,-6.8427664454108306e-06,-3.90928162050811e-06,3.25,2.75
3.71875,-2.7348400564583798e-05,-1.7095583504997323e-05,-6.353852307927056e-06,-1.3184270405127022e-05,3.25,2.75
3.72265625,-2.7348400564583798e-05,-2.2466449103532454e-05,-2.8326228839551376e-05,-1.8555136003662153e-05,3.25,2.75
3.7265625,-2.8326228839551376e-05,-2.978578133821621e-05,-2.2466449103532454e-05,-9.280147219043243e-06,3.25,2.75
3.73046875,-2.3444277378500032e-05,-1.9044050141145944e-05,-1.758449764248111e-05,-9.280147219043243e-06,3.25,2.75
3.734375,-2.7348400564583798e-05,-1.8073411779964884e-05,-2.3926001602197288e-05,-1.9044050141145944e-05,3.25,2.75
3.73828125,-3.125252375066756e-05,-3.076360961318379e-05,-2.4414915739681076e-05,-1.9532964278629732e-05,3.25,2.75
3.7421875,-1.9532964278629732e-05,-3.760121762417027e-05,-2.539274401464864e-05,-3.90928162050811e-06,3.25,2.75
3.74609375,-1.8555136003662153e-05,-2.3444277378500032e-05,-7.81340480659189e-06,-1.9536250705729686e-06,3.25,2.75
3.75,-2.5881658152132428e-05,-9.769061356527033e-06,-6.8427664454108306e-06,-1.3673184542610811e-05,3.25,2.75
3.75390625,-2.295536324101624e-05,-1.8555136003662153e-05,-2.6859486427100007e-05,-1.4162098680094587e-05,3.25,2.75
3.7578125,-2.295536324101624e-05,-2.0510792553597297e-05,-2.0999706691081088e-05,-8.791233081559454e-06,3.25,2.75
3.76171875,-2.3926001602197288e-05,-2.1977534966048663e-05,-1.3184270405127022e-05,-1.660666936751353e-05,3.25,2.75
3.765625,-2.3444277378500032e-05,-2.1488620828564875e-05,-1.660666936751353e-05,-2.295536324101624e-05,3.25,2.75
3.76953125,-2.3926001602197288e-05,-1.1724717906462188e-05,-2.002187841611351e-05,-2.0999706691081088e-05,3.25,2.75
3.7734375,-1.9532964278629732e-05,-7.81340480659189e-06,-2.4903829877164867e-05,-1.5139926955062164e-05,3.25,2.75
3.77734375,-1.9044050141145944e-05,-1.0746889631494611e-05,-2.7837314702067585e-05,-2.1977534966048663e-05,3.25,2.75
3.78125,-2.978578133821621e-05,-2.4414915739681076e-05,-3.0274695475699998e-05,-4.150534081025405e-05,3.25,2.75
3.78515625,-2.5881658152132428e-05,-2.8815142977035164e-05,-3.4186008575570295e-05,-3.0274695475699998e-05,3.25,2.75
3.7890625,-2.2466449103532454e-05,-2.3926001602197288e-05,-4.394991149767298e-05,-2.4903829877164867e-05,3.25,2.75
3.79296875,-2.5881658152132428e-05,-1.3184270405127022e-05,-3.760121762417027e-05,-2.7837314702067585e-05,3.25,2.75
3.796875,-2.1488620828564875e-05,-1.4162098680094587e-05,-2.0999706691081088e-05,-3.223035202563514e-05,3.25,2.75
3.80078125,-2.295536324101624e-05,-3.125252375066756e-05,-2.929686720073242e-05,-3.0274695475699998e-05,3.25,2.75
3.8046875,-2.8815142977035164e-05,-3.271926616311893e-05,-3.320818030060272e-05,-3.0274695475699998e-05,3.25,2.75
3.80859375,-2.7348400564583798e-05,-2.6859486427100007e-05,-1.758449764248111e-05,-3.613447521171892e-05,3.25,2.75
3.8125,-2.7348400564583798e-05,-2.8326228839551376e-05,-1.8073411779964884e-05,-2.929686720073242e-05,3.25,2.75
3.81640625,-2.3926001602197288e-05,-3.0274695475699998e-05,-2.0999706691081088e-05,-3.174143788815135e-05,3.25,2.75
3.8203125,-1.660666936751353e-05,-3.7112303486686485e-05,-3.0274695475699998e-05,-2.978578133821621e-05,3.25,2.75
3.82421875,-2.3444277378500032e-05,-3.564556107423513e-05,-2.295536324101624e-05,-3.369709443808651e-05,3.25,2.75
3.828125,-3.223035202563514e-05,-3.955687417410543e-05,-8.791233081559454e-06,-3.515664693675134e-05,3.25,2.75
3.83203125,-2.3444277378500032e-05,-3.857904589913785e-05,-1.8555136003662153e-05,-1.9044050141145944e-05,3.25,2.75
3.8359375,-1.8555136003662153e-05,-3.125252375066756e-05,-3.906796003662164e-05,-2.4903829877164867e-05,3.25,2.75
3.83984375,-2.3444277378500032e-05,-2.8815142977035164e-05,-3.467492271305408e-05,-3.0274695475699998e-05,3.25,2.75
3.84375,-2.5881658152132428e-05,-2.539274401464864e-05,-2.8326228839551376e-05,-2.6859486427100007e-05,3.25,2.75
3.84765625,-1.9532964278629732e-05,-1.9532964278629732e-05,-2.539274401464864e-05,-2.0999706691081088e-05,3.25,2.75
3.8515625,-2.002187841611351e-05,-1.3673184542610811e-05,-2.4903829877164867e-05,-2.295536324101624e-05,3.25,2.75
3.85546875,-2.8326228839551376e-05,-2.295536324101624e-05,-5.029860537117569e-05,-3.4186008575570295e-05,3.25,2.75
3.859375,-2.637057228961622e-05,-2.8815142977035164e-05,-4.7365120546272974e-05,-3.125252375066756e-05,3.25,2.75
3.86328125,-2.0510792553597297e-05,-1.8073411779964884e-05,-3.174143788815135e-05,-2.6859486427100007e-05,3.25,2.75
3.8671875,-1.758449764248111e-05,-1.8073411779964884e-05,-2.637057228961622e-05,-2.7837314702067585e-05,3.25,2.75
3.87109375,-1.9044050141145944e-05,-1.9532964278629732e-05,-7.324490669108101e-06,-3.467492271305408e-05,3.25,2.75
3.875,-2.0999706691081088e-05,-1.758449764248111e-05,-8.791233081559454e-06,-2.1977534966048663e-05,3.25,2.75
3.87890625,-2.0999706691081088e-05,-2.8326228839551376e-05,-2.4414915739681076e-05,-1.4651012817578376e-05,3.25,2.75
3.8828125,-2.1977534966048663e-05,-3.320818030060272e-05,-2.8815142977035164e-05,-2.7837314702067585e-05,3.25,2.75
3.88671875,-2.539274401464864e-05,-1.6117755230029744e-05,-2.8815142977035164e-05,-2.539274401464864e-05,3.25,2.75
3.890625,-2.3444277378500032e-05,-1.2213632043945977e-05,-1.7095583504997323e-05,-2.0999706691081088e-05,3.25,2.75
3.89453125,-2.2466449103532454e-05,-1.9532964278629732e-05,-1.9044050141145944e-05,-2.1488620828564875e-05,3.25,2.75
3.8984375,-3.076360961318379e-05,-2.637057228961622e-05,-3.66233893492027e-05,-2.539274401464864e-05,3.25,2.75
3.90234375,-3.223035202563514e-05,-2.637057228961622e-05,-2.3926001602197288e-05,-2.4903829877164867e-05,3.25,2.75
3.90625,-2.5881658152132428e-05,-3.223035202563514e-05,-1.8073411779964884e-05,-2.1977534966048663e-05,3.25,2.75
3.91015625,-2.1488620828564875e-05,-3.906796003662164e-05,-3.906796003662164e-05,-3.857904589913785e-05,3.25,2.75
3.9140625,-1.8073411779964884e-05,-4.5898378133821604e-05,-4.7365120546272974e-05,-5.175815786984053e-05,3.25,2.75
3.91796875,-2.3926001602197288e-05,-7.129315362783243e-05,-5.9084680018310805e-05,-4.785403468375675e-05,3.25,2.75
3.921875,-1.9532964278629732e-05,-6.641120216678109e-05,-7.470836267643243e-05,-3.613447521171892e-05,3.25,2.75
3.92578125,-1.1235803768978399e-05,-5.957359415579459e-05,-7.27598960402838e-05,-4.1016426672770264e-05,3.25,2.75
3.9296875,-1.3673184542610811e-05,-6.152925070572975e-05,-6.396663147936216e-05,-5.66472992446784e-05,3.25,2.75
3.93359375,-1.6117755230029744e-05,-5.66472992446784e-05,-7.178206776531622e-05,-5.761793760585945e-05,3.25,2.75
3.9375,-1.3673184542610811e-05,-6.006250829327838e-05,-7.764184750133514e-05,-5.469164269474325e-05,3.25,2.75
3.94140625,-1.2695356267643233e-05,-7.031532535286487e-05,-7.568619095139999e-05,-5.371381441977567e-05,3.25,2.75
3.9453125,-1.4651012817578376e-05,-6.494445975432972e-05,-7.178206776531622e-05,-5.078751950865949e-05,3.25,2.75
3.94921875,-1.5139926955062164e-05,-4.9809691233691905e-05,-4.7365120546272974e-05,-4.004578831158922e-05,3.25,2.75
3.953125,-1.3184270405127022e-05,-4.248316908522161e-05,-2.1977534966048663e-05,-3.955687417410543e-05,3.25,2.75
3.95703125,-1.3184270405127022e-05,-4.1016426672770264e-05,-2.1488620828564875e-05,-4.297208322270541e-05,3.25,2.75
3.9609375,-1.6117755230029744e-05,-4.541665391012435e-05,-2.8815142977035164e-05,-4.541665391012435e-05,3.25,2.75
3.96484375,-1.3673184542610811e-05,-4.199425494773784e-05,-4.3460997360189195e-05,-3.613447521171892e-05,3.25,2.75
3.96875,-1.4651012817578376e-05,-3.0274695475699998e-05,-7.178206776531622e-05,-3.320818030060272e-05,3.25,2.75
3.97265625,-1.6117755230029744e-05,-2.7348400564583798e-05,-6.543337389181351e-05,-4.0527512535286476e-05,3.25,2.75
3.9765625,-1.758449764248111e-05,-3.613447521171892e-05,-4.9809691233691905e-05,-3.369709443808651e-05,3.25,2.75
3.98046875,-1.9044050141145944e-05,-4.248316908522161e-05,-5.8106851743343236e-05,-2.8326228839551376e-05,3.25,2.75
3.984375,-2.2466449103532454e-05,-4.248316908522161e-05,-6.641120216678109e-05,-3.955687417410543e-05,3.25,2.75
3.98828125,-2.539274401464864e-05,-3.857904589913785e-05,-5.761793760585945e-05,-4.248316908522161e-05,3.25,2.75
3.9921875,-2.4414915739681076e-05,-3.809013176165406e-05,-4.883186295872433e-05,-3.955687417410543e-05,3.25,2.75
3.99609375,-2.0510792553597297e-05,-4.1016426672770264e-05,-4.443882563515677e-05,-3.809013176165406e-05,3.25,2.75
4.0,-1.9044050141145944e-05,-4.394991149767298e-05,-4.004578831158922e-05,-3.906796003662164e-05,3.25,2.75
4.00390625,-1.9532964278629732e-05,-4.0527512535286476e-05,-3.223035202563514e-05,-4.1016426672770264e-05,3.25,2.75
4.0078125,-1.6117755230029744e-05,-3.467492271305408e-05,-3.174143788815135e-05,-3.076360961318379e-05,3.25,2.75
4.01171875,-1.2695356267643233e-05,-2.7837314702067585e-05,-3.906796003662164e-05,-2.8326228839551376e-05,3.25,2.75
4.015625,-1.5628841092545953e-05,-2.978578133821621e-05,-4.1016426672770264e-05,-2.929686720073242e-05,3.25,2.75
4.01953125,-1.8555136003662153e-05,-3.0274695475699998e-05,-2.8326228839551376e-05,-3.66233893492027e-05,3.25,2.75
4.0234375,-1.7095583504997323e-05,-2.7348400564583798e-05,-1.758449764248111e-05,-2.8815142977035164e-05,3.25,2.75
4.02734375,-1.5628841092545953e-05,-2.5881658152132428e-05,-2.4414915739681076e-05,-1.8073411779964884e-05,3.25,2.75
4.03125,-2.0999706691081088e-05,-1.5139926955062164e-05,-2.295536324101624e-05,-2.7837314702067585e-05,3.25,2.75
4.03515625,-1.8555136003662153e-05,-1.4651012817578376e-05,-2.4414915739681076e-05,-3.076360961318379e-05,3.25,2.75
4.0390625,-2.0999706691081088e-05,-3.076360961318379e-05,-2.8815142977035164e-05,-2.6859486427100007e-05,3.25,2.75
4.04296875,-2.3926001602197288e-05,-3.66233893492027e-05,-3.0274695475699998e-05,-2.8326228839551376e-05,3.25,2.75
4.046875,-1.9532964278629732e-05,-3.0274695475699998e-05,-3.515664693675134e-05,-4.004578831158922e-05,3.25,2.75
4.05078125,-2.295536324101624e-05,-2.8815142977035164e-05,-3.66233893492027e-05,-4.394991149767298e-05,3.25,2.75
4.0546875,-2.002187841611351e-05,-3.760121762417027e-05,-3.320818030060272e-05,-3.271926616311893e-05,3.25,2.75
4.05859375,-1.4651012817578376e-05,-4.150534081025405e-05,-3.515664693675134e-05,-2.7348400564583798e-05,3.25,2.75
4.0625,-1.8555136003662153e-05,-4.199425494773784e-05,-4.5898378133821604e-05,-3.564556107423513e-05,3.25,2.75
4.06640625,-2.3926001602197288e-05,-3.955687417410543e-05,-3.857904589913785e-05,-4.8342948821240535e-05,3.25,2.75
4.0703125,-2.2466449103532454e-05,-3.66233893492027e-05,-3.174143788815135e-05,-3.955687417410543e-05,3.25,2.75
4.07421875,-2.5881658152132428e-05,-4.0527512535286476e-05,-2.978578133821621e-05,-3.66233893492027e-05,3.25,2.75
4.078125,-3.125252375066756e-05,-4.541665391012435e-05,-3.564556107423513e-05,-4.443882563515677e-05,3.25,2.75
4.08203125,-2.3444277378500032e-05,-4.199425494773784e-05,-4.6876206408789186e-05,-3.613447521171892e-05,3.25,2.75
4.0859375,-2.002187841611351e-05,-3.955687417410543e-05,-4.3460997360189195e-05,-3.613447521171892e-05,3.25,2.75
4.08984375,-2.4903829877164867e-05,-3.4186008575570295e-05,-3.564556107423513e-05,-3.955687417410543e-05,3.25,2.75
4.09375,-1.9532964278629732e-05,-2.4414915739681076e-05,-3.223035202563514e-05,-3.223035202563514e-05,3.25,2.75
4.09765625,-1.5628841092545953e-05,-2.929686720073242e-05,-2.4414915739681076e-05,-2.8326228839551376e-05,3.25,2.75
4.1015625,-2.4414915739681076e-05,-4.297208322270541e-05,-3.66233893492027e-05,-2.6859486427100007e-05,3.25,2.75
4.10546875,-2.637057228961622e-05,-4.0527512535286476e-05,-4.932077709620812e-05,-2.978578133821621e-05,3.25,2.75
4.109375,-2.4414915739681076e-05,-2.7837314702067585e-05,-3.564556107423513e-05,-4.150534081025405e-05,3.25,2.75
4.11328125,-2.1977534966048663e-05,-2.978578133821621e-05,-2.1488620828564875e-05,-3.515664693675134e-05,3.25,2.75
4.1171875,-1.3673184542610811e-05,-3.223035202563514e-05,-3.369709443808651e-05,-2.0999706691081088e-05,3.25,2.75
4.12109375,-1.4651012817578376e-05,-3.515664693675134e-05,-4.199425494773784e-05,-2.8326228839551376e-05,3.25,2.75
4.125,-1.9532964278629732e-05,-3.906796003662164e-05,-3.66233893492027e-05,-3.760121762417027e-05,3.25,2.75
4.12890625,-1.8073411779964884e-05,-2.929686720073242e-05,-3.760121762417027e-05,-2.8326228839551376e-05,3.25,2.75
4.1328125,-1.8555136003662153e-05,-1.8555136003662153e-05,-2.637057228961622e-05,-2.2466449103532454e-05,3.25,2.75
4.13671875,-2.3926001602197288e-05,-2.3444277378500032e-05,-1.6117755230029744e-05,-2.978578133821621e-05,3.25,2.75
4.140625,-2.929686720073242e-05,-3.4186008575570295e-05,-3.0274695475699998e-05,-3.564556107423513e-05,3.25,2.75
