timestamp,TP9,AF7,AF8,TP10,Valence,Arousal
0.0,-6.003315610894942e-05,-4.538836233157856e-05,-4.1015467997253384e-05,0.0001630724997940032,6.5714,4.2143
0.00390625,-3.855021213092242e-05,2.5869271519035607e-05,2.41999250476843e-06,0.00014109063498588537,6.5714,4.2143
0.0078125,-5.759724852674145e-05,1.2691891947814127e-05,1.0725556911573953e-05,0.00016747474241245134,6.5714,4.2143
0.01171875,-6.640173376363776e-05,-4.245353391927979e-05,-3.077291683833068e-05,0.00019969915837949183,6.5714,4.2143
0.015625,-5.7127675980773646e-05,1.9031121318379477e-05,-3.467623862668805e-05,0.00016991064999465934,6.5714,4.2143
0.01953125,-7.567579154650188e-05,-3.420316035706129e-06,9.258142705424568e-06,0.00018065212198367281,6.5714,4.2143
0.0234375,-9.128907869993135e-05,-8.298351429312582e-05,-6.833872051575495e-05,0.0002050698943739986,6.5714,4.2143
0.02734375,-3.711214620889602e-05,-9.032058532387276e-05,-5.5161340944533466e-05,0.00017674880019531545,6.5714,4.2143
0.03125,-3.0273996008239887e-05,-1.3193294648661038e-05,1.806262794232088e-05,0.00021677985973907069,6.5714,4.2143
0.03515625,-8.688683608148318e-05,1.3660385323872723e-05,-2.0999938225375768e-05,0.00020360248016784921,6.5714,4.2143
0.0390625,-7.46779498863203e-05,2.41999250476843e-06,-6.346690535133899e-05,0.0001811510428137636,6.5714,4.2143
0.04296875,-5.906466273289083e-05,2.918913334859219e-06,1.0725556911573953e-05,0.00025730984011291673,6.5714,4.2143
0.046875,-6.150057031509881e-05,-5.759724852674145e-05,-5.885571902037092e-06,0.00028563093429159986,6.5714,4.2143
0.05078125,-5.7127675980773646e-05,-9.178799953002214e-05,-8.788467774166477e-05,0.00023386056109864954,6.5714,4.2143
0.0546875,-3.904913296101321e-05,8.289649329365972e-06,-5.075909832608531e-05,0.00022898874593423355,6.5714,4.2143
0.05859375,-6.24984119752804e-05,-6.24984119752804e-05,-1.2224801272602441e-05,0.0002807591191271839,6.5714,4.2143
0.0625,-9.61902421484703e-05,-5.566026177462426e-05,-2.3465194091706733e-05,0.0003100487066819257,6.5714,4.2143
0.06640625,-6.346690535133899e-05,-5.386651071946303e-06,-6.833872051575495e-05,0.0002890353352498665,6.5714,4.2143
0.0703125,-2.980442346227208e-05,-8.641726353551539e-05,-5.319500590829329e-05,0.00024316396716563666,6.5714,4.2143
0.07421875,-6.103099776913101e-05,-8.398135595330739e-05,-9.325541373617153e-05,0.00024216612550545505,6.5714,4.2143
0.078125,-6.833872051575495e-05,2.4900778142977017e-05,-5.386651071946303e-06,0.0002367953895109483,6.5714,4.2143
0.08203125,-4.735469736781873e-05,-7.32398839642939e-05,-2.5402180843823926e-05,0.0002148428729869535,6.5714,4.2143
0.0859375,-8.007803416495003e-05,-5.12580191561761e-05,-1.70966164370184e-05,0.00020410140099794,6.5714,4.2143
0.08984375,-9.225757207598994e-05,7.860813808804454e-05,1.9031121318379477e-05,0.00022558434497596704,6.5714,4.2143
0.09375,-6.687130630960557e-05,-8.321479484245074e-06,-7.274096313420311e-05,0.00023339098855268173,6.5714,4.2143
0.09765625,-4.735469736781873e-05,-9.909572227664608e-05,-9.372498628213932e-05,0.00020457097354390782,6.5714,4.2143
0.1015625,-5.12580191561761e-05,-0.00014352902443884948,-9.081950615396354e-05,0.00014402546339818415,6.5714,4.2143
0.10546875,-7.224204230411231e-05,-0.00013328647327992676,-9.275649290608073e-05,0.0002182472739452201,6.5714,4.2143
0.109375,-4.001762633707181e-05,-2.0999938225375768e-05,-5.7127675980773646e-05,0.00019726325079728389,6.5714,4.2143
0.11328125,1.950419958800623e-06,-2.980442346227208e-05,-1.5629202230869016e-05,0.00014792878518654152,6.5714,4.2143
0.1171875,2.6338844065003412e-05,-0.00012451133632715344,-0.00011180352930189975,0.00016794431495841913,6.5714,4.2143
0.12109375,-1.1725880442511651e-05,-0.00010203055068894485,-0.00012594940224917983,0.000137187313197528,6.5714,4.2143
0.125,-1.1725880442511651e-05,-5.369392673838408e-05,-9.225757207598994e-05,0.00015183210697489888,6.5714,4.2143
0.12890625,-2.9305502632181293e-05,-7.274096313420311e-05,-6.053207693904022e-05,0.00017331505095292588,6.5714,4.2143
0.1328125,-4.6855776537727944e-05,-5.1756939986266894e-05,-1.2723722102693233e-05,0.0001059313906065461,6.5714,4.2143
0.13671875,-3.467623862668805e-05,-6.150057031509881e-05,-0.00018065460385442895,0.00016894215661860073,6.5714,4.2143
0.140625,-1.66270438910506e-05,-5.319500590829329e-05,-0.0002314271353871977,0.00015573542876325626,6.5714,4.2143
0.14453125,-7.352986108186481e-06,-3.224033104448007e-05,-6.053207693904022e-05,0.00014109063498588537,6.5714,4.2143
0.1484375,-9.289972860303671e-06,-5.369392673838408e-05,-3.855021213092242e-05,0.00014402546339818415,6.5714,4.2143
0.15234375,2.5370350688944822e-05,-0.0001269472439093614,-0.0001523335096757458,0.00010643031143663688,6.5714,4.2143
0.15625,-9.844084534981476e-07,-9.472282794232091e-05,-5.956358356298163e-05,0.00012547734783245593,6.5714,4.2143
0.16015625,-3.711214620889602e-05,9.52578298619045e-07,-3.0273996008239887e-05,0.00014109063498588537,6.5714,4.2143
0.1640625,-3.664257366292822e-05,-4.491878978561075e-05,-8.59183427054246e-05,0.00018652177880827035,6.5714,4.2143
0.16796875,-8.251394174715801e-05,-5.759724852674145e-05,-0.0001162057719203479,0.00021287653795071333,6.5714,4.2143
0.171875,-5.466242011444268e-05,-4.7824269913786534e-05,-7.567579154650188e-05,0.0001567332704234378,6.5714,4.2143
0.17578125,-4.588728316166935e-05,-7.567579154650188e-05,-5.2725433362325484e-05,0.00016503883483024335,6.5714,4.2143
0.1796875,-9.665981469443809e-05,-7.714320575265126e-05,-8.544877015945678e-05,0.00020994170953841454,6.5714,4.2143
0.18359375,-5.759724852674145e-05,-9.289972860303671e-06,-7.822558654154286e-06,0.0001918925148027771,6.5714,4.2143
0.1875,-3.370774525062945e-05,5.0287043909361385e-05,-7.861061995880065e-05,0.0001713780642008087,6.5714,4.2143
0.19140625,-5.2725433362325484e-05,7.790728499275181e-06,-0.00011914060033264667,0.0001415895558159762,6.5714,4.2143
0.1953125,-3.174141021438927e-05,-2.8835930086213485e-05,2.5370350688944822e-05,0.00015573542876325626,6.5714,4.2143
0.19921875,-3.077291683833068e-05,-0.00011667534446631572,-1.6128123060959808e-05,0.00015720284296940565,6.5714,4.2143
0.203125,-7.861061995880065e-05,-0.00013815828844434273,-9.78889369039446e-06,0.0001591691780056458,6.5714,4.2143
0.20703125,-5.2725433362325484e-05,-2.5402180843823926e-05,-5.369392673838408e-05,0.0001493961993926909,6.5714,4.2143
0.2109375,-4.0516547167162595e-05,1.451499128709834e-06,-9.128907869993135e-05,0.00014255804919203476,6.5714,4.2143
0.21484375,-1.6128123060959808e-05,4.391846625467306e-05,2.918913334859219e-06,0.00018065212198367281,6.5714,4.2143
0.21875,-7.32398839642939e-05,2.0498535524528862e-05,2.7806258271152797e-05,0.00025193910411841,6.5714,4.2143
0.22265625,-6.24984119752804e-05,-2.7838088426031908e-05,-3.919236865796918e-06,0.0002143439521568627,6.5714,4.2143
0.2265625,-4.245353391927979e-05,-2.4903260013733135e-05,1.0725556911573953e-05,0.00025437501170061795,6.5714,4.2143
0.23046875,-6.29679845212482e-05,3.317699426565956e-05,5.85374174715799e-06,0.0002675523912718394,6.5714,4.2143
0.234375,-3.224033104448007e-05,5.369144486762796e-05,-1.0757387066453056e-05,0.00024460203308766305,6.5714,4.2143
0.23828125,-2.1997779885557348e-05,-5.662875515068285e-05,1.950419958800623e-06,0.00028612985512169067,6.5714,4.2143
0.2421875,-2.8337009256122697e-05,-5.956358356298163e-05,-2.8337009256122697e-05,0.0002558424259067673,6.5714,4.2143
0.24609375,-5.5161340944533466e-05,-4.245353391927979e-05,-4.6386203991760135e-05,0.00028563093429159986,6.5714,4.2143
0.25,-5.856574190280004e-05,-2.3465194091706733e-05,4.855900086976411e-06,0.00030271163565117877,6.5714,4.2143
0.25390625,6.323314293125797e-06,-3.467623862668805e-05,-2.0999938225375768e-05,0.0002382628037170977,6.5714,4.2143
0.2578125,-1.416178802471963e-05,-4.3451375579461365e-05,-6.103099776913101e-05,0.00024413246054169523,6.5714,4.2143
0.26171875,-4.3451375579461365e-05,-4.245353391927979e-05,6.323314293125797e-06,0.0002162809389089799,6.5714,4.2143
0.265625,-6.930721389181354e-05,-1.9532524019226383e-05,6.833623864499884e-05,0.0002402291387533379,6.5714,4.2143
0.26953125,-3.420666608072024e-05,4.386327541008605e-06,2.3433363936827632e-05,0.00028513201346150904,6.5714,4.2143
0.2734375,-1.5159629684901211e-05,-4.418157695887707e-06,-4.735469736781873e-05,0.00023776388288700688,6.5714,4.2143
0.27734375,-2.2966273261615945e-05,-5.885571902037092e-06,-8.982166449378195e-05,0.00023582689613488975,6.5714,4.2143
0.28125,-1.70966164370184e-05,-4.735469736781873e-05,-3.761106703898682e-05,0.00022948766676432437,6.5714,4.2143
0.28515625,-3.174141021438927e-05,-7.567579154650188e-05,7.321155953307375e-06,0.00020800472278629736,6.5714,4.2143
0.2890625,-6.29679845212482e-05,-7.517687071641108e-05,-6.39364778973068e-05,0.00020750580195620657,6.5714,4.2143
0.29296875,-4.148504054322119e-05,-5.956358356298163e-05,-5.956358356298163e-05,0.00019773282334325167,6.5714,4.2143
0.296875,-2.0999938225375768e-05,-9.032058532387276e-05,-7.32398839642939e-05,0.00019676432996719307,6.5714,4.2143
0.30078125,-2.950743489738322e-06,-0.00012451133632715344,-8.835425028763257e-05,0.00019626540913710228,6.5714,4.2143
0.3046875,1.950419958800623e-06,-0.0001176731861264973,-9.812722890058748e-05,0.0001796836286076142,6.5714,4.2143
0.30859375,-1.5629202230869016e-05,-4.3920948125429174e-05,-5.466242011444268e-05,0.0001591691780056458,6.5714,4.2143
0.3125,-8.321479484245074e-06,-9.081950615396354e-05,-0.00014352902443884948,0.00017087914337071791,6.5714,4.2143
0.31640625,4.830057526512377e-07,-0.00012498090887312125,-0.00020407453458457314,0.00015086361359884027,6.5714,4.2143
0.3203125,2.880409993133439e-05,-0.00011570685109025713,-0.00010886870088960098,0.00012351101279621572,6.5714,4.2143
0.32421875,5.3548209170672006e-06,-0.00016357390249485007,-0.0001079002075135424,0.00021140912374456393,6.5714,4.2143
0.328125,1.0226636081483163e-05,-0.000130351644867628,-0.000154270496427863,0.00023095508097047376,6.5714,4.2143
0.33203125,3.4644408471808944e-05,-0.0001488997604333562,-0.0001538009238818952,0.00023532797530479894,6.5714,4.2143
0.3359375,2.440185731288623e-05,-0.0001962678910078584,-0.00015770424567025253,0.00026608497706569006,6.5714,4.2143
0.33984375,3.0271514137483776e-05,-0.00017968611047837035,-0.00022555747856260015,0.00024216612550545505,6.5714,4.2143
0.34375,4.101298612649728e-05,-0.00016991313186541542,-0.0002460719291645685,0.00026608497706569006,6.5714,4.2143
0.34765625,4.785113632715341e-05,-0.0001645423958709087,-0.00015867273904631116,0.00026658389789578087,6.5714,4.2143
0.3515625,4.832070887312122e-05,-0.00016210648828870067,-0.00012057866625467309,0.00025437501170061795,6.5714,4.2143
0.35546875,4.685329466697183e-05,-0.0001503671746395056,-0.00015770424567025253,0.0002480357823300526,6.5714,4.2143
0.359375,4.832070887312122e-05,-0.00015330200305180438,-0.00020163862700236514,0.00022021360898146023,6.5714,4.2143
0.36328125,4.198147950255587e-05,-0.00014159203768673227,-0.00016794679682917527,0.00018845876556038753,6.5714,4.2143
0.3671875,3.611182267795833e-05,-0.00012791573728542,-0.00013278755244983597,0.0001596387505516136,6.5714,4.2143
0.37109375,3.5143329301899726e-05,-0.00012498090887312125,-0.00011423943688410774,0.00015573542876325626,6.5714,4.2143
0.375,2.7336685725185006e-05,-0.00011230245013199054,-0.00010886870088960098,0.00014255804919203476,6.5714,4.2143
0.37890625,1.3660385323872723e-05,-0.00010936762171969177,-0.00011520793026016633,0.00012400993362630654,6.5714,4.2143
0.3828125,2.918913334859219e-06,-0.00011667534446631572,-0.00010693171413748379,0.00011083255405508504,6.5714,4.2143
0.38671875,-3.919236865796918e-06,-9.178799953002214e-05,-0.00010693171413748379,0.00011130212660105286,6.5714,4.2143
0.390625,-1.5159629684901211e-05,-6.930721389181354e-05,-7.811169912870985e-05,0.00011620329004959179,6.5714,4.2143
0.39453125,-2.637067421988252e-05,-5.856574190280004e-05,-5.319500590829329e-05,0.00011376738246738381,6.5714,4.2143
0.3984375,-4.1015467997253384e-05,-6.737022713969636e-05,-7.957911333485924e-05,0.00010399440385442892,6.5714,4.2143
0.40234375,-6.003315610894942e-05,-7.614536409246968e-05,-6.540389210345618e-05,0.00010056065461203934,6.5714,4.2143
0.40625,-6.930721389181354e-05,-6.346690535133899e-05,-4.0516547167162595e-05,0.00010302591047837032,6.5714,4.2143
0.41015625,-7.224204230411231e-05,-5.319500590829329e-05,-4.148504054322119e-05,0.00010789772564278627,6.5714,4.2143
0.4140625,-8.007803416495003e-05,-4.3920948125429174e-05,-6.3551444480049e-06,0.0001054618180605783,6.5714,4.2143
0.41796875,-8.835425028763257e-05,-2.686959504997331e-05,-6.3551444480049e-06,9.32529318654154e-05,6.5714,4.2143
0.421875,-9.422390711223012e-05,-6.854065278095689e-06,-4.198396137331198e-05,8.641478166475928e-05,6.5714,4.2143
0.42578125,-9.715873552452889e-05,-3.919236865796918e-06,8.78857015945676e-06,8.44484466285191e-05,6.5714,4.2143
0.4296875,-0.00010106205731288625,-1.5159629684901211e-05,2.7336685725185006e-05,9.472034607156478e-05,6.5714,4.2143
0.43359375,-0.00010936762171969177,-2.0031444849317175e-05,4.830057526512377e-07,9.812474702983138e-05,6.5714,4.2143
0.4375,-0.000106432793307393,-1.5159629684901211e-05,2.7806258271152797e-05,0.00010056065461203934,6.5714,4.2143
0.44140625,-9.56913213183795e-05,1.6595213736171495e-05,4.8819629703212e-05,9.568883944762339e-05,6.5714,4.2143
0.4453125,-8.788467774166477e-05,2.2934443106736844e-05,5.712519411001753e-05,8.054512484016174e-05,6.5714,4.2143
0.44921875,-8.788467774166477e-05,1.6595213736171495e-05,7.957663146410313e-05,7.957663146410313e-05,6.5714,4.2143
0.453125,-8.738575691157399e-05,1.8532200488288685e-05,5.075661645532919e-05,7.860813808804454e-05,6.5714,4.2143
0.45703125,-8.982166449378195e-05,1.0226636081483163e-05,2.2435522276646052e-05,7.17699878873884e-05,6.5714,4.2143
0.4609375,-8.688683608148318e-05,8.289649329365972e-06,-3.919236865796918e-06,7.517438884565497e-05,6.5714,4.2143
0.46484375,-8.641726353551539e-05,3.367591509575034e-05,1.0725556911573953e-05,7.761029642786297e-05,6.5714,4.2143
0.46875,-8.688683608148318e-05,1.999961469443807e-05,2.977259330739298e-05,7.323740209353778e-05,6.5714,4.2143
0.47265625,-7.614536409246968e-05,2.0498535524528862e-05,3.8547730260166304e-05,6.686882443884945e-05,6.5714,4.2143
0.4765625,-6.883764134584575e-05,1.9530042148470265e-05,4.101298612649728e-05,7.420589546959638e-05,6.5714,4.2143
0.48046875,-7.224204230411231e-05,6.323314293125797e-06,3.367591509575034e-05,6.590033106279085e-05,6.5714,4.2143
0.484375,-7.37094565102617e-05,1.559737207598991e-05,3.90466510902571e-05,6.590033106279085e-05,6.5714,4.2143
0.48828125,-6.737022713969636e-05,1.9031121318379477e-05,1.70647862821393e-05,6.980365285114823e-05,6.5714,4.2143
0.4921875,-6.687130630960557e-05,2.440185731288623e-05,8.289649329365972e-06,5.906218086213472e-05,6.5714,4.2143
0.49609375,-6.833872051575495e-05,1.8532200488288685e-05,1.2192971117723338e-05,6.102851589837489e-05,6.5714,4.2143
0.5,-6.540389210345618e-05,9.757063535515357e-06,1.0226636081483163e-05,6.786666609903104e-05,6.5714,4.2143
0.50390625,-6.493431955748838e-05,1.2691891947814127e-05,2.3433363936827632e-05,6.736774526894024e-05,6.5714,4.2143
0.5078125,-6.39364778973068e-05,9.757063535515357e-06,2.7806258271152797e-05,6.296550265049208e-05,6.5714,4.2143
0.51171875,-5.8096169356832236e-05,1.9530042148470265e-05,1.9530042148470265e-05,5.662627327992673e-05,6.5714,4.2143
0.515625,-5.02895257801175e-05,-4.887730241855514e-06,-1.591507743955134e-08,5.075661645532919e-05,6.5714,4.2143
0.51953125,-5.566026177462426e-05,-1.3692215478751826e-05,-1.9822501136797256e-06,5.712519411001753e-05,6.5714,4.2143
0.5234375,-5.8096169356832236e-05,3.8874067109178155e-06,1.462887869993132e-05,6.443291685664147e-05,6.5714,4.2143
0.52734375,-4.001762633707181e-05,1.950419958800623e-06,-1.416178802471963e-05,5.8592608316166913e-05,6.5714,4.2143
0.53125,-3.127183766842147e-05,1.451499128709834e-06,-2.0031444849317175e-05,5.175445811551077e-05,6.5714,4.2143
0.53515625,-4.001762633707181e-05,7.790728499275181e-06,3.8874067109178155e-06,4.588480129091323e-05,6.5714,4.2143
0.5390625,-4.9790604950026714e-05,1.3660385323872723e-05,9.52578298619045e-07,7.127106705729761e-05,6.5714,4.2143
0.54296875,-4.588728316166935e-05,-9.844084534981476e-07,-9.78889369039446e-06,8.104404567025251e-05,6.5714,4.2143
0.546875,-4.001762633707181e-05,-2.9305502632181293e-05,-9.289972860303671e-06,6.686882443884945e-05,6.5714,4.2143
0.55078125,-5.662875515068285e-05,-3.224033104448007e-05,-1.3692215478751826e-05,6.396334431067367e-05,6.5714,4.2143
0.5546875,-6.29679845212482e-05,-2.0031444849317175e-05,-9.844084534981476e-07,6.833623864499884e-05,6.5714,4.2143
0.55859375,-4.3451375579461365e-05,-1.856403064316779e-05,3.7579236884107714e-05,7.22395604333562e-05,6.5714,4.2143
0.5625,-3.467623862668805e-05,-2.443368746776533e-05,1.3660385323872723e-05,7.22395604333562e-05,6.5714,4.2143
0.56640625,-2.7838088426031908e-05,-3.174141021438927e-05,1.1694050287632548e-05,7.127106705729761e-05,6.5714,4.2143
0.5703125,-3.517515945677884e-05,-3.711214620889602e-05,-3.664257366292822e-05,5.906218086213472e-05,6.5714,4.2143
0.57421875,-4.538836233157856e-05,-1.5159629684901211e-05,-6.24984119752804e-05,5.515885907377735e-05,6.5714,4.2143
0.578125,-1.856403064316779e-05,-2.149885905546656e-05,-3.810998786907761e-05,5.612735244983595e-05,6.5714,4.2143
0.58203125,-9.289972860303671e-06,-6.053207693904022e-05,-5.02895257801175e-05,5.175445811551077e-05,6.5714,4.2143
0.5859375,-1.66270438910506e-05,-4.198396137331198e-05,-3.855021213092242e-05,4.7352215497062615e-05,6.5714,4.2143
0.58984375,-1.6128123060959808e-05,-2.1997779885557348e-05,-8.791052030212877e-06,4.3448893708705255e-05,6.5714,4.2143
0.59375,-2.0031444849317175e-05,-2.950743489738322e-06,-1.4833292835889366e-06,4.294997287861446e-05,6.5714,4.2143
0.59765625,-2.8337009256122697e-05,-1.66270438910506e-05,-4.882211157396812e-05,4.1482558672465074e-05,6.5714,4.2143
0.6015625,-3.0273996008239887e-05,-6.003315610894942e-05,-6.443539872739759e-05,5.125553728541999e-05,6.5714,4.2143
0.60546875,-2.8337009256122697e-05,-4.6386203991760135e-05,-4.538836233157856e-05,6.249593010452427e-05,6.5714,4.2143
0.609375,-2.8337009256122697e-05,-3.077291683833068e-05,-2.2467352431525156e-05,6.19970092744335e-05,6.5714,4.2143
0.61328125,-2.1997779885557348e-05,-3.127183766842147e-05,-2.4903260013733135e-05,4.8819629703212e-05,6.5714,4.2143
0.6171875,-1.5159629684901211e-05,-2.0999938225375768e-05,-3.174141021438927e-05,4.491630791485464e-05,6.5714,4.2143
0.62109375,-1.0258466236362262e-05,-2.0999938225375768e-05,-3.9548053791104e-05,4.538588046082245e-05,6.5714,4.2143
0.625,-1.8094458097199985e-05,-2.8835930086213485e-05,-2.8337009256122697e-05,4.294997287861446e-05,6.5714,4.2143
0.62890625,-1.66270438910506e-05,-1.8094458097199985e-05,1.559737207598991e-05,5.175445811551077e-05,6.5714,4.2143
0.6328125,-5.885571902037092e-06,-2.637067421988252e-05,-9.78889369039446e-06,5.175445811551077e-05,6.5714,4.2143
0.63671875,-8.321479484245074e-06,-3.370774525062945e-05,-4.882211157396812e-05,4.491630791485464e-05,6.5714,4.2143
0.640625,-1.1725880442511651e-05,-3.761106703898682e-05,-4.6386203991760135e-05,4.198147950255587e-05,6.5714,4.2143
0.64453125,-1.3193294648661038e-05,-3.6143652832837434e-05,-4.295245474937058e-05,4.1482558672465074e-05,6.5714,4.2143
0.6484375,-1.416178802471963e-05,-4.588728316166935e-05,-3.904913296101321e-05,4.198147950255587e-05,6.5714,4.2143
0.65234375,-1.66270438910506e-05,-3.904913296101321e-05,-1.1725880442511651e-05,3.8078157714198496e-05,6.5714,4.2143
0.65625,-2.5901101673914715e-05,-4.0516547167162595e-05,-2.4903260013733135e-05,3.7579236884107714e-05,6.5714,4.2143
0.66015625,-2.149885905546656e-05,-3.224033104448007e-05,-3.0273996008239887e-05,4.294997287861446e-05,6.5714,4.2143
0.6640625,-1.2723722102693233e-05,-3.077291683833068e-05,-2.0530365679407963e-05,5.222403066147858e-05,6.5714,4.2143
0.66796875,-7.822558654154286e-06,-3.855021213092242e-05,-5.906466273289083e-05,4.8819629703212e-05,6.5714,4.2143
0.671875,-4.887730241855514e-06,-3.711214620889602e-05,-4.6386203991760135e-05,4.491630791485464e-05,6.5714,4.2143
0.67578125,-3.919236865796918e-06,-4.588728316166935e-05,-8.321479484245074e-06,4.832070887312122e-05,6.5714,4.2143
0.6796875,-9.844084534981476e-07,-4.245353391927979e-05,-2.1997779885557348e-05,4.588480129091323e-05,6.5714,4.2143
0.68359375,-1.4833292835889366e-06,-2.5901101673914715e-05,-3.664257366292822e-05,3.708031605401692e-05,6.5714,4.2143
0.6875,-7.352986108186481e-06,-2.8835930086213485e-05,-4.3920948125429174e-05,3.4174835925841136e-05,6.5714,4.2143
0.69140625,-7.352986108186481e-06,-4.7824269913786534e-05,-5.759724852674145e-05,3.270742171969175e-05,6.5714,4.2143
0.6953125,-7.822558654154286e-06,-4.001762633707181e-05,-5.662875515068285e-05,3.1709580059510174e-05,6.5714,4.2143
0.69921875,-7.352986108186481e-06,-2.7838088426031908e-05,-3.420666608072024e-05,3.708031605401692e-05,6.5714,4.2143
0.703125,-6.854065278095689e-06,-3.664257366292822e-05,-4.6386203991760135e-05,4.538588046082245e-05,6.5714,4.2143
0.70703125,-8.321479484245074e-06,-3.6143652832837434e-05,-6.737022713969636e-05,3.90466510902571e-05,6.5714,4.2143
0.7109375,-1.0757387066453056e-05,-4.588728316166935e-05,-2.5402180843823926e-05,2.9273672477302182e-05,6.5714,4.2143
0.71484375,-1.66270438910506e-05,-4.6855776537727944e-05,-1.416178802471963e-05,3.2208500889600956e-05,6.5714,4.2143
0.71875,-2.393476663767454e-05,-3.711214620889602e-05,-5.5161340944533466e-05,3.8078157714198496e-05,6.5714,4.2143
0.72265625,-2.73685158800641e-05,-4.832319074387733e-05,-6.883764134584575e-05,3.661074350804911e-05,6.5714,4.2143
0.7265625,-2.8337009256122697e-05,-5.956358356298163e-05,-4.882211157396812e-05,3.074108668345157e-05,6.5714,4.2143
0.73046875,-2.73685158800641e-05,-5.759724852674145e-05,-4.588728316166935e-05,2.7336685725185006e-05,6.5714,4.2143
0.734375,-3.2739251874570855e-05,-6.443539872739759e-05,-6.053207693904022e-05,3.564225013199052e-05,6.5714,4.2143
0.73828125,-2.5901101673914715e-05,-6.346690535133899e-05,-5.612983432059206e-05,3.661074350804911e-05,6.5714,4.2143
0.7421875,-2.0530365679407963e-05,-5.5161340944533466e-05,-6.640173376363776e-05,3.317699426565956e-05,6.5714,4.2143
0.74609375,-2.443368746776533e-05,-5.319500590829329e-05,-4.3920948125429174e-05,4.2480400332646665e-05,6.5714,4.2143
0.75,-2.0031444849317175e-05,-4.588728316166935e-05,4.386327541008605e-06,4.491630791485464e-05,6.5714,4.2143
0.75390625,-2.5901101673914715e-05,-4.6386203991760135e-05,-2.9305502632181293e-05,3.4174835925841136e-05,6.5714,4.2143
0.7578125,-3.0273996008239887e-05,-5.5161340944533466e-05,-6.980613472190434e-05,3.1709580059510174e-05,6.5714,4.2143
0.76171875,-2.8337009256122697e-05,-3.370774525062945e-05,-7.274096313420311e-05,2.880409993133439e-05,6.5714,4.2143
0.765625,-3.127183766842147e-05,-2.393476663767454e-05,-6.150057031509881e-05,2.7336685725185006e-05,6.5714,4.2143
0.76953125,-2.443368746776533e-05,-4.3920948125429174e-05,-4.538836233157856e-05,2.1965949730678247e-05,6.5714,4.2143
0.7734375,-2.1997779885557348e-05,-6.443539872739759e-05,-3.174141021438927e-05,2.0498535524528862e-05,6.5714,4.2143
0.77734375,-2.393476663767454e-05,-4.9291684119935926e-05,-2.3465194091706733e-05,2.096810807049666e-05,6.5714,4.2143
0.78125,-2.4903260013733135e-05,-6.443539872739759e-05,-4.9291684119935926e-05,1.806262794232088e-05,6.5714,4.2143
0.78515625,-2.3465194091706733e-05,-6.199949114518961e-05,-5.612983432059206e-05,2.683776489509421e-05,6.5714,4.2143
0.7890625,-1.5159629684901211e-05,-4.491878978561075e-05,-4.3451375579461365e-05,3.074108668345157e-05,6.5714,4.2143
0.79296875,-1.6128123060959808e-05,-4.3451375579461365e-05,-2.5901101673914715e-05,2.3902936482795437e-05,6.5714,4.2143
0.796875,-2.393476663767454e-05,-4.6855776537727944e-05,-4.882211157396812e-05,1.462887869993132e-05,6.5714,4.2143
0.80078125,-2.7838088426031908e-05,-5.7127675980773646e-05,-7.420837734035249e-05,9.258142705424568e-06,6.5714,4.2143
0.8046875,-2.0530365679407963e-05,-2.8337009256122697e-05,-5.2226512532234696e-05,1.6096292906080703e-05,6.5714,4.2143
0.80859375,-2.0530365679407963e-05,-4.198396137331198e-05,-3.711214620889602e-05,2.440185731288623e-05,6.5714,4.2143
0.8125,-2.393476663767454e-05,-4.198396137331198e-05,-3.9548053791104e-05,1.6595213736171495e-05,6.5714,4.2143
0.81640625,-2.5402180843823926e-05,-4.6386203991760135e-05,-4.832319074387733e-05,1.1694050287632548e-05,6.5714,4.2143
0.8203125,-3.174141021438927e-05,-6.443539872739759e-05,-6.687130630960557e-05,1.2691891947814127e-05,6.5714,4.2143
0.82421875,-3.664257366292822e-05,-4.148504054322119e-05,-5.319500590829329e-05,1.6595213736171495e-05,6.5714,4.2143
0.828125,-3.077291683833068e-05,-4.6386203991760135e-05,-3.077291683833068e-05,2.096810807049666e-05,6.5714,4.2143
0.83203125,-2.7838088426031908e-05,-5.8096169356832236e-05,-3.711214620889602e-05,2.683776489509421e-05,6.5714,4.2143
0.8359375,-3.2739251874570855e-05,-6.833872051575495e-05,-6.39364778973068e-05,2.4900778142977017e-05,6.5714,4.2143
0.83984375,-3.664257366292822e-05,-6.540389210345618e-05,-4.001762633707181e-05,2.096810807049666e-05,6.5714,4.2143
0.84375,-3.810998786907761e-05,-5.369392673838408e-05,-3.855021213092242e-05,2.683776489509421e-05,6.5714,4.2143
0.84765625,-3.077291683833068e-05,-4.588728316166935e-05,-6.29679845212482e-05,2.8305179101243596e-05,6.5714,4.2143
0.8515625,-3.2739251874570855e-05,-5.5161340944533466e-05,-5.759724852674145e-05,2.5370350688944822e-05,6.5714,4.2143
0.85546875,-3.467623862668805e-05,-5.02895257801175e-05,-5.02895257801175e-05,1.9530042148470265e-05,6.5714,4.2143
0.859375,-2.7838088426031908e-05,-4.441986895551996e-05,-5.566026177462426e-05,1.6096292906080703e-05,6.5714,4.2143
0.86328125,-2.7838088426031908e-05,-3.517515945677884e-05,-4.9291684119935926e-05,1.9031121318379477e-05,6.5714,4.2143
0.8671875,-3.0273996008239887e-05,-3.467623862668805e-05,-4.0516547167162595e-05,1.756370711223009e-05,6.5714,4.2143
0.87109375,-3.564473200274663e-05,-4.6386203991760135e-05,-4.7824269913786534e-05,9.258142705424568e-06,6.5714,4.2143
0.875,-4.0516547167162595e-05,-5.1756939986266894e-05,-5.2226512532234696e-05,5.3548209170672006e-06,6.5714,4.2143
0.87890625,-3.904913296101321e-05,-5.1756939986266894e-05,-4.148504054322119e-05,6.822235123216586e-06,6.5714,4.2143
0.8828125,-3.711214620889602e-05,-4.882211157396812e-05,-6.24984119752804e-05,9.258142705424568e-06,6.5714,4.2143
0.88671875,-3.664257366292822e-05,-6.540389210345618e-05,-5.319500590829329e-05,1.0226636081483163e-05,6.5714,4.2143
0.890625,-3.711214620889602e-05,-5.12580191561761e-05,-4.245353391927979e-05,1.0226636081483163e-05,6.5714,4.2143
0.89453125,-3.174141021438927e-05,-4.3451375579461365e-05,-7.274096313420311e-05,1.3660385323872723e-05,6.5714,4.2143
0.8984375,-2.393476663767454e-05,-6.346690535133899e-05,-4.735469736781873e-05,1.0725556911573953e-05,6.5714,4.2143
0.90234375,-2.443368746776533e-05,-5.5161340944533466e-05,9.258142705424568e-06,9.757063535515357e-06,6.5714,4.2143
0.90625,-2.5402180843823926e-05,-1.9532524019226383e-05,-5.466242011444268e-05,1.8532200488288685e-05,6.5714,4.2143
0.91015625,-2.393476663767454e-05,-1.2723722102693233e-05,-7.274096313420311e-05,1.5127799530022108e-05,6.5714,4.2143
0.9140625,-3.0273996008239887e-05,-5.419284756847487e-05,-5.419284756847487e-05,1.0226636081483163e-05,6.5714,4.2143
0.91796875,-2.980442346227208e-05,-6.29679845212482e-05,-6.980613472190434e-05,6.822235123216586e-06,6.5714,4.2143
0.921875,-2.3465194091706733e-05,-4.7824269913786534e-05,-5.856574190280004e-05,7.321155953307375e-06,6.5714,4.2143
0.92578125,-2.73685158800641e-05,-4.832319074387733e-05,-5.759724852674145e-05,2.41999250476843e-06,6.5714,4.2143
0.9296875,-3.370774525062945e-05,-4.295245474937058e-05,-6.103099776913101e-05,9.52578298619045e-07,6.5714,4.2143
0.93359375,-3.664257366292822e-05,-4.295245474937058e-05,-5.5161340944533466e-05,1.0226636081483163e-05,6.5714,4.2143
0.9375,-3.6143652832837434e-05,-4.0516547167162595e-05,-5.759724852674145e-05,1.999961469443807e-05,6.5714,4.2143
0.94140625,-3.564473200274663e-05,-4.3920948125429174e-05,-5.906466273289083e-05,2.1965949730678247e-05,6.5714,4.2143
0.9453125,-3.711214620889602e-05,-5.5161340944533466e-05,-5.319500590829329e-05,1.6595213736171495e-05,6.5714,4.2143
0.94921875,-3.664257366292822e-05,-5.419284756847487e-05,-4.6386203991760135e-05,1.6595213736171495e-05,6.5714,4.2143
0.953125,-3.664257366292822e-05,-5.1756939986266894e-05,-4.295245474937058e-05,1.3660385323872723e-05,6.5714,4.2143
0.95703125,-3.224033104448007e-05,-4.491878978561075e-05,-6.493431955748838e-05,1.1694050287632548e-05,6.5714,4.2143
0.9609375,-3.224033104448007e-05,-4.1015467997253384e-05,-6.150057031509881e-05,1.999961469443807e-05,6.5714,4.2143
0.96484375,-3.664257366292822e-05,-1.3692215478751826e-05,-3.2739251874570855e-05,2.3433363936827632e-05,6.5714,4.2143
0.96875,-4.148504054322119e-05,-1.2224801272602441e-05,-4.148504054322119e-05,1.8532200488288685e-05,6.5714,4.2143
0.97265625,-4.148504054322119e-05,-4.882211157396812e-05,-5.2725433362325484e-05,1.3660385323872723e-05,6.5714,4.2143
0.9765625,-3.127183766842147e-05,-5.02895257801175e-05,-5.906466273289083e-05,1.6096292906080703e-05,6.5714,4.2143
0.98046875,-2.8835930086213485e-05,-4.7824269913786534e-05,-6.346690535133899e-05,1.9530042148470265e-05,6.5714,4.2143
0.984375,-4.001762633707181e-05,-4.882211157396812e-05,-6.24984119752804e-05,1.2691891947814127e-05,6.5714,4.2143
0.98828125,-3.9548053791104e-05,-4.9291684119935926e-05,-5.612983432059206e-05,1.2691891947814127e-05,6.5714,4.2143
0.9921875,-3.0273996008239887e-05,-5.075909832608531e-05,-5.906466273289083e-05,1.6096292906080703e-05,6.5714,4.2143
0.99609375,-3.370774525062945e-05,-5.759724852674145e-05,-6.590281293354698e-05,1.559737207598991e-05,6.5714,4.2143
1.0,-3.564473200274663e-05,-4.001762633707181e-05,-4.538836233157856e-05,1.756370711223009e-05,6.5714,4.2143
1.00390625,-3.320882442053866e-05,-1.70966164370184e-05,-2.980442346227208e-05,1.756370711223009e-05,6.5714,4.2143
1.0078125,-3.320882442053866e-05,-4.3451375579461365e-05,-4.9291684119935926e-05,1.559737207598991e-05,6.5714,4.2143
1.01171875,-3.6143652832837434e-05,-5.2725433362325484e-05,-4.491878978561075e-05,1.70647862821393e-05,6.5714,4.2143
1.015625,-3.810998786907761e-05,-3.711214620889602e-05,-3.664257366292822e-05,1.462887869993132e-05,6.5714,4.2143
1.01953125,-3.711214620889602e-05,-4.7824269913786534e-05,-5.856574190280004e-05,1.70647862821393e-05,6.5714,4.2143
1.0234375,-3.564473200274663e-05,-4.441986895551996e-05,-5.612983432059206e-05,2.0498535524528862e-05,6.5714,4.2143
1.02734375,-3.9548053791104e-05,-3.370774525062945e-05,-3.077291683833068e-05,1.806262794232088e-05,6.5714,4.2143
1.03125,-4.001762633707181e-05,-3.224033104448007e-05,-4.441986895551996e-05,1.559737207598991e-05,6.5714,4.2143
1.03515625,-3.711214620889602e-05,-2.393476663767454e-05,-5.7127675980773646e-05,1.0725556911573953e-05,6.5714,4.2143
1.0390625,-4.148504054322119e-05,-1.856403064316779e-05,-5.1756939986266894e-05,1.6595213736171495e-05,6.5714,4.2143
1.04296875,-3.761106703898682e-05,-2.7838088426031908e-05,-4.538836233157856e-05,2.1965949730678247e-05,6.5714,4.2143
1.046875,-3.370774525062945e-05,-2.7838088426031908e-05,-4.441986895551996e-05,1.8532200488288685e-05,6.5714,4.2143
1.05078125,-3.761106703898682e-05,-4.735469736781873e-05,-1.70966164370184e-05,1.999961469443807e-05,6.5714,4.2143
1.0546875,-3.467623862668805e-05,-4.832319074387733e-05,8.78857015945676e-06,2.4900778142977017e-05,6.5714,4.2143
1.05859375,-3.174141021438927e-05,-2.0999938225375768e-05,-4.882211157396812e-05,2.0498535524528862e-05,6.5714,4.2143
1.0625,-3.0273996008239887e-05,-3.0273996008239887e-05,-6.346690535133899e-05,2.2934443106736844e-05,6.5714,4.2143
1.06640625,-2.7838088426031908e-05,-5.759724852674145e-05,-4.6855776537727944e-05,1.999961469443807e-05,6.5714,4.2143
1.0703125,-2.980442346227208e-05,-5.02895257801175e-05,-4.198396137331198e-05,1.5127799530022108e-05,6.5714,4.2143
1.07421875,-3.127183766842147e-05,-3.370774525062945e-05,-3.320882442053866e-05,2.7336685725185006e-05,6.5714,4.2143
1.078125,-3.467623862668805e-05,-2.0530365679407963e-05,-2.4903260013733135e-05,3.0271514137483776e-05,6.5714,4.2143
1.08203125,-3.855021213092242e-05,-3.6143652832837434e-05,-3.904913296101321e-05,2.440185731288623e-05,6.5714,4.2143
1.0859375,-4.491878978561075e-05,-5.2725433362325484e-05,-3.564473200274663e-05,2.2934443106736844e-05,6.5714,4.2143
1.08984375,-4.3451375579461365e-05,-4.9291684119935926e-05,-2.3465194091706733e-05,2.6338844065003412e-05,6.5714,4.2143
1.09375,-2.9305502632181293e-05,-5.12580191561761e-05,-4.882211157396812e-05,2.6338844065003412e-05,6.5714,4.2143
1.09765625,-3.174141021438927e-05,-3.077291683833068e-05,-5.612983432059206e-05,2.5869271519035607e-05,6.5714,4.2143
1.1015625,-4.1015467997253384e-05,-1.7595537267109193e-05,-4.735469736781873e-05,2.3902936482795437e-05,6.5714,4.2143
1.10546875,-4.295245474937058e-05,-5.956358356298163e-05,-6.443539872739759e-05,1.6096292906080703e-05,6.5714,4.2143
1.109375,-4.245353391927979e-05,-6.443539872739759e-05,-5.956358356298163e-05,1.3161464493781935e-05,6.5714,4.2143
1.11328125,-4.198396137331198e-05,-5.12580191561761e-05,-5.885571902037092e-06,1.8532200488288685e-05,6.5714,4.2143
1.1171875,-4.001762633707181e-05,-4.882211157396812e-05,-2.0999938225375768e-05,2.1467028900587455e-05,6.5714,4.2143
1.12109375,-3.711214620889602e-05,-3.370774525062945e-05,-8.007803416495003e-05,1.2691891947814127e-05,6.5714,4.2143
1.125,-3.320882442053866e-05,-2.8835930086213485e-05,-7.274096313420311e-05,1.0226636081483163e-05,6.5714,4.2143
1.12890625,-3.127183766842147e-05,-4.245353391927979e-05,-5.419284756847487e-05,2.0498535524528862e-05,6.5714,4.2143
1.1328125,-3.370774525062945e-05,-4.6386203991760135e-05,-4.491878978561075e-05,2.0498535524528862e-05,6.5714,4.2143
1.13671875,-3.810998786907761e-05,-3.2739251874570855e-05,-4.588728316166935e-05,8.78857015945676e-06,6.5714,4.2143
1.140625,-2.9305502632181293e-05,-1.9532524019226383e-05,-3.370774525062945e-05,6.323314293125797e-06,6.5714,4.2143
1.14453125,-2.7838088426031908e-05,-3.320882442053866e-05,-2.8835930086213485e-05,1.3660385323872723e-05,6.5714,4.2143
1.1484375,-3.664257366292822e-05,-2.73685158800641e-05,-1.3692215478751826e-05,1.6096292906080703e-05,6.5714,4.2143
1.15234375,-3.855021213092242e-05,-3.224033104448007e-05,-5.885571902037092e-06,1.6096292906080703e-05,6.5714,4.2143
1.15625,-3.467623862668805e-05,-4.3920948125429174e-05,-2.9305502632181293e-05,1.8532200488288685e-05,6.5714,4.2143
1.16015625,-3.420666608072024e-05,-2.9305502632181293e-05,-4.441986895551996e-05,2.096810807049666e-05,6.5714,4.2143
1.1640625,-3.174141021438927e-05,-2.393476663767454e-05,-1.9062951473258578e-05,1.756370711223009e-05,6.5714,4.2143
1.16796875,-2.443368746776533e-05,-4.491878978561075e-05,4.855900086976411e-06,1.3161464493781935e-05,6.5714,4.2143
1.171875,-3.2739251874570855e-05,-3.904913296101321e-05,-3.9548053791104e-05,1.2192971117723338e-05,6.5714,4.2143
1.17578125,-3.6143652832837434e-05,-3.517515945677884e-05,-5.1756939986266894e-05,2.096810807049666e-05,6.5714,4.2143
1.1796875,-2.8835930086213485e-05,-5.2725433362325484e-05,-4.538836233157856e-05,2.1467028900587455e-05,6.5714,4.2143
1.18359375,-3.174141021438927e-05,-4.9790604950026714e-05,-5.1756939986266894e-05,1.806262794232088e-05,6.5714,4.2143
1.1875,-3.517515945677884e-05,-3.904913296101321e-05,-4.735469736781873e-05,1.806262794232088e-05,6.5714,4.2143
1.19140625,-3.761106703898682e-05,-3.467623862668805e-05,-3.2739251874570855e-05,1.462887869993132e-05,6.5714,4.2143
1.1953125,-4.295245474937058e-05,-2.149885905546656e-05,-3.224033104448007e-05,1.9530042148470265e-05,6.5714,4.2143
1.19921875,-4.1015467997253384e-05,-4.198396137331198e-05,-5.2725433362325484e-05,3.074108668345157e-05,6.5714,4.2143
1.203125,-3.904913296101321e-05,-6.150057031509881e-05,-3.517515945677884e-05,2.2435522276646052e-05,6.5714,4.2143
1.20703125,-4.245353391927979e-05,-4.882211157396812e-05,-3.2739251874570855e-05,1.756370711223009e-05,6.5714,4.2143
1.2109375,-5.075909832608531e-05,-6.103099776913101e-05,-4.6386203991760135e-05,1.5127799530022108e-05,6.5714,4.2143
1.21484375,-4.6386203991760135e-05,-6.39364778973068e-05,-5.856574190280004e-05,1.806262794232088e-05,6.5714,4.2143
1.21875,-3.9548053791104e-05,-4.735469736781873e-05,-5.12580191561761e-05,1.4159306153963512e-05,6.5714,4.2143
1.22265625,-3.564473200274663e-05,-4.588728316166935e-05,-4.295245474937058e-05,1.1694050287632548e-05,6.5714,4.2143
1.2265625,-3.174141021438927e-05,-3.810998786907761e-05,-5.856574190280004e-05,1.806262794232088e-05,6.5714,4.2143
1.23046875,-2.8835930086213485e-05,-2.4903260013733135e-05,-3.517515945677884e-05,1.3660385323872723e-05,6.5714,4.2143
1.234375,-3.224033104448007e-05,-2.73685158800641e-05,-2.451822659647533e-06,1.70647862821393e-05,6.5714,4.2143
1.23828125,-3.9548053791104e-05,-4.0516547167162595e-05,-3.855021213092242e-05,2.4900778142977017e-05,6.5714,4.2143
1.2421875,-3.855021213092242e-05,-2.0999938225375768e-05,-4.538836233157856e-05,3.708031605401692e-05,6.5714,4.2143
1.24609375,-4.3451375579461365e-05,-3.420666608072024e-05,-5.1756939986266894e-05,3.5143329301899726e-05,6.5714,4.2143
1.25,-4.491878978561075e-05,-4.9291684119935926e-05,-4.6855776537727944e-05,2.7336685725185006e-05,6.5714,4.2143
1.25390625,-4.588728316166935e-05,-4.295245474937058e-05,-3.320882442053866e-05,2.977259330739298e-05,6.5714,4.2143
1.2578125,-4.7824269913786534e-05,-4.6386203991760135e-05,-5.419284756847487e-05,2.880409993133439e-05,6.5714,4.2143
1.26171875,-3.855021213092242e-05,-4.7824269913786534e-05,-6.053207693904022e-05,3.1709580059510174e-05,6.5714,4.2143
1.265625,-3.127183766842147e-05,-3.174141021438927e-05,-4.491878978561075e-05,3.074108668345157e-05,6.5714,4.2143
1.26953125,-3.467623862668805e-05,-2.0999938225375768e-05,-4.9790604950026714e-05,3.0271514137483776e-05,6.5714,4.2143
1.2734375,-3.370774525062945e-05,-4.295245474937058e-05,-5.8096169356832236e-05,3.270742171969175e-05,6.5714,4.2143
1.27734375,-3.0273996008239887e-05,-5.319500590829329e-05,-4.441986895551996e-05,3.661074350804911e-05,6.5714,4.2143
1.28125,-3.0273996008239887e-05,-3.855021213092242e-05,-4.001762633707181e-05,3.708031605401692e-05,6.5714,4.2143
1.28515625,-3.320882442053866e-05,-3.6143652832837434e-05,-4.735469736781873e-05,3.270742171969175e-05,6.5714,4.2143
1.2890625,-3.420666608072024e-05,-2.149885905546656e-05,-2.8835930086213485e-05,3.074108668345157e-05,6.5714,4.2143
1.29296875,-3.127183766842147e-05,-9.289972860303671e-06,-3.420666608072024e-05,3.4644408471808944e-05,6.5714,4.2143
1.296875,-2.9305502632181293e-05,-3.467623862668805e-05,-5.466242011444268e-05,3.7579236884107714e-05,6.5714,4.2143
1.30078125,-3.320882442053866e-05,-3.904913296101321e-05,-3.320882442053866e-05,3.7579236884107714e-05,6.5714,4.2143
1.3046875,-3.664257366292822e-05,-4.295245474937058e-05,-1.9532524019226383e-05,2.2934443106736844e-05,6.5714,4.2143
1.30859375,-3.370774525062945e-05,-3.320882442053866e-05,-3.0273996008239887e-05,1.462887869993132e-05,6.5714,4.2143
1.3125,-3.077291683833068e-05,-3.517515945677884e-05,-4.295245474937058e-05,1.806262794232088e-05,6.5714,4.2143
1.31640625,-3.224033104448007e-05,-5.566026177462426e-05,-6.687130630960557e-05,1.6595213736171495e-05,6.5714,4.2143
1.3203125,-3.127183766842147e-05,-4.295245474937058e-05,-6.833872051575495e-05,1.9530042148470265e-05,6.5714,4.2143
1.32421875,-2.8835930086213485e-05,-2.9305502632181293e-05,-3.711214620889602e-05,2.0498535524528862e-05,6.5714,4.2143
1.328125,-2.9305502632181293e-05,-3.564473200274663e-05,-3.2739251874570855e-05,1.1224477741664742e-05,6.5714,4.2143
1.33203125,-3.6143652832837434e-05,-4.0516547167162595e-05,-2.8337009256122697e-05,1.0725556911573953e-05,6.5714,4.2143
1.3359375,-3.320882442053866e-05,-4.441986895551996e-05,-1.416178802471963e-05,1.462887869993132e-05,6.5714,4.2143
1.33984375,-2.686959504997331e-05,-5.856574190280004e-05,-4.832319074387733e-05,9.757063535515357e-06,6.5714,4.2143
1.34375,-2.8835930086213485e-05,-5.319500590829329e-05,-4.441986895551996e-05,2.41999250476843e-06,6.5714,4.2143
1.34765625,-2.980442346227208e-05,-4.441986895551996e-05,-3.904913296101321e-05,6.822235123216586e-06,6.5714,4.2143
1.3515625,-3.420666608072024e-05,-5.1756939986266894e-05,-5.419284756847487e-05,1.3161464493781935e-05,6.5714,4.2143
1.35546875,-3.564473200274663e-05,-3.127183766842147e-05,-4.832319074387733e-05,1.5127799530022108e-05,6.5714,4.2143
1.359375,-3.810998786907761e-05,-3.664257366292822e-05,-4.882211157396812e-05,7.321155953307375e-06,6.5714,4.2143
1.36328125,-4.7824269913786534e-05,-6.980613472190434e-05,-4.735469736781873e-05,1.1224477741664742e-05,6.5714,4.2143
1.3671875,-4.588728316166935e-05,-6.737022713969636e-05,-3.810998786907761e-05,1.2691891947814127e-05,6.5714,4.2143
1.37109375,-3.9548053791104e-05,-4.9790604950026714e-05,-3.855021213092242e-05,9.52578298619045e-07,6.5714,4.2143
1.375,-3.904913296101321e-05,-4.441986895551996e-05,-4.3451375579461365e-05,2.41999250476843e-06,6.5714,4.2143
1.37890625,-3.9548053791104e-05,-5.2226512532234696e-05,-1.6128123060959808e-05,6.323314293125797e-06,6.5714,4.2143
1.3828125,-4.3451375579461365e-05,-4.0516547167162595e-05,-3.6143652832837434e-05,3.8874067109178155e-06,6.5714,4.2143
1.38671875,-4.1015467997253384e-05,-3.711214620889602e-05,-7.46779498863203e-05,3.4178341649500084e-06,6.5714,4.2143
1.390625,-4.588728316166935e-05,-4.9291684119935926e-05,-4.6386203991760135e-05,7.321155953307375e-06,6.5714,4.2143
1.39453125,-4.3920948125429174e-05,-4.832319074387733e-05,-4.198396137331198e-05,7.790728499275181e-06,6.5714,4.2143
1.3984375,-3.855021213092242e-05,-4.882211157396812e-05,-5.612983432059206e-05,8.78857015945676e-06,6.5714,4.2143
1.40234375,-4.245353391927979e-05,-4.9790604950026714e-05,-4.6386203991760135e-05,8.78857015945676e-06,6.5714,4.2143
1.40625,-3.855021213092242e-05,-4.198396137331198e-05,-3.9548053791104e-05,7.790728499275181e-06,6.5714,4.2143
1.41015625,-3.855021213092242e-05,-3.0273996008239887e-05,-3.0273996008239887e-05,1.2192971117723338e-05,6.5714,4.2143
1.4140625,-4.0516547167162595e-05,-3.6143652832837434e-05,-2.3465194091706733e-05,1.3660385323872723e-05,6.5714,4.2143
1.41796875,-3.855021213092242e-05,-5.419284756847487e-05,-4.001762633707181e-05,1.6595213736171495e-05,6.5714,4.2143
1.421875,-3.810998786907761e-05,-4.7824269913786534e-05,-4.9790604950026714e-05,1.462887869993132e-05,6.5714,4.2143
1.42578125,-3.664257366292822e-05,-2.686959504997331e-05,-1.70966164370184e-05,8.289649329365972e-06,6.5714,4.2143
1.4296875,-4.1015467997253384e-05,-2.393476663767454e-05,-3.855021213092242e-05,2.918913334859219e-06,6.5714,4.2143
1.43359375,-3.664257366292822e-05,-4.1015467997253384e-05,-5.419284756847487e-05,2.41999250476843e-06,6.5714,4.2143
1.4375,-3.664257366292822e-05,-6.687130630960557e-05,-4.735469736781873e-05,5.85374174715799e-06,6.5714,4.2143
1.44140625,-4.295245474937058e-05,-6.003315610894942e-05,-4.735469736781873e-05,1.0226636081483163e-05,6.5714,4.2143
1.4453125,-4.001762633707181e-05,-4.148504054322119e-05,-3.810998786907761e-05,7.790728499275181e-06,6.5714,4.2143
1.44921875,-3.564473200274663e-05,-5.419284756847487e-05,-3.2739251874570855e-05,7.321155953307375e-06,6.5714,4.2143
1.453125,-3.761106703898682e-05,-5.12580191561761e-05,-4.588728316166935e-05,9.757063535515357e-06,6.5714,4.2143
1.45703125,-4.001762633707181e-05,-5.5161340944533466e-05,-5.419284756847487e-05,6.822235123216586e-06,6.5714,4.2143
1.4609375,-3.711214620889602e-05,-5.12580191561761e-05,-4.491878978561075e-05,4.386327541008605e-06,6.5714,4.2143
1.46484375,-3.420666608072024e-05,-4.148504054322119e-05,-9.78889369039446e-06,1.0226636081483163e-05,6.5714,4.2143
1.46875,-3.370774525062945e-05,-2.7838088426031908e-05,-2.686959504997331e-05,1.462887869993132e-05,6.5714,4.2143
1.47265625,-3.224033104448007e-05,-1.2224801272602441e-05,-6.346690535133899e-05,9.258142705424568e-06,6.5714,4.2143
1.4765625,-3.127183766842147e-05,-2.8337009256122697e-05,-5.8096169356832236e-05,1.70647862821393e-05,6.5714,4.2143
1.48046875,-3.320882442053866e-05,-3.2739251874570855e-05,-4.735469736781873e-05,2.6338844065003412e-05,6.5714,4.2143
1.484375,-3.564473200274663e-05,-2.9305502632181293e-05,-4.7824269913786534e-05,2.2934443106736844e-05,6.5714,4.2143
1.48828125,-4.148504054322119e-05,-5.319500590829329e-05,-4.6855776537727944e-05,2.096810807049666e-05,6.5714,4.2143
1.4921875,-4.588728316166935e-05,-5.856574190280004e-05,-4.6386203991760135e-05,2.440185731288623e-05,6.5714,4.2143
1.49609375,-4.538836233157856e-05,-4.295245474937058e-05,-5.12580191561761e-05,2.0498535524528862e-05,6.5714,4.2143
1.5,-4.0516547167162595e-05,-2.980442346227208e-05,-4.538836233157856e-05,1.9530042148470265e-05,6.5714,4.2143
1.50390625,-3.810998786907761e-05,-4.491878978561075e-05,-5.369392673838408e-05,1.6096292906080703e-05,6.5714,4.2143
1.5078125,-3.904913296101321e-05,-4.7824269913786534e-05,-4.148504054322119e-05,1.6595213736171495e-05,6.5714,4.2143
1.51171875,-4.491878978561075e-05,-5.2226512532234696e-05,-2.8835930086213485e-05,1.999961469443807e-05,6.5714,4.2143
1.515625,-4.588728316166935e-05,-5.1756939986266894e-05,-5.5161340944533466e-05,2.1467028900587455e-05,6.5714,4.2143
1.51953125,-4.538836233157856e-05,-3.564473200274663e-05,-6.39364778973068e-05,2.3902936482795437e-05,6.5714,4.2143
1.5234375,-4.735469736781873e-05,-3.127183766842147e-05,-4.9790604950026714e-05,1.8532200488288685e-05,6.5714,4.2143
1.52734375,-4.538836233157856e-05,-5.369392673838408e-05,-4.148504054322119e-05,9.757063535515357e-06,6.5714,4.2143
1.53125,-4.148504054322119e-05,-6.103099776913101e-05,-4.0516547167162595e-05,8.78857015945676e-06,6.5714,4.2143
1.53515625,-3.855021213092242e-05,-5.319500590829329e-05,-3.9548053791104e-05,1.1694050287632548e-05,6.5714,4.2143
1.5390625,-3.420666608072024e-05,-4.882211157396812e-05,-4.1015467997253384e-05,1.462887869993132e-05,6.5714,4.2143
1.54296875,-3.761106703898682e-05,-3.174141021438927e-05,-4.001762633707181e-05,2.3433363936827632e-05,6.5714,4.2143
1.546875,-4.295245474937058e-05,-3.664257366292822e-05,-2.4903260013733135e-05,3.1240007513542366e-05,6.5714,4.2143
1.55078125,-4.001762633707181e-05,-4.1015467997253384e-05,-3.370774525062945e-05,3.1240007513542366e-05,6.5714,4.2143
1.5546875,-3.6143652832837434e-05,-3.855021213092242e-05,-4.3920948125429174e-05,2.2934443106736844e-05,6.5714,4.2143
1.55859375,-4.3451375579461365e-05,-4.491878978561075e-05,-3.9548053791104e-05,2.9273672477302182e-05,6.5714,4.2143
1.5625,-4.7824269913786534e-05,-4.441986895551996e-05,-4.148504054322119e-05,3.90466510902571e-05,6.5714,4.2143
1.56640625,-4.441986895551996e-05,-4.882211157396812e-05,-3.517515945677884e-05,3.4644408471808944e-05,6.5714,4.2143
1.5703125,-4.882211157396812e-05,-3.810998786907761e-05,-2.7838088426031908e-05,3.1709580059510174e-05,6.5714,4.2143
1.57421875,-5.2725433362325484e-05,4.386327541008605e-06,-3.2739251874570855e-05,3.1709580059510174e-05,6.5714,4.2143
1.578125,-4.295245474937058e-05,-2.0530365679407963e-05,-3.810998786907761e-05,2.880409993133439e-05,6.5714,4.2143
1.58203125,-4.295245474937058e-05,-5.319500590829329e-05,-4.3920948125429174e-05,3.1709580059510174e-05,6.5714,4.2143
1.5859375,-4.9790604950026714e-05,-5.075909832608531e-05,-4.0516547167162595e-05,3.367591509575034e-05,6.5714,4.2143
1.58984375,-4.9790604950026714e-05,-5.319500590829329e-05,-2.0999938225375768e-05,3.564225013199052e-05,6.5714,4.2143
1.59375,-4.6855776537727944e-05,-4.441986895551996e-05,-3.077291683833068e-05,3.954557192034788e-05,6.5714,4.2143
1.59765625,-4.198396137331198e-05,-3.174141021438927e-05,-3.320882442053866e-05,3.7579236884107714e-05,6.5714,4.2143
1.6015625,-3.517515945677884e-05,-2.393476663767454e-05,-3.711214620889602e-05,3.90466510902571e-05,6.5714,4.2143
1.60546875,-3.2739251874570855e-05,-2.149885905546656e-05,-4.9790604950026714e-05,3.8547730260166304e-05,6.5714,4.2143
1.609375,-3.711214620889602e-05,-2.443368746776533e-05,-4.198396137331198e-05,3.1240007513542366e-05,6.5714,4.2143
1.61328125,-3.320882442053866e-05,-4.148504054322119e-05,-3.174141021438927e-05,3.317699426565956e-05,6.5714,4.2143
1.6171875,-3.077291683833068e-05,-4.9291684119935926e-05,-1.5629202230869016e-05,3.90466510902571e-05,6.5714,4.2143
1.62109375,-3.320882442053866e-05,-4.588728316166935e-05,-3.077291683833068e-05,4.7352215497062615e-05,6.5714,4.2143
1.625,-3.127183766842147e-05,-3.224033104448007e-05,-3.320882442053866e-05,4.6383722121004025e-05,6.5714,4.2143
1.62890625,-3.904913296101321e-05,-4.001762633707181e-05,-2.8337009256122697e-05,3.5143329301899726e-05,6.5714,4.2143
1.6328125,-4.3451375579461365e-05,-4.538836233157856e-05,-3.9548053791104e-05,2.880409993133439e-05,6.5714,4.2143
1.63671875,-3.517515945677884e-05,-3.564473200274663e-05,-4.1015467997253384e-05,2.683776489509421e-05,6.5714,4.2143
1.640625,-3.0273996008239887e-05,-1.9532524019226383e-05,-5.02895257801175e-05,2.7806258271152797e-05,6.5714,4.2143
1.64453125,-2.8835930086213485e-05,-2.2966273261615945e-05,-3.711214620889602e-05,2.977259330739298e-05,6.5714,4.2143
1.6484375,-3.224033104448007e-05,-6.854065278095689e-06,-2.443368746776533e-05,2.977259330739298e-05,6.5714,4.2143
1.65234375,-3.467623862668805e-05,-1.9062951473258578e-05,-3.564473200274663e-05,2.7806258271152797e-05,6.5714,4.2143
1.65625,-3.6143652832837434e-05,-3.855021213092242e-05,-4.245353391927979e-05,2.880409993133439e-05,6.5714,4.2143
1.66015625,-3.761106703898682e-05,-2.637067421988252e-05,-4.882211157396812e-05,2.5370350688944822e-05,6.5714,4.2143
1.6640625,-3.761106703898682e-05,-3.127183766842147e-05,-3.9548053791104e-05,2.4900778142977017e-05,6.5714,4.2143
1.66796875,-3.855021213092242e-05,-3.370774525062945e-05,-2.5901101673914715e-05,2.440185731288623e-05,6.5714,4.2143
1.671875,-3.761106703898682e-05,-2.73685158800641e-05,-4.9790604950026714e-05,2.440185731288623e-05,6.5714,4.2143
1.67578125,-3.9548053791104e-05,-4.1015467997253384e-05,-4.491878978561075e-05,2.977259330739298e-05,6.5714,4.2143
1.6796875,-3.904913296101321e-05,-5.075909832608531e-05,-5.566026177462426e-05,2.8305179101243596e-05,6.5714,4.2143
1.68359375,-3.9548053791104e-05,-3.9548053791104e-05,-4.882211157396812e-05,2.683776489509421e-05,6.5714,4.2143
1.6875,-4.6855776537727944e-05,-3.761106703898682e-05,-1.5159629684901211e-05,2.3902936482795437e-05,6.5714,4.2143
1.69140625,-4.6386203991760135e-05,-1.416178802471963e-05,-3.320882442053866e-05,2.2934443106736844e-05,6.5714,4.2143
1.6953125,-4.9291684119935926e-05,-3.761106703898682e-05,-5.662875515068285e-05,1.1694050287632548e-05,6.5714,4.2143
1.69921875,-5.12580191561761e-05,-6.053207693904022e-05,-4.588728316166935e-05,7.790728499275181e-06,6.5714,4.2143
1.703125,-4.245353391927979e-05,-5.02895257801175e-05,-3.855021213092242e-05,9.258142705424568e-06,6.5714,4.2143
1.70703125,-3.420666608072024e-05,-4.491878978561075e-05,-3.127183766842147e-05,8.78857015945676e-06,6.5714,4.2143
1.7109375,-3.855021213092242e-05,-3.6143652832837434e-05,-4.3920948125429174e-05,1.559737207598991e-05,6.5714,4.2143
1.71484375,-4.588728316166935e-05,-4.441986895551996e-05,-5.612983432059206e-05,1.756370711223009e-05,6.5714,4.2143
1.71875,-3.9548053791104e-05,-4.245353391927979e-05,-3.6143652832837434e-05,1.999961469443807e-05,6.5714,4.2143
1.72265625,-3.761106703898682e-05,-3.2739251874570855e-05,-4.198396137331198e-05,2.0498535524528862e-05,6.5714,4.2143
1.7265625,-4.148504054322119e-05,-4.148504054322119e-05,-4.1015467997253384e-05,1.70647862821393e-05,6.5714,4.2143
1.73046875,-3.904913296101321e-05,-3.420666608072024e-05,-2.7838088426031908e-05,1.3660385323872723e-05,6.5714,4.2143
1.734375,-4.001762633707181e-05,-2.5901101673914715e-05,-4.198396137331198e-05,1.0226636081483163e-05,6.5714,4.2143
1.73828125,-4.3451375579461365e-05,-6.053207693904022e-05,-5.956358356298163e-05,1.4159306153963512e-05,6.5714,4.2143
1.7421875,-4.0516547167162595e-05,-5.662875515068285e-05,-4.245353391927979e-05,2.440185731288623e-05,6.5714,4.2143
1.74609375,-3.9548053791104e-05,-4.538836233157856e-05,-4.3451375579461365e-05,2.4900778142977017e-05,6.5714,4.2143
1.75,-3.855021213092242e-05,-4.245353391927979e-05,-5.7127675980773646e-05,1.3161464493781935e-05,6.5714,4.2143
1.75390625,-4.295245474937058e-05,-4.001762633707181e-05,-4.9790604950026714e-05,2.918913334859219e-06,6.5714,4.2143
1.7578125,-4.1015467997253384e-05,-3.320882442053866e-05,-4.295245474937058e-05,3.8874067109178155e-06,6.5714,4.2143
1.76171875,-3.904913296101321e-05,-3.711214620889602e-05,-4.9790604950026714e-05,7.790728499275181e-06,6.5714,4.2143
1.765625,-4.735469736781873e-05,-4.882211157396812e-05,-5.2226512532234696e-05,5.85374174715799e-06,6.5714,4.2143
1.76953125,-4.9291684119935926e-05,-3.9548053791104e-05,-3.9548053791104e-05,-9.844084534981476e-07,6.5714,4.2143
1.7734375,-4.6855776537727944e-05,-2.4903260013733135e-05,-3.127183766842147e-05,5.3548209170672006e-06,6.5714,4.2143
1.77734375,-4.588728316166935e-05,-2.5901101673914715e-05,-3.6143652832837434e-05,4.386327541008605e-06,6.5714,4.2143
1.78125,-4.1015467997253384e-05,-2.686959504997331e-05,-2.686959504997331e-05,-1.591507743955134e-08,6.5714,4.2143
1.78515625,-3.904913296101321e-05,-3.711214620889602e-05,-3.6143652832837434e-05,-4.887730241855514e-06,6.5714,4.2143
1.7890625,-3.810998786907761e-05,-4.441986895551996e-05,-4.6386203991760135e-05,-2.451822659647533e-06,6.5714,4.2143
1.79296875,-3.904913296101321e-05,-4.1015467997253384e-05,-3.517515945677884e-05,5.85374174715799e-06,6.5714,4.2143
1.796875,-4.001762633707181e-05,-3.711214620889602e-05,-5.759724852674145e-05,8.289649329365972e-06,6.5714,4.2143
1.80078125,-3.711214620889602e-05,-2.5402180843823926e-05,-5.2725433362325484e-05,9.757063535515357e-06,6.5714,4.2143
1.8046875,-4.245353391927979e-05,-4.198396137331198e-05,-4.491878978561075e-05,6.323314293125797e-06,6.5714,4.2143
1.80859375,-4.1015467997253384e-05,-4.3451375579461365e-05,-4.3451375579461365e-05,5.85374174715799e-06,6.5714,4.2143
1.8125,-3.467623862668805e-05,-2.443368746776533e-05,-4.0516547167162595e-05,3.4178341649500084e-06,6.5714,4.2143
1.81640625,-3.855021213092242e-05,-3.370774525062945e-05,-4.0516547167162595e-05,-3.420316035706129e-06,6.5714,4.2143
1.8203125,-3.467623862668805e-05,-4.441986895551996e-05,-4.6855776537727944e-05,-3.919236865796918e-06,6.5714,4.2143
1.82421875,-2.980442346227208e-05,-3.761106703898682e-05,-5.319500590829329e-05,4.855900086976411e-06,6.5714,4.2143
1.828125,-2.8337009256122697e-05,-1.70966164370184e-05,-2.0031444849317175e-05,8.289649329365972e-06,6.5714,4.2143
1.83203125,-2.980442346227208e-05,-2.0999938225375768e-05,-4.538836233157856e-05,4.855900086976411e-06,6.5714,4.2143
1.8359375,-3.077291683833068e-05,-4.3920948125429174e-05,-7.957911333485924e-05,4.830057526512377e-07,6.5714,4.2143
1.83984375,-3.174141021438927e-05,-5.02895257801175e-05,-6.24984119752804e-05,-1.4833292835889366e-06,6.5714,4.2143
1.84375,-3.174141021438927e-05,-4.6386203991760135e-05,-4.441986895551996e-05,3.4178341649500084e-06,6.5714,4.2143
1.84765625,-3.320882442053866e-05,-4.148504054322119e-05,-4.882211157396812e-05,4.855900086976411e-06,6.5714,4.2143
1.8515625,-4.001762633707181e-05,-3.320882442053866e-05,-3.224033104448007e-05,4.855900086976411e-06,6.5714,4.2143
1.85546875,-4.6386203991760135e-05,-6.3551444480049e-06,-1.4660708854810423e-05,2.41999250476843e-06,6.5714,4.2143
1.859375,-4.198396137331198e-05,-4.3920948125429174e-05,-3.664257366292822e-05,-1.4833292835889366e-06,6.5714,4.2143
1.86328125,-4.1015467997253384e-05,-7.37094565102617e-05,-4.148504054322119e-05,-7.352986108186481e-06,6.5714,4.2143
1.8671875,-3.9548053791104e-05,-4.491878978561075e-05,-3.370774525062945e-05,-6.854065278095689e-06,6.5714,4.2143
1.87109375,-3.370774525062945e-05,-4.588728316166935e-05,-3.9548053791104e-05,-7.352986108186481e-06,6.5714,4.2143
1.875,-2.7838088426031908e-05,-4.882211157396812e-05,-4.7824269913786534e-05,-1.3193294648661038e-05,6.5714,4.2143
1.87890625,-2.2966273261615945e-05,-3.320882442053866e-05,-2.980442346227208e-05,-7.822558654154286e-06,6.5714,4.2143
1.8828125,-2.2966273261615945e-05,-2.393476663767454e-05,-2.3465194091706733e-05,1.950419958800623e-06,6.5714,4.2143
1.88671875,-2.5901101673914715e-05,-3.711214620889602e-05,-5.1756939986266894e-05,2.918913334859219e-06,6.5714,4.2143
1.890625,-2.980442346227208e-05,-4.0516547167162595e-05,-4.7824269913786534e-05,-2.950743489738322e-06,6.5714,4.2143
1.89453125,-3.174141021438927e-05,-3.174141021438927e-05,-3.370774525062945e-05,-5.885571902037092e-06,6.5714,4.2143
1.8984375,-3.370774525062945e-05,-4.3920948125429174e-05,-4.1015467997253384e-05,-6.854065278095689e-06,6.5714,4.2143
1.90234375,-3.370774525062945e-05,-4.245353391927979e-05,-4.832319074387733e-05,-3.420316035706129e-06,6.5714,4.2143
1.90625,-3.711214620889602e-05,-3.420666608072024e-05,-4.3920948125429174e-05,9.52578298619045e-07,6.5714,4.2143
1.91015625,-3.517515945677884e-05,-3.810998786907761e-05,-3.6143652832837434e-05,-1.591507743955134e-08,6.5714,4.2143
1.9140625,-3.420666608072024e-05,-4.441986895551996e-05,-3.224033104448007e-05,9.52578298619045e-07,6.5714,4.2143
1.91796875,-3.904913296101321e-05,-4.735469736781873e-05,-3.370774525062945e-05,9.52578298619045e-07,6.5714,4.2143
1.921875,-3.9548053791104e-05,-3.9548053791104e-05,-5.2725433362325484e-05,-1.4833292835889366e-06,6.5714,4.2143
1.92578125,-3.127183766842147e-05,-4.3451375579461365e-05,-4.538836233157856e-05,-1.4833292835889366e-06,6.5714,4.2143
1.9296875,-2.9305502632181293e-05,-4.491878978561075e-05,-4.001762633707181e-05,-2.950743489738322e-06,6.5714,4.2143
1.93359375,-3.370774525062945e-05,-2.686959504997331e-05,-4.538836233157856e-05,4.830057526512377e-07,6.5714,4.2143
1.9375,-2.8835930086213485e-05,-1.5159629684901211e-05,-2.0031444849317175e-05,1.0226636081483163e-05,6.5714,4.2143
1.94140625,-3.224033104448007e-05,-3.855021213092242e-05,-2.980442346227208e-05,7.321155953307375e-06,6.5714,4.2143
1.9453125,-3.0273996008239887e-05,-4.6855776537727944e-05,-4.295245474937058e-05,-2.950743489738322e-06,6.5714,4.2143
1.94921875,-3.077291683833068e-05,-2.686959504997331e-05,-2.0999938225375768e-05,2.41999250476843e-06,6.5714,4.2143
1.953125,-3.174141021438927e-05,-3.0273996008239887e-05,-1.7595537267109193e-05,1.0226636081483163e-05,6.5714,4.2143
1.95703125,-3.370774525062945e-05,-4.0516547167162595e-05,-3.711214620889602e-05,8.78857015945676e-06,6.5714,4.2143
1.9609375,-3.711214620889602e-05,-4.295245474937058e-05,-4.7824269913786534e-05,7.790728499275181e-06,6.5714,4.2143
1.96484375,-3.2739251874570855e-05,-2.686959504997331e-05,-3.810998786907761e-05,2.41999250476843e-06,6.5714,4.2143
1.96875,-2.980442346227208e-05,-1.70966164370184e-05,-3.370774525062945e-05,-5.386651071946303e-06,6.5714,4.2143
1.97265625,-3.6143652832837434e-05,-4.001762633707181e-05,-4.0516547167162595e-05,-1.4833292835889366e-06,6.5714,4.2143
1.9765625,-3.517515945677884e-05,-4.295245474937058e-05,-3.6143652832837434e-05,5.3548209170672006e-06,6.5714,4.2143
1.98046875,-2.7838088426031908e-05,-2.0999938225375768e-05,-2.1997779885557348e-05,6.323314293125797e-06,6.5714,4.2143
1.984375,-2.8337009256122697e-05,-2.637067421988252e-05,-4.441986895551996e-05,4.855900086976411e-06,6.5714,4.2143
1.98828125,-3.174141021438927e-05,-3.420666608072024e-05,-3.855021213092242e-05,9.52578298619045e-07,6.5714,4.2143
1.9921875,-3.320882442053866e-05,-1.66270438910506e-05,-1.7595537267109193e-05,-1.591507743955134e-08,6.5714,4.2143
1.99609375,-2.8337009256122697e-05,-3.224033104448007e-05,-4.3920948125429174e-05,2.41999250476843e-06,6.5714,4.2143
2.0,-2.2467352431525156e-05,-2.9305502632181293e-05,-4.588728316166935e-05,3.8874067109178155e-06,6.5714,4.2143
2.00390625,-2.2467352431525156e-05,-2.3465194091706733e-05,-2.393476663767454e-05,4.386327541008605e-06,6.5714,4.2143
2.0078125,-2.9305502632181293e-05,-4.832319074387733e-05,-2.5402180843823926e-05,9.52578298619045e-07,6.5714,4.2143
2.01171875,-3.420666608072024e-05,-4.3920948125429174e-05,-3.810998786907761e-05,-1.9822501136797256e-06,6.5714,4.2143
2.015625,-3.077291683833068e-05,-2.637067421988252e-05,-3.761106703898682e-05,-6.854065278095689e-06,6.5714,4.2143
2.01953125,-2.5901101673914715e-05,-2.3465194091706733e-05,-3.904913296101321e-05,-1.1256307896543848e-05,6.5714,4.2143
2.0234375,-2.2467352431525156e-05,-3.174141021438927e-05,-3.420666608072024e-05,-1.0757387066453056e-05,6.5714,4.2143
2.02734375,-2.73685158800641e-05,-3.420666608072024e-05,-2.1997779885557348e-05,-3.420316035706129e-06,6.5714,4.2143
2.03125,-3.224033104448007e-05,-3.370774525062945e-05,-3.127183766842147e-05,-2.451822659647533e-06,6.5714,4.2143
2.03515625,-3.370774525062945e-05,-3.174141021438927e-05,-4.001762633707181e-05,-2.451822659647533e-06,6.5714,4.2143
2.0390625,-3.517515945677884e-05,-2.980442346227208e-05,-4.245353391927979e-05,-3.919236865796918e-06,6.5714,4.2143
2.04296875,-3.370774525062945e-05,-3.320882442053866e-05,-3.224033104448007e-05,-5.885571902037092e-06,6.5714,4.2143
2.046875,-3.224033104448007e-05,-1.416178802471963e-05,-1.856403064316779e-05,-9.289972860303671e-06,6.5714,4.2143
2.05078125,-2.8835930086213485e-05,-2.1997779885557348e-05,-6.3551444480049e-06,-9.78889369039446e-06,6.5714,4.2143
2.0546875,-2.9305502632181293e-05,-3.467623862668805e-05,-2.3465194091706733e-05,-1.9822501136797256e-06,6.5714,4.2143
2.05859375,-3.2739251874570855e-05,-2.2966273261615945e-05,-4.3451375579461365e-05,-2.950743489738322e-06,6.5714,4.2143
2.0625,-3.664257366292822e-05,-1.66270438910506e-05,-3.6143652832837434e-05,-1.4833292835889366e-06,6.5714,4.2143
2.06640625,-4.3920948125429174e-05,-2.2467352431525156e-05,-4.0516547167162595e-05,9.52578298619045e-07,6.5714,4.2143
2.0703125,-3.810998786907761e-05,-3.2739251874570855e-05,-3.904913296101321e-05,6.323314293125797e-06,6.5714,4.2143
2.07421875,-3.0273996008239887e-05,-3.420666608072024e-05,-2.7838088426031908e-05,9.258142705424568e-06,6.5714,4.2143
2.078125,-3.564473200274663e-05,-2.0530365679407963e-05,-2.2467352431525156e-05,9.258142705424568e-06,6.5714,4.2143
2.08203125,-3.9548053791104e-05,-2.443368746776533e-05,-3.174141021438927e-05,9.258142705424568e-06,6.5714,4.2143
2.0859375,-4.491878978561075e-05,-3.517515945677884e-05,-2.980442346227208e-05,5.85374174715799e-06,6.5714,4.2143
2.08984375,-4.6386203991760135e-05,-2.451822659647533e-06,-2.5402180843823926e-05,1.1694050287632548e-05,6.5714,4.2143
2.09375,-4.6855776537727944e-05,-2.686959504997331e-05,-3.224033104448007e-05,7.321155953307375e-06,6.5714,4.2143
2.09765625,-4.832319074387733e-05,-5.8096169356832236e-05,-4.735469736781873e-05,1.950419958800623e-06,6.5714,4.2143
2.1015625,-4.7824269913786534e-05,-3.711214620889602e-05,-3.904913296101321e-05,2.41999250476843e-06,6.5714,4.2143
2.10546875,-5.02895257801175e-05,-4.3920948125429174e-05,-1.3193294648661038e-05,4.386327541008605e-06,6.5714,4.2143
2.109375,-5.02895257801175e-05,-4.832319074387733e-05,-3.761106703898682e-05,6.323314293125797e-06,6.5714,4.2143
2.11328125,-4.735469736781873e-05,-3.517515945677884e-05,-4.441986895551996e-05,4.830057526512377e-07,6.5714,4.2143
2.1171875,-5.075909832608531e-05,-2.4903260013733135e-05,-4.3920948125429174e-05,6.822235123216586e-06,6.5714,4.2143
2.12109375,-4.832319074387733e-05,-3.9548053791104e-05,-4.6386203991760135e-05,6.822235123216586e-06,6.5714,4.2143
2.125,-4.198396137331198e-05,-4.832319074387733e-05,-4.198396137331198e-05,-1.591507743955134e-08,6.5714,4.2143
2.12890625,-4.001762633707181e-05,-3.711214620889602e-05,-4.0516547167162595e-05,7.790728499275181e-06,6.5714,4.2143
2.1328125,-4.6855776537727944e-05,-3.564473200274663e-05,-3.467623862668805e-05,2.41999250476843e-06,6.5714,4.2143
2.13671875,-4.441986895551996e-05,-4.538836233157856e-05,-4.198396137331198e-05,-3.919236865796918e-06,6.5714,4.2143
2.140625,-4.148504054322119e-05,-4.295245474937058e-05,-3.077291683833068e-05,-1.4833292835889366e-06,6.5714,4.2143
2.14453125,-4.148504054322119e-05,-1.9532524019226383e-05,-3.077291683833068e-05,-5.148359075303403e-07,6.5714,4.2143
2.1484375,-3.9548053791104e-05,-1.3193294648661038e-05,-3.855021213092242e-05,-5.148359075303403e-07,6.5714,4.2143
2.15234375,-4.538836233157856e-05,-3.761106703898682e-05,-2.0999938225375768e-05,1.950419958800623e-06,6.5714,4.2143
2.15625,-5.075909832608531e-05,-4.9291684119935926e-05,-2.149885905546656e-05,-2.950743489738322e-06,6.5714,4.2143
2.16015625,-4.588728316166935e-05,-3.420666608072024e-05,-5.419284756847487e-05,-7.822558654154286e-06,6.5714,4.2143
2.1640625,-4.148504054322119e-05,-3.420666608072024e-05,-5.2226512532234696e-05,-1.4833292835889366e-06,6.5714,4.2143
2.16796875,-3.9548053791104e-05,-3.517515945677884e-05,-3.855021213092242e-05,-1.9822501136797256e-06,6.5714,4.2143
2.171875,-3.664257366292822e-05,-3.810998786907761e-05,-3.370774525062945e-05,1.950419958800623e-06,6.5714,4.2143
2.17578125,-3.9548053791104e-05,-4.001762633707181e-05,-4.001762633707181e-05,1.5127799530022108e-05,6.5714,4.2143
2.1796875,-3.9548053791104e-05,-3.174141021438927e-05,-3.467623862668805e-05,-7.822558654154286e-06,6.5714,4.2143
2.18359375,-3.420666608072024e-05,-2.5402180843823926e-05,-8.791052030212877e-06,-1.7595537267109193e-05,6.5714,4.2143
2.1875,-3.761106703898682e-05,-2.980442346227208e-05,-1.9532524019226383e-05,-3.420316035706129e-06,6.5714,4.2143
2.19140625,-3.711214620889602e-05,-2.4903260013733135e-05,-2.686959504997331e-05,-5.386651071946303e-06,6.5714,4.2143
2.1953125,-3.810998786907761e-05,-2.637067421988252e-05,-3.517515945677884e-05,-5.148359075303403e-07,6.5714,4.2143
2.19921875,-4.001762633707181e-05,-4.3451375579461365e-05,-4.491878978561075e-05,1.8532200488288685e-05,6.5714,4.2143
2.203125,-4.295245474937058e-05,-4.001762633707181e-05,-2.980442346227208e-05,3.1240007513542366e-05,6.5714,4.2143
2.20703125,-4.735469736781873e-05,-2.149885905546656e-05,-3.174141021438927e-05,3.4644408471808944e-05,6.5714,4.2143
2.2109375,-4.3920948125429174e-05,-2.0530365679407963e-05,-3.855021213092242e-05,3.8078157714198496e-05,6.5714,4.2143
2.21484375,-3.761106703898682e-05,-3.810998786907761e-05,-4.441986895551996e-05,4.294997287861446e-05,6.5714,4.2143
2.21875,-4.245353391927979e-05,-4.148504054322119e-05,-4.588728316166935e-05,3.5143329301899726e-05,6.5714,4.2143
2.22265625,-4.6386203991760135e-05,-3.517515945677884e-05,-3.0273996008239887e-05,2.977259330739298e-05,6.5714,4.2143
2.2265625,-3.420666608072024e-05,-2.9305502632181293e-05,-2.0999938225375768e-05,2.5370350688944822e-05,6.5714,4.2143
2.23046875,-2.4903260013733135e-05,-4.198396137331198e-05,-4.198396137331198e-05,1.3660385323872723e-05,6.5714,4.2143
2.234375,-2.1997779885557348e-05,-4.9291684119935926e-05,-4.832319074387733e-05,1.0725556911573953e-05,6.5714,4.2143
2.23828125,-2.443368746776533e-05,-2.0530365679407963e-05,-2.980442346227208e-05,1.1224477741664742e-05,6.5714,4.2143
2.2421875,-2.9305502632181293e-05,-2.0999938225375768e-05,-2.5402180843823926e-05,-5.386651071946303e-06,6.5714,4.2143
2.24609375,-3.2739251874570855e-05,-3.904913296101321e-05,-2.980442346227208e-05,-1.2723722102693233e-05,6.5714,4.2143
2.25,-4.295245474937058e-05,-3.420666608072024e-05,-2.7838088426031908e-05,-3.420316035706129e-06,6.5714,4.2143
2.25390625,-4.9790604950026714e-05,-3.077291683833068e-05,-1.5159629684901211e-05,-2.950743489738322e-06,6.5714,4.2143
2.2578125,-4.1015467997253384e-05,-4.0516547167162595e-05,-4.6855776537727944e-05,-1.2224801272602441e-05,6.5714,4.2143
2.26171875,-3.467623862668805e-05,-4.295245474937058e-05,-6.053207693904022e-05,-2.2467352431525156e-05,6.5714,4.2143
2.265625,-3.420666608072024e-05,-3.564473200274663e-05,-4.6386203991760135e-05,-2.686959504997331e-05,6.5714,4.2143
2.26953125,-3.517515945677884e-05,-3.224033104448007e-05,-4.7824269913786534e-05,-2.2467352431525156e-05,6.5714,4.2143
2.2734375,-4.0516547167162595e-05,-4.0516547167162595e-05,-3.320882442053866e-05,-2.443368746776533e-05,6.5714,4.2143
2.27734375,-4.1015467997253384e-05,-3.320882442053866e-05,-2.443368746776533e-05,-2.9305502632181293e-05,6.5714,4.2143
2.28125,-3.761106703898682e-05,-4.6855776537727944e-05,-5.5161340944533466e-05,-2.4903260013733135e-05,6.5714,4.2143
2.28515625,-4.0516547167162595e-05,-4.491878978561075e-05,-2.8835930086213485e-05,-2.149885905546656e-05,6.5714,4.2143
2.2890625,-4.441986895551996e-05,-3.467623862668805e-05,-2.3465194091706733e-05,-1.9532524019226383e-05,6.5714,4.2143
2.29296875,-3.9548053791104e-05,-3.127183766842147e-05,-4.9790604950026714e-05,-6.854065278095689e-06,6.5714,4.2143
2.296875,-3.2739251874570855e-05,-1.3692215478751826e-05,-3.810998786907761e-05,4.830057526512377e-07,6.5714,4.2143
2.30078125,-3.0273996008239887e-05,-9.289972860303671e-06,-4.735469736781873e-05,3.8874067109178155e-06,6.5714,4.2143
2.3046875,-3.564473200274663e-05,-3.174141021438927e-05,-3.711214620889602e-05,1.6096292906080703e-05,6.5714,4.2143
2.30859375,-3.855021213092242e-05,-3.420666608072024e-05,-2.5402180843823926e-05,2.7336685725185006e-05,6.5714,4.2143
2.3125,-3.370774525062945e-05,-2.0999938225375768e-05,-3.127183766842147e-05,3.317699426565956e-05,6.5714,4.2143
2.31640625,-3.664257366292822e-05,-2.637067421988252e-05,-2.8835930086213485e-05,4.2480400332646665e-05,6.5714,4.2143
2.3203125,-3.904913296101321e-05,-3.370774525062945e-05,-2.1997779885557348e-05,4.6383722121004025e-05,6.5714,4.2143
2.32421875,-3.664257366292822e-05,-3.370774525062945e-05,-1.4660708854810423e-05,4.685329466697183e-05,6.5714,4.2143
2.328125,-3.6143652832837434e-05,-3.761106703898682e-05,-1.66270438910506e-05,4.785113632715341e-05,6.5714,4.2143
2.33203125,-3.810998786907761e-05,-4.198396137331198e-05,-1.70966164370184e-05,3.954557192034788e-05,6.5714,4.2143
2.3359375,-4.3920948125429174e-05,-3.664257366292822e-05,1.999961469443807e-05,3.5143329301899726e-05,6.5714,4.2143
2.33984375,-4.1015467997253384e-05,-4.1015467997253384e-05,-3.517515945677884e-05,3.5143329301899726e-05,6.5714,4.2143
2.34375,-3.174141021438927e-05,-3.467623862668805e-05,-6.103099776913101e-05,4.198147950255587e-05,6.5714,4.2143
2.34765625,-3.664257366292822e-05,-2.5901101673914715e-05,-2.980442346227208e-05,3.5143329301899726e-05,6.5714,4.2143
2.3515625,-3.855021213092242e-05,-3.224033104448007e-05,-2.8337009256122697e-05,3.8078157714198496e-05,6.5714,4.2143
2.35546875,-3.2739251874570855e-05,-3.855021213092242e-05,-2.1997779885557348e-05,5.322187232166017e-05,6.5714,4.2143
2.359375,-3.224033104448007e-05,-4.441986895551996e-05,-3.174141021438927e-05,5.322187232166017e-05,6.5714,4.2143
2.36328125,-3.420666608072024e-05,-3.9548053791104e-05,-3.517515945677884e-05,4.832070887312122e-05,6.5714,4.2143
2.3671875,-3.855021213092242e-05,-4.491878978561075e-05,-5.2725433362325484e-05,2.977259330739298e-05,6.5714,4.2143
2.37109375,-3.6143652832837434e-05,-3.320882442053866e-05,-4.1015467997253384e-05,2.3902936482795437e-05,6.5714,4.2143
2.375,-3.2739251874570855e-05,-3.904913296101321e-05,-2.4903260013733135e-05,3.611182267795833e-05,6.5714,4.2143
2.37890625,-3.711214620889602e-05,-5.369392673838408e-05,-4.7824269913786534e-05,3.367591509575034e-05,6.5714,4.2143
2.3828125,-3.904913296101321e-05,-5.12580191561761e-05,-7.46779498863203e-05,2.8305179101243596e-05,6.5714,4.2143
2.38671875,-3.664257366292822e-05,-4.588728316166935e-05,-5.1756939986266894e-05,4.294997287861446e-05,6.5714,4.2143
2.390625,-3.810998786907761e-05,-4.245353391927979e-05,-4.001762633707181e-05,5.419036569771876e-05,6.5714,4.2143
2.39453125,-3.904913296101321e-05,-4.3920948125429174e-05,-5.7127675980773646e-05,5.465993824368657e-05,6.5714,4.2143
2.3984375,-3.127183766842147e-05,-2.149885905546656e-05,-5.2725433362325484e-05,8.397887408255128e-05,6.5714,4.2143
2.40234375,-3.467623862668805e-05,-3.711214620889602e-05,-5.7127675980773646e-05,0.0001274143345845731,6.5714,4.2143
2.40625,-3.9548053791104e-05,-5.906466273289083e-05,-6.103099776913101e-05,0.00014842770601663233,6.5714,4.2143
2.41015625,-3.904913296101321e-05,-4.3451375579461365e-05,-4.001762633707181e-05,0.00016794431495841913,6.5714,4.2143
2.4140625,-4.1015467997253384e-05,-4.148504054322119e-05,-3.320882442053866e-05,0.00017721837274128327,6.5714,4.2143
2.41796875,-3.9548053791104e-05,-3.370774525062945e-05,-3.420666608072024e-05,0.00017918470777752342,6.5714,4.2143
2.421875,-3.420666608072024e-05,-3.370774525062945e-05,-2.393476663767454e-05,0.00018602285797817957,6.5714,4.2143
2.42578125,-3.711214620889602e-05,-4.198396137331198e-05,-1.416178802471963e-05,0.00018652177880827035,6.5714,4.2143
2.4296875,-3.711214620889602e-05,-4.3451375579461365e-05,-3.855021213092242e-05,0.00018258910873579,6.5714,4.2143
2.43359375,-3.711214620889602e-05,-4.6386203991760135e-05,-5.2725433362325484e-05,0.00017868578694743266,6.5714,4.2143
2.4375,-3.517515945677884e-05,-4.1015467997253384e-05,-5.1756939986266894e-05,0.00017431289261310749,6.5714,4.2143
2.44140625,-3.517515945677884e-05,-4.882211157396812e-05,-4.9291684119935926e-05,0.00016894215661860073,6.5714,4.2143
2.4453125,-3.761106703898682e-05,-5.1756939986266894e-05,-5.2226512532234696e-05,0.0001616050855878538,6.5714,4.2143
2.44921875,-3.564473200274663e-05,-3.711214620889602e-05,-3.904913296101321e-05,0.00014842770601663233,6.5714,4.2143
2.453125,-3.370774525062945e-05,-4.295245474937058e-05,-1.9532524019226383e-05,0.00014109063498588537,6.5714,4.2143
2.45703125,-2.9305502632181293e-05,-4.148504054322119e-05,-4.832319074387733e-05,0.0001381558065735866,6.5714,4.2143
2.4609375,-3.6143652832837434e-05,-2.686959504997331e-05,-6.443539872739759e-05,0.00012694476203860532,6.5714,4.2143
2.46484375,-3.810998786907761e-05,-4.295245474937058e-05,-5.319500590829329e-05,0.00012157402604409856,6.5714,4.2143
2.46875,-3.224033104448007e-05,-5.956358356298163e-05,-2.7838088426031908e-05,0.00012987959045090408,6.5714,4.2143
2.47265625,-4.3920948125429174e-05,-6.640173376363776e-05,-3.9548053791104e-05,0.0001152054483894102,6.5714,4.2143
2.4765625,-4.3920948125429174e-05,-5.075909832608531e-05,-5.8096169356832236e-05,0.00011620329004959179,6.5714,4.2143
2.48046875,-2.443368746776533e-05,-4.7824269913786534e-05,-6.883764134584575e-05,0.00011620329004959179,6.5714,4.2143
2.484375,-1.7595537267109193e-05,-7.32398839642939e-05,-8.201502091706723e-05,0.00011913811846189056,6.5714,4.2143
2.48828125,-1.5159629684901211e-05,-5.759724852674145e-05,-5.956358356298163e-05,0.0001352503264454108,6.5714,4.2143
2.4921875,-5.885571902037092e-06,-7.030505555199513e-05,-8.201502091706723e-05,0.00011913811846189056,6.5714,4.2143
2.49609375,3.4178341649500084e-06,-8.445092849927522e-05,-9.715873552452889e-05,0.00011130212660105286,6.5714,4.2143
2.5,3.4178341649500084e-06,-6.687130630960557e-05,-8.251394174715801e-05,0.00011180104743114364,6.5714,4.2143
2.50390625,3.8874067109178155e-06,-8.788467774166477e-05,-7.714320575265126e-05,0.00011326846163729302,6.5714,4.2143
2.5078125,1.3161464493781935e-05,-0.00011520793026016633,-9.422390711223012e-05,0.00010983471239490348,6.5714,4.2143
2.51171875,2.3902936482795437e-05,-0.00012498090887312125,-0.00012791573728542,0.00010739880481269548,6.5714,4.2143
2.515625,3.954557192034788e-05,-0.00011327094350804913,-0.00013231797990386816,0.0001054618180605783,6.5714,4.2143
2.51953125,4.198147950255587e-05,-0.00011130460847180897,-0.00013475388748607615,9.518991861753261e-05,6.5714,4.2143
2.5234375,4.391846625467306e-05,-0.00011423943688410774,-0.00013962570265049212,8.885068924696724e-05,6.5714,4.2143
2.52734375,5.465993824368657e-05,-0.00012254500129091326,-0.00014402794526894027,8.544628828870067e-05,6.5714,4.2143
2.53125,5.565777990386814e-05,-0.00014159203768673227,-0.00013669087423819333,8.25114598764019e-05,6.5714,4.2143
2.53515625,5.322187232166017e-05,-0.00014599428030518042,-0.0001660098100770581,7.714072388189515e-05,6.5714,4.2143
2.5390625,5.8592608316166913e-05,-0.00013278755244983597,-0.0001752838678599222,6.933408030518042e-05,6.5714,4.2143
2.54296875,5.809368748607612e-05,-0.00014109311685664148,-0.00016647938262302588,6.052959506828411e-05,6.5714,4.2143
2.546875,5.419036569771876e-05,-0.00015673575229419395,-0.00017675128206607157,5.0287043909361385e-05,6.5714,4.2143
2.55078125,5.515885907377735e-05,-0.00014305945189288166,-0.00017234903944762342,4.294997287861446e-05,6.5714,4.2143
2.5546875,4.928920224917981e-05,-0.00014012462348058288,-0.00015623683146410313,4.1482558672465074e-05,6.5714,4.2143
2.55859375,4.785113632715341e-05,-0.00013915613010452433,-0.00015183458884565499,3.5143329301899726e-05,6.5714,4.2143
2.5625,5.272295149156937e-05,-0.00012498090887312125,-0.00013669087423819333,2.683776489509421e-05,6.5714,4.2143
2.56640625,4.391846625467306e-05,-0.00010299904406500344,-0.00010156097814297704,2.977259330739298e-05,6.5714,4.2143
2.5703125,3.7579236884107714e-05,-6.737022713969636e-05,-9.128907869993135e-05,2.7336685725185006e-05,6.5714,4.2143
2.57421875,3.270742171969175e-05,-7.567579154650188e-05,-0.00010496537910124362,1.1694050287632548e-05,6.5714,4.2143
2.578125,2.096810807049666e-05,-9.61902421484703e-05,-0.000106432793307393,4.855900086976411e-06,6.5714,4.2143
2.58203125,1.3660385323872723e-05,-7.37094565102617e-05,-9.959464310673686e-05,-1.591507743955134e-08,6.5714,4.2143
2.5859375,8.78857015945676e-06,-6.590281293354698e-05,-9.61902421484703e-05,-8.321479484245074e-06,6.5714,4.2143
2.58984375,4.830057526512377e-07,-6.493431955748838e-05,-8.054760671091785e-05,-1.0757387066453056e-05,6.5714,4.2143
2.59375,-7.822558654154286e-06,-5.2725433362325484e-05,-6.833872051575495e-05,-1.416178802471963e-05,6.5714,4.2143
2.59765625,-7.822558654154286e-06,-5.075909832608531e-05,-6.930721389181354e-05,-1.7595537267109193e-05,6.5714,4.2143
2.6015625,-5.386651071946303e-06,-3.564473200274663e-05,-5.662875515068285e-05,-2.149885905546656e-05,6.5714,4.2143
2.60546875,-1.1725880442511651e-05,-1.6128123060959808e-05,-3.761106703898682e-05,-1.9062951473258578e-05,6.5714,4.2143
2.609375,-2.0031444849317175e-05,-1.5159629684901211e-05,-2.8337009256122697e-05,-6.854065278095689e-06,6.5714,4.2143
2.61328125,-2.73685158800641e-05,-9.78889369039446e-06,-1.1725880442511651e-05,-3.420316035706129e-06,6.5714,4.2143
2.6171875,-2.5402180843823926e-05,-1.4833292835889366e-06,-1.7595537267109193e-05,-2.950743489738322e-06,6.5714,4.2143
2.62109375,-2.0999938225375768e-05,2.4900778142977017e-05,-1.7595537267109193e-05,-7.352986108186481e-06,6.5714,4.2143
2.625,-2.8337009256122697e-05,4.001514446631569e-05,-9.844084534981476e-07,-1.2224801272602441e-05,6.5714,4.2143
2.62890625,-4.1015467997253384e-05,2.2934443106736844e-05,4.386327541008605e-06,-9.844084534981476e-07,6.5714,4.2143
2.6328125,-5.466242011444268e-05,7.790728499275181e-06,1.5127799530022108e-05,1.2691891947814127e-05,6.5714,4.2143
2.63671875,-5.956358356298163e-05,7.321155953307375e-06,5.3548209170672006e-06,1.8532200488288685e-05,6.5714,4.2143
2.640625,-6.053207693904022e-05,4.855900086976411e-06,-1.0757387066453056e-05,2.3433363936827632e-05,6.5714,4.2143
2.64453125,-6.980613472190434e-05,-3.420316035706129e-06,-7.352986108186481e-06,2.977259330739298e-05,6.5714,4.2143
2.6484375,-7.861061995880065e-05,1.1694050287632548e-05,1.4159306153963512e-05,4.101298612649728e-05,6.5714,4.2143
2.65234375,-8.151610008697644e-05,1.4159306153963512e-05,1.8532200488288685e-05,4.832070887312122e-05,6.5714,4.2143
2.65625,-9.081950615396354e-05,6.822235123216586e-06,1.559737207598991e-05,5.759476665598534e-05,6.5714,4.2143
2.66015625,-9.56913213183795e-05,1.9031121318379477e-05,3.317699426565956e-05,6.052959506828411e-05,6.5714,4.2143
2.6640625,-0.00010349796489509423,2.3902936482795437e-05,3.4174835925841136e-05,6.249593010452427e-05,6.5714,4.2143
2.66796875,-0.00011277202267795836,1.70647862821393e-05,2.6338844065003412e-05,6.883515947508963e-05,6.5714,4.2143
2.671875,-0.00011327094350804913,1.2691891947814127e-05,5.175445811551077e-05,6.833623864499884e-05,6.5714,4.2143
2.67578125,-0.00011180352930189975,8.289649329365972e-06,4.101298612649728e-05,6.443291685664147e-05,6.5714,4.2143
2.6796875,-0.00011914060033264667,1.0226636081483163e-05,2.6338844065003412e-05,7.17699878873884e-05,6.5714,4.2143
2.68359375,-0.0001293831514915694,1.1694050287632548e-05,1.2192971117723338e-05,7.957663146410313e-05,6.5714,4.2143
2.6875,-0.00012594940224917983,1.559737207598991e-05,2.440185731288623e-05,7.22395604333562e-05,6.5714,4.2143
2.69140625,-0.0001176731861264973,1.756370711223009e-05,4.1482558672465074e-05,6.590033106279085e-05,6.5714,4.2143
2.6953125,-0.00011230245013199054,2.2934443106736844e-05,4.001514446631569e-05,6.540141023270007e-05,6.5714,4.2143
2.69921875,-0.00010156097814297704,1.806262794232088e-05,5.465993824368657e-05,6.443291685664147e-05,6.5714,4.2143
2.703125,-9.812722890058748e-05,7.321155953307375e-06,3.5143329301899726e-05,5.8592608316166913e-05,6.5714,4.2143
2.70703125,-9.959464310673686e-05,2.096810807049666e-05,3.954557192034788e-05,5.272295149156937e-05,6.5714,4.2143
2.7109375,-9.325541373617153e-05,3.4174835925841136e-05,5.759476665598534e-05,5.222403066147858e-05,6.5714,4.2143
2.71484375,-8.544877015945678e-05,3.611182267795833e-05,4.001514446631569e-05,4.785113632715341e-05,6.5714,4.2143
2.71875,-7.957911333485924e-05,4.928920224917981e-05,3.270742171969175e-05,4.588480129091323e-05,6.5714,4.2143
2.72265625,-7.908019250476846e-05,4.0514065296406484e-05,2.977259330739298e-05,4.3448893708705255e-05,6.5714,4.2143
2.7265625,-7.517687071641108e-05,1.999961469443807e-05,4.101298612649728e-05,4.391846625467306e-05,6.5714,4.2143
2.73046875,-7.177246975814452e-05,2.6338844065003412e-05,4.3448893708705255e-05,4.294997287861446e-05,6.5714,4.2143
2.734375,-6.980613472190434e-05,2.2435522276646052e-05,2.5869271519035607e-05,3.8078157714198496e-05,6.5714,4.2143
2.73828125,-6.687130630960557e-05,4.386327541008605e-06,2.3902936482795437e-05,3.317699426565956e-05,6.5714,4.2143
2.7421875,-7.274096313420311e-05,8.289649329365972e-06,2.4900778142977017e-05,2.1965949730678247e-05,6.5714,4.2143
2.74609375,-7.077462809796293e-05,3.8874067109178155e-06,3.8874067109178155e-06,1.8532200488288685e-05,6.5714,4.2143
2.75,-6.199949114518961e-05,5.85374174715799e-06,7.790728499275181e-06,2.2435522276646052e-05,6.5714,4.2143
2.75390625,-6.003315610894942e-05,3.8874067109178155e-06,1.1224477741664742e-05,2.1965949730678247e-05,6.5714,4.2143
2.7578125,-6.150057031509881e-05,-6.854065278095689e-06,-5.148359075303403e-07,2.2435522276646052e-05,6.5714,4.2143
2.76171875,-5.759724852674145e-05,1.9530042148470265e-05,-6.854065278095689e-06,1.9530042148470265e-05,6.5714,4.2143
2.765625,-5.419284756847487e-05,9.52578298619045e-07,1.950419958800623e-06,1.999961469443807e-05,6.5714,4.2143
2.76953125,-5.7127675980773646e-05,-2.2467352431525156e-05,9.258142705424568e-06,2.2435522276646052e-05,6.5714,4.2143
2.7734375,-5.612983432059206e-05,-2.451822659647533e-06,1.6595213736171495e-05,1.806262794232088e-05,6.5714,4.2143
2.77734375,-4.735469736781873e-05,1.950419958800623e-06,6.822235123216586e-06,1.462887869993132e-05,6.5714,4.2143
2.78125,-4.0516547167162595e-05,1.1224477741664742e-05,2.880409993133439e-05,2.1467028900587455e-05,6.5714,4.2143
2.78515625,-4.3920948125429174e-05,1.4159306153963512e-05,1.5127799530022108e-05,2.0498535524528862e-05,6.5714,4.2143
2.7890625,-4.3920948125429174e-05,1.950419958800623e-06,-5.386651071946303e-06,1.2691891947814127e-05,6.5714,4.2143
2.79296875,-4.295245474937058e-05,-5.148359075303403e-07,1.2192971117723338e-05,1.1224477741664742e-05,6.5714,4.2143
2.796875,-3.810998786907761e-05,-2.950743489738322e-06,8.78857015945676e-06,7.790728499275181e-06,6.5714,4.2143
2.80078125,-3.810998786907761e-05,-1.5159629684901211e-05,-2.4903260013733135e-05,3.8874067109178155e-06,6.5714,4.2143
2.8046875,-5.02895257801175e-05,7.321155953307375e-06,-2.7838088426031908e-05,6.822235123216586e-06,6.5714,4.2143
2.80859375,-5.566026177462426e-05,-5.885571902037092e-06,-1.4833292835889366e-06,3.4178341649500084e-06,6.5714,4.2143
2.8125,-5.5161340944533466e-05,-2.4903260013733135e-05,-5.885571902037092e-06,2.41999250476843e-06,6.5714,4.2143
2.81640625,-5.2226512532234696e-05,-4.538836233157856e-05,-3.711214620889602e-05,-1.4833292835889366e-06,6.5714,4.2143
2.8203125,-5.075909832608531e-05,-5.2725433362325484e-05,-4.0516547167162595e-05,-3.420316035706129e-06,6.5714,4.2143
2.82421875,-4.1015467997253384e-05,-3.467623862668805e-05,-2.8835930086213485e-05,-3.919236865796918e-06,6.5714,4.2143
2.828125,-3.320882442053866e-05,-2.393476663767454e-05,-1.416178802471963e-05,-7.352986108186481e-06,6.5714,4.2143
2.83203125,-3.077291683833068e-05,-1.2723722102693233e-05,-5.885571902037092e-06,-3.919236865796918e-06,6.5714,4.2143
2.8359375,-3.664257366292822e-05,-8.791052030212877e-06,-3.420666608072024e-05,4.830057526512377e-07,6.5714,4.2143
2.83984375,-3.761106703898682e-05,-2.0530365679407963e-05,-4.0516547167162595e-05,-1.591507743955134e-08,6.5714,4.2143
2.84375,-3.855021213092242e-05,-2.980442346227208e-05,-2.3465194091706733e-05,4.855900086976411e-06,6.5714,4.2143
2.84765625,-4.538836233157856e-05,-2.7838088426031908e-05,-2.637067421988252e-05,2.918913334859219e-06,6.5714,4.2143
2.8515625,-4.295245474937058e-05,-2.686959504997331e-05,-1.6128123060959808e-05,2.41999250476843e-06,6.5714,4.2143
2.85546875,-3.664257366292822e-05,-1.9062951473258578e-05,-1.5159629684901211e-05,5.3548209170672006e-06,6.5714,4.2143
2.859375,-3.711214620889602e-05,-4.491878978561075e-05,-5.1756939986266894e-05,4.386327541008605e-06,6.5714,4.2143
2.86328125,-3.855021213092242e-05,-5.7127675980773646e-05,-4.832319074387733e-05,2.41999250476843e-06,6.5714,4.2143
2.8671875,-4.001762633707181e-05,-3.224033104448007e-05,-4.198396137331198e-05,-5.148359075303403e-07,6.5714,4.2143
2.87109375,-3.810998786907761e-05,-4.3920948125429174e-05,-4.832319074387733e-05,1.451499128709834e-06,6.5714,4.2143
2.875,-3.761106703898682e-05,-5.12580191561761e-05,-3.370774525062945e-05,-4.887730241855514e-06,6.5714,4.2143
2.87890625,-4.3451375579461365e-05,-3.9548053791104e-05,-3.810998786907761e-05,-5.885571902037092e-06,6.5714,4.2143
2.8828125,-4.441986895551996e-05,-2.393476663767454e-05,-4.245353391927979e-05,9.52578298619045e-07,6.5714,4.2143
2.88671875,-4.3451375579461365e-05,-2.0031444849317175e-05,-3.320882442053866e-05,-3.420316035706129e-06,6.5714,4.2143
2.890625,-3.761106703898682e-05,-3.320882442053866e-05,-2.8337009256122697e-05,-4.418157695887707e-06,6.5714,4.2143
2.89453125,-3.517515945677884e-05,-4.3920948125429174e-05,-2.443368746776533e-05,-8.321479484245074e-06,6.5714,4.2143
2.8984375,-3.370774525062945e-05,-2.8337009256122697e-05,-9.78889369039446e-06,-5.386651071946303e-06,6.5714,4.2143
2.90234375,-3.0273996008239887e-05,-1.8094458097199985e-05,-2.443368746776533e-05,1.950419958800623e-06,6.5714,4.2143
2.90625,-3.224033104448007e-05,-3.370774525062945e-05,-4.001762633707181e-05,-9.844084534981476e-07,6.5714,4.2143
2.91015625,-3.810998786907761e-05,-2.2966273261615945e-05,-4.3920948125429174e-05,-7.352986108186481e-06,6.5714,4.2143
2.9140625,-3.855021213092242e-05,-2.950743489738322e-06,-1.416178802471963e-05,-5.148359075303403e-07,6.5714,4.2143
2.91796875,-3.420666608072024e-05,-4.887730241855514e-06,2.1965949730678247e-05,9.757063535515357e-06,6.5714,4.2143
2.921875,-3.127183766842147e-05,-4.491878978561075e-05,-3.2739251874570855e-05,-7.822558654154286e-06,6.5714,4.2143
2.92578125,-3.0273996008239887e-05,-6.346690535133899e-05,-7.127354892805372e-05,-2.0031444849317175e-05,6.5714,4.2143
2.9296875,-2.5402180843823926e-05,-3.420666608072024e-05,-3.664257366292822e-05,-1.8094458097199985e-05,6.5714,4.2143
2.93359375,-1.856403064316779e-05,-2.7838088426031908e-05,-1.2723722102693233e-05,-1.9532524019226383e-05,6.5714,4.2143
2.9375,-2.73685158800641e-05,-4.6386203991760135e-05,-3.761106703898682e-05,-2.443368746776533e-05,6.5714,4.2143
2.94140625,-3.467623862668805e-05,-4.832319074387733e-05,-5.612983432059206e-05,-2.686959504997331e-05,6.5714,4.2143
2.9453125,-3.9548053791104e-05,-3.711214620889602e-05,-5.02895257801175e-05,-2.3465194091706733e-05,6.5714,4.2143
2.94921875,-4.198396137331198e-05,-4.3451375579461365e-05,-5.466242011444268e-05,-2.0530365679407963e-05,6.5714,4.2143
2.953125,-3.420666608072024e-05,-4.6386203991760135e-05,-4.6386203991760135e-05,-2.2467352431525156e-05,6.5714,4.2143
2.95703125,-2.7838088426031908e-05,-3.564473200274663e-05,-3.855021213092242e-05,-1.8094458097199985e-05,6.5714,4.2143
2.9609375,-2.73685158800641e-05,-2.4903260013733135e-05,-4.1015467997253384e-05,-1.66270438910506e-05,6.5714,4.2143
2.96484375,-2.73685158800641e-05,-1.5159629684901211e-05,-4.538836233157856e-05,-2.0999938225375768e-05,6.5714,4.2143
2.96875,-3.0273996008239887e-05,-1.1725880442511651e-05,-3.711214620889602e-05,-2.5901101673914715e-05,6.5714,4.2143
2.97265625,-3.517515945677884e-05,-3.077291683833068e-05,-3.711214620889602e-05,-2.8337009256122697e-05,6.5714,4.2143
2.9765625,-3.664257366292822e-05,-4.9291684119935926e-05,-4.1015467997253384e-05,-2.5402180843823926e-05,6.5714,4.2143
2.98046875,-3.711214620889602e-05,-4.441986895551996e-05,-3.517515945677884e-05,-2.149885905546656e-05,6.5714,4.2143
2.984375,-3.420666608072024e-05,-3.2739251874570855e-05,-4.441986895551996e-05,-1.856403064316779e-05,6.5714,4.2143
2.98828125,-3.370774525062945e-05,-1.70966164370184e-05,-3.564473200274663e-05,-2.0031444849317175e-05,6.5714,4.2143
2.9921875,-3.761106703898682e-05,-2.73685158800641e-05,-1.8094458097199985e-05,-2.393476663767454e-05,6.5714,4.2143
2.99609375,-4.001762633707181e-05,-4.0516547167162595e-05,-4.9790604950026714e-05,-2.0999938225375768e-05,6.5714,4.2143
3.0,-3.517515945677884e-05,-2.9305502632181293e-05,-5.2725433362325484e-05,-1.70966164370184e-05,6.5714,4.2143
3.00390625,-3.320882442053866e-05,-2.1997779885557348e-05,-3.904913296101321e-05,-1.7595537267109193e-05,6.5714,4.2143
3.0078125,-3.127183766842147e-05,-2.73685158800641e-05,-4.3451375579461365e-05,-2.1997779885557348e-05,6.5714,4.2143
3.01171875,-2.73685158800641e-05,-3.420666608072024e-05,-4.735469736781873e-05,-2.0530365679407963e-05,6.5714,4.2143
3.015625,-2.686959504997331e-05,-4.001762633707181e-05,-3.320882442053866e-05,-1.70966164370184e-05,6.5714,4.2143
3.01953125,-2.7838088426031908e-05,-3.664257366292822e-05,-1.5159629684901211e-05,-1.5159629684901211e-05,6.5714,4.2143
3.0234375,-2.2467352431525156e-05,-2.637067421988252e-05,-2.637067421988252e-05,-1.2723722102693233e-05,6.5714,4.2143
3.02734375,-2.0530365679407963e-05,-1.5629202230869016e-05,-3.224033104448007e-05,-1.1725880442511651e-05,6.5714,4.2143
3.03125,-2.0031444849317175e-05,-2.4903260013733135e-05,-3.2739251874570855e-05,-1.3193294648661038e-05,6.5714,4.2143
3.03515625,-2.0530365679407963e-05,-3.174141021438927e-05,-4.3920948125429174e-05,-1.5159629684901211e-05,6.5714,4.2143
3.0390625,-2.5901101673914715e-05,-3.2739251874570855e-05,-4.295245474937058e-05,-1.5159629684901211e-05,6.5714,4.2143
3.04296875,-2.7838088426031908e-05,-2.8337009256122697e-05,-3.711214620889602e-05,-1.5159629684901211e-05,6.5714,4.2143
3.046875,-2.73685158800641e-05,-3.420666608072024e-05,-4.538836233157856e-05,-1.8094458097199985e-05,6.5714,4.2143
3.05078125,-2.5901101673914715e-05,-3.664257366292822e-05,-3.9548053791104e-05,-1.9532524019226383e-05,6.5714,4.2143
3.0546875,-2.3465194091706733e-05,-3.904913296101321e-05,-3.9548053791104e-05,-1.416178802471963e-05,6.5714,4.2143
3.05859375,-2.8337009256122697e-05,-3.810998786907761e-05,-5.906466273289083e-05,-1.0258466236362262e-05,6.5714,4.2143
3.0625,-3.420666608072024e-05,-3.420666608072024e-05,-6.003315610894942e-05,-1.1256307896543848e-05,6.5714,4.2143
3.06640625,-3.127183766842147e-05,-3.2739251874570855e-05,-3.711214620889602e-05,-9.289972860303671e-06,6.5714,4.2143
3.0703125,-3.077291683833068e-05,-3.174141021438927e-05,-5.386651071946303e-06,-6.3551444480049e-06,6.5714,4.2143
3.07421875,-3.761106703898682e-05,-3.564473200274663e-05,-2.7838088426031908e-05,-9.78889369039446e-06,6.5714,4.2143
3.078125,-3.6143652832837434e-05,-4.6386203991760135e-05,-4.148504054322119e-05,-8.791052030212877e-06,6.5714,4.2143
3.08203125,-3.320882442053866e-05,-5.02895257801175e-05,-3.517515945677884e-05,-1.4660708854810423e-05,6.5714,4.2143
3.0859375,-2.8337009256122697e-05,-4.1015467997253384e-05,-3.320882442053866e-05,-1.856403064316779e-05,6.5714,4.2143
3.08984375,-2.8337009256122697e-05,-4.245353391927979e-05,-4.0516547167162595e-05,-1.4660708854810423e-05,6.5714,4.2143
3.09375,-2.73685158800641e-05,-3.174141021438927e-05,-4.295245474937058e-05,-2.0530365679407963e-05,6.5714,4.2143
3.09765625,-1.9532524019226383e-05,-3.9548053791104e-05,-4.9291684119935926e-05,-1.70966164370184e-05,6.5714,4.2143
3.1015625,-2.2966273261615945e-05,-5.856574190280004e-05,-3.420666608072024e-05,-1.0258466236362262e-05,6.5714,4.2143
3.10546875,-2.686959504997331e-05,-4.882211157396812e-05,-3.224033104448007e-05,-1.8094458097199985e-05,6.5714,4.2143
3.109375,-2.0530365679407963e-05,-3.664257366292822e-05,-4.295245474937058e-05,-2.0530365679407963e-05,6.5714,4.2143
3.11328125,-2.5901101673914715e-05,-3.761106703898682e-05,-2.8337009256122697e-05,-1.70966164370184e-05,6.5714,4.2143
3.1171875,-3.2739251874570855e-05,-4.3451375579461365e-05,-3.564473200274663e-05,-1.416178802471963e-05,6.5714,4.2143
3.12109375,-2.9305502632181293e-05,-4.3920948125429174e-05,-4.538836233157856e-05,-1.2224801272602441e-05,6.5714,4.2143
3.125,-2.7838088426031908e-05,-3.2739251874570855e-05,-2.5402180843823926e-05,-1.70966164370184e-05,6.5714,4.2143
3.12890625,-3.174141021438927e-05,-1.7595537267109193e-05,-2.980442346227208e-05,-1.856403064316779e-05,6.5714,4.2143
3.1328125,-3.370774525062945e-05,-4.1015467997253384e-05,-5.075909832608531e-05,-2.0031444849317175e-05,6.5714,4.2143
3.13671875,-2.9305502632181293e-05,-4.538836233157856e-05,-4.491878978561075e-05,-2.149885905546656e-05,6.5714,4.2143
3.140625,-3.127183766842147e-05,-4.491878978561075e-05,-4.198396137331198e-05,-1.4660708854810423e-05,6.5714,4.2143
3.14453125,-2.686959504997331e-05,-4.001762633707181e-05,-3.2739251874570855e-05,-9.78889369039446e-06,6.5714,4.2143
3.1484375,-2.3465194091706733e-05,-2.980442346227208e-05,-7.822558654154286e-06,-1.3193294648661038e-05,6.5714,4.2143
3.15234375,-2.686959504997331e-05,-2.686959504997331e-05,-1.0258466236362262e-05,-1.3193294648661038e-05,6.5714,4.2143
3.15625,-2.0999938225375768e-05,-2.73685158800641e-05,-4.6386203991760135e-05,-1.0258466236362262e-05,6.5714,4.2143
3.16015625,-1.5159629684901211e-05,-2.0999938225375768e-05,-4.538836233157856e-05,-6.854065278095689e-06,6.5714,4.2143
3.1640625,-2.0999938225375768e-05,-2.149885905546656e-05,-3.517515945677884e-05,-1.1725880442511651e-05,6.5714,4.2143
3.16796875,-2.5901101673914715e-05,-3.420666608072024e-05,-3.711214620889602e-05,-1.416178802471963e-05,6.5714,4.2143
3.171875,-2.637067421988252e-05,-2.8337009256122697e-05,-3.564473200274663e-05,-1.0258466236362262e-05,6.5714,4.2143
3.17578125,-2.8337009256122697e-05,-4.001762633707181e-05,-4.441986895551996e-05,-1.3193294648661038e-05,6.5714,4.2143
3.1796875,-2.7838088426031908e-05,-4.6386203991760135e-05,-4.832319074387733e-05,-1.2723722102693233e-05,6.5714,4.2143
3.18359375,-2.637067421988252e-05,-3.174141021438927e-05,-3.711214620889602e-05,-9.78889369039446e-06,6.5714,4.2143
3.1875,-2.73685158800641e-05,-2.149885905546656e-05,-3.127183766842147e-05,-1.2723722102693233e-05,6.5714,4.2143
3.19140625,-2.5402180843823926e-05,-2.5901101673914715e-05,-2.3465194091706733e-05,-1.1256307896543848e-05,6.5714,4.2143
3.1953125,-3.174141021438927e-05,-5.02895257801175e-05,-4.1015467997253384e-05,-1.4660708854810423e-05,6.5714,4.2143
3.19921875,-3.370774525062945e-05,-5.1756939986266894e-05,-4.9790604950026714e-05,-1.66270438910506e-05,6.5714,4.2143
3.203125,-2.9305502632181293e-05,-3.664257366292822e-05,-4.295245474937058e-05,-7.822558654154286e-06,6.5714,4.2143
3.20703125,-2.686959504997331e-05,-2.5901101673914715e-05,-4.3451375579461365e-05,-3.420316035706129e-06,6.5714,4.2143
3.2109375,-2.7838088426031908e-05,-3.6143652832837434e-05,-3.855021213092242e-05,-6.3551444480049e-06,6.5714,4.2143
3.21484375,-2.686959504997331e-05,-2.8337009256122697e-05,-3.761106703898682e-05,-2.950743489738322e-06,6.5714,4.2143
3.21875,-2.4903260013733135e-05,-1.9532524019226383e-05,-4.735469736781873e-05,4.830057526512377e-07,6.5714,4.2143
3.22265625,-2.8337009256122697e-05,-4.1015467997253384e-05,-4.538836233157856e-05,-1.9822501136797256e-06,6.5714,4.2143
3.2265625,-3.2739251874570855e-05,-2.980442346227208e-05,-4.148504054322119e-05,-9.844084534981476e-07,6.5714,4.2143
3.23046875,-3.0273996008239887e-05,-2.393476663767454e-05,-3.855021213092242e-05,-1.3692215478751826e-05,6.5714,4.2143
3.234375,-2.7838088426031908e-05,-3.370774525062945e-05,-3.564473200274663e-05,-1.3692215478751826e-05,6.5714,4.2143
3.23828125,-2.393476663767454e-05,-3.904913296101321e-05,-4.441986895551996e-05,-1.1725880442511651e-05,6.5714,4.2143
3.2421875,-1.9062951473258578e-05,-3.174141021438927e-05,-4.6386203991760135e-05,-2.2966273261615945e-05,6.5714,4.2143
3.24609375,-1.3692215478751826e-05,-5.386651071946303e-06,-1.9532524019226383e-05,-2.73685158800641e-05,6.5714,4.2143
3.25,-2.393476663767454e-05,-2.149885905546656e-05,1.4159306153963512e-05,-1.2723722102693233e-05,6.5714,4.2143
3.25390625,-4.0516547167162595e-05,-5.5161340944533466e-05,-3.810998786907761e-05,5.85374174715799e-06,6.5714,4.2143
3.2578125,-3.517515945677884e-05,-4.491878978561075e-05,-7.177246975814452e-05,-3.420316035706129e-06,6.5714,4.2143
3.26171875,-3.0273996008239887e-05,-4.0516547167162595e-05,-3.564473200274663e-05,-5.885571902037092e-06,6.5714,4.2143
3.265625,-3.370774525062945e-05,-4.295245474937058e-05,-3.174141021438927e-05,-6.854065278095689e-06,6.5714,4.2143
3.26953125,-3.517515945677884e-05,-5.612983432059206e-05,-4.832319074387733e-05,-1.856403064316779e-05,6.5714,4.2143
3.2734375,-4.001762633707181e-05,-3.9548053791104e-05,-5.2226512532234696e-05,-2.2467352431525156e-05,6.5714,4.2143
3.27734375,-4.491878978561075e-05,-4.295245474937058e-05,-5.7127675980773646e-05,-1.3193294648661038e-05,6.5714,4.2143
3.28125,-3.761106703898682e-05,-4.7824269913786534e-05,-3.810998786907761e-05,-1.2224801272602441e-05,6.5714,4.2143
3.28515625,-3.467623862668805e-05,-1.9532524019226383e-05,-8.791052030212877e-06,-2.0999938225375768e-05,6.5714,4.2143
3.2890625,-3.174141021438927e-05,-1.9532524019226383e-05,-2.393476663767454e-05,-1.856403064316779e-05,6.5714,4.2143
3.29296875,-2.2966273261615945e-05,-2.980442346227208e-05,-2.2966273261615945e-05,-6.854065278095689e-06,6.5714,4.2143
3.296875,-2.0031444849317175e-05,-3.6143652832837434e-05,-3.420666608072024e-05,-7.822558654154286e-06,6.5714,4.2143
3.30078125,-2.5901101673914715e-05,-2.7838088426031908e-05,-2.8835930086213485e-05,-1.1256307896543848e-05,6.5714,4.2143
3.3046875,-3.370774525062945e-05,-1.0258466236362262e-05,-4.418157695887707e-06,-1.416178802471963e-05,6.5714,4.2143
3.30859375,-3.370774525062945e-05,-2.149885905546656e-05,-3.564473200274663e-05,-1.9532524019226383e-05,6.5714,4.2143
3.3125,-3.174141021438927e-05,-2.8337009256122697e-05,-4.6386203991760135e-05,-1.9062951473258578e-05,6.5714,4.2143
3.31640625,-3.0273996008239887e-05,-1.856403064316779e-05,-3.564473200274663e-05,-1.1725880442511651e-05,6.5714,4.2143
3.3203125,-3.174141021438927e-05,-2.980442346227208e-05,-4.832319074387733e-05,-1.0258466236362262e-05,6.5714,4.2143
3.32421875,-3.564473200274663e-05,-5.2226512532234696e-05,-3.077291683833068e-05,-1.70966164370184e-05,6.5714,4.2143
3.328125,-3.761106703898682e-05,-4.1015467997253384e-05,-2.637067421988252e-05,-1.5159629684901211e-05,6.5714,4.2143
3.33203125,-3.6143652832837434e-05,-3.224033104448007e-05,-3.855021213092242e-05,-1.3692215478751826e-05,6.5714,4.2143
3.3359375,-3.6143652832837434e-05,-2.8337009256122697e-05,-3.420666608072024e-05,-2.149885905546656e-05,6.5714,4.2143
3.33984375,-3.6143652832837434e-05,-4.1015467997253384e-05,-5.2226512532234696e-05,-1.70966164370184e-05,6.5714,4.2143
3.34375,-3.224033104448007e-05,-3.320882442053866e-05,-5.2226512532234696e-05,-1.66270438910506e-05,6.5714,4.2143
3.34765625,-3.370774525062945e-05,-2.149885905546656e-05,-2.73685158800641e-05,-2.0031444849317175e-05,6.5714,4.2143
3.3515625,-3.467623862668805e-05,-4.3451375579461365e-05,-2.980442346227208e-05,-1.5629202230869016e-05,6.5714,4.2143
3.35546875,-3.904913296101321e-05,-6.199949114518961e-05,-3.370774525062945e-05,-2.149885905546656e-05,6.5714,4.2143
3.359375,-4.295245474937058e-05,-5.8096169356832236e-05,-4.9790604950026714e-05,-2.980442346227208e-05,6.5714,4.2143
3.36328125,-4.198396137331198e-05,-5.612983432059206e-05,-8.007803416495003e-05,-3.127183766842147e-05,6.5714,4.2143
3.3671875,-3.370774525062945e-05,-4.3920948125429174e-05,-4.245353391927979e-05,-2.980442346227208e-05,6.5714,4.2143
3.37109375,-3.174141021438927e-05,-1.9532524019226383e-05,-2.9305502632181293e-05,-2.637067421988252e-05,6.5714,4.2143
3.375,-3.664257366292822e-05,-3.517515945677884e-05,-3.904913296101321e-05,-1.9532524019226383e-05,6.5714,4.2143
3.37890625,-3.711214620889602e-05,-5.419284756847487e-05,-3.2739251874570855e-05,-1.3193294648661038e-05,6.5714,4.2143
3.3828125,-3.370774525062945e-05,-2.686959504997331e-05,-2.8835930086213485e-05,-1.5159629684901211e-05,6.5714,4.2143
3.38671875,-2.73685158800641e-05,-6.3551444480049e-06,-3.174141021438927e-05,-1.9062951473258578e-05,6.5714,4.2143
3.390625,-2.980442346227208e-05,-4.295245474937058e-05,-2.8337009256122697e-05,-1.2224801272602441e-05,6.5714,4.2143
3.39453125,-3.0273996008239887e-05,-3.904913296101321e-05,-3.2739251874570855e-05,-5.885571902037092e-06,6.5714,4.2143
3.3984375,-2.980442346227208e-05,-2.9305502632181293e-05,-4.9291684119935926e-05,-5.885571902037092e-06,6.5714,4.2143
3.40234375,-2.8337009256122697e-05,-3.174141021438927e-05,-4.538836233157856e-05,-8.791052030212877e-06,6.5714,4.2143
3.40625,-2.980442346227208e-05,-1.5629202230869016e-05,-3.077291683833068e-05,-6.854065278095689e-06,6.5714,4.2143
3.41015625,-3.2739251874570855e-05,-2.5402180843823926e-05,-3.127183766842147e-05,-4.887730241855514e-06,6.5714,4.2143
3.4140625,-3.174141021438927e-05,-3.420666608072024e-05,-2.2467352431525156e-05,-1.2224801272602441e-05,6.5714,4.2143
3.41796875,-3.127183766842147e-05,-3.127183766842147e-05,-2.0530365679407963e-05,-1.5629202230869016e-05,6.5714,4.2143
3.421875,-2.980442346227208e-05,-4.0516547167162595e-05,-4.538836233157856e-05,-1.1725880442511651e-05,6.5714,4.2143
3.42578125,-2.7838088426031908e-05,-3.855021213092242e-05,-5.2226512532234696e-05,-1.5159629684901211e-05,6.5714,4.2143
3.4296875,-3.0273996008239887e-05,-3.370774525062945e-05,-3.320882442053866e-05,-1.5159629684901211e-05,6.5714,4.2143
3.43359375,-3.517515945677884e-05,-3.320882442053866e-05,-2.637067421988252e-05,-1.0258466236362262e-05,6.5714,4.2143
3.4375,-2.686959504997331e-05,-4.198396137331198e-05,-2.149885905546656e-05,-4.887730241855514e-06,6.5714,4.2143
3.44140625,-1.7595537267109193e-05,-4.735469736781873e-05,-1.5629202230869016e-05,-5.885571902037092e-06,6.5714,4.2143
3.4453125,-2.686959504997331e-05,-2.7838088426031908e-05,-2.0031444849317175e-05,-1.0258466236362262e-05,6.5714,4.2143
3.44921875,-3.127183766842147e-05,-3.224033104448007e-05,-1.7595537267109193e-05,-7.352986108186481e-06,6.5714,4.2143
3.453125,-2.73685158800641e-05,-4.735469736781873e-05,-3.761106703898682e-05,-1.4833292835889366e-06,6.5714,4.2143
3.45703125,-2.73685158800641e-05,-4.245353391927979e-05,-4.735469736781873e-05,-2.451822659647533e-06,6.5714,4.2143
3.4609375,-3.224033104448007e-05,-3.9548053791104e-05,-4.588728316166935e-05,-1.3193294648661038e-05,6.5714,4.2143
3.46484375,-3.320882442053866e-05,-3.810998786907761e-05,-4.735469736781873e-05,-1.3193294648661038e-05,6.5714,4.2143
3.46875,-3.127183766842147e-05,-2.8835930086213485e-05,-1.1725880442511651e-05,-9.289972860303671e-06,6.5714,4.2143
3.47265625,-2.5901101673914715e-05,-3.761106703898682e-05,-3.174141021438927e-05,-1.7595537267109193e-05,6.5714,4.2143
3.4765625,-2.5901101673914715e-05,-4.735469736781873e-05,-5.759724852674145e-05,-1.9532524019226383e-05,6.5714,4.2143
3.48046875,-3.127183766842147e-05,-3.664257366292822e-05,-5.662875515068285e-05,-1.4660708854810423e-05,6.5714,4.2143
3.484375,-2.3465194091706733e-05,-3.420316035706129e-06,-5.662875515068285e-05,-2.0031444849317175e-05,6.5714,4.2143
3.48828125,-2.2467352431525156e-05,-2.0031444849317175e-05,-2.4903260013733135e-05,-2.149885905546656e-05,6.5714,4.2143
3.4921875,-2.980442346227208e-05,-3.904913296101321e-05,-2.637067421988252e-05,-2.393476663767454e-05,6.5714,4.2143
3.49609375,-2.980442346227208e-05,-4.491878978561075e-05,-5.12580191561761e-05,-2.0999938225375768e-05,6.5714,4.2143
3.5,-3.077291683833068e-05,-3.174141021438927e-05,-4.3451375579461365e-05,-1.416178802471963e-05,6.5714,4.2143
3.50390625,-2.149885905546656e-05,-2.0530365679407963e-05,-3.0273996008239887e-05,-2.393476663767454e-05,6.5714,4.2143
3.5078125,-2.149885905546656e-05,-4.7824269913786534e-05,-4.3920948125429174e-05,-2.8337009256122697e-05,6.5714,4.2143
3.51171875,-3.077291683833068e-05,-5.369392673838408e-05,-4.9291684119935926e-05,-2.4903260013733135e-05,6.5714,4.2143
3.515625,-2.8337009256122697e-05,-5.466242011444268e-05,-5.8096169356832236e-05,-3.0273996008239887e-05,6.5714,4.2143
3.51953125,-2.9305502632181293e-05,-4.3451375579461365e-05,-6.39364778973068e-05,-2.7838088426031908e-05,6.5714,4.2143
3.5234375,-3.2739251874570855e-05,-5.319500590829329e-05,-4.198396137331198e-05,-2.0031444849317175e-05,6.5714,4.2143
3.52734375,-2.8835930086213485e-05,-4.832319074387733e-05,-3.077291683833068e-05,-1.9062951473258578e-05,6.5714,4.2143
3.53125,-2.2467352431525156e-05,-3.855021213092242e-05,-4.295245474937058e-05,-2.637067421988252e-05,6.5714,4.2143
3.53515625,-2.5901101673914715e-05,-5.662875515068285e-05,-5.075909832608531e-05,-2.686959504997331e-05,6.5714,4.2143
3.5390625,-3.711214620889602e-05,-5.466242011444268e-05,-4.538836233157856e-05,-2.637067421988252e-05,6.5714,4.2143
3.54296875,-3.174141021438927e-05,-3.077291683833068e-05,-4.148504054322119e-05,-2.7838088426031908e-05,6.5714,4.2143
3.546875,-2.5901101673914715e-05,-3.9548053791104e-05,-3.564473200274663e-05,-2.686959504997331e-05,6.5714,4.2143
3.55078125,-3.320882442053866e-05,-3.370774525062945e-05,-2.7838088426031908e-05,-2.73685158800641e-05,6.5714,4.2143
3.5546875,-3.855021213092242e-05,-5.662875515068285e-05,-2.0031444849317175e-05,-2.4903260013733135e-05,6.5714,4.2143
3.55859375,-3.467623862668805e-05,-6.29679845212482e-05,-4.148504054322119e-05,-2.1997779885557348e-05,6.5714,4.2143
3.5625,-3.127183766842147e-05,-4.491878978561075e-05,-5.369392673838408e-05,-2.0999938225375768e-05,6.5714,4.2143
3.56640625,-3.420666608072024e-05,-4.7824269913786534e-05,-3.320882442053866e-05,-2.1997779885557348e-05,6.5714,4.2143
3.5703125,-3.320882442053866e-05,-4.6855776537727944e-05,-4.491878978561075e-05,-2.73685158800641e-05,6.5714,4.2143
3.57421875,-2.7838088426031908e-05,-3.224033104448007e-05,-4.148504054322119e-05,-2.5402180843823926e-05,6.5714,4.2143
3.578125,-2.0999938225375768e-05,-1.9822501136797256e-06,-4.441986895551996e-05,-2.0999938225375768e-05,6.5714,4.2143
3.58203125,-2.5402180843823926e-05,-3.2739251874570855e-05,-6.640173376363776e-05,-2.686959504997331e-05,6.5714,4.2143
3.5859375,-3.6143652832837434e-05,-4.9291684119935926e-05,-5.662875515068285e-05,-2.443368746776533e-05,6.5714,4.2143
3.58984375,-3.2739251874570855e-05,-4.6386203991760135e-05,-3.904913296101321e-05,-2.9305502632181293e-05,6.5714,4.2143
3.59375,-2.980442346227208e-05,-4.735469736781873e-05,-3.0273996008239887e-05,-2.9305502632181293e-05,6.5714,4.2143
3.59765625,-3.174141021438927e-05,-3.127183766842147e-05,-4.538836233157856e-05,-2.0031444849317175e-05,6.5714,4.2143
3.6015625,-3.224033104448007e-05,-3.761106703898682e-05,-3.855021213092242e-05,-2.2467352431525156e-05,6.5714,4.2143
3.60546875,-3.224033104448007e-05,-3.761106703898682e-05,-1.6128123060959808e-05,-2.0999938225375768e-05,6.5714,4.2143
3.609375,-3.174141021438927e-05,-2.443368746776533e-05,-2.3465194091706733e-05,-2.2467352431525156e-05,6.5714,4.2143
3.61328125,-2.637067421988252e-05,-4.418157695887707e-06,-3.810998786907761e-05,-2.5402180843823926e-05,6.5714,4.2143
3.6171875,-1.9062951473258578e-05,-2.4903260013733135e-05,-5.12580191561761e-05,-1.70966164370184e-05,6.5714,4.2143
3.62109375,-2.0031444849317175e-05,-3.9548053791104e-05,-4.538836233157856e-05,-2.0530365679407963e-05,6.5714,4.2143
3.625,-2.637067421988252e-05,-3.517515945677884e-05,-2.8835930086213485e-05,-2.5901101673914715e-05,6.5714,4.2143
3.62890625,-3.174141021438927e-05,-4.0516547167162595e-05,-3.174141021438927e-05,-1.8094458097199985e-05,6.5714,4.2143
3.6328125,-3.224033104448007e-05,-2.8337009256122697e-05,-4.1015467997253384e-05,-2.0031444849317175e-05,6.5714,4.2143
3.63671875,-3.320882442053866e-05,-2.149885905546656e-05,-4.295245474937058e-05,-2.443368746776533e-05,6.5714,4.2143
3.640625,-3.2739251874570855e-05,-4.441986895551996e-05,-2.8835930086213485e-05,-2.4903260013733135e-05,6.5714,4.2143
3.64453125,-3.320882442053866e-05,-4.441986895551996e-05,-2.2467352431525156e-05,-2.2966273261615945e-05,6.5714,4.2143
3.6484375,-3.174141021438927e-05,-4.7824269913786534e-05,-3.467623862668805e-05,-1.9062951473258578e-05,6.5714,4.2143
3.65234375,-2.8835930086213485e-05,-4.0516547167162595e-05,-3.517515945677884e-05,-1.66270438910506e-05,6.5714,4.2143
3.65625,-3.0273996008239887e-05,-2.5402180843823926e-05,-3.127183766842147e-05,-1.5159629684901211e-05,6.5714,4.2143
3.66015625,-3.224033104448007e-05,-4.538836233157856e-05,-4.295245474937058e-05,-1.66270438910506e-05,6.5714,4.2143
3.6640625,-3.127183766842147e-05,-4.491878978561075e-05,-3.420666608072024e-05,-1.856403064316779e-05,6.5714,4.2143
3.66796875,-2.5402180843823926e-05,-2.393476663767454e-05,-1.7595537267109193e-05,-1.70966164370184e-05,6.5714,4.2143
3.671875,-2.73685158800641e-05,-2.5901101673914715e-05,-3.370774525062945e-05,-1.416178802471963e-05,6.5714,4.2143
3.67578125,-3.077291683833068e-05,-2.980442346227208e-05,-4.001762633707181e-05,-1.3692215478751826e-05,6.5714,4.2143
3.6796875,-2.8835930086213485e-05,-2.8337009256122697e-05,-3.564473200274663e-05,-1.856403064316779e-05,6.5714,4.2143
3.68359375,-2.149885905546656e-05,-2.8337009256122697e-05,-3.0273996008239887e-05,-1.70966164370184e-05,6.5714,4.2143
3.6875,-2.5901101673914715e-05,-2.2966273261615945e-05,-2.0031444849317175e-05,-1.5629202230869016e-05,6.5714,4.2143
3.69140625,-2.7838088426031908e-05,3.8874067109178155e-06,-3.127183766842147e-05,-1.5159629684901211e-05,6.5714,4.2143
3.6953125,-2.2467352431525156e-05,-3.420666608072024e-05,-3.0273996008239887e-05,-1.1725880442511651e-05,6.5714,4.2143
3.69921875,-2.4903260013733135e-05,-5.12580191561761e-05,-3.077291683833068e-05,-1.6128123060959808e-05,6.5714,4.2143
3.703125,-2.393476663767454e-05,-2.637067421988252e-05,-3.077291683833068e-05,-1.856403064316779e-05,6.5714,4.2143
3.70703125,-1.8094458097199985e-05,-2.980442346227208e-05,-3.077291683833068e-05,-1.3193294648661038e-05,6.5714,4.2143
3.7109375,-1.3692215478751826e-05,-2.2467352431525156e-05,-2.2966273261615945e-05,-1.0757387066453056e-05,6.5714,4.2143
3.71484375,-1.5629202230869016e-05,-2.2467352431525156e-05,-2.5402180843823926e-05,-1.5629202230869016e-05,6.5714,4.2143
3.71875,-1.8094458097199985e-05,-2.637067421988252e-05,-3.077291683833068e-05,-1.7595537267109193e-05,6.5714,4.2143
3.72265625,-1.5629202230869016e-05,-2.149885905546656e-05,-2.980442346227208e-05,-1.0258466236362262e-05,6.5714,4.2143
3.7265625,-1.4660708854810423e-05,-2.3465194091706733e-05,-2.1997779885557348e-05,-6.3551444480049e-06,6.5714,4.2143
3.73046875,-1.4660708854810423e-05,-1.4660708854810423e-05,-1.66270438910506e-05,-9.289972860303671e-06,6.5714,4.2143
3.734375,-2.0031444849317175e-05,-2.0530365679407963e-05,-2.443368746776533e-05,-1.66270438910506e-05,6.5714,4.2143
3.73828125,-2.637067421988252e-05,-3.224033104448007e-05,-1.9532524019226383e-05,-1.5629202230869016e-05,6.5714,4.2143
3.7421875,-2.0999938225375768e-05,-2.7838088426031908e-05,-3.127183766842147e-05,-2.0530365679407963e-05,6.5714,4.2143
3.74609375,-2.4903260013733135e-05,-2.7838088426031908e-05,-3.077291683833068e-05,-1.9062951473258578e-05,6.5714,4.2143
3.75,-3.077291683833068e-05,-2.393476663767454e-05,-2.0530365679407963e-05,-1.5629202230869016e-05,6.5714,4.2143
3.75390625,-2.980442346227208e-05,-2.73685158800641e-05,-3.370774525062945e-05,-2.0999938225375768e-05,6.5714,4.2143
3.7578125,-2.686959504997331e-05,-4.441986895551996e-05,-4.538836233157856e-05,-2.3465194091706733e-05,6.5714,4.2143
3.76171875,-2.4903260013733135e-05,-4.6855776537727944e-05,-2.980442346227208e-05,-1.7595537267109193e-05,6.5714,4.2143
3.765625,-2.9305502632181293e-05,-3.904913296101321e-05,-3.420666608072024e-05,-1.2723722102693233e-05,6.5714,4.2143
3.76953125,-3.127183766842147e-05,-3.711214620889602e-05,-3.855021213092242e-05,-1.6128123060959808e-05,6.5714,4.2143
3.7734375,-3.174141021438927e-05,-1.7595537267109193e-05,-3.855021213092242e-05,-2.686959504997331e-05,6.5714,4.2143
3.77734375,-3.761106703898682e-05,-4.6855776537727944e-05,-4.735469736781873e-05,-3.127183766842147e-05,6.5714,4.2143
3.78125,-3.664257366292822e-05,-5.856574190280004e-05,-4.245353391927979e-05,-2.5402180843823926e-05,6.5714,4.2143
3.78515625,-3.420666608072024e-05,-3.855021213092242e-05,-2.980442346227208e-05,-2.149885905546656e-05,6.5714,4.2143
3.7890625,-3.2739251874570855e-05,-2.637067421988252e-05,-2.443368746776533e-05,-2.0530365679407963e-05,6.5714,4.2143
3.79296875,-3.174141021438927e-05,-4.887730241855514e-06,-2.686959504997331e-05,-2.393476663767454e-05,6.5714,4.2143
3.796875,-3.564473200274663e-05,-2.637067421988252e-05,-4.3920948125429174e-05,-2.0031444849317175e-05,6.5714,4.2143
3.80078125,-3.077291683833068e-05,-3.761106703898682e-05,-3.810998786907761e-05,-1.0258466236362262e-05,6.5714,4.2143
3.8046875,-2.7838088426031908e-05,-3.174141021438927e-05,-2.9305502632181293e-05,-1.1725880442511651e-05,6.5714,4.2143
3.80859375,-2.7838088426031908e-05,-2.637067421988252e-05,-4.1015467997253384e-05,-1.1256307896543848e-05,6.5714,4.2143
3.8125,-2.4903260013733135e-05,-3.127183766842147e-05,-3.420666608072024e-05,-1.2224801272602441e-05,6.5714,4.2143
3.81640625,-2.637067421988252e-05,-4.198396137331198e-05,-3.517515945677884e-05,-1.4660708854810423e-05,6.5714,4.2143
3.8203125,-2.637067421988252e-05,-1.8094458097199985e-05,-5.419284756847487e-05,-1.5159629684901211e-05,6.5714,4.2143
3.82421875,-1.7595537267109193e-05,1.3161464493781935e-05,-4.148504054322119e-05,-1.9532524019226383e-05,6.5714,4.2143
3.828125,-1.6128123060959808e-05,-1.70966164370184e-05,-1.4660708854810423e-05,-1.9062951473258578e-05,6.5714,4.2143
3.83203125,-2.393476663767454e-05,-4.295245474937058e-05,-1.70966164370184e-05,-1.7595537267109193e-05,6.5714,4.2143
3.8359375,-2.8835930086213485e-05,-4.245353391927979e-05,-5.856574190280004e-05,-2.4903260013733135e-05,6.5714,4.2143
3.83984375,-2.9305502632181293e-05,-3.904913296101321e-05,-5.5161340944533466e-05,-2.2966273261615945e-05,6.5714,4.2143
3.84375,-2.686959504997331e-05,-3.420666608072024e-05,-4.1015467997253384e-05,-1.856403064316779e-05,6.5714,4.2143
3.84765625,-2.443368746776533e-05,-2.637067421988252e-05,-3.855021213092242e-05,-2.1997779885557348e-05,6.5714,4.2143
3.8515625,-1.9532524019226383e-05,-2.443368746776533e-05,-3.810998786907761e-05,-1.6128123060959808e-05,6.5714,4.2143
3.85546875,-2.149885905546656e-05,-3.9548053791104e-05,-4.1015467997253384e-05,-1.2224801272602441e-05,6.5714,4.2143
3.859375,-2.2966273261615945e-05,-2.2467352431525156e-05,-2.9305502632181293e-05,-1.3193294648661038e-05,6.5714,4.2143
3.86328125,-2.149885905546656e-05,-1.1725880442511651e-05,-2.3465194091706733e-05,-9.78889369039446e-06,6.5714,4.2143
3.8671875,-2.1997779885557348e-05,-3.855021213092242e-05,-3.711214620889602e-05,-1.2224801272602441e-05,6.5714,4.2143
3.87109375,-1.70966164370184e-05,-3.6143652832837434e-05,-4.0516547167162595e-05,-1.856403064316779e-05,6.5714,4.2143
3.875,-1.5159629684901211e-05,-3.077291683833068e-05,-3.467623862668805e-05,-1.416178802471963e-05,6.5714,4.2143
3.87890625,-2.0031444849317175e-05,-3.174141021438927e-05,-2.637067421988252e-05,-1.3193294648661038e-05,6.5714,4.2143
3.8828125,-2.443368746776533e-05,-2.0031444849317175e-05,-3.370774525062945e-05,-1.7595537267109193e-05,6.5714,4.2143
3.88671875,-2.4903260013733135e-05,-1.6128123060959808e-05,-3.6143652832837434e-05,-2.149885905546656e-05,6.5714,4.2143
3.890625,-2.8835930086213485e-05,-1.70966164370184e-05,-2.686959504997331e-05,-1.4660708854810423e-05,6.5714,4.2143
3.89453125,-2.5901101673914715e-05,-2.0530365679407963e-05,-3.127183766842147e-05,-9.289972860303671e-06,6.5714,4.2143
3.8984375,-1.856403064316779e-05,-3.2739251874570855e-05,-3.855021213092242e-05,-1.4660708854810423e-05,6.5714,4.2143
3.90234375,-2.5402180843823926e-05,-2.8835930086213485e-05,-3.564473200274663e-05,-1.0258466236362262e-05,6.5714,4.2143
3.90625,-2.7838088426031908e-05,-1.4660708854810423e-05,-3.6143652832837434e-05,-1.1725880442511651e-05,6.5714,4.2143
3.91015625,-2.8337009256122697e-05,-2.980442346227208e-05,-3.6143652832837434e-05,-2.2467352431525156e-05,6.5714,4.2143
3.9140625,-2.637067421988252e-05,-3.6143652832837434e-05,-2.4903260013733135e-05,-1.856403064316779e-05,6.5714,4.2143
3.91796875,-2.2966273261615945e-05,-3.467623862668805e-05,-4.245353391927979e-05,-1.6128123060959808e-05,6.5714,4.2143
3.921875,-2.73685158800641e-05,-3.517515945677884e-05,-3.077291683833068e-05,-1.66270438910506e-05,6.5714,4.2143
3.92578125,-2.8337009256122697e-05,-3.855021213092242e-05,-1.5629202230869016e-05,-1.5159629684901211e-05,6.5714,4.2143
3.9296875,-2.393476663767454e-05,-4.9291684119935926e-05,-6.053207693904022e-05,-2.149885905546656e-05,6.5714,4.2143
3.93359375,-2.443368746776533e-05,-5.2226512532234696e-05,-6.29679845212482e-05,-2.980442346227208e-05,6.5714,4.2143
3.9375,-2.7838088426031908e-05,-5.612983432059206e-05,-5.419284756847487e-05,-2.149885905546656e-05,6.5714,4.2143
3.94140625,-3.9548053791104e-05,-3.564473200274663e-05,-3.761106703898682e-05,-1.9062951473258578e-05,6.5714,4.2143
3.9453125,-4.0516547167162595e-05,-1.9822501136797256e-06,-2.393476663767454e-05,-2.443368746776533e-05,6.5714,4.2143
3.94921875,-3.077291683833068e-05,-4.3451375579461365e-05,-4.0516547167162595e-05,-2.443368746776533e-05,6.5714,4.2143
3.953125,-2.3465194091706733e-05,-6.29679845212482e-05,-5.2725433362325484e-05,-2.8835930086213485e-05,6.5714,4.2143
3.95703125,-2.0031444849317175e-05,-4.538836233157856e-05,-3.810998786907761e-05,-3.564473200274663e-05,6.5714,4.2143
3.9609375,-2.393476663767454e-05,-4.1015467997253384e-05,-1.9532524019226383e-05,-3.467623862668805e-05,6.5714,4.2143
3.96484375,-2.8337009256122697e-05,-4.001762633707181e-05,-3.224033104448007e-05,-3.370774525062945e-05,6.5714,4.2143
3.96875,-3.0273996008239887e-05,-4.148504054322119e-05,-3.9548053791104e-05,-3.077291683833068e-05,6.5714,4.2143
3.97265625,-3.810998786907761e-05,-4.735469736781873e-05,-5.02895257801175e-05,-2.7838088426031908e-05,6.5714,4.2143
3.9765625,-4.0516547167162595e-05,-2.5901101673914715e-05,-4.9790604950026714e-05,-3.467623862668805e-05,6.5714,4.2143
3.98046875,-4.1015467997253384e-05,-3.127183766842147e-05,-4.491878978561075e-05,-3.467623862668805e-05,6.5714,4.2143
3.984375,-4.148504054322119e-05,-5.2725433362325484e-05,-4.538836233157856e-05,-3.320882442053866e-05,6.5714,4.2143
3.98828125,-3.904913296101321e-05,-3.174141021438927e-05,-3.9548053791104e-05,-3.810998786907761e-05,6.5714,4.2143
3.9921875,-3.711214620889602e-05,-2.5901101673914715e-05,-4.0516547167162595e-05,-3.6143652832837434e-05,6.5714,4.2143
3.99609375,-3.810998786907761e-05,-4.198396137331198e-05,-3.517515945677884e-05,-3.0273996008239887e-05,6.5714,4.2143
4.0,-3.6143652832837434e-05,-4.3451375579461365e-05,-4.198396137331198e-05,-3.2739251874570855e-05,6.5714,4.2143
4.00390625,-3.467623862668805e-05,-4.588728316166935e-05,-4.1015467997253384e-05,-3.077291683833068e-05,6.5714,4.2143
4.0078125,-2.9305502632181293e-05,-4.441986895551996e-05,-2.443368746776533e-05,-2.637067421988252e-05,6.5714,4.2143
4.01171875,-2.8337009256122697e-05,-4.6386203991760135e-05,-2.393476663767454e-05,-3.904913296101321e-05,6.5714,4.2143
4.015625,-3.517515945677884e-05,-4.1015467997253384e-05,-5.1756939986266894e-05,-3.6143652832837434e-05,6.5714,4.2143
4.01953125,-3.420666608072024e-05,-3.6143652832837434e-05,-5.566026177462426e-05,-3.320882442053866e-05,6.5714,4.2143
