timestamp,TP9,AF7,AF8,TP10,Valence,Arousal
0.0,4.684895000686658e-05,5.1730644856946685e-05,5.417149228198674e-05,1.6582441936369896e-05,4.7857,6.3571
0.00390625,3.220386545662624e-05,5.2218814341954696e-05,5.417149228198674e-05,1.755878090638592e-05,4.7857,6.3571
0.0078125,2.5369492666514095e-05,3.806189927672238e-05,4.7337119491874584e-05,1.3165255541313818e-05,4.7857,6.3571
0.01171875,2.878667906157017e-05,4.34317636118105e-05,5.2218814341954696e-05,2.0487797816433986e-05,4.7857,6.3571
0.015625,3.318020442664227e-05,5.319515331197072e-05,6.0029526102082876e-05,2.292864524147404e-05,4.7857,6.3571
0.01953125,3.1227526486610226e-05,6.0029526102082876e-05,6.442305146715498e-05,1.2677086056305808e-05,4.7857,6.3571
0.0234375,2.878667906157017e-05,5.758867867704282e-05,5.075430588693066e-05,1.6094272451361885e-05,4.7857,6.3571
0.02734375,4.0990916186770444e-05,4.684895000686658e-05,4.245542464179448e-05,1.5606102966353874e-05,4.7857,6.3571
0.03125,3.5132882366674316e-05,4.440810258182652e-05,3.806189927672238e-05,1.6094272451361885e-05,4.7857,6.3571
0.03515625,2.9274848546578178e-05,3.952640773174641e-05,3.269203494163426e-05,8.77173017624172e-06,4.7857,6.3571
0.0390625,3.5132882366674316e-05,3.952640773174641e-05,4.7337119491874584e-05,7.307221721217687e-06,4.7857,6.3571
0.04296875,3.806189927672238e-05,4.196725515678646e-05,5.71005091920348e-05,8.77173017624172e-06,4.7857,6.3571
0.046875,3.610922133669034e-05,4.245542464179448e-05,4.294359412680248e-05,1.1212577601281776e-05,4.7857,6.3571
0.05078125,3.90382382467384e-05,4.0990916186770444e-05,3.610922133669034e-05,1.8046950391393927e-05,4.7857,6.3571
0.0546875,3.806189927672238e-05,3.46447128816663e-05,3.269203494163426e-05,1.902328936140995e-05,4.7857,6.3571
0.05859375,3.5132882366674316e-05,4.831345846189061e-05,3.7085560306706354e-05,1.951145884641796e-05,4.7857,6.3571
0.0625,3.8550068761730395e-05,5.1730644856946685e-05,4.1479085671778456e-05,1.8535119876401938e-05,4.7857,6.3571
0.06640625,2.5857662151522106e-05,5.1730644856946685e-05,4.34317636118105e-05,7.795391206225697e-06,4.7857,6.3571
0.0703125,8.77173017624172e-06,4.001457721675442e-05,4.391993309681851e-05,2.913696356145588e-06,4.7857,6.3571
0.07421875,1.6094272451361885e-05,2.6834001121538125e-05,2.9274848546578178e-05,1.0236238631265752e-05,4.7857,6.3571
0.078125,3.0739357001602215e-05,3.806189927672238e-05,3.3668373911650276e-05,1.4141594511329842e-05,4.7857,6.3571
0.08203125,4.050274670176243e-05,4.5872611036850557e-05,4.9289797431906635e-05,8.283560691233709e-06,4.7857,6.3571
0.0859375,3.952640773174641e-05,5.075430588693066e-05,5.758867867704282e-05,8.283560691233709e-06,4.7857,6.3571
0.08984375,2.6345831636530114e-05,4.636078052185856e-05,4.34317636118105e-05,1.8046950391393927e-05,4.7857,6.3571
0.09375,2.5857662151522106e-05,3.562105185168232e-05,2.3416814726482047e-05,1.4141594511329842e-05,4.7857,6.3571
0.09765625,3.0739357001602215e-05,3.5132882366674316e-05,1.902328936140995e-05,9.259899661249731e-06,4.7857,6.3571
0.1015625,1.8046950391393927e-05,4.34317636118105e-05,3.659739082169834e-05,1.902328936140995e-05,4.7857,6.3571
0.10546875,8.283560691233709e-06,4.977796691691464e-05,5.465966176699475e-05,1.951145884641796e-05,4.7857,6.3571
0.109375,1.3165255541313818e-05,4.5872611036850557e-05,4.636078052185856e-05,1.0724408116273763e-05,4.7857,6.3571
0.11328125,1.1700747086289786e-05,5.124247537193867e-05,3.46447128816663e-05,1.365342502632183e-05,4.7857,6.3571
0.1171875,7.795391206225697e-06,5.612417022201878e-05,2.976301803158619e-05,1.2677086056305808e-05,4.7857,6.3571
0.12109375,2.5369492666514095e-05,6.295854301213094e-05,3.8550068761730395e-05,3.401865841153599e-06,4.7857,6.3571
0.125,3.171569597161824e-05,6.051769558709088e-05,4.5872611036850557e-05,7.795391206225697e-06,4.7857,6.3571
0.12890625,2.6345831636530114e-05,4.977796691691464e-05,3.90382382467384e-05,1.7070611421377907e-05,4.7857,6.3571
0.1328125,3.562105185168232e-05,5.124247537193867e-05,3.318020442664227e-05,1.365342502632183e-05,4.7857,6.3571
0.13671875,3.0739357001602215e-05,5.465966176699475e-05,3.269203494163426e-05,2.1464136786450005e-05,4.7857,6.3571
0.140625,1.7070611421377907e-05,5.905318713206685e-05,5.1730644856946685e-05,1.9999628331425975e-05,4.7857,6.3571
0.14453125,2.2440475756466028e-05,6.10058650720989e-05,7.03115958800641e-05,2.913696356145588e-06,4.7857,6.3571
0.1484375,2.3904984211490058e-05,4.831345846189061e-05,6.738257897001604e-05,9.259899661249731e-06,4.7857,6.3571
0.15234375,1.5606102966353874e-05,4.538444155184254e-05,4.5872611036850557e-05,1.2677086056305808e-05,4.7857,6.3571
0.15625,1.2188916571297797e-05,4.7825288976882595e-05,1.1700747086289786e-05,7.795391206225697e-06,4.7857,6.3571
0.16015625,6.819052236209676e-06,4.831345846189061e-05,2.3904984211490058e-05,1.0724408116273763e-05,4.7857,6.3571
0.1640625,1.1212577601281776e-05,5.71005091920348e-05,4.538444155184254e-05,1.5117933481345863e-05,4.7857,6.3571
0.16796875,2.488132318150608e-05,5.8076848162050824e-05,4.7337119491874584e-05,1.365342502632183e-05,4.7857,6.3571
0.171875,3.5132882366674316e-05,3.806189927672238e-05,5.66123397070268e-05,1.6582441936369896e-05,4.7857,6.3571
0.17578125,4.245542464179448e-05,3.5132882366674316e-05,5.368332279697873e-05,1.5117933481345863e-05,4.7857,6.3571
0.1796875,3.659739082169834e-05,5.1730644856946685e-05,3.90382382467384e-05,2.5857662151522106e-05,4.7857,6.3571
0.18359375,2.6834001121538125e-05,5.124247537193867e-05,4.5872611036850557e-05,2.3416814726482047e-05,4.7857,6.3571
0.1875,2.7322170606546137e-05,4.245542464179448e-05,3.90382382467384e-05,7.795391206225697e-06,4.7857,6.3571
0.19140625,1.9999628331425975e-05,4.196725515678646e-05,2.878667906157017e-05,1.2188916571297797e-05,4.7857,6.3571
0.1953125,2.3904984211490058e-05,4.4896272066834534e-05,3.90382382467384e-05,1.0724408116273763e-05,4.7857,6.3571
0.19921875,3.220386545662624e-05,4.7337119491874584e-05,5.270698382696271e-05,1.2188916571297797e-05,4.7857,6.3571
0.203125,4.0990916186770444e-05,5.71005091920348e-05,6.982342639505609e-05,9.259899661249731e-06,4.7857,6.3571
0.20703125,5.075430588693066e-05,4.34317636118105e-05,5.319515331197072e-05,-4.3783353261615755e-06,4.7857,6.3571
0.2109375,4.636078052185856e-05,3.5132882366674316e-05,3.3668373911650276e-05,-1.3653555541313785e-05,4.7857,6.3571
0.21484375,4.7337119491874584e-05,4.391993309681851e-05,2.7322170606546137e-05,-8.283691206225664e-06,4.7857,6.3571
0.21875,4.196725515678646e-05,4.440810258182652e-05,3.3668373911650276e-05,2.292864524147404e-05,4.7857,6.3571
0.22265625,4.001457721675442e-05,4.1479085671778456e-05,3.7085560306706354e-05,2.292864524147404e-05,4.7857,6.3571
0.2265625,3.46447128816663e-05,4.1479085671778456e-05,4.294359412680248e-05,8.283560691233709e-06,4.7857,6.3571
0.23046875,3.1227526486610226e-05,3.8550068761730395e-05,3.806189927672238e-05,9.748069146257742e-06,4.7857,6.3571
0.234375,4.440810258182652e-05,3.659739082169834e-05,3.5132882366674316e-05,5.842713266193654e-06,4.7857,6.3571
0.23828125,5.270698382696271e-05,4.977796691691464e-05,5.1730644856946685e-05,1.1700747086289786e-05,4.7857,6.3571
0.2421875,4.684895000686658e-05,4.34317636118105e-05,5.124247537193867e-05,1.1700747086289786e-05,4.7857,6.3571
0.24609375,2.0487797816433986e-05,2.9274848546578178e-05,4.440810258182652e-05,1.1700747086289786e-05,4.7857,6.3571
0.25,1.6094272451361885e-05,3.0739357001602215e-05,3.90382382467384e-05,1.5117933481345863e-05,4.7857,6.3571
0.25390625,2.9274848546578178e-05,4.34317636118105e-05,3.90382382467384e-05,8.77173017624172e-06,4.7857,6.3571
0.2578125,4.5872611036850557e-05,4.977796691691464e-05,4.391993309681851e-05,1.7070611421377907e-05,4.7857,6.3571
0.26171875,5.612417022201878e-05,4.0990916186770444e-05,4.538444155184254e-05,2.6345831636530114e-05,4.7857,6.3571
0.265625,5.368332279697873e-05,4.636078052185856e-05,4.9289797431906635e-05,1.3165255541313818e-05,4.7857,6.3571
0.26953125,4.294359412680248e-05,4.684895000686658e-05,3.659739082169834e-05,4.866374296177632e-06,4.7857,6.3571
0.2734375,3.659739082169834e-05,4.391993309681851e-05,2.829850957656216e-05,3.401865841153599e-06,4.7857,6.3571
0.27734375,3.610922133669034e-05,4.538444155184254e-05,3.7085560306706354e-05,1.4141594511329842e-05,4.7857,6.3571
0.28125,3.90382382467384e-05,3.1227526486610226e-05,4.684895000686658e-05,1.8046950391393927e-05,4.7857,6.3571
0.28515625,2.439315369649807e-05,3.1227526486610226e-05,4.0990916186770444e-05,1.2188916571297797e-05,4.7857,6.3571
0.2890625,1.0724408116273763e-05,3.806189927672238e-05,3.0251187516594204e-05,1.902328936140995e-05,4.7857,6.3571
0.29296875,3.318020442664227e-05,4.001457721675442e-05,3.46447128816663e-05,2.0975967301441994e-05,4.7857,6.3571
0.296875,4.9289797431906635e-05,4.7825288976882595e-05,3.4156543396658294e-05,6.330882751201665e-06,4.7857,6.3571
0.30078125,3.269203494163426e-05,4.391993309681851e-05,3.90382382467384e-05,4.378204811169621e-06,4.7857,6.3571
0.3046875,2.3416814726482047e-05,3.0251187516594204e-05,4.5872611036850557e-05,1.951145884641796e-05,4.7857,6.3571
0.30859375,3.7085560306706354e-05,1.8046950391393927e-05,3.562105185168232e-05,2.439315369649807e-05,4.7857,6.3571
0.3125,4.294359412680248e-05,3.318020442664227e-05,3.269203494163426e-05,1.6582441936369896e-05,4.7857,6.3571
0.31640625,4.001457721675442e-05,4.294359412680248e-05,3.806189927672238e-05,1.9999628331425975e-05,4.7857,6.3571
0.3203125,3.1227526486610226e-05,1.951145884641796e-05,2.7322170606546137e-05,3.0739357001602215e-05,4.7857,6.3571
0.32421875,2.7810340091554148e-05,2.1952306271458016e-05,3.7573729791714366e-05,2.0975967301441994e-05,4.7857,6.3571
0.328125,3.8550068761730395e-05,4.977796691691464e-05,5.368332279697873e-05,2.0975967301441994e-05,4.7857,6.3571
0.33203125,3.610922133669034e-05,2.5369492666514095e-05,3.806189927672238e-05,2.5857662151522106e-05,4.7857,6.3571
0.3359375,3.5132882366674316e-05,1.365342502632183e-05,2.5369492666514095e-05,1.4141594511329842e-05,4.7857,6.3571
0.33984375,2.829850957656216e-05,2.0975967301441994e-05,2.3904984211490058e-05,9.748069146257742e-06,4.7857,6.3571
0.34375,2.829850957656216e-05,1.4629763996337851e-05,2.7810340091554148e-05,1.902328936140995e-05,4.7857,6.3571
0.34765625,3.7573729791714366e-05,4.866374296177632e-06,2.829850957656216e-05,3.171569597161824e-05,4.7857,6.3571
0.3515625,3.7085560306706354e-05,-1.3165386056305774e-05,6.330882751201665e-06,1.6582441936369896e-05,4.7857,6.3571
0.35546875,5.124247537193867e-05,-8.283691206225664e-06,-2.9274979061570133e-05,1.1212577601281776e-05,4.7857,6.3571
0.359375,6.0029526102082876e-05,-3.2692165456626215e-05,-5.124260588693063e-05,3.0739357001602215e-05,4.7857,6.3571
0.36328125,5.758867867704282e-05,-5.85651481620508e-05,-7.519342124513615e-05,2.7810340091554148e-05,4.7857,6.3571
0.3671875,8.78856973403525e-05,-5.270711434195466e-05,-6.835904845502402e-05,3.5132882366674316e-05,4.7857,6.3571
0.37109375,9.276739219043261e-05,-6.0029656617074824e-05,-6.884721794003202e-05,4.5872611036850557e-05,4.7857,6.3571
0.375,9.667274807049669e-05,-0.00010643626828564887,-0.00011424698004577704,1.9999628331425975e-05,4.7857,6.3571
0.37890625,0.00011131783262073704,-0.0001391436237811856,-0.00014890701348134583,3.0739357001602215e-05,4.7857,6.3571
0.3828125,0.00011717586644083316,-0.00012059318335088118,-0.00013279742047608145,4.4896272066834534e-05,4.7857,6.3571
0.38671875,0.00014011983223620968,-0.0001347500984161135,-0.00015037152193636986,5.612417022201878e-05,4.7857,6.3571
0.390625,0.00012986827305104144,-0.0001821025384618906,-0.0001874724027969787,6.295854301213094e-05,4.7857,6.3571
0.39453125,0.00011375868004577707,-0.00016843379288166628,-0.00017233914876173037,4.440810258182652e-05,4.7857,6.3571
0.3984375,0.00011571135798580912,-0.0001698983013366903,-0.0001738036572167544,4.0990916186770444e-05,4.7857,6.3571
0.40234375,0.00010985332416571298,-0.0001742918267017624,-0.0001742918267017624,2.829850957656216e-05,4.7857,6.3571
0.40625,0.00011375868004577707,-0.0001347500984161135,-0.00017185097927672232,2.5857662151522106e-05,4.7857,6.3571
0.41015625,0.00010497162931563287,-0.00016355209803158615,-0.00018307887743190658,6.10058650720989e-05,4.7857,6.3571
0.4140625,9.325556167544062e-05,-0.00013328558996108947,-0.0001303565730510414,3.7085560306706354e-05,4.7857,6.3571
0.41796875,9.325556167544062e-05,-8.98385057953765e-05,-0.00011034162416571295,-9.61148931105499e-07,4.7857,6.3571
0.421875,8.544484991531244e-05,-8.935033631036849e-05,-0.00011375881056076903,1.2188916571297797e-05,4.7857,6.3571
0.42578125,8.202766352025636e-05,-4.880175846189058e-05,-6.738270948500799e-05,6.819052236209676e-06,4.7857,6.3571
0.4296875,6.539939043717099e-05,-3.318033494163422e-05,-5.075443640192262e-05,3.890035326161609e-06,4.7857,6.3571
0.43359375,4.636078052185856e-05,-2.634596215152207e-05,-3.9526538246738366e-05,3.401865841153599e-06,4.7857,6.3571
0.4375,4.34317636118105e-05,-1.755891142137787e-05,-2.7810470606546103e-05,-3.401996356145554e-06,4.7857,6.3571
0.44140625,3.318020442664227e-05,-1.999975884641793e-05,-1.121270811627373e-05,4.866374296177632e-06,4.7857,6.3571
0.4453125,2.829850957656216e-05,2.4255268711375773e-06,-2.9138268711375426e-06,3.0739357001602215e-05,4.7857,6.3571
0.44921875,3.0251187516594204e-05,1.8535119876401938e-05,-4.72979446097488e-07,2.488132318150608e-05,4.7857,6.3571
0.453125,2.2440475756466028e-05,3.4156543396658294e-05,1.365342502632183e-05,-3.401996356145554e-06,4.7857,6.3571
0.45703125,1.6582441936369896e-05,5.612417022201878e-05,3.4156543396658294e-05,-4.3783353261615755e-06,4.7857,6.3571
0.4609375,1.6582441936369896e-05,5.954135661707486e-05,5.026613640192266e-05,1.0236238631265752e-05,4.7857,6.3571
0.46484375,5.354543781185643e-06,5.905318713206685e-05,7.03115958800641e-05,5.354543781185643e-06,4.7857,6.3571
0.46875,-1.937487901121521e-06,3.46447128816663e-05,6.0029526102082876e-05,-9.748199661249696e-06,4.7857,6.3571
0.47265625,-1.7070741936369862e-05,4.1479085671778456e-05,4.245542464179448e-05,6.330882751201665e-06,4.7857,6.3571
0.4765625,-1.5118063996337817e-05,7.714596867017625e-05,6.491122095216298e-05,4.7284893110553325e-07,4.7857,6.3571
0.48046875,5.842713266193654e-06,8.642118888532846e-05,7.128793485008013e-05,-2.683413163653008e-05,4.7857,6.3571
0.484375,1.5117933481345863e-05,9.179105322041659e-05,8.886203631036852e-05,-1.8535250391393893e-05,4.7857,6.3571
0.48828125,1.0724408116273763e-05,8.251583300526438e-05,9.813725652552073e-05,-1.170087760128174e-05,4.7857,6.3571
0.4921875,-4.3783353261615755e-06,5.2218814341954696e-05,5.368332279697873e-05,-4.3783353261615755e-06,4.7857,6.3571
0.49609375,-1.072453863126572e-05,6.10058650720989e-05,4.7337119491874584e-05,1.0236238631265752e-05,4.7857,6.3571
0.5,-6.819182751201631e-06,6.982342639505609e-05,7.079976536507211e-05,2.1952306271458016e-05,4.7857,6.3571
0.50390625,-1.44931841611351e-06,8.73975278553445e-05,8.202766352025636e-05,3.401865841153599e-06,4.7857,6.3571
0.5078125,1.4491879011215552e-06,6.539939043717099e-05,7.958681609521631e-05,-1.5118063996337817e-05,4.7857,6.3571
0.51171875,1.5117933481345863e-05,4.4896272066834534e-05,6.295854301213094e-05,1.937357386129566e-06,4.7857,6.3571
0.515625,2.3904984211490058e-05,7.47051212451362e-05,5.465966176699475e-05,2.0487797816433986e-05,4.7857,6.3571
0.51953125,3.5132882366674316e-05,7.275244330510416e-05,6.787074845502406e-05,7.307221721217687e-06,4.7857,6.3571
0.5234375,2.3416814726482047e-05,6.247037352712293e-05,5.66123397070268e-05,7.307221721217687e-06,4.7857,6.3571
0.52734375,-5.354674296177598e-06,3.8550068761730395e-05,3.0739357001602215e-05,1.365342502632183e-05,4.7857,6.3571
0.53125,5.842713266193654e-06,2.3904984211490058e-05,2.5369492666514095e-05,-1.2189047086289752e-05,4.7857,6.3571
0.53515625,1.2677086056305808e-05,-2.425657386129532e-06,1.365342502632183e-05,3.269203494163426e-05,4.7857,6.3571
0.5390625,2.7810340091554148e-05,-5.514796176699472e-05,-3.122765700160218e-05,4.7337119491874584e-05,4.7857,6.3571
0.54296875,4.831345846189061e-05,-3.708569082169831e-05,-2.195243678644997e-05,-3.401996356145554e-06,4.7857,6.3571
0.546875,5.905318713206685e-05,-2.195243678644997e-05,-1.5118063996337817e-05,-2.9138268711375426e-06,4.7857,6.3571
0.55078125,8.398034146028841e-05,-8.446864146028837e-05,-9.91137260105287e-05,8.77173017624172e-06,4.7857,6.3571
0.5546875,0.00010301895137560084,-0.00012401036974593726,-0.00016013491163653008,4.245542464179448e-05,4.7857,6.3571
0.55859375,0.00012693925614099338,-0.00013621460687113752,-0.00014451348811627372,3.1227526486610226e-05,4.7857,6.3571
0.5625,0.00014304884914625773,-0.00016306392854657814,-0.00015867040318150605,3.269203494163426e-05,4.7857,6.3571
0.56640625,0.00014646603554131383,-0.00015720589472648203,-0.00017575633515678641,1.5606102966353874e-05,4.7857,6.3571
0.5703125,0.00013230912047608147,-0.0001210813528358892,-0.00015330053884641794,1.4491879011215552e-06,4.7857,6.3571
0.57421875,0.0001367026458411536,-0.00012352220026092925,-0.00015085969142137788,-1.5320553902477717e-08,4.7857,6.3571
0.578125,0.00014060800172121767,-0.00013328558996108947,-0.000155741386271458,-4.72979446097488e-07,4.7857,6.3571
0.58203125,0.00013035644253604946,-8.300413300526435e-05,-0.00010106640395056076,-4.866504811169587e-06,4.7857,6.3571
0.5859375,0.00011815220541084917,-6.1005995587090846e-05,-6.149416507209886e-05,1.3165255541313818e-05,4.7857,6.3571
0.58984375,0.00010594796828564891,-3.757386030670632e-05,-6.1005995587090846e-05,1.8046950391393927e-05,4.7857,6.3571
0.59375,9.667274807049669e-05,2.3904984211490058e-05,-2.7810470606546103e-05,-1.755891142137787e-05,4.7857,6.3571
0.59765625,7.42169517601282e-05,2.0975967301441994e-05,2.6834001121538125e-05,-2.5857792666514058e-05,4.7857,6.3571
0.6015625,6.295854301213094e-05,1.1212577601281776e-05,4.636078052185856e-05,-3.1715826486610186e-05,4.7857,6.3571
0.60546875,4.977796691691464e-05,5.465966176699475e-05,5.2218814341954696e-05,7.307221721217687e-06,4.7857,6.3571
0.609375,4.538444155184254e-05,9.569640910048068e-05,8.349217197528039e-05,-2.4393284211490024e-05,4.7857,6.3571
0.61328125,3.7085560306706354e-05,0.00011278234107576106,0.00010350712086060884,-3.415667391165024e-05,4.7857,6.3571
0.6171875,1.902328936140995e-05,0.00011571135798580912,0.00010985332416571298,-7.307352236209642e-06,4.7857,6.3571
0.62109375,4.378204811169621e-06,0.00012449840871595332,0.00012156939180590525,-1.3165386056305774e-05,4.7857,6.3571
0.625,-4.866504811169587e-06,0.00013230912047608147,0.0001332854594460975,2.913696356145588e-06,4.7857,6.3571
0.62890625,-4.3783353261615755e-06,0.0001274274256260014,0.00012449840871595332,-3.890165841153565e-06,4.7857,6.3571
0.6328125,1.1700747086289786e-05,0.00014451335760128176,0.0001410961712062257,-2.683413163653008e-05,4.7857,6.3571
0.63671875,-5.354674296177598e-06,0.0001410961712062257,0.00014793054399633786,1.0236238631265752e-05,4.7857,6.3571
0.640625,-2.097609781643395e-05,0.00013182095099107348,0.00011961671386587322,5.124247537193867e-05,4.7857,6.3571
0.64453125,1.937357386129566e-06,0.00015720576421149007,0.00014793054399633786,-2.8786809576562122e-05,4.7857,6.3571
0.6484375,-4.72979446097488e-07,0.00014646603554131383,0.00016013478112153812,-3.025131803158616e-05,4.7857,6.3571
0.65234375,-4.3783353261615755e-06,0.00014353701863126575,0.00013767898481116962,7.795391206225697e-06,4.7857,6.3571
0.65625,-1.755891142137787e-05,0.00012986827305104144,0.00013426179841611355,2.4255268711375773e-06,4.7857,6.3571
0.66015625,-2.683413163653008e-05,0.0001279155951110094,0.00013816715429617763,2.1952306271458016e-05,4.7857,6.3571
0.6640625,-2.536962318150605e-05,0.0001596466116365301,0.00015281223884641796,2.292864524147404e-05,4.7857,6.3571
0.66796875,-9.748199661249696e-06,0.0001274274256260014,0.00013230912047608147,-1.609440296635384e-05,4.7857,6.3571
0.671875,-1.755891142137787e-05,0.0001010662734355688,0.00010350712086060884,9.748069146257742e-06,4.7857,6.3571
0.67578125,-1.072453863126572e-05,0.00014011983223620968,0.0001454896965712978,4.378204811169621e-06,4.7857,6.3571
0.6796875,8.283560691233709e-06,0.0001596466116365301,0.0001864959333119707,-2.9763148546578148e-05,4.7857,6.3571
0.68359375,-1.951158936140992e-05,0.00012986827305104144,0.00013426179841611355,9.748069146257742e-06,4.7857,6.3571
0.6875,-3.855019927672234e-05,0.00011424684953078509,0.00010008993446555277,1.951145884641796e-05,4.7857,6.3571
0.69140625,-1.4141725026321795e-05,0.0001332854594460975,0.00012986827305104144,-1.072453863126572e-05,4.7857,6.3571
0.6953125,4.866374296177632e-06,0.0001191285443808652,0.00011424684953078509,9.748069146257742e-06,4.7857,6.3571
0.69921875,5.354543781185643e-06,0.00013182095099107348,0.00010887698519569697,-1.0236369146257707e-05,4.7857,6.3571
0.703125,9.259899661249731e-06,0.00015330040833142598,0.00015671759472648205,-1.9023419876401904e-05,4.7857,6.3571
0.70703125,-2.9138268711375426e-06,0.00013377362893110555,0.00012498657820096134,8.283560691233709e-06,4.7857,6.3571
0.7109375,-4.3783353261615755e-06,0.00012938010356603342,6.933525691004809e-05,3.401865841153599e-06,4.7857,6.3571
0.71484375,2.913696356145588e-06,0.0001513477303913939,0.00011961671386587322,-3.318033494163422e-05,4.7857,6.3571
0.71875,-4.866504811169587e-06,0.00013377362893110555,0.00014256067966124974,-9.260030176241686e-06,4.7857,6.3571
0.72265625,-1.658257245136185e-05,9.71609175555047e-05,7.714596867017625e-05,5.417149228198674e-05,4.7857,6.3571
0.7265625,-1.9023419876401904e-05,8.73975278553445e-05,-1.2189047086289752e-05,4.5872611036850557e-05,4.7857,6.3571
0.73046875,-4.3783353261615755e-06,0.00010253078189059284,1.1700747086289786e-05,2.4255268711375773e-06,4.7857,6.3571
0.734375,-1.937487901121521e-06,0.00010594796828564891,2.2440475756466028e-05,-8.771860691233675e-06,4.7857,6.3571
0.73828125,2.292864524147404e-05,0.00013426179841611355,0.00015037139142137792,-6.491135146715494e-05,4.7857,6.3571
0.7421875,2.7322170606546137e-05,0.0001274274256260014,0.00017819705206683454,-7.795521721217652e-06,4.7857,6.3571
0.74609375,7.307221721217687e-06,7.47051212451362e-05,-6.198233455710688e-05,2.7810340091554148e-05,4.7857,6.3571
0.75,4.7284893110553325e-07,8.446851094529643e-05,-1.804708090638588e-05,-4.489640258182648e-05,4.7857,6.3571
0.75390625,1.937357386129566e-06,0.00010253078189059284,0.0001904012891920348,-1.560623348134583e-05,4.7857,6.3571
0.7578125,1.3165255541313818e-05,9.374373116044863e-05,0.00012449840871595332,8.77173017624172e-06,4.7857,6.3571
0.76171875,1.6094272451361885e-05,0.00013914349326619364,0.00023680790086060886,-4.831358897688256e-05,4.7857,6.3571
0.765625,8.283560691233709e-06,0.00010741247674067293,0.0003105214930968185,-5.354674296177598e-06,4.7857,6.3571
0.76953125,9.748069146257742e-06,5.612417022201878e-05,0.00019381847558709087,2.6834001121538125e-05,4.7857,6.3571
0.7734375,-7.795521721217652e-06,6.051769558709088e-05,-1.560623348134583e-05,5.465966176699475e-05,4.7857,6.3571
0.77734375,1.4491879011215552e-06,8.105132455024035e-05,-0.00010009006498054473,-5.354674296177598e-06,4.7857,6.3571
0.78125,-2.425657386129532e-06,9.472007013046466e-05,0.0001894249502220188,3.0251187516594204e-05,4.7857,6.3571
0.78515625,-7.307352236209642e-06,6.051769558709088e-05,0.00019772383146715496,8.202766352025636e-05,4.7857,6.3571
0.7890625,-4.866504811169587e-06,4.831345846189061e-05,0.00013230912047608147,4.538444155184254e-05,4.7857,6.3571
0.79296875,-6.3310132661936195e-06,6.933525691004809e-05,0.00016208745906157016,1.8046950391393927e-05,4.7857,6.3571
0.796875,8.283560691233709e-06,9.911359549553675e-05,0.0001669691539116503,-7.795521721217652e-06,4.7857,6.3571
0.80078125,-4.3783353261615755e-06,5.8076848162050824e-05,0.00017868522155184253,2.976301803158619e-05,4.7857,6.3571
0.8046875,-2.195243678644997e-05,2.6345831636530114e-05,8.251583300526438e-05,4.831345846189061e-05,4.7857,6.3571
0.80859375,-1.121270811627373e-05,4.977796691691464e-05,4.4896272066834534e-05,-1.937487901121521e-06,4.7857,6.3571
0.8125,6.330882751201665e-06,5.270698382696271e-05,0.00015720576421149007,-1.4629894511329806e-05,4.7857,6.3571
0.81640625,1.4491879011215552e-06,4.050274670176243e-05,0.00011180600210574503,2.829850957656216e-05,4.7857,6.3571
0.8203125,6.330882751201665e-06,4.196725515678646e-05,8.642118888532846e-05,2.439315369649807e-05,4.7857,6.3571
0.82421875,1.4141594511329842e-05,4.5872611036850557e-05,0.00012449840871595332,2.9274848546578178e-05,4.7857,6.3571
0.828125,3.401865841153599e-06,4.7825288976882595e-05,0.0001279155951110094,3.269203494163426e-05,4.7857,6.3571
0.83203125,-5.842843781185608e-06,5.075430588693066e-05,0.00010838881571068896,1.6094272451361885e-05,4.7857,6.3571
0.8359375,-4.72979446097488e-07,4.684895000686658e-05,7.958681609521631e-05,2.5369492666514095e-05,4.7857,6.3571
0.83984375,5.842713266193654e-06,4.636078052185856e-05,7.665779918516825e-05,3.220386545662624e-05,4.7857,6.3571
0.84375,1.0724408116273763e-05,4.977796691691464e-05,7.665779918516825e-05,2.292864524147404e-05,4.7857,6.3571
0.84765625,1.4629763996337851e-05,5.124247537193867e-05,7.90986466102083e-05,1.7070611421377907e-05,4.7857,6.3571
0.8515625,1.1212577601281776e-05,4.4896272066834534e-05,6.933525691004809e-05,1.755878090638592e-05,4.7857,6.3571
0.85546875,5.842713266193654e-06,4.391993309681851e-05,6.738257897001604e-05,1.2188916571297797e-05,4.7857,6.3571
0.859375,1.4629763996337851e-05,4.001457721675442e-05,7.275244330510416e-05,1.2677086056305808e-05,4.7857,6.3571
0.86328125,2.1464136786450005e-05,3.610922133669034e-05,6.884708742504007e-05,2.6345831636530114e-05,4.7857,6.3571
0.8671875,1.2188916571297797e-05,3.90382382467384e-05,6.491122095216298e-05,3.5132882366674316e-05,4.7857,6.3571
0.87109375,8.283560691233709e-06,5.2218814341954696e-05,6.10058650720989e-05,2.976301803158619e-05,4.7857,6.3571
0.875,1.0724408116273763e-05,4.636078052185856e-05,3.7573729791714366e-05,1.5606102966353874e-05,4.7857,6.3571
0.87890625,1.1212577601281776e-05,3.0739357001602215e-05,3.610922133669034e-05,1.365342502632183e-05,4.7857,6.3571
0.8828125,1.0724408116273763e-05,3.1227526486610226e-05,5.417149228198674e-05,1.951145884641796e-05,4.7857,6.3571
0.88671875,3.890035326161609e-06,2.7322170606546137e-05,3.90382382467384e-05,1.1700747086289786e-05,4.7857,6.3571
0.890625,-3.890165841153565e-06,2.2440475756466028e-05,1.6582441936369896e-05,1.6094272451361885e-05,4.7857,6.3571
0.89453125,1.3165255541313818e-05,2.3904984211490058e-05,1.1700747086289786e-05,2.439315369649807e-05,4.7857,6.3571
0.8984375,2.6834001121538125e-05,1.4141594511329842e-05,2.0487797816433986e-05,2.6834001121538125e-05,4.7857,6.3571
0.90234375,1.2188916571297797e-05,1.3165255541313818e-05,2.878667906157017e-05,3.220386545662624e-05,4.7857,6.3571
0.90625,1.937357386129566e-06,3.1227526486610226e-05,3.269203494163426e-05,3.7573729791714366e-05,4.7857,6.3571
0.91015625,-9.260030176241686e-06,3.0739357001602215e-05,2.5857662151522106e-05,3.171569597161824e-05,4.7857,6.3571
0.9140625,-2.9138268711375426e-06,2.0975967301441994e-05,8.77173017624172e-06,2.2440475756466028e-05,4.7857,6.3571
0.91796875,1.2188916571297797e-05,1.8046950391393927e-05,1.4491879011215552e-06,2.6345831636530114e-05,4.7857,6.3571
0.921875,9.748069146257742e-06,1.4629763996337851e-05,1.365342502632183e-05,2.6345831636530114e-05,4.7857,6.3571
0.92578125,1.5117933481345863e-05,1.5606102966353874e-05,2.2440475756466028e-05,2.7322170606546137e-05,4.7857,6.3571
0.9296875,1.5606102966353874e-05,2.2440475756466028e-05,1.951145884641796e-05,3.1227526486610226e-05,4.7857,6.3571
0.93359375,1.365342502632183e-05,3.610922133669034e-05,8.77173017624172e-06,2.2440475756466028e-05,4.7857,6.3571
0.9375,2.0487797816433986e-05,3.659739082169834e-05,4.866374296177632e-06,2.3416814726482047e-05,4.7857,6.3571
0.94140625,1.1700747086289786e-05,2.0487797816433986e-05,7.307221721217687e-06,2.6834001121538125e-05,4.7857,6.3571
0.9453125,1.1212577601281776e-05,1.6094272451361885e-05,-1.44931841611351e-06,3.3668373911650276e-05,4.7857,6.3571
0.94921875,1.6094272451361885e-05,2.2440475756466028e-05,-1.560623348134583e-05,2.9274848546578178e-05,4.7857,6.3571
0.953125,1.6094272451361885e-05,2.292864524147404e-05,-1.5118063996337817e-05,3.0251187516594204e-05,4.7857,6.3571
0.95703125,1.7070611421377907e-05,2.3416814726482047e-05,-1.4141725026321795e-05,2.7810340091554148e-05,4.7857,6.3571
0.9609375,1.1700747086289786e-05,2.9274848546578178e-05,-4.866504811169587e-06,2.0487797816433986e-05,4.7857,6.3571
0.96484375,2.0487797816433986e-05,2.976301803158619e-05,3.890035326161609e-06,3.318020442664227e-05,4.7857,6.3571
0.96875,2.9274848546578178e-05,2.878667906157017e-05,-1.5320553902477717e-08,3.7085560306706354e-05,4.7857,6.3571
0.97265625,1.2677086056305808e-05,2.6345831636530114e-05,-1.937487901121521e-06,3.46447128816663e-05,4.7857,6.3571
0.9765625,6.819052236209676e-06,2.0975967301441994e-05,-4.72979446097488e-07,2.9274848546578178e-05,4.7857,6.3571
0.98046875,1.5606102966353874e-05,1.4141594511329842e-05,3.890035326161609e-06,2.3416814726482047e-05,4.7857,6.3571
0.984375,2.0487797816433986e-05,9.259899661249731e-06,6.819052236209676e-06,2.488132318150608e-05,4.7857,6.3571
0.98828125,1.6094272451361885e-05,2.913696356145588e-06,-9.748199661249696e-06,2.878667906157017e-05,4.7857,6.3571
0.9921875,1.902328936140995e-05,1.0724408116273763e-05,-1.072453863126572e-05,2.829850957656216e-05,4.7857,6.3571
0.99609375,2.6345831636530114e-05,1.755878090638592e-05,1.4491879011215552e-06,3.220386545662624e-05,4.7857,6.3571
1.0,2.292864524147404e-05,1.755878090638592e-05,1.0724408116273763e-05,2.9274848546578178e-05,4.7857,6.3571
1.00390625,1.4141594511329842e-05,1.5117933481345863e-05,1.5117933481345863e-05,3.1227526486610226e-05,4.7857,6.3571
1.0078125,1.3165255541313818e-05,1.0724408116273763e-05,8.283560691233709e-06,3.610922133669034e-05,4.7857,6.3571
1.01171875,1.5606102966353874e-05,8.283560691233709e-06,-1.44931841611351e-06,2.292864524147404e-05,4.7857,6.3571
1.015625,3.401865841153599e-06,1.1700747086289786e-05,6.330882751201665e-06,1.8046950391393927e-05,4.7857,6.3571
1.01953125,7.307221721217687e-06,1.9999628331425975e-05,1.7070611421377907e-05,2.3416814726482047e-05,4.7857,6.3571
1.0234375,2.1464136786450005e-05,1.755878090638592e-05,1.365342502632183e-05,2.488132318150608e-05,4.7857,6.3571
1.02734375,2.7322170606546137e-05,1.3165255541313818e-05,1.9999628331425975e-05,2.1952306271458016e-05,4.7857,6.3571
1.03125,3.220386545662624e-05,1.4141594511329842e-05,1.1700747086289786e-05,2.3904984211490058e-05,4.7857,6.3571
1.03515625,2.1952306271458016e-05,8.77173017624172e-06,-2.9138268711375426e-06,3.171569597161824e-05,4.7857,6.3571
1.0390625,1.4141594511329842e-05,7.795391206225697e-06,1.6582441936369896e-05,3.610922133669034e-05,4.7857,6.3571
1.04296875,1.8535119876401938e-05,1.5117933481345863e-05,3.3668373911650276e-05,3.0739357001602215e-05,4.7857,6.3571
1.046875,2.0487797816433986e-05,1.4141594511329842e-05,2.878667906157017e-05,2.292864524147404e-05,4.7857,6.3571
1.05078125,3.890035326161609e-06,1.6582441936369896e-05,1.951145884641796e-05,3.0251187516594204e-05,4.7857,6.3571
1.0546875,-4.866504811169587e-06,3.1227526486610226e-05,1.0724408116273763e-05,2.878667906157017e-05,4.7857,6.3571
1.05859375,2.1464136786450005e-05,2.7810340091554148e-05,2.1952306271458016e-05,2.439315369649807e-05,4.7857,6.3571
1.0625,3.952640773174641e-05,1.902328936140995e-05,3.806189927672238e-05,3.318020442664227e-05,4.7857,6.3571
1.06640625,4.0990916186770444e-05,2.1464136786450005e-05,2.0975967301441994e-05,3.610922133669034e-05,4.7857,6.3571
1.0703125,4.245542464179448e-05,1.755878090638592e-05,-4.3783353261615755e-06,3.806189927672238e-05,4.7857,6.3571
1.07421875,2.0975967301441994e-05,7.307221721217687e-06,3.890035326161609e-06,3.0251187516594204e-05,4.7857,6.3571
1.078125,1.0236238631265752e-05,1.365342502632183e-05,2.292864524147404e-05,8.283560691233709e-06,4.7857,6.3571
1.08203125,1.7070611421377907e-05,2.0487797816433986e-05,2.6345831636530114e-05,1.2677086056305808e-05,4.7857,6.3571
1.0859375,1.5117933481345863e-05,1.2677086056305808e-05,2.5369492666514095e-05,3.318020442664227e-05,4.7857,6.3571
1.08984375,1.4141594511329842e-05,1.6582441936369896e-05,2.976301803158619e-05,4.050274670176243e-05,4.7857,6.3571
1.09375,1.8046950391393927e-05,1.6582441936369896e-05,1.7070611421377907e-05,5.270698382696271e-05,4.7857,6.3571
1.09765625,2.439315369649807e-05,2.0975967301441994e-05,1.6582441936369896e-05,4.5872611036850557e-05,4.7857,6.3571
1.1015625,3.7085560306706354e-05,3.0251187516594204e-05,3.5132882366674316e-05,2.292864524147404e-05,4.7857,6.3571
1.10546875,3.0251187516594204e-05,1.755878090638592e-05,2.0487797816433986e-05,3.4156543396658294e-05,4.7857,6.3571
1.109375,7.307221721217687e-06,1.0724408116273763e-05,1.5117933481345863e-05,3.562105185168232e-05,4.7857,6.3571
1.11328125,7.795391206225697e-06,2.3416814726482047e-05,1.5117933481345863e-05,1.8535119876401938e-05,4.7857,6.3571
1.1171875,2.0487797816433986e-05,2.5369492666514095e-05,8.77173017624172e-06,1.6094272451361885e-05,4.7857,6.3571
1.12109375,2.913696356145588e-06,1.7070611421377907e-05,2.439315369649807e-05,2.878667906157017e-05,4.7857,6.3571
1.125,8.283560691233709e-06,1.755878090638592e-05,2.829850957656216e-05,3.3668373911650276e-05,4.7857,6.3571
1.12890625,2.9274848546578178e-05,1.755878090638592e-05,2.5369492666514095e-05,2.829850957656216e-05,4.7857,6.3571
1.1328125,2.5857662151522106e-05,1.2188916571297797e-05,2.1952306271458016e-05,3.1227526486610226e-05,4.7857,6.3571
1.13671875,3.4156543396658294e-05,2.1464136786450005e-05,2.2440475756466028e-05,1.4141594511329842e-05,4.7857,6.3571
1.140625,2.7810340091554148e-05,2.6834001121538125e-05,3.318020442664227e-05,1.2188916571297797e-05,4.7857,6.3571
1.14453125,1.3165255541313818e-05,1.6094272451361885e-05,3.3668373911650276e-05,3.3668373911650276e-05,4.7857,6.3571
1.1484375,1.2188916571297797e-05,1.9999628331425975e-05,2.488132318150608e-05,2.976301803158619e-05,4.7857,6.3571
1.15234375,1.6582441936369896e-05,2.3416814726482047e-05,1.4629763996337851e-05,3.659739082169834e-05,4.7857,6.3571
1.15625,2.488132318150608e-05,2.2440475756466028e-05,2.3904984211490058e-05,3.8550068761730395e-05,4.7857,6.3571
1.16015625,3.3668373911650276e-05,2.878667906157017e-05,3.220386545662624e-05,2.1952306271458016e-05,4.7857,6.3571
1.1640625,2.7810340091554148e-05,2.292864524147404e-05,2.3904984211490058e-05,2.1952306271458016e-05,4.7857,6.3571
1.16796875,2.439315369649807e-05,1.2677086056305808e-05,1.9999628331425975e-05,1.951145884641796e-05,4.7857,6.3571
1.171875,3.4156543396658294e-05,1.5117933481345863e-05,1.1212577601281776e-05,1.8535119876401938e-05,4.7857,6.3571
1.17578125,2.1952306271458016e-05,2.439315369649807e-05,1.365342502632183e-05,2.3416814726482047e-05,4.7857,6.3571
1.1796875,9.748069146257742e-06,2.0487797816433986e-05,2.0975967301441994e-05,2.6834001121538125e-05,4.7857,6.3571
1.18359375,2.439315369649807e-05,1.9999628331425975e-05,2.0975967301441994e-05,2.3416814726482047e-05,4.7857,6.3571
1.1875,2.292864524147404e-05,1.2677086056305808e-05,2.829850957656216e-05,1.8046950391393927e-05,4.7857,6.3571
1.19140625,1.2188916571297797e-05,7.307221721217687e-06,2.9274848546578178e-05,1.8046950391393927e-05,4.7857,6.3571
1.1953125,2.3416814726482047e-05,2.3416814726482047e-05,1.9999628331425975e-05,2.439315369649807e-05,4.7857,6.3571
1.19921875,2.439315369649807e-05,2.0975967301441994e-05,1.951145884641796e-05,3.1227526486610226e-05,4.7857,6.3571
1.203125,1.5117933481345863e-05,9.748069146257742e-06,2.2440475756466028e-05,2.829850957656216e-05,4.7857,6.3571
1.20703125,2.292864524147404e-05,1.365342502632183e-05,2.7322170606546137e-05,2.3416814726482047e-05,4.7857,6.3571
1.2109375,3.4156543396658294e-05,2.6345831636530114e-05,2.3904984211490058e-05,2.2440475756466028e-05,4.7857,6.3571
1.21484375,2.6345831636530114e-05,2.1952306271458016e-05,1.1212577601281776e-05,3.3668373911650276e-05,4.7857,6.3571
1.21875,2.7810340091554148e-05,1.4141594511329842e-05,1.2677086056305808e-05,3.220386545662624e-05,4.7857,6.3571
1.22265625,3.5132882366674316e-05,2.1464136786450005e-05,3.0251187516594204e-05,1.1212577601281776e-05,4.7857,6.3571
1.2265625,2.9274848546578178e-05,2.488132318150608e-05,3.171569597161824e-05,1.2677086056305808e-05,4.7857,6.3571
1.23046875,1.6094272451361885e-05,1.951145884641796e-05,1.0236238631265752e-05,2.3416814726482047e-05,4.7857,6.3571
1.234375,7.795391206225697e-06,1.4141594511329842e-05,5.354543781185643e-06,2.878667906157017e-05,4.7857,6.3571
1.23828125,1.755878090638592e-05,2.5857662151522106e-05,1.6582441936369896e-05,2.2440475756466028e-05,4.7857,6.3571
1.2421875,3.1227526486610226e-05,2.5857662151522106e-05,1.6094272451361885e-05,1.5117933481345863e-05,4.7857,6.3571
1.24609375,4.0990916186770444e-05,1.755878090638592e-05,1.5606102966353874e-05,1.0724408116273763e-05,4.7857,6.3571
1.25,4.4896272066834534e-05,1.4629763996337851e-05,1.0724408116273763e-05,1.6094272451361885e-05,4.7857,6.3571
1.25390625,3.610922133669034e-05,5.842713266193654e-06,-1.170087760128174e-05,1.9999628331425975e-05,4.7857,6.3571
1.2578125,2.0487797816433986e-05,1.5117933481345863e-05,-9.260030176241686e-06,2.3904984211490058e-05,4.7857,6.3571
1.26171875,1.9999628331425975e-05,2.878667906157017e-05,1.2677086056305808e-05,3.0251187516594204e-05,4.7857,6.3571
1.265625,3.610922133669034e-05,2.292864524147404e-05,1.365342502632183e-05,2.2440475756466028e-05,4.7857,6.3571
1.26953125,3.8550068761730395e-05,1.937357386129566e-06,5.842713266193654e-06,2.2440475756466028e-05,4.7857,6.3571
1.2734375,3.659739082169834e-05,7.307221721217687e-06,2.4255268711375773e-06,2.3416814726482047e-05,4.7857,6.3571
1.27734375,2.7810340091554148e-05,2.1952306271458016e-05,1.4141594511329842e-05,2.1464136786450005e-05,4.7857,6.3571
1.28125,2.6345831636530114e-05,1.8535119876401938e-05,1.951145884641796e-05,2.0975967301441994e-05,4.7857,6.3571
1.28515625,2.488132318150608e-05,2.2440475756466028e-05,1.6582441936369896e-05,1.2188916571297797e-05,4.7857,6.3571
1.2890625,1.7070611421377907e-05,2.1952306271458016e-05,2.0487797816433986e-05,1.0724408116273763e-05,4.7857,6.3571
1.29296875,2.5857662151522106e-05,1.2188916571297797e-05,9.259899661249731e-06,2.1464136786450005e-05,4.7857,6.3571
1.296875,1.755878090638592e-05,1.4629763996337851e-05,3.401865841153599e-06,2.292864524147404e-05,4.7857,6.3571
1.30078125,1.0724408116273763e-05,1.902328936140995e-05,1.1700747086289786e-05,2.292864524147404e-05,4.7857,6.3571
1.3046875,3.1227526486610226e-05,1.3165255541313818e-05,1.4629763996337851e-05,2.3904984211490058e-05,4.7857,6.3571
1.30859375,3.1227526486610226e-05,2.0487797816433986e-05,1.4629763996337851e-05,2.9274848546578178e-05,4.7857,6.3571
1.3125,3.562105185168232e-05,1.8535119876401938e-05,2.4255268711375773e-06,2.829850957656216e-05,4.7857,6.3571
1.31640625,4.34317636118105e-05,1.365342502632183e-05,1.2188916571297797e-05,2.292864524147404e-05,4.7857,6.3571
1.3203125,3.659739082169834e-05,2.2440475756466028e-05,2.2440475756466028e-05,2.6834001121538125e-05,4.7857,6.3571
1.32421875,2.488132318150608e-05,2.2440475756466028e-05,2.2440475756466028e-05,2.3416814726482047e-05,4.7857,6.3571
1.328125,2.292864524147404e-05,1.0724408116273763e-05,1.7070611421377907e-05,1.8535119876401938e-05,4.7857,6.3571
1.33203125,1.755878090638592e-05,1.2677086056305808e-05,8.77173017624172e-06,1.2677086056305808e-05,4.7857,6.3571
1.3359375,5.842713266193654e-06,1.365342502632183e-05,3.401865841153599e-06,1.3165255541313818e-05,4.7857,6.3571
1.33984375,2.7810340091554148e-05,1.0724408116273763e-05,7.795391206225697e-06,1.7070611421377907e-05,4.7857,6.3571
1.34375,3.806189927672238e-05,8.77173017624172e-06,9.259899661249731e-06,2.1464136786450005e-05,4.7857,6.3571
1.34765625,3.0251187516594204e-05,1.9999628331425975e-05,7.795391206225697e-06,2.878667906157017e-05,4.7857,6.3571
1.3515625,3.1227526486610226e-05,2.3904984211490058e-05,1.0236238631265752e-05,2.9274848546578178e-05,4.7857,6.3571
1.35546875,3.7573729791714366e-05,9.610184161135442e-07,-5.354674296177598e-06,2.292864524147404e-05,4.7857,6.3571
1.359375,2.488132318150608e-05,-1.937487901121521e-06,-5.842843781185608e-06,2.0975967301441994e-05,4.7857,6.3571
1.36328125,1.8535119876401938e-05,1.9999628331425975e-05,1.1212577601281776e-05,1.5606102966353874e-05,4.7857,6.3571
1.3671875,2.878667906157017e-05,2.2440475756466028e-05,5.842713266193654e-06,1.365342502632183e-05,4.7857,6.3571
1.37109375,1.951145884641796e-05,9.610184161135442e-07,-2.9138268711375426e-06,1.6582441936369896e-05,4.7857,6.3571
1.375,1.902328936140995e-05,-1.937487901121521e-06,7.307221721217687e-06,2.1464136786450005e-05,4.7857,6.3571
1.37890625,2.7322170606546137e-05,4.1479085671778456e-05,4.7337119491874584e-05,2.2440475756466028e-05,4.7857,6.3571
1.3828125,3.610922133669034e-05,3.4156543396658294e-05,3.220386545662624e-05,2.439315369649807e-05,4.7857,6.3571
1.38671875,3.8550068761730395e-05,-8.771860691233675e-06,-2.097609781643395e-05,2.5857662151522106e-05,4.7857,6.3571
1.390625,3.4156543396658294e-05,-1.4141725026321795e-05,-1.999975884641793e-05,9.259899661249731e-06,4.7857,6.3571
1.39453125,2.1464136786450005e-05,-5.354674296177598e-06,-1.609440296635384e-05,5.842713266193654e-06,4.7857,6.3571
1.3984375,3.562105185168232e-05,-1.2189047086289752e-05,-3.5133012881666264e-05,7.795391206225697e-06,4.7857,6.3571
1.40234375,4.196725515678646e-05,-2.5857792666514058e-05,-2.0487928331425938e-05,6.819052236209676e-06,4.7857,6.3571
1.40625,4.5872611036850557e-05,-1.2677216571297761e-05,-5.842843781185608e-06,4.866374296177632e-06,4.7857,6.3571
1.41015625,4.245542464179448e-05,-8.771860691233675e-06,-1.9023419876401904e-05,3.401865841153599e-06,4.7857,6.3571
1.4140625,2.439315369649807e-05,-8.283691206225664e-06,-8.771860691233675e-06,1.365342502632183e-05,4.7857,6.3571
1.41796875,2.5857662151522106e-05,2.913696356145588e-06,-3.401996356145554e-06,1.2188916571297797e-05,4.7857,6.3571
1.421875,3.659739082169834e-05,1.5606102966353874e-05,3.401865841153599e-06,8.283560691233709e-06,4.7857,6.3571
1.42578125,3.7573729791714366e-05,2.3416814726482047e-05,1.6094272451361885e-05,1.5606102966353874e-05,4.7857,6.3571
1.4296875,2.829850957656216e-05,1.7070611421377907e-05,8.283560691233709e-06,8.283560691233709e-06,4.7857,6.3571
1.43359375,2.292864524147404e-05,3.220386545662624e-05,7.795391206225697e-06,1.4491879011215552e-06,4.7857,6.3571
1.4375,4.684895000686658e-05,2.2440475756466028e-05,7.795391206225697e-06,3.401865841153599e-06,4.7857,6.3571
1.44140625,4.0990916186770444e-05,1.0236238631265752e-05,2.0487797816433986e-05,7.795391206225697e-06,4.7857,6.3571
1.4453125,1.2188916571297797e-05,2.3416814726482047e-05,2.976301803158619e-05,1.4629763996337851e-05,4.7857,6.3571
1.44921875,1.951145884641796e-05,2.9274848546578178e-05,2.1464136786450005e-05,1.4629763996337851e-05,4.7857,6.3571
1.453125,3.7573729791714366e-05,2.0487797816433986e-05,1.4141594511329842e-05,1.2677086056305808e-05,4.7857,6.3571
1.45703125,4.294359412680248e-05,3.269203494163426e-05,1.9999628331425975e-05,1.8535119876401938e-05,4.7857,6.3571
1.4609375,4.7337119491874584e-05,3.5132882366674316e-05,3.46447128816663e-05,2.6834001121538125e-05,4.7857,6.3571
1.46484375,3.46447128816663e-05,1.4141594511329842e-05,2.976301803158619e-05,1.8535119876401938e-05,4.7857,6.3571
1.46875,1.2188916571297797e-05,1.6582441936369896e-05,1.755878090638592e-05,5.842713266193654e-06,4.7857,6.3571
1.47265625,2.3904984211490058e-05,2.5857662151522106e-05,1.5606102966353874e-05,7.795391206225697e-06,4.7857,6.3571
1.4765625,1.7070611421377907e-05,1.9999628331425975e-05,2.7810340091554148e-05,1.2677086056305808e-05,4.7857,6.3571
1.48046875,8.283560691233709e-06,-1.2189047086289752e-05,3.220386545662624e-05,1.1700747086289786e-05,4.7857,6.3571
1.484375,9.259899661249731e-06,1.8046950391393927e-05,3.0739357001602215e-05,1.5117933481345863e-05,4.7857,6.3571
1.48828125,2.829850957656216e-05,4.440810258182652e-05,3.0739357001602215e-05,1.0724408116273763e-05,4.7857,6.3571
1.4921875,3.610922133669034e-05,1.2188916571297797e-05,2.5369492666514095e-05,1.0724408116273763e-05,4.7857,6.3571
1.49609375,3.610922133669034e-05,2.3416814726482047e-05,1.8046950391393927e-05,1.5606102966353874e-05,4.7857,6.3571
1.5,5.1730644856946685e-05,3.220386545662624e-05,1.8046950391393927e-05,1.7070611421377907e-05,4.7857,6.3571
1.50390625,4.245542464179448e-05,1.2188916571297797e-05,1.4629763996337851e-05,1.4141594511329842e-05,4.7857,6.3571
1.5078125,3.0251187516594204e-05,4.34317636118105e-05,1.9999628331425975e-05,1.8046950391393927e-05,4.7857,6.3571
1.51171875,3.318020442664227e-05,3.318020442664227e-05,2.976301803158619e-05,1.8046950391393927e-05,4.7857,6.3571
1.515625,3.0251187516594204e-05,4.866374296177632e-06,2.6345831636530114e-05,5.354543781185643e-06,4.7857,6.3571
1.51953125,1.2188916571297797e-05,8.283560691233709e-06,2.1952306271458016e-05,1.1700747086289786e-05,4.7857,6.3571
1.5234375,2.7322170606546137e-05,2.5857662151522106e-05,2.439315369649807e-05,1.2188916571297797e-05,4.7857,6.3571
1.52734375,6.640624000000002e-05,2.829850957656216e-05,1.5117933481345863e-05,9.259899661249731e-06,4.7857,6.3571
1.53125,5.465966176699475e-05,1.365342502632183e-05,3.401865841153599e-06,1.951145884641796e-05,4.7857,6.3571
1.53515625,1.6582441936369896e-05,2.878667906157017e-05,1.7070611421377907e-05,1.902328936140995e-05,4.7857,6.3571
1.5390625,6.819052236209676e-06,4.684895000686658e-05,3.171569597161824e-05,2.0487797816433986e-05,4.7857,6.3571
1.54296875,1.1212577601281776e-05,3.7573729791714366e-05,2.292864524147404e-05,1.5606102966353874e-05,4.7857,6.3571
1.546875,1.7070611421377907e-05,3.3668373911650276e-05,2.3416814726482047e-05,1.1212577601281776e-05,4.7857,6.3571
1.55078125,2.0975967301441994e-05,2.292864524147404e-05,1.902328936140995e-05,1.2677086056305808e-05,4.7857,6.3571
1.5546875,3.220386545662624e-05,8.283560691233709e-06,1.2188916571297797e-05,9.748069146257742e-06,4.7857,6.3571
1.55859375,3.3668373911650276e-05,-1.5320553902477717e-08,1.4629763996337851e-05,1.0724408116273763e-05,4.7857,6.3571
1.5625,2.5369492666514095e-05,2.0487797816433986e-05,2.5857662151522106e-05,2.3416814726482047e-05,4.7857,6.3571
1.56640625,4.5872611036850557e-05,3.3668373911650276e-05,2.2440475756466028e-05,2.0975967301441994e-05,4.7857,6.3571
1.5703125,4.050274670176243e-05,-4.72979446097488e-07,1.8046950391393927e-05,1.5117933481345863e-05,4.7857,6.3571
1.57421875,1.937357386129566e-06,1.0724408116273763e-05,3.220386545662624e-05,1.902328936140995e-05,4.7857,6.3571
1.578125,-1.3653555541313785e-05,4.34317636118105e-05,4.0990916186770444e-05,1.3165255541313818e-05,4.7857,6.3571
1.58203125,2.1464136786450005e-05,3.0739357001602215e-05,3.4156543396658294e-05,1.0724408116273763e-05,4.7857,6.3571
1.5859375,7.128793485008013e-05,1.4141594511329842e-05,2.878667906157017e-05,1.2188916571297797e-05,4.7857,6.3571
1.58984375,4.5872611036850557e-05,1.7070611421377907e-05,2.1952306271458016e-05,1.951145884641796e-05,4.7857,6.3571
1.59375,1.5606102966353874e-05,5.954135661707486e-05,1.951145884641796e-05,2.6345831636530114e-05,4.7857,6.3571
1.59765625,3.1227526486610226e-05,4.34317636118105e-05,1.5606102966353874e-05,1.7070611421377907e-05,4.7857,6.3571
1.6015625,2.829850957656216e-05,-3.890165841153565e-06,7.307221721217687e-06,8.77173017624172e-06,4.7857,6.3571
1.60546875,3.171569597161824e-05,1.8046950391393927e-05,1.755878090638592e-05,3.401865841153599e-06,4.7857,6.3571
1.609375,1.951145884641796e-05,3.269203494163426e-05,3.46447128816663e-05,1.8046950391393927e-05,4.7857,6.3571
1.61328125,3.269203494163426e-05,3.5132882366674316e-05,3.562105185168232e-05,2.9274848546578178e-05,4.7857,6.3571
1.6171875,1.1212577601281776e-05,4.538444155184254e-05,2.6834001121538125e-05,2.9274848546578178e-05,4.7857,6.3571
1.62109375,8.77173017624172e-06,3.5132882366674316e-05,2.878667906157017e-05,2.7322170606546137e-05,4.7857,6.3571
1.625,4.4896272066834534e-05,2.829850957656216e-05,3.3668373911650276e-05,2.6345831636530114e-05,4.7857,6.3571
1.62890625,5.465966176699475e-05,3.0251187516594204e-05,2.0487797816433986e-05,2.1952306271458016e-05,4.7857,6.3571
1.6328125,2.7810340091554148e-05,1.1212577601281776e-05,1.8535119876401938e-05,1.7070611421377907e-05,4.7857,6.3571
1.63671875,2.878667906157017e-05,1.902328936140995e-05,3.3668373911650276e-05,1.7070611421377907e-05,4.7857,6.3571
1.640625,3.5132882366674316e-05,5.417149228198674e-05,4.245542464179448e-05,1.5606102966353874e-05,4.7857,6.3571
1.64453125,2.0487797816433986e-05,4.880162794689862e-05,5.075430588693066e-05,1.8046950391393927e-05,4.7857,6.3571
1.6484375,2.3904984211490058e-05,5.368332279697873e-05,4.538444155184254e-05,2.3416814726482047e-05,4.7857,6.3571
1.65234375,3.7085560306706354e-05,3.90382382467384e-05,6.330882751201665e-06,2.0487797816433986e-05,4.7857,6.3571
1.65625,1.3165255541313818e-05,7.795391206225697e-06,1.0236238631265752e-05,2.292864524147404e-05,4.7857,6.3571
1.66015625,2.5369492666514095e-05,1.755878090638592e-05,2.3904984211490058e-05,2.1464136786450005e-05,4.7857,6.3571
1.6640625,2.5857662151522106e-05,2.7322170606546137e-05,2.1952306271458016e-05,2.1952306271458016e-05,4.7857,6.3571
1.66796875,7.307221721217687e-06,2.976301803158619e-05,4.196725515678646e-05,3.0739357001602215e-05,4.7857,6.3571
1.671875,1.0724408116273763e-05,4.001457721675442e-05,1.7070611421377907e-05,1.902328936140995e-05,4.7857,6.3571
1.67578125,1.1212577601281776e-05,-4.866504811169587e-06,-8.283691206225664e-06,5.354543781185643e-06,4.7857,6.3571
1.6796875,1.6094272451361885e-05,1.937357386129566e-06,1.6094272451361885e-05,1.0236238631265752e-05,4.7857,6.3571
1.68359375,2.0975967301441994e-05,3.610922133669034e-05,2.1464136786450005e-05,1.6582441936369896e-05,4.7857,6.3571
1.6875,8.105132455024035e-05,-1.0236369146257707e-05,1.1700747086289786e-05,1.2677086056305808e-05,4.7857,6.3571
1.69140625,1.5606102966353874e-05,-2.3416945241474e-05,2.1464136786450005e-05,2.292864524147404e-05,4.7857,6.3571
1.6953125,-3.65975213366903e-05,-8.771860691233675e-06,1.6582441936369896e-05,3.4156543396658294e-05,4.7857,6.3571
1.69921875,2.3904984211490058e-05,2.829850957656216e-05,1.8046950391393927e-05,2.5369492666514095e-05,4.7857,6.3571
1.703125,1.6582441936369896e-05,5.319515331197072e-05,4.050274670176243e-05,2.3416814726482047e-05,4.7857,6.3571
1.70703125,7.958681609521631e-05,2.439315369649807e-05,3.0739357001602215e-05,1.3165255541313818e-05,4.7857,6.3571
1.7109375,9.61845785854887e-05,7.795391206225697e-06,2.2440475756466028e-05,5.842713266193654e-06,4.7857,6.3571
1.71484375,4.7284893110553325e-07,3.269203494163426e-05,2.6345831636530114e-05,1.1700747086289786e-05,4.7857,6.3571
1.71875,-1.2677216571297761e-05,8.283560691233709e-06,1.365342502632183e-05,1.5117933481345863e-05,4.7857,6.3571
1.72265625,8.77173017624172e-06,8.77173017624172e-06,2.5857662151522106e-05,2.2440475756466028e-05,4.7857,6.3571
1.7265625,9.259899661249731e-06,4.245542464179448e-05,3.806189927672238e-05,2.439315369649807e-05,4.7857,6.3571
1.73046875,1.7070611421377907e-05,6.640624000000002e-05,2.7322170606546137e-05,2.6345831636530114e-05,4.7857,6.3571
1.734375,7.665779918516825e-05,9.423190064545664e-05,2.1952306271458016e-05,1.1700747086289786e-05,4.7857,6.3571
1.73828125,4.391993309681851e-05,4.684895000686658e-05,2.3416814726482047e-05,9.748069146257742e-06,4.7857,6.3571
1.7421875,-3.610935185168229e-05,5.5636000737010774e-05,3.806189927672238e-05,2.488132318150608e-05,4.7857,6.3571
1.74609375,2.1952306271458016e-05,2.1464136786450005e-05,2.6345831636530114e-05,1.0236238631265752e-05,4.7857,6.3571
1.75,6.051769558709088e-05,-1.755891142137787e-05,6.819052236209676e-06,2.913696356145588e-06,4.7857,6.3571
1.75390625,1.3165255541313818e-05,-1.999975884641793e-05,1.2188916571297797e-05,1.755878090638592e-05,4.7857,6.3571
1.7578125,-6.819182751201631e-06,1.7070611421377907e-05,3.4156543396658294e-05,2.9274848546578178e-05,4.7857,6.3571
1.76171875,7.307221721217687e-06,9.667274807049669e-05,4.7337119491874584e-05,3.5132882366674316e-05,4.7857,6.3571
1.765625,3.7085560306706354e-05,3.7573729791714366e-05,2.7322170606546137e-05,2.439315369649807e-05,4.7857,6.3571
1.76953125,0.00010008993446555277,-7.519342124513615e-05,9.610184161135442e-07,9.748069146257742e-06,4.7857,6.3571
1.7734375,3.8550068761730395e-05,-1.170087760128174e-05,1.902328936140995e-05,3.318020442664227e-05,4.7857,6.3571
1.77734375,-1.560623348134583e-05,6.933525691004809e-05,3.90382382467384e-05,3.562105185168232e-05,4.7857,6.3571
1.78125,-3.366850442664224e-05,3.659739082169834e-05,5.124247537193867e-05,1.8046950391393927e-05,4.7857,6.3571
1.78515625,-1.4141725026321795e-05,-6.247050404211488e-05,4.001457721675442e-05,1.4629763996337851e-05,4.7857,6.3571
1.7890625,3.3668373911650276e-05,-6.198233455710688e-05,1.9999628331425975e-05,1.365342502632183e-05,4.7857,6.3571
1.79296875,4.440810258182652e-05,0.00011766403592584118,4.4896272066834534e-05,1.7070611421377907e-05,4.7857,6.3571
1.796875,6.982342639505609e-05,6.247037352712293e-05,1.902328936140995e-05,1.6094272451361885e-05,4.7857,6.3571
1.80078125,3.220386545662624e-05,-7.079989588006407e-05,2.0975967301441994e-05,2.292864524147404e-05,4.7857,6.3571
1.8046875,-9.748199661249696e-06,2.7810340091554148e-05,5.465966176699475e-05,3.0739357001602215e-05,4.7857,6.3571
1.80859375,2.7810340091554148e-05,0.00017087450979171435,2.439315369649807e-05,2.1952306271458016e-05,4.7857,6.3571
1.8125,-3.401996356145554e-06,0.00010204261240558482,1.4629763996337851e-05,2.1464136786450005e-05,4.7857,6.3571
1.81640625,-1.5118063996337817e-05,-3.562118236667428e-05,3.952640773174641e-05,2.439315369649807e-05,4.7857,6.3571
1.8203125,2.7322170606546137e-05,-0.00017526816567177842,3.0739357001602215e-05,1.4629763996337851e-05,4.7857,6.3571
1.82421875,-3.122765700160218e-05,-8.202779403524831e-05,4.4896272066834534e-05,2.1464136786450005e-05,4.7857,6.3571
1.828125,-4.5872741551842505e-05,0.00019625932301213094,7.47051212451362e-05,4.050274670176243e-05,4.7857,6.3571
1.83203125,3.90382382467384e-05,0.00024608312107576104,3.318020442664227e-05,3.0739357001602215e-05,4.7857,6.3571
1.8359375,3.8550068761730395e-05,7.226427382009615e-05,3.4156543396658294e-05,2.6834001121538125e-05,4.7857,6.3571
1.83984375,5.026613640192266e-05,-5.90533176470588e-05,4.294359412680248e-05,3.0251187516594204e-05,4.7857,6.3571
1.84375,9.227922270542459e-05,-7.128806536507208e-05,-3.401996356145554e-06,1.365342502632183e-05,4.7857,6.3571
1.84765625,4.001457721675442e-05,-0.00013133291202105743,-2.8786809576562122e-05,4.378204811169621e-06,4.7857,6.3571
1.8515625,-5.758880919203477e-05,-6.689453999999997e-05,5.842713266193654e-06,3.269203494163426e-05,4.7857,6.3571
1.85546875,-1.658257245136185e-05,0.0001513477303913939,1.4141594511329842e-05,4.538444155184254e-05,4.7857,6.3571
1.859375,8.935020579537654e-05,5.905318713206685e-05,-4.636091103685052e-05,1.4141594511329842e-05,4.7857,6.3571
1.86328125,8.642118888532846e-05,-0.00011131796313572899,-7.128806536507208e-05,1.8535119876401938e-05,4.7857,6.3571
1.8671875,6.247037352712293e-05,-7.616976021515219e-05,-8.593314991531242e-05,3.1227526486610226e-05,4.7857,6.3571
1.87109375,0.0001015544429205768,-0.00014011996275120161,-0.0001259630476859693,1.7070611421377907e-05,4.7857,6.3571
1.875,0.0001230339002609293,-0.00014158447120622564,-0.00014256081017624168,2.3904984211490058e-05,4.7857,6.3571
1.87890625,8.642118888532846e-05,-9.227935322041655e-05,-0.00015671772524147398,4.001457721675442e-05,4.7857,6.3571
1.8828125,9.276739219043261e-05,-0.0001479306745113298,-0.00017282731824673836,3.952640773174641e-05,4.7857,6.3571
1.88671875,0.00012498657820096134,-0.00011278247159075301,-0.00020361250639505606,2.5369492666514095e-05,4.7857,6.3571
1.890625,0.00016501647597161822,-0.0001391436237811856,-0.00023046182807049667,2.7322170606546137e-05,4.7857,6.3571
1.89453125,0.0001689218318516823,-0.00031345064052185854,-0.0002587756582009613,3.4156543396658294e-05,4.7857,6.3571
1.8984375,0.00010790064622568095,-0.0003237021997070267,-0.0002543821328358892,2.976301803158619e-05,4.7857,6.3571
1.90234375,0.00013914349326619364,-0.00018991325022201875,-0.00023631986189059278,3.0251187516594204e-05,4.7857,6.3571
1.90625,0.00017477986567177844,-0.00022948548910048063,-0.0002597519971709773,3.562105185168232e-05,4.7857,6.3571
1.91015625,0.00012889193408102543,-0.00019723579249713894,-0.00024413057365072096,4.684895000686658e-05,4.7857,6.3571
1.9140625,0.00010350712086060884,-0.00017087464030670634,-0.00021386406558022427,4.7825288976882595e-05,4.7857,6.3571
1.91796875,0.00013963166275120166,-0.00016696928442664225,-0.00022118660785534443,3.46447128816663e-05,4.7857,6.3571
1.921875,7.90986466102083e-05,-0.00014109630172121765,-0.00018259070794689858,4.001457721675442e-05,4.7857,6.3571
1.92578125,5.368332279697873e-05,-0.00013279742047608145,-0.00014060813223620966,3.269203494163426e-05,4.7857,6.3571
1.9296875,0.00015720576421149007,-0.00019821213146715492,-0.0001738036572167544,8.77173017624172e-06,4.7857,6.3571
1.93359375,9.276739219043261e-05,-0.00022069843837033644,-0.00016062308112153807,2.7322170606546137e-05,4.7857,6.3571
1.9375,2.0975967301441994e-05,-4.1479216186770404e-05,-0.00010594809880064086,5.319515331197072e-05,4.7857,6.3571
1.94140625,7.42169517601282e-05,4.0990916186770444e-05,-6.539952095216295e-05,4.636078052185856e-05,4.7857,6.3571
1.9453125,8.83738668253605e-05,-4.2455555156786426e-05,-5.758880919203477e-05,3.90382382467384e-05,4.7857,6.3571
1.94921875,4.050274670176243e-05,-1.4629894511329806e-05,-4.9289927946898583e-05,3.8550068761730395e-05,4.7857,6.3571
1.953125,4.001457721675442e-05,1.2188916571297797e-05,-2.7810470606546103e-05,2.829850957656216e-05,4.7857,6.3571
1.95703125,3.46447128816663e-05,-3.2692165456626215e-05,-1.5118063996337817e-05,2.439315369649807e-05,4.7857,6.3571
1.9609375,2.0975967301441994e-05,2.913696356145588e-06,5.842713266193654e-06,1.8535119876401938e-05,4.7857,6.3571
1.96484375,6.330882751201665e-06,7.763413815518427e-05,3.220386545662624e-05,1.5117933481345863e-05,4.7857,6.3571
1.96875,-1.5118063996337817e-05,7.568146021515222e-05,5.417149228198674e-05,1.902328936140995e-05,4.7857,6.3571
1.97265625,1.5606102966353874e-05,1.0236238631265752e-05,4.196725515678646e-05,1.2188916571297797e-05,4.7857,6.3571
1.9765625,9.610184161135442e-07,1.4629763996337851e-05,6.051769558709088e-05,1.8535119876401938e-05,4.7857,6.3571
1.98046875,5.842713266193654e-06,9.813725652552073e-05,9.862542601052873e-05,3.0251187516594204e-05,4.7857,6.3571
1.984375,2.0487797816433986e-05,0.00018356691640192266,0.00010594796828564891,2.439315369649807e-05,4.7857,6.3571
1.98828125,-1.3653555541313785e-05,9.325556167544062e-05,9.911359549553675e-05,1.7070611421377907e-05,4.7857,6.3571
1.9921875,-5.173077537193864e-05,0.00011619952747081714,0.00011278234107576106,2.3904984211490058e-05,4.7857,6.3571
1.99609375,-3.562118236667428e-05,0.00014451335760128176,0.00011131783262073704,1.902328936140995e-05,4.7857,6.3571
2.0,1.1700747086289786e-05,7.958681609521631e-05,9.71609175555047e-05,1.1212577601281776e-05,4.7857,6.3571
2.00390625,5.354543781185643e-06,3.952640773174641e-05,9.569640910048068e-05,7.795391206225697e-06,4.7857,6.3571
2.0078125,-3.415667391165024e-05,0.0001459778660563058,0.00011571135798580912,1.1212577601281776e-05,4.7857,6.3571
2.01171875,-1.3653555541313785e-05,0.00016599281494163425,0.00011668769695582514,1.0236238631265752e-05,4.7857,6.3571
2.015625,-2.8298640091554114e-05,0.00010253078189059284,0.00011961671386587322,1.5606102966353874e-05,4.7857,6.3571
2.01953125,4.866374296177632e-06,0.00012205756129091327,0.00012596291717097735,7.795391206225697e-06,4.7857,6.3571
2.0234375,-2.8298640091554114e-05,0.00014256067966124974,0.00013474996790112154,1.6094272451361885e-05,4.7857,6.3571
2.02734375,-3.562118236667428e-05,9.71609175555047e-05,0.00013084461202105745,1.8046950391393927e-05,4.7857,6.3571
2.03125,-5.354674296177598e-06,0.00012498657820096134,0.00011473501901579311,1.0724408116273763e-05,4.7857,6.3571
2.03515625,-1.804708090638588e-05,0.0002089822402151522,0.00012889193408102543,1.902328936140995e-05,4.7857,6.3571
2.0390625,-5.075443640192262e-05,0.00010692430725566493,0.00014256067966124974,1.365342502632183e-05,4.7857,6.3571
2.04296875,-5.954148713206682e-05,0.00011619952747081714,0.00014841871348134585,6.330882751201665e-06,4.7857,6.3571
2.046875,-1.999975884641793e-05,0.0001952829840421149,0.00014256067966124974,3.890035326161609e-06,4.7857,6.3571
2.05078125,1.8046950391393927e-05,0.00010838881571068896,0.00010985332416571298,-3.401996356145554e-06,4.7857,6.3571
2.0546875,7.795391206225697e-06,8.283560691233709e-06,9.032654476539255e-05,4.378204811169621e-06,4.7857,6.3571
2.05859375,-2.2928775756465994e-05,9.276739219043261e-05,0.00011327051056076907,2.1464136786450005e-05,4.7857,6.3571
2.0625,3.5132882366674316e-05,0.0001855195943419547,0.00013816715429617763,1.8046950391393927e-05,4.7857,6.3571
2.06640625,2.7810340091554148e-05,0.00014646603554131383,0.00012156939180590525,1.6582441936369896e-05,4.7857,6.3571
2.0703125,-3.562118236667428e-05,8.593301940032045e-05,0.000110341493650721,1.7070611421377907e-05,4.7857,6.3571
2.07421875,-5.612430073701074e-05,0.00013230912047608147,0.00012010488335088121,2.1952306271458016e-05,4.7857,6.3571
2.078125,-7.307352236209642e-06,0.00015427674730144199,0.00010643613777065691,1.5606102966353874e-05,4.7857,6.3571
2.08203125,2.4255268711375773e-06,0.00010790064622568095,0.00010545979880064089,7.795391206225697e-06,4.7857,6.3571
2.0859375,-1.560623348134583e-05,0.00010204261240558482,0.00011619952747081714,1.8535119876401938e-05,4.7857,6.3571
2.08984375,-1.999975884641793e-05,0.00014890688296635387,0.0001274274256260014,2.3416814726482047e-05,4.7857,6.3571
2.09375,5.66123397070268e-05,0.00011864037489585719,0.00010545979880064089,2.4255268711375773e-06,4.7857,6.3571
2.09765625,-1.937487901121521e-06,9.259899661249731e-06,0.00010057810395056078,9.748069146257742e-06,4.7857,6.3571
2.1015625,-5.3683453311970684e-05,2.976301803158619e-05,0.00011619952747081714,3.1227526486610226e-05,4.7857,6.3571
2.10546875,-4.3431894126802455e-05,0.00019381847558709087,0.0001240102392309453,3.269203494163426e-05,4.7857,6.3571
2.109375,-1.5320553902477717e-08,0.00017136267927672237,0.00010790064622568095,1.755878090638592e-05,4.7857,6.3571
2.11328125,1.6094272451361885e-05,6.539939043717099e-05,8.593301940032045e-05,8.283560691233709e-06,4.7857,6.3571
2.1171875,-7.307352236209642e-06,0.000110341493650721,0.0001015544429205768,1.0236238631265752e-05,4.7857,6.3571
2.12109375,4.440810258182652e-05,8.349217197528039e-05,9.862542601052873e-05,-1.5320553902477717e-08,4.7857,6.3571
2.125,5.842713266193654e-06,5.368332279697873e-05,0.0001010662734355688,1.1212577601281776e-05,4.7857,6.3571
2.12890625,4.7284893110553325e-07,9.71609175555047e-05,9.960176498054477e-05,2.1464136786450005e-05,4.7857,6.3571
2.1328125,1.5606102966353874e-05,7.128793485008013e-05,8.495668043030443e-05,1.9999628331425975e-05,4.7857,6.3571
2.13671875,-2.5857792666514058e-05,0.00013767898481116962,9.569640910048068e-05,2.878667906157017e-05,4.7857,6.3571
2.140625,-7.307352236209642e-06,0.00014402518811627377,9.61845785854887e-05,2.7322170606546137e-05,4.7857,6.3571
2.14453125,-8.283691206225664e-06,4.001457721675442e-05,8.642118888532846e-05,2.439315369649807e-05,4.7857,6.3571
2.1484375,-3.401996356145554e-06,7.324061279011216e-05,7.47051212451362e-05,1.951145884641796e-05,4.7857,6.3571
2.15234375,5.514783125200276e-05,8.83738668253605e-05,4.7337119491874584e-05,4.378204811169621e-06,4.7857,6.3571
2.15625,1.951145884641796e-05,5.026613640192266e-05,4.34317636118105e-05,9.259899661249731e-06,4.7857,6.3571
2.16015625,-1.44931841611351e-06,4.001457721675442e-05,5.758867867704282e-05,1.1212577601281776e-05,4.7857,6.3571
2.1640625,-2.425657386129532e-06,7.47051212451362e-05,7.568146021515222e-05,1.1212577601281776e-05,4.7857,6.3571
2.16796875,8.77173017624172e-06,0.00012498657820096134,7.324061279011216e-05,1.8535119876401938e-05,4.7857,6.3571
2.171875,1.1700747086289786e-05,6.835891794003205e-05,5.026613640192266e-05,1.7070611421377907e-05,4.7857,6.3571
2.17578125,3.1227526486610226e-05,6.640624000000002e-05,5.8076848162050824e-05,2.439315369649807e-05,4.7857,6.3571
2.1796875,4.636078052185856e-05,3.952640773174641e-05,6.393488198214696e-05,2.2440475756466028e-05,4.7857,6.3571
2.18359375,1.1700747086289786e-05,5.026613640192266e-05,7.177610433508813e-05,2.5857662151522106e-05,4.7857,6.3571
2.1875,2.5369492666514095e-05,4.9289797431906635e-05,5.758867867704282e-05,2.0487797816433986e-05,4.7857,6.3571
2.19140625,6.819052236209676e-06,3.220386545662624e-05,5.465966176699475e-05,1.7070611421377907e-05,4.7857,6.3571
2.1953125,-1.4629894511329806e-05,4.831345846189061e-05,6.198220404211491e-05,2.1952306271458016e-05,4.7857,6.3571
2.19921875,1.365342502632183e-05,7.42169517601282e-05,6.247037352712293e-05,1.951145884641796e-05,4.7857,6.3571
2.203125,3.3668373911650276e-05,6.835891794003205e-05,6.149403455710691e-05,1.0724408116273763e-05,4.7857,6.3571
2.20703125,4.977796691691464e-05,5.319515331197072e-05,5.5636000737010774e-05,4.866374296177632e-06,4.7857,6.3571
2.2109375,3.610922133669034e-05,8.105132455024035e-05,6.539939043717099e-05,1.9999628331425975e-05,4.7857,6.3571
2.21484375,3.401865841153599e-06,4.0990916186770444e-05,5.71005091920348e-05,3.220386545662624e-05,4.7857,6.3571
2.21875,3.46447128816663e-05,3.0251187516594204e-05,3.318020442664227e-05,1.4629763996337851e-05,4.7857,6.3571
2.22265625,2.1464136786450005e-05,3.806189927672238e-05,4.538444155184254e-05,6.819052236209676e-06,4.7857,6.3571
2.2265625,-1.0236369146257707e-05,1.0236238631265752e-05,5.2218814341954696e-05,1.7070611421377907e-05,4.7857,6.3571
2.23046875,-9.61148931105499e-07,8.935020579537654e-05,6.10058650720989e-05,2.3416814726482047e-05,4.7857,6.3571
2.234375,3.0739357001602215e-05,0.00010350712086060884,6.198220404211491e-05,1.8046950391393927e-05,4.7857,6.3571
2.23828125,3.3668373911650276e-05,6.198220404211491e-05,5.026613640192266e-05,1.2677086056305808e-05,4.7857,6.3571
2.2421875,1.6582441936369896e-05,4.196725515678646e-05,4.5872611036850557e-05,1.755878090638592e-05,4.7857,6.3571
2.24609375,1.5606102966353874e-05,7.079976536507211e-05,6.149403455710691e-05,2.6345831636530114e-05,4.7857,6.3571
2.25,6.0029526102082876e-05,4.5872611036850557e-05,3.7573729791714366e-05,1.3165255541313818e-05,4.7857,6.3571
2.25390625,4.196725515678646e-05,1.8046950391393927e-05,3.5132882366674316e-05,1.5606102966353874e-05,4.7857,6.3571
2.2578125,4.866374296177632e-06,6.247037352712293e-05,5.8076848162050824e-05,2.5369492666514095e-05,4.7857,6.3571
2.26171875,2.3416814726482047e-05,2.488132318150608e-05,5.1730644856946685e-05,9.748069146257742e-06,4.7857,6.3571
2.265625,9.610184161135442e-07,3.562105185168232e-05,5.71005091920348e-05,1.4629763996337851e-05,4.7857,6.3571
2.26953125,3.7085560306706354e-05,7.568146021515222e-05,4.4896272066834534e-05,1.6094272451361885e-05,4.7857,6.3571
2.2734375,1.9999628331425975e-05,7.128793485008013e-05,4.7825288976882595e-05,1.9999628331425975e-05,4.7857,6.3571
2.27734375,3.3668373911650276e-05,6.0029526102082876e-05,5.2218814341954696e-05,1.9999628331425975e-05,4.7857,6.3571
2.28125,9.081471425040057e-05,3.659739082169834e-05,4.538444155184254e-05,1.2188916571297797e-05,4.7857,6.3571
2.28515625,6.247037352712293e-05,1.8535119876401938e-05,3.3668373911650276e-05,8.283560691233709e-06,4.7857,6.3571
2.2890625,4.001457721675442e-05,3.7085560306706354e-05,3.90382382467384e-05,3.890035326161609e-06,4.7857,6.3571
2.29296875,7.275244330510416e-05,4.196725515678646e-05,4.9289797431906635e-05,4.7284893110553325e-07,4.7857,6.3571
2.296875,4.0990916186770444e-05,2.9274848546578178e-05,1.5117933481345863e-05,7.307221721217687e-06,4.7857,6.3571
2.30078125,3.0251187516594204e-05,2.976301803158619e-05,1.2677086056305808e-05,6.330882751201665e-06,4.7857,6.3571
2.3046875,4.0990916186770444e-05,3.562105185168232e-05,3.952640773174641e-05,6.819052236209676e-06,4.7857,6.3571
2.30859375,3.318020442664227e-05,6.884708742504007e-05,4.1479085671778456e-05,1.0724408116273763e-05,4.7857,6.3571
2.3125,3.46447128816663e-05,4.5872611036850557e-05,3.220386545662624e-05,4.378204811169621e-06,4.7857,6.3571
2.31640625,1.755878090638592e-05,4.294359412680248e-05,4.7337119491874584e-05,3.890035326161609e-06,4.7857,6.3571
2.3203125,4.245542464179448e-05,7.079976536507211e-05,4.831345846189061e-05,7.307221721217687e-06,4.7857,6.3571
2.32421875,6.640624000000002e-05,6.393488198214696e-05,4.196725515678646e-05,4.378204811169621e-06,4.7857,6.3571
2.328125,7.90986466102083e-05,2.829850957656216e-05,4.245542464179448e-05,-2.9138268711375426e-06,4.7857,6.3571
2.33203125,5.319515331197072e-05,2.439315369649807e-05,3.220386545662624e-05,2.913696356145588e-06,4.7857,6.3571
2.3359375,1.8535119876401938e-05,5.270698382696271e-05,3.3668373911650276e-05,1.1700747086289786e-05,4.7857,6.3571
2.33984375,2.829850957656216e-05,4.880162794689862e-05,4.34317636118105e-05,1.6582441936369896e-05,4.7857,6.3571
2.34375,2.3416814726482047e-05,3.90382382467384e-05,4.684895000686658e-05,1.951145884641796e-05,4.7857,6.3571
2.34765625,3.3668373911650276e-05,5.612417022201878e-05,4.391993309681851e-05,1.1212577601281776e-05,4.7857,6.3571
2.3515625,4.538444155184254e-05,3.90382382467384e-05,3.7085560306706354e-05,7.795391206225697e-06,4.7857,6.3571
2.35546875,4.34317636118105e-05,3.7085560306706354e-05,3.659739082169834e-05,9.748069146257742e-06,4.7857,6.3571
2.359375,4.684895000686658e-05,5.66123397070268e-05,4.440810258182652e-05,1.2677086056305808e-05,4.7857,6.3571
2.36328125,4.7825288976882595e-05,5.270698382696271e-05,4.391993309681851e-05,1.365342502632183e-05,4.7857,6.3571
2.3671875,1.6582441936369896e-05,3.7573729791714366e-05,3.3668373911650276e-05,1.5117933481345863e-05,4.7857,6.3571
2.37109375,1.1212577601281776e-05,3.952640773174641e-05,2.976301803158619e-05,1.6582441936369896e-05,4.7857,6.3571
2.375,4.880162794689862e-05,3.0251187516594204e-05,2.7810340091554148e-05,1.902328936140995e-05,4.7857,6.3571
2.37890625,5.026613640192266e-05,3.220386545662624e-05,3.318020442664227e-05,1.5606102966353874e-05,4.7857,6.3571
2.3828125,4.34317636118105e-05,4.538444155184254e-05,4.440810258182652e-05,1.2677086056305808e-05,4.7857,6.3571
2.38671875,3.5132882366674316e-05,2.6834001121538125e-05,4.294359412680248e-05,1.6094272451361885e-05,4.7857,6.3571
2.390625,4.9289797431906635e-05,1.2677086056305808e-05,1.8046950391393927e-05,8.283560691233709e-06,4.7857,6.3571
2.39453125,5.514783125200276e-05,3.5132882366674316e-05,1.6582441936369896e-05,1.0236238631265752e-05,4.7857,6.3571
2.3984375,3.7573729791714366e-05,5.2218814341954696e-05,2.6345831636530114e-05,2.0975967301441994e-05,4.7857,6.3571
2.40234375,3.8550068761730395e-05,3.171569597161824e-05,2.7322170606546137e-05,2.2440475756466028e-05,4.7857,6.3571
2.40625,2.7322170606546137e-05,1.5117933481345863e-05,3.3668373911650276e-05,2.292864524147404e-05,4.7857,6.3571
2.41015625,4.5872611036850557e-05,2.829850957656216e-05,2.5857662151522106e-05,1.6582441936369896e-05,4.7857,6.3571
2.4140625,5.026613640192266e-05,3.269203494163426e-05,2.829850957656216e-05,1.1212577601281776e-05,4.7857,6.3571
2.41796875,3.3668373911650276e-05,3.5132882366674316e-05,3.0251187516594204e-05,1.4629763996337851e-05,4.7857,6.3571
2.421875,4.294359412680248e-05,3.659739082169834e-05,2.6345831636530114e-05,1.9999628331425975e-05,4.7857,6.3571
2.42578125,6.0029526102082876e-05,2.5857662151522106e-05,2.2440475756466028e-05,2.2440475756466028e-05,4.7857,6.3571
2.4296875,5.319515331197072e-05,1.9999628331425975e-05,1.2677086056305808e-05,2.0975967301441994e-05,4.7857,6.3571
2.43359375,2.1952306271458016e-05,3.171569597161824e-05,1.365342502632183e-05,1.902328936140995e-05,4.7857,6.3571
2.4375,1.3165255541313818e-05,3.1227526486610226e-05,1.5606102966353874e-05,1.365342502632183e-05,4.7857,6.3571
2.44140625,2.5857662151522106e-05,2.7810340091554148e-05,2.439315369649807e-05,9.748069146257742e-06,4.7857,6.3571
2.4453125,3.46447128816663e-05,3.7573729791714366e-05,2.5369492666514095e-05,9.748069146257742e-06,4.7857,6.3571
2.44921875,3.7573729791714366e-05,2.7322170606546137e-05,1.365342502632183e-05,7.795391206225697e-06,4.7857,6.3571
2.453125,3.610922133669034e-05,2.3416814726482047e-05,2.439315369649807e-05,1.4141594511329842e-05,4.7857,6.3571
2.45703125,4.831345846189061e-05,2.7810340091554148e-05,3.0739357001602215e-05,1.5117933481345863e-05,4.7857,6.3571
2.4609375,4.7337119491874584e-05,2.6345831636530114e-05,2.292864524147404e-05,1.1700747086289786e-05,4.7857,6.3571
2.46484375,3.7573729791714366e-05,1.8535119876401938e-05,2.1464136786450005e-05,1.8535119876401938e-05,4.7857,6.3571
2.46875,2.292864524147404e-05,1.755878090638592e-05,2.829850957656216e-05,2.292864524147404e-05,4.7857,6.3571
2.47265625,1.6094272451361885e-05,2.6834001121538125e-05,2.6345831636530114e-05,1.9999628331425975e-05,4.7857,6.3571
2.4765625,2.5857662151522106e-05,3.4156543396658294e-05,2.6345831636530114e-05,1.1700747086289786e-05,4.7857,6.3571
2.48046875,3.269203494163426e-05,3.4156543396658294e-05,3.610922133669034e-05,1.2677086056305808e-05,4.7857,6.3571
2.484375,3.90382382467384e-05,2.1952306271458016e-05,2.7322170606546137e-05,1.6582441936369896e-05,4.7857,6.3571
2.48828125,3.5132882366674316e-05,2.292864524147404e-05,3.318020442664227e-05,1.4629763996337851e-05,4.7857,6.3571
2.4921875,2.439315369649807e-05,2.878667906157017e-05,2.1952306271458016e-05,1.0724408116273763e-05,4.7857,6.3571
2.49609375,2.7322170606546137e-05,9.259899661249731e-06,3.401865841153599e-06,1.365342502632183e-05,4.7857,6.3571
2.5,4.196725515678646e-05,1.8046950391393927e-05,2.6834001121538125e-05,1.5117933481345863e-05,4.7857,6.3571
2.50390625,4.7825288976882595e-05,2.0975967301441994e-05,3.171569597161824e-05,1.365342502632183e-05,4.7857,6.3571
2.5078125,4.5872611036850557e-05,1.2188916571297797e-05,2.0975967301441994e-05,1.6582441936369896e-05,4.7857,6.3571
2.51171875,4.831345846189061e-05,1.4629763996337851e-05,2.878667906157017e-05,1.951145884641796e-05,4.7857,6.3571
2.515625,3.220386545662624e-05,1.2188916571297797e-05,2.0975967301441994e-05,2.7810340091554148e-05,4.7857,6.3571
2.51953125,1.5117933481345863e-05,2.2440475756466028e-05,8.77173017624172e-06,2.0975967301441994e-05,4.7857,6.3571
2.5234375,2.7322170606546137e-05,3.4156543396658294e-05,1.951145884641796e-05,1.4141594511329842e-05,4.7857,6.3571
2.52734375,4.294359412680248e-05,4.001457721675442e-05,2.9274848546578178e-05,1.902328936140995e-05,4.7857,6.3571
2.53125,5.368332279697873e-05,3.269203494163426e-05,1.6582441936369896e-05,9.748069146257742e-06,4.7857,6.3571
2.53515625,4.7337119491874584e-05,3.5132882366674316e-05,6.819052236209676e-06,3.401865841153599e-06,4.7857,6.3571
2.5390625,3.7085560306706354e-05,3.562105185168232e-05,1.0724408116273763e-05,1.0724408116273763e-05,4.7857,6.3571
2.54296875,2.7810340091554148e-05,3.220386545662624e-05,2.6834001121538125e-05,2.0487797816433986e-05,4.7857,6.3571
2.546875,2.0975967301441994e-05,2.878667906157017e-05,3.5132882366674316e-05,2.5369492666514095e-05,4.7857,6.3571
2.55078125,3.0251187516594204e-05,2.488132318150608e-05,3.220386545662624e-05,2.829850957656216e-05,4.7857,6.3571
2.5546875,3.7573729791714366e-05,2.1464136786450005e-05,2.1952306271458016e-05,1.8535119876401938e-05,4.7857,6.3571
2.55859375,4.0990916186770444e-05,2.0487797816433986e-05,1.6582441936369896e-05,4.378204811169621e-06,4.7857,6.3571
2.5625,3.8550068761730395e-05,2.6345831636530114e-05,1.5117933481345863e-05,1.4491879011215552e-06,4.7857,6.3571
2.56640625,2.5857662151522106e-05,2.5857662151522106e-05,4.7284893110553325e-07,1.4141594511329842e-05,4.7857,6.3571
2.5703125,2.7810340091554148e-05,1.9999628331425975e-05,4.7284893110553325e-07,1.6582441936369896e-05,4.7857,6.3571
2.57421875,2.878667906157017e-05,2.2440475756466028e-05,2.0487797816433986e-05,7.795391206225697e-06,4.7857,6.3571
2.578125,2.7322170606546137e-05,2.6834001121538125e-05,3.8550068761730395e-05,9.748069146257742e-06,4.7857,6.3571
2.58203125,2.7322170606546137e-05,3.5132882366674316e-05,2.439315369649807e-05,5.842713266193654e-06,4.7857,6.3571
2.5859375,2.6345831636530114e-05,3.0739357001602215e-05,1.4141594511329842e-05,1.4141594511329842e-05,4.7857,6.3571
2.58984375,3.0251187516594204e-05,3.0739357001602215e-05,2.9274848546578178e-05,2.292864524147404e-05,4.7857,6.3571
2.59375,4.294359412680248e-05,3.7085560306706354e-05,1.902328936140995e-05,1.4141594511329842e-05,4.7857,6.3571
2.59765625,5.026613640192266e-05,2.6834001121538125e-05,1.8535119876401938e-05,1.5606102966353874e-05,4.7857,6.3571
2.6015625,4.684895000686658e-05,3.1227526486610226e-05,3.90382382467384e-05,1.8046950391393927e-05,4.7857,6.3571
2.60546875,3.952640773174641e-05,2.829850957656216e-05,4.440810258182652e-05,8.77173017624172e-06,4.7857,6.3571
2.609375,2.976301803158619e-05,2.5369492666514095e-05,2.829850957656216e-05,1.0724408116273763e-05,4.7857,6.3571
2.61328125,2.878667906157017e-05,1.5117933481345863e-05,1.2188916571297797e-05,2.5369492666514095e-05,4.7857,6.3571
2.6171875,4.0990916186770444e-05,2.1464136786450005e-05,2.878667906157017e-05,2.9274848546578178e-05,4.7857,6.3571
2.62109375,4.4896272066834534e-05,2.439315369649807e-05,3.952640773174641e-05,2.1464136786450005e-05,4.7857,6.3571
2.625,5.66123397070268e-05,2.9274848546578178e-05,4.001457721675442e-05,1.8535119876401938e-05,4.7857,6.3571
2.62890625,4.977796691691464e-05,3.3668373911650276e-05,3.318020442664227e-05,2.2440475756466028e-05,4.7857,6.3571
2.6328125,2.878667906157017e-05,3.220386545662624e-05,2.439315369649807e-05,2.292864524147404e-05,4.7857,6.3571
2.63671875,3.5132882366674316e-05,2.9274848546578178e-05,2.829850957656216e-05,2.3904984211490058e-05,4.7857,6.3571
2.640625,4.391993309681851e-05,2.7322170606546137e-05,3.0251187516594204e-05,1.755878090638592e-05,4.7857,6.3571
2.64453125,4.1479085671778456e-05,3.5132882366674316e-05,4.245542464179448e-05,1.4629763996337851e-05,4.7857,6.3571
2.6484375,4.245542464179448e-05,2.9274848546578178e-05,3.7573729791714366e-05,1.755878090638592e-05,4.7857,6.3571
2.65234375,3.952640773174641e-05,2.439315369649807e-05,2.2440475756466028e-05,1.4141594511329842e-05,4.7857,6.3571
2.65625,3.806189927672238e-05,3.220386545662624e-05,2.878667906157017e-05,1.8046950391393927e-05,4.7857,6.3571
2.66015625,4.34317636118105e-05,3.659739082169834e-05,3.3668373911650276e-05,1.7070611421377907e-05,4.7857,6.3571
2.6640625,3.3668373911650276e-05,3.220386545662624e-05,3.562105185168232e-05,2.1952306271458016e-05,4.7857,6.3571
2.66796875,2.6345831636530114e-05,3.0251187516594204e-05,3.269203494163426e-05,2.6834001121538125e-05,4.7857,6.3571
2.671875,4.7337119491874584e-05,2.292864524147404e-05,1.5117933481345863e-05,2.2440475756466028e-05,4.7857,6.3571
2.67578125,4.831345846189061e-05,2.6834001121538125e-05,6.330882751201665e-06,1.6582441936369896e-05,4.7857,6.3571
2.6796875,3.7085560306706354e-05,2.6834001121538125e-05,6.330882751201665e-06,1.5117933481345863e-05,4.7857,6.3571
2.68359375,3.8550068761730395e-05,1.4141594511329842e-05,1.7070611421377907e-05,1.2677086056305808e-05,4.7857,6.3571
2.6875,3.4156543396658294e-05,9.610184161135442e-07,7.307221721217687e-06,8.283560691233709e-06,4.7857,6.3571
2.69140625,5.319515331197072e-05,-1.4629894511329806e-05,-1.999975884641793e-05,1.3165255541313818e-05,4.7857,6.3571
2.6953125,7.226427382009615e-05,-2.5857792666514058e-05,-3.025131803158616e-05,2.7810340091554148e-05,4.7857,6.3571
2.69921875,7.665779918516825e-05,-5.0266266916914606e-05,-4.440823309681848e-05,2.3416814726482047e-05,4.7857,6.3571
2.703125,8.446851094529643e-05,-6.149416507209886e-05,-6.0029656617074824e-05,3.0739357001602215e-05,4.7857,6.3571
2.70703125,9.569640910048068e-05,-7.763426867017622e-05,-8.739765837033644e-05,2.976301803158619e-05,4.7857,6.3571
2.7109375,0.00010838881571068896,-0.0001074126072556649,-0.00012254586129091324,1.9999628331425975e-05,4.7857,6.3571
2.71484375,0.0001284037645960174,-0.00012938023408102538,-0.00015037152193636986,3.220386545662624e-05,4.7857,6.3571
2.71875,0.00014451335760128176,-0.0001738036572167544,-0.00018356704691691462,3.7573729791714366e-05,4.7857,6.3571
2.72265625,0.00015378857781643397,-0.00020410067588006408,-0.000201171658970016,3.5132882366674316e-05,4.7857,6.3571
2.7265625,0.00016648098442664225,-0.00022850915013046462,-0.00023534352292057677,4.196725515678646e-05,4.7857,6.3571
2.73046875,0.0001679454928816663,-0.00023143816704051268,-0.0002504767769558251,3.90382382467384e-05,4.7857,6.3571
2.734375,0.00017819705206683454,-0.0002372962008606088,-0.00027244440378118557,3.1227526486610226e-05,4.7857,6.3571
2.73828125,0.00018356691640192266,-0.00024364240416571296,-0.00028855399678644997,3.318020442664227e-05,4.7857,6.3571
2.7421875,0.00015720576421149007,-0.0002197220994003204,-0.0002538939633508812,4.001457721675442e-05,4.7857,6.3571
2.74609375,0.00015281223884641796,-0.00021679308249027235,-0.00023680803137560082,4.294359412680248e-05,4.7857,6.3571
2.75,0.00017966156052185857,-0.00023436718395056076,-0.0002504767769558251,4.391993309681851e-05,4.7857,6.3571
2.75390625,0.0001913776281620508,-0.00022460379425040053,-0.00026072833614099335,3.220386545662624e-05,4.7857,6.3571
2.7578125,0.00016648098442664225,-0.00020654152330510414,-0.00024217789571068894,1.8535119876401938e-05,4.7857,6.3571
2.76171875,0.00013426179841611355,-0.0001923540976470588,-0.00019723579249713894,2.5369492666514095e-05,4.7857,6.3571
2.765625,0.00014793054399633786,-0.0001845433858869306,-0.0001967476230121309,2.1464136786450005e-05,4.7857,6.3571
2.76953125,0.00015232406936140994,-0.0001747799961867704,-0.00020458884536507207,2.3904984211490058e-05,4.7857,6.3571
2.7734375,0.0001313327815060655,-0.00014988335245136184,-0.0001786853520668345,4.1479085671778456e-05,4.7857,6.3571
2.77734375,0.00011375868004577707,-0.00012742755614099334,-0.00014548982708628973,3.171569597161824e-05,4.7857,6.3571
2.78125,0.00012108122232089725,-0.0001254748782009613,-0.00013230925099107346,2.1464136786450005e-05,4.7857,6.3571
2.78515625,0.00012352206974593728,-0.00010497175983062485,-0.00011082979365072097,3.5132882366674316e-05,4.7857,6.3571
2.7890625,0.00011278234107576106,-8.739765837033644e-05,-9.86255565255207e-05,4.0990916186770444e-05,4.7857,6.3571
2.79296875,9.61845785854887e-05,-7.372891279011213e-05,-9.667287858548866e-05,2.6834001121538125e-05,4.7857,6.3571
2.796875,6.689440948500802e-05,-4.09910467017624e-05,-6.588769043717095e-05,1.4141594511329842e-05,4.7857,6.3571
2.80078125,5.417149228198674e-05,-3.366850442664224e-05,-4.2943724641794444e-05,2.292864524147404e-05,4.7857,6.3571
2.8046875,6.738257897001604e-05,-1.9023419876401904e-05,-1.9023419876401904e-05,1.0724408116273763e-05,4.7857,6.3571
2.80859375,6.198220404211491e-05,1.6582441936369896e-05,1.2188916571297797e-05,1.6094272451361885e-05,4.7857,6.3571
2.8125,3.269203494163426e-05,1.8535119876401938e-05,1.5117933481345863e-05,4.0990916186770444e-05,4.7857,6.3571
2.81640625,2.0975967301441994e-05,1.4629763996337851e-05,3.401865841153599e-06,3.46447128816663e-05,4.7857,6.3571
2.8203125,2.6834001121538125e-05,4.245542464179448e-05,3.7085560306706354e-05,2.6834001121538125e-05,4.7857,6.3571
2.82421875,1.8046950391393927e-05,6.344671249713895e-05,7.372878227512018e-05,2.488132318150608e-05,4.7857,6.3571
2.828125,1.1212577601281776e-05,7.079976536507211e-05,7.275244330510416e-05,1.755878090638592e-05,4.7857,6.3571
2.83203125,-2.9138268711375426e-06,8.202766352025636e-05,7.616962970016024e-05,1.6094272451361885e-05,4.7857,6.3571
2.8359375,-3.025131803158616e-05,8.73975278553445e-05,9.032654476539255e-05,3.171569597161824e-05,4.7857,6.3571
2.83984375,-3.025131803158616e-05,9.374373116044863e-05,0.00010008993446555277,4.0990916186770444e-05,4.7857,6.3571
2.84375,-2.0487928331425938e-05,0.00010643613777065691,0.00011571135798580912,2.9274848546578178e-05,4.7857,6.3571
2.84765625,-2.7810470606546103e-05,0.00010692430725566493,0.00013035644253604946,2.439315369649807e-05,4.7857,6.3571
2.8515625,-3.366850442664224e-05,0.00011668769695582514,0.0001274274256260014,1.902328936140995e-05,4.7857,6.3571
2.85546875,-2.2440606271457983e-05,0.00011864037489585719,0.00012254573077592128,2.4255268711375773e-06,4.7857,6.3571
2.859375,-2.3416945241474e-05,0.00011375868004577707,0.00013035644253604946,1.8535119876401938e-05,4.7857,6.3571
2.86328125,-2.8786809576562122e-05,0.0001284037645960174,0.00014207251017624172,1.5117933481345863e-05,4.7857,6.3571
2.8671875,-2.146426730144196e-05,0.00012254573077592128,0.00012986827305104144,-1.44931841611351e-06,4.7857,6.3571
2.87109375,-2.5857792666514058e-05,0.00011668769695582514,0.00012352206974593728,1.4141594511329842e-05,4.7857,6.3571
2.875,-3.562118236667428e-05,0.00012889193408102543,0.00012254573077592128,2.5857662151522106e-05,4.7857,6.3571
2.87890625,-3.5133012881666264e-05,0.0001415843406912337,0.0001410961712062257,1.4141594511329842e-05,4.7857,6.3571
2.8828125,-2.9274979061570133e-05,0.00014890688296635387,0.00015671759472648205,1.0724408116273763e-05,4.7857,6.3571
2.88671875,-2.488145369649804e-05,0.00013182095099107348,0.00013963166275120166,2.2440475756466028e-05,4.7857,6.3571
2.890625,-2.2440606271457983e-05,0.0001191285443808652,0.00013426179841611355,1.8535119876401938e-05,4.7857,6.3571
2.89453125,-2.146426730144196e-05,0.00011717586644083316,0.00012254573077592128,2.5369492666514095e-05,4.7857,6.3571
2.8984375,-1.951158936140992e-05,0.00012254573077592128,0.00012547474768596933,2.3416814726482047e-05,4.7857,6.3571
2.90234375,-2.0487928331425938e-05,0.00013816715429617763,0.0001513477303913939,1.6094272451361885e-05,4.7857,6.3571
2.90625,-1.9023419876401904e-05,0.00013426179841611355,0.00015671759472648205,2.3416814726482047e-05,4.7857,6.3571
2.91015625,-2.3905114726482013e-05,0.00012254573077592128,0.00014011983223620968,1.5606102966353874e-05,4.7857,6.3571
2.9140625,-2.488145369649804e-05,0.00012059305283588923,0.00011766403592584118,1.4629763996337851e-05,4.7857,6.3571
2.91796875,-1.5118063996337817e-05,0.0001230339002609293,0.00012449840871595332,1.6094272451361885e-05,4.7857,6.3571
2.921875,-3.890165841153565e-06,0.00012547474768596933,0.00014353701863126575,2.3416814726482047e-05,4.7857,6.3571
2.92578125,9.610184161135442e-07,0.00012352206974593728,0.00013084461202105745,2.488132318150608e-05,4.7857,6.3571
2.9296875,-9.260030176241686e-06,0.00011815220541084917,0.0001230339002609293,2.1952306271458016e-05,4.7857,6.3571
2.93359375,-2.425657386129532e-06,0.0001240102392309453,0.0001240102392309453,1.8535119876401938e-05,4.7857,6.3571
2.9375,4.378204811169621e-06,0.0001313327815060655,0.00012205756129091327,4.378204811169621e-06,4.7857,6.3571
2.94140625,-3.401996356145554e-06,0.00011522318850080111,0.00011864037489585719,3.401865841153599e-06,4.7857,6.3571
2.9453125,1.4491879011215552e-06,0.00010887698519569697,0.00011473501901579311,1.0236238631265752e-05,4.7857,6.3571
2.94921875,4.866374296177632e-06,0.00010985332416571298,0.00011766403592584118,7.795391206225697e-06,4.7857,6.3571
2.953125,-1.937487901121521e-06,0.00011229417159075305,0.00010204261240558482,1.0236238631265752e-05,4.7857,6.3571
2.95703125,-9.61148931105499e-07,0.00010887698519569697,0.00010057810395056078,9.259899661249731e-06,4.7857,6.3571
2.9609375,9.610184161135442e-07,0.00010008993446555277,0.00010594796828564891,2.0487797816433986e-05,4.7857,6.3571
2.96484375,-5.354674296177598e-06,0.00010692430725566493,0.00010692430725566493,1.4141594511329842e-05,4.7857,6.3571
2.96875,-2.425657386129532e-06,9.813725652552073e-05,0.00011424684953078509,6.330882751201665e-06,4.7857,6.3571
2.97265625,2.4255268711375773e-06,0.00010008993446555277,0.00011229417159075305,1.0724408116273763e-05,4.7857,6.3571
2.9765625,3.401865841153599e-06,9.569640910048068e-05,9.813725652552073e-05,4.866374296177632e-06,4.7857,6.3571
2.98046875,4.866374296177632e-06,8.593301940032045e-05,9.61845785854887e-05,1.5117933481345863e-05,4.7857,6.3571
2.984375,1.2188916571297797e-05,8.78856973403525e-05,0.00010057810395056078,1.365342502632183e-05,4.7857,6.3571
2.98828125,1.4629763996337851e-05,8.398034146028841e-05,9.032654476539255e-05,5.354543781185643e-06,4.7857,6.3571
2.9921875,1.902328936140995e-05,8.886203631036852e-05,8.593301940032045e-05,1.365342502632183e-05,4.7857,6.3571
2.99609375,1.9999628331425975e-05,9.960176498054477e-05,8.886203631036852e-05,1.951145884641796e-05,4.7857,6.3571
3.0,1.902328936140995e-05,9.130288373540858e-05,8.251583300526438e-05,4.866374296177632e-06,4.7857,6.3571
3.00390625,1.5606102966353874e-05,7.568146021515222e-05,8.251583300526438e-05,1.5606102966353874e-05,4.7857,6.3571
3.0078125,8.77173017624172e-06,8.349217197528039e-05,0.0001015544429205768,2.488132318150608e-05,4.7857,6.3571
3.01171875,-9.61148931105499e-07,6.787074845502406e-05,9.032654476539255e-05,1.951145884641796e-05,4.7857,6.3571
3.015625,-4.866504811169587e-06,5.368332279697873e-05,6.787074845502406e-05,2.292864524147404e-05,4.7857,6.3571
3.01953125,-9.61148931105499e-07,7.324061279011216e-05,7.177610433508813e-05,1.6582441936369896e-05,4.7857,6.3571
3.0234375,2.4255268711375773e-06,7.47051212451362e-05,7.03115958800641e-05,1.6094272451361885e-05,4.7857,6.3571
3.02734375,4.378204811169621e-06,5.954135661707486e-05,6.539939043717099e-05,3.318020442664227e-05,4.7857,6.3571
3.03125,4.378204811169621e-06,6.491122095216298e-05,5.026613640192266e-05,2.1464136786450005e-05,4.7857,6.3571
3.03515625,1.755878090638592e-05,8.30040024902724e-05,6.10058650720989e-05,9.748069146257742e-06,4.7857,6.3571
3.0390625,1.8046950391393927e-05,7.616962970016024e-05,8.056315506523234e-05,1.7070611421377907e-05,4.7857,6.3571
3.04296875,8.283560691233709e-06,5.71005091920348e-05,7.812230764019227e-05,2.292864524147404e-05,4.7857,6.3571
3.046875,1.755878090638592e-05,4.880162794689862e-05,5.954135661707486e-05,2.7810340091554148e-05,4.7857,6.3571
3.05078125,1.3165255541313818e-05,5.270698382696271e-05,4.831345846189061e-05,2.1952306271458016e-05,4.7857,6.3571
3.0546875,4.866374296177632e-06,6.5887559922179e-05,6.738257897001604e-05,2.6834001121538125e-05,4.7857,6.3571
3.05859375,6.330882751201665e-06,6.051769558709088e-05,6.884708742504007e-05,1.902328936140995e-05,4.7857,6.3571
3.0625,-5.354674296177598e-06,5.368332279697873e-05,6.738257897001604e-05,6.330882751201665e-06,4.7857,6.3571
3.06640625,-1.937487901121521e-06,4.977796691691464e-05,7.128793485008013e-05,1.7070611421377907e-05,4.7857,6.3571
3.0703125,1.4629763996337851e-05,4.977796691691464e-05,6.442305146715498e-05,6.330882751201665e-06,4.7857,6.3571
3.07421875,3.220386545662624e-05,4.9289797431906635e-05,4.977796691691464e-05,1.0724408116273763e-05,4.7857,6.3571
3.078125,4.1479085671778456e-05,3.610922133669034e-05,4.440810258182652e-05,3.610922133669034e-05,4.7857,6.3571
3.08203125,2.2440475756466028e-05,4.001457721675442e-05,5.66123397070268e-05,2.6834001121538125e-05,4.7857,6.3571
3.0859375,1.902328936140995e-05,5.71005091920348e-05,5.954135661707486e-05,5.842713266193654e-06,4.7857,6.3571
3.08984375,3.0251187516594204e-05,4.7337119491874584e-05,4.977796691691464e-05,2.292864524147404e-05,4.7857,6.3571
3.09375,1.7070611421377907e-05,4.050274670176243e-05,4.9289797431906635e-05,1.6094272451361885e-05,4.7857,6.3571
3.09765625,1.2188916571297797e-05,4.1479085671778456e-05,4.880162794689862e-05,6.330882751201665e-06,4.7857,6.3571
3.1015625,2.439315369649807e-05,4.880162794689862e-05,5.1730644856946685e-05,1.8535119876401938e-05,4.7857,6.3571
3.10546875,1.8535119876401938e-05,4.5872611036850557e-05,4.4896272066834534e-05,2.1952306271458016e-05,4.7857,6.3571
3.109375,2.3416814726482047e-05,2.3904984211490058e-05,3.659739082169834e-05,2.7810340091554148e-05,4.7857,6.3571
3.11328125,3.8550068761730395e-05,4.001457721675442e-05,5.026613640192266e-05,2.0975967301441994e-05,4.7857,6.3571
3.1171875,2.6834001121538125e-05,5.954135661707486e-05,5.2218814341954696e-05,2.3416814726482047e-05,4.7857,6.3571
3.12109375,2.976301803158619e-05,5.905318713206685e-05,5.075430588693066e-05,8.77173017624172e-06,4.7857,6.3571
3.125,3.4156543396658294e-05,4.538444155184254e-05,4.538444155184254e-05,1.0236238631265752e-05,4.7857,6.3571
3.12890625,3.318020442664227e-05,4.001457721675442e-05,5.1730644856946685e-05,3.401865841153599e-06,4.7857,6.3571
3.1328125,8.283560691233709e-06,5.465966176699475e-05,5.758867867704282e-05,1.2188916571297797e-05,4.7857,6.3571
3.13671875,1.7070611421377907e-05,4.245542464179448e-05,4.0990916186770444e-05,2.5857662151522106e-05,4.7857,6.3571
3.140625,4.1479085671778456e-05,3.659739082169834e-05,3.806189927672238e-05,1.9999628331425975e-05,4.7857,6.3571
3.14453125,5.905318713206685e-05,5.270698382696271e-05,6.051769558709088e-05,-1.937487901121521e-06,4.7857,6.3571
3.1484375,6.5887559922179e-05,2.6345831636530114e-05,3.0251187516594204e-05,3.318020442664227e-05,4.7857,6.3571
3.15234375,2.5369492666514095e-05,4.880162794689862e-05,3.7085560306706354e-05,3.0739357001602215e-05,4.7857,6.3571
3.15625,1.902328936140995e-05,6.344671249713895e-05,6.5887559922179e-05,6.819052236209676e-06,4.7857,6.3571
3.16015625,1.1212577601281776e-05,5.2218814341954696e-05,5.514783125200276e-05,1.2188916571297797e-05,4.7857,6.3571
3.1640625,7.324061279011216e-05,2.3904984211490058e-05,1.5117933481345863e-05,2.976301803158619e-05,4.7857,6.3571
3.16796875,6.738257897001604e-05,1.8535119876401938e-05,8.283560691233709e-06,3.90382382467384e-05,4.7857,6.3571
3.171875,4.7284893110553325e-07,6.149403455710691e-05,5.465966176699475e-05,8.283560691233709e-06,4.7857,6.3571
3.17578125,5.417149228198674e-05,2.829850957656216e-05,2.2440475756466028e-05,8.77173017624172e-06,4.7857,6.3571
3.1796875,3.7085560306706354e-05,3.562105185168232e-05,2.976301803158619e-05,1.4629763996337851e-05,4.7857,6.3571
3.18359375,-6.3310132661936195e-06,6.884708742504007e-05,6.640624000000002e-05,4.7284893110553325e-07,4.7857,6.3571
3.1875,3.318020442664227e-05,5.465966176699475e-05,5.465966176699475e-05,-1.5320553902477717e-08,4.7857,6.3571
3.19140625,3.5132882366674316e-05,3.8550068761730395e-05,5.71005091920348e-05,2.1952306271458016e-05,4.7857,6.3571
3.1953125,-1.44931841611351e-06,3.1227526486610226e-05,2.5857662151522106e-05,2.976301803158619e-05,4.7857,6.3571
3.19921875,3.171569597161824e-05,2.1464136786450005e-05,1.4491879011215552e-06,2.1952306271458016e-05,4.7857,6.3571
3.203125,1.755878090638592e-05,5.075430588693066e-05,7.568146021515222e-05,-1.3165386056305774e-05,4.7857,6.3571
3.20703125,1.6094272451361885e-05,3.5132882366674316e-05,7.03115958800641e-05,4.001457721675442e-05,4.7857,6.3571
3.2109375,7.812230764019227e-05,-7.307352236209642e-06,6.819052236209676e-06,6.10058650720989e-05,4.7857,6.3571
3.21484375,3.1227526486610226e-05,5.2218814341954696e-05,4.34317636118105e-05,1.1700747086289786e-05,4.7857,6.3571
3.21875,2.6834001121538125e-05,6.295854301213094e-05,5.5636000737010774e-05,-1.5320553902477717e-08,4.7857,6.3571
3.22265625,1.7070611421377907e-05,3.90382382467384e-05,4.684895000686658e-05,2.6834001121538125e-05,4.7857,6.3571
3.2265625,1.1212577601281776e-05,3.610922133669034e-05,4.4896272066834534e-05,2.829850957656216e-05,4.7857,6.3571
3.23046875,4.050274670176243e-05,3.562105185168232e-05,2.3904984211490058e-05,-8.283691206225664e-06,4.7857,6.3571
3.234375,4.7825288976882595e-05,5.124247537193867e-05,4.1479085671778456e-05,-2.146426730144196e-05,4.7857,6.3571
3.23828125,3.952640773174641e-05,4.1479085671778456e-05,5.514783125200276e-05,2.439315369649807e-05,4.7857,6.3571
3.2421875,-2.2928775756465994e-05,7.324061279011216e-05,7.763413815518427e-05,3.90382382467384e-05,4.7857,6.3571
3.24609375,3.890035326161609e-06,5.758867867704282e-05,6.051769558709088e-05,2.0487797816433986e-05,4.7857,6.3571
3.25,-1.5320553902477717e-08,4.34317636118105e-05,5.856501764705884e-05,1.365342502632183e-05,4.7857,6.3571
3.25390625,-4.636091103685052e-05,5.8076848162050824e-05,0.00010301895137560084,4.050274670176243e-05,4.7857,6.3571
3.2578125,-4.050287721675439e-05,7.372878227512018e-05,0.00012693925614099338,5.026613640192266e-05,4.7857,6.3571
3.26171875,2.1464136786450005e-05,6.442305146715498e-05,9.667274807049669e-05,3.8550068761730395e-05,4.7857,6.3571
3.265625,-2.5857792666514058e-05,7.128793485008013e-05,9.667274807049669e-05,5.954135661707486e-05,4.7857,6.3571
3.26953125,-0.00010692443777065688,0.00010887698519569697,0.00014793054399633786,5.66123397070268e-05,4.7857,6.3571
3.2734375,-5.270711434195466e-05,8.202766352025636e-05,0.0001313327815060655,6.5887559922179e-05,4.7857,6.3571
3.27734375,-3.318033494163422e-05,5.270698382696271e-05,8.30040024902724e-05,0.00010301895137560084,4.7857,6.3571
3.28125,-0.00010399542086060881,9.764908704051272e-05,0.00014988322193636988,9.911359549553675e-05,4.7857,6.3571
3.28515625,-7.861060764019224e-05,7.275244330510416e-05,0.00013572630687113757,0.00010887698519569697,4.7857,6.3571
3.2890625,-7.665792970016021e-05,6.247037352712293e-05,0.00012059305283588923,9.71609175555047e-05,4.7857,6.3571
3.29296875,-0.00013182108150606544,0.00011864037489585719,0.0001689218318516823,0.00010790064622568095,4.7857,6.3571
3.296875,-0.00010643626828564887,0.00012352206974593728,0.00016111112009155413,0.00011229417159075305,4.7857,6.3571
3.30078125,-7.22644043350881e-05,0.0001274274256260014,0.00020556505382009614,6.5887559922179e-05,4.7857,6.3571
3.3046875,-4.53845720668345e-05,8.983837528038453e-05,0.00016501647597161822,0.00011815220541084917,4.7857,6.3571
3.30859375,-5.3683453311970684e-05,7.42169517601282e-05,0.00012156939180590525,0.00012498657820096134,4.7857,6.3571
3.3125,-7.861060764019224e-05,9.960176498054477e-05,0.0001191285443808652,7.47051212451362e-05,4.7857,6.3571
3.31640625,-3.708569082169831e-05,8.056315506523234e-05,8.153949403524835e-05,7.226427382009615e-05,4.7857,6.3571
3.3203125,-2.2440606271457983e-05,0.00011229417159075305,0.00011278234107576106,5.856501764705884e-05,4.7857,6.3571
3.32421875,-7.324074330510412e-05,0.00011571135798580912,0.00014890688296635387,8.886203631036852e-05,4.7857,6.3571
3.328125,-2.195243678644997e-05,8.886203631036852e-05,0.00013865532378118563,9.325556167544062e-05,4.7857,6.3571
3.33203125,-3.610935185168229e-05,0.00010399529034561686,0.00012693925614099338,8.690935837033648e-05,4.7857,6.3571
3.3359375,-5.8076978677042786e-05,0.00010887698519569697,0.0001459778660563058,6.051769558709088e-05,4.7857,6.3571
3.33984375,-4.3783353261615755e-06,7.03115958800641e-05,9.374373116044863e-05,3.4156543396658294e-05,4.7857,6.3571
3.34375,7.307221721217687e-06,6.393488198214696e-05,9.960176498054477e-05,4.831345846189061e-05,4.7857,6.3571
3.34765625,-3.025131803158616e-05,9.813725652552073e-05,0.00014451335760128176,3.3668373911650276e-05,4.7857,6.3571
3.3515625,-6.588769043717095e-05,9.081471425040057e-05,0.0001015544429205768,6.149403455710691e-05,4.7857,6.3571
3.35546875,-1.658257245136185e-05,8.30040024902724e-05,9.520823961547266e-05,7.079976536507211e-05,4.7857,6.3571
3.359375,2.0487797816433986e-05,5.417149228198674e-05,8.105132455024035e-05,3.659739082169834e-05,4.7857,6.3571
3.36328125,-7.795521721217652e-06,6.982342639505609e-05,0.000110341493650721,4.977796691691464e-05,4.7857,6.3571
3.3671875,-3.025131803158616e-05,0.00010350712086060884,0.0001279155951110094,3.0251187516594204e-05,4.7857,6.3571
3.37109375,9.259899661249731e-06,7.812230764019227e-05,0.0001010662734355688,1.755878090638592e-05,4.7857,6.3571
3.375,-1.999975884641793e-05,8.251583300526438e-05,0.00010204261240558482,5.612417022201878e-05,4.7857,6.3571
3.37890625,-6.1005995587090846e-05,9.032654476539255e-05,0.00011424684953078509,5.8076848162050824e-05,4.7857,6.3571
3.3828125,-8.283691206225664e-06,8.935020579537654e-05,0.00010594796828564891,2.3416814726482047e-05,4.7857,6.3571
3.38671875,9.610184161135442e-07,8.642118888532846e-05,9.179105322041659e-05,3.806189927672238e-05,4.7857,6.3571
3.390625,5.856501764705884e-05,7.568146021515222e-05,8.056315506523234e-05,2.3904984211490058e-05,4.7857,6.3571
3.39453125,5.842713266193654e-06,4.9289797431906635e-05,6.491122095216298e-05,3.952640773174641e-05,4.7857,6.3571
3.3984375,-4.2943724641794444e-05,6.149403455710691e-05,6.149403455710691e-05,6.295854301213094e-05,4.7857,6.3571
3.40234375,-1.0236369146257707e-05,8.202766352025636e-05,0.00010594796828564891,2.488132318150608e-05,4.7857,6.3571
3.40625,3.659739082169834e-05,3.562105185168232e-05,5.71005091920348e-05,3.269203494163426e-05,4.7857,6.3571
3.41015625,2.5857662151522106e-05,6.344671249713895e-05,5.417149228198674e-05,3.46447128816663e-05,4.7857,6.3571
3.4140625,-2.683413163653008e-05,8.983837528038453e-05,9.569640910048068e-05,2.829850957656216e-05,4.7857,6.3571
3.41796875,-1.3165386056305774e-05,7.665779918516825e-05,8.007498558022432e-05,2.7810340091554148e-05,4.7857,6.3571
3.421875,1.4629763996337851e-05,9.374373116044863e-05,8.78856973403525e-05,5.465966176699475e-05,4.7857,6.3571
3.42578125,2.3416814726482047e-05,0.00010204261240558482,7.714596867017625e-05,5.026613640192266e-05,4.7857,6.3571
3.4296875,3.952640773174641e-05,7.275244330510416e-05,7.372878227512018e-05,3.8550068761730395e-05,4.7857,6.3571
3.43359375,9.259899661249731e-06,3.952640773174641e-05,6.689440948500802e-05,3.562105185168232e-05,4.7857,6.3571
3.4375,-7.795521721217652e-06,4.294359412680248e-05,5.417149228198674e-05,2.1952306271458016e-05,4.7857,6.3571
3.44140625,2.488132318150608e-05,2.5857662151522106e-05,3.659739082169834e-05,2.3416814726482047e-05,4.7857,6.3571
3.4453125,-6.819182751201631e-06,2.976301803158619e-05,3.0251187516594204e-05,3.171569597161824e-05,4.7857,6.3571
3.44921875,1.755878090638592e-05,6.819052236209676e-06,2.4255268711375773e-06,4.880162794689862e-05,4.7857,6.3571
3.453125,-1.937487901121521e-06,2.439315369649807e-05,1.951145884641796e-05,5.8076848162050824e-05,4.7857,6.3571
3.45703125,-3.562118236667428e-05,5.905318713206685e-05,4.9289797431906635e-05,4.9289797431906635e-05,4.7857,6.3571
3.4609375,1.3165255541313818e-05,4.0990916186770444e-05,4.7337119491874584e-05,1.755878090638592e-05,4.7857,6.3571
3.46484375,1.755878090638592e-05,3.562105185168232e-05,5.71005091920348e-05,3.220386545662624e-05,4.7857,6.3571
3.46875,3.0251187516594204e-05,2.829850957656216e-05,3.7573729791714366e-05,3.0739357001602215e-05,4.7857,6.3571
3.47265625,2.878667906157017e-05,4.4896272066834534e-05,5.026613640192266e-05,1.755878090638592e-05,4.7857,6.3571
3.4765625,9.259899661249731e-06,5.612417022201878e-05,4.391993309681851e-05,4.636078052185856e-05,4.7857,6.3571
3.48046875,1.2677086056305808e-05,3.610922133669034e-05,3.318020442664227e-05,3.0251187516594204e-05,4.7857,6.3571
3.484375,1.365342502632183e-05,4.7337119491874584e-05,5.856501764705884e-05,8.77173017624172e-06,4.7857,6.3571
3.48828125,1.902328936140995e-05,2.6345831636530114e-05,4.4896272066834534e-05,2.878667906157017e-05,4.7857,6.3571
3.4921875,4.4896272066834534e-05,1.5117933481345863e-05,1.755878090638592e-05,4.1479085671778456e-05,4.7857,6.3571
3.49609375,3.8550068761730395e-05,3.90382382467384e-05,3.5132882366674316e-05,2.6834001121538125e-05,4.7857,6.3571
3.5,7.795391206225697e-06,4.34317636118105e-05,5.465966176699475e-05,2.9274848546578178e-05,4.7857,6.3571
3.50390625,2.1952306271458016e-05,3.171569597161824e-05,2.829850957656216e-05,3.1227526486610226e-05,4.7857,6.3571
3.5078125,1.4141594511329842e-05,2.9274848546578178e-05,1.9999628331425975e-05,1.8046950391393927e-05,4.7857,6.3571
3.51171875,2.1464136786450005e-05,6.330882751201665e-06,7.795391206225697e-06,1.6094272451361885e-05,4.7857,6.3571
3.515625,2.7810340091554148e-05,4.7284893110553325e-07,-6.3310132661936195e-06,2.5369492666514095e-05,4.7857,6.3571
3.51953125,1.8535119876401938e-05,2.9274848546578178e-05,1.8046950391393927e-05,2.5369492666514095e-05,4.7857,6.3571
3.5234375,4.831345846189061e-05,3.4156543396658294e-05,3.171569597161824e-05,3.4156543396658294e-05,4.7857,6.3571
3.52734375,5.1730644856946685e-05,2.5369492666514095e-05,2.6345831636530114e-05,4.245542464179448e-05,4.7857,6.3571
3.53125,2.9274848546578178e-05,2.439315369649807e-05,8.77173017624172e-06,4.977796691691464e-05,4.7857,6.3571
3.53515625,1.8046950391393927e-05,2.976301803158619e-05,8.77173017624172e-06,2.6834001121538125e-05,4.7857,6.3571
3.5390625,1.2188916571297797e-05,1.755878090638592e-05,2.5857662151522106e-05,2.292864524147404e-05,4.7857,6.3571
3.54296875,3.318020442664227e-05,1.8535119876401938e-05,3.4156543396658294e-05,3.659739082169834e-05,4.7857,6.3571
3.546875,1.9999628331425975e-05,2.829850957656216e-05,3.1227526486610226e-05,2.2440475756466028e-05,4.7857,6.3571
3.55078125,1.6582441936369896e-05,2.292864524147404e-05,1.951145884641796e-05,1.8535119876401938e-05,4.7857,6.3571
3.5546875,3.8550068761730395e-05,2.439315369649807e-05,1.7070611421377907e-05,2.488132318150608e-05,4.7857,6.3571
3.55859375,4.684895000686658e-05,2.6834001121538125e-05,1.4629763996337851e-05,2.292864524147404e-05,4.7857,6.3571
3.5625,3.7085560306706354e-05,2.878667906157017e-05,1.8046950391393927e-05,3.8550068761730395e-05,4.7857,6.3571
3.56640625,4.7825288976882595e-05,3.220386545662624e-05,1.5606102966353874e-05,3.5132882366674316e-05,4.7857,6.3571
3.5703125,4.5872611036850557e-05,2.1464136786450005e-05,9.259899661249731e-06,2.6345831636530114e-05,4.7857,6.3571
3.57421875,2.5857662151522106e-05,1.4629763996337851e-05,1.0724408116273763e-05,3.5132882366674316e-05,4.7857,6.3571
3.578125,3.318020442664227e-05,3.0251187516594204e-05,2.7322170606546137e-05,3.0251187516594204e-05,4.7857,6.3571
3.58203125,3.5132882366674316e-05,4.4896272066834534e-05,4.7337119491874584e-05,3.562105185168232e-05,4.7857,6.3571
3.5859375,2.5369492666514095e-05,2.0975967301441994e-05,2.976301803158619e-05,2.9274848546578178e-05,4.7857,6.3571
3.58984375,3.562105185168232e-05,-1.2189047086289752e-05,-1.937487901121521e-06,2.2440475756466028e-05,4.7857,6.3571
3.59375,3.90382382467384e-05,-1.9023419876401904e-05,-1.4141725026321795e-05,2.976301803158619e-05,4.7857,6.3571
3.59765625,3.90382382467384e-05,-8.771860691233675e-06,-1.0236369146257707e-05,3.952640773174641e-05,4.7857,6.3571
3.6015625,5.075430588693066e-05,-2.425657386129532e-06,-8.283691206225664e-06,2.7322170606546137e-05,4.7857,6.3571
3.60546875,5.319515331197072e-05,1.4491879011215552e-06,-9.61148931105499e-07,1.5606102966353874e-05,4.7857,6.3571
3.609375,5.8076848162050824e-05,8.283560691233709e-06,9.259899661249731e-06,2.3416814726482047e-05,4.7857,6.3571
3.61328125,6.539939043717099e-05,1.1212577601281776e-05,1.4629763996337851e-05,2.292864524147404e-05,4.7857,6.3571
3.6171875,5.124247537193867e-05,7.795391206225697e-06,1.0236238631265752e-05,3.3668373911650276e-05,4.7857,6.3571
3.62109375,3.318020442664227e-05,3.401865841153599e-06,3.401865841153599e-06,3.7573729791714366e-05,4.7857,6.3571
3.625,4.196725515678646e-05,6.330882751201665e-06,7.795391206225697e-06,2.5369492666514095e-05,4.7857,6.3571
3.62890625,4.9289797431906635e-05,8.283560691233709e-06,9.259899661249731e-06,2.2440475756466028e-05,4.7857,6.3571
3.6328125,4.4896272066834534e-05,3.890035326161609e-06,5.842713266193654e-06,3.5132882366674316e-05,4.7857,6.3571
3.63671875,4.245542464179448e-05,1.3165255541313818e-05,1.2188916571297797e-05,3.610922133669034e-05,4.7857,6.3571
3.640625,4.831345846189061e-05,2.3416814726482047e-05,1.951145884641796e-05,2.439315369649807e-05,4.7857,6.3571
3.64453125,4.684895000686658e-05,2.1464136786450005e-05,2.6834001121538125e-05,1.8046950391393927e-05,4.7857,6.3571
3.6484375,4.5872611036850557e-05,2.1464136786450005e-05,2.488132318150608e-05,1.4141594511329842e-05,4.7857,6.3571
3.65234375,4.831345846189061e-05,1.5117933481345863e-05,1.1212577601281776e-05,2.0487797816433986e-05,4.7857,6.3571
3.65625,5.5636000737010774e-05,1.2677086056305808e-05,1.365342502632183e-05,1.7070611421377907e-05,4.7857,6.3571
3.66015625,6.10058650720989e-05,1.9999628331425975e-05,9.259899661249731e-06,2.0487797816433986e-05,4.7857,6.3571
3.6640625,6.247037352712293e-05,1.8535119876401938e-05,9.259899661249731e-06,2.7322170606546137e-05,4.7857,6.3571
3.66796875,4.7825288976882595e-05,1.9999628331425975e-05,1.8535119876401938e-05,2.6834001121538125e-05,4.7857,6.3571
3.671875,3.1227526486610226e-05,1.1212577601281776e-05,1.0236238631265752e-05,2.1952306271458016e-05,4.7857,6.3571
3.67578125,3.90382382467384e-05,4.378204811169621e-06,8.77173017624172e-06,1.951145884641796e-05,4.7857,6.3571
3.6796875,3.7085560306706354e-05,2.0487797816433986e-05,1.6094272451361885e-05,2.6345831636530114e-05,4.7857,6.3571
3.68359375,3.7573729791714366e-05,2.976301803158619e-05,2.5857662151522106e-05,2.6834001121538125e-05,4.7857,6.3571
3.6875,4.391993309681851e-05,2.878667906157017e-05,2.292864524147404e-05,3.0739357001602215e-05,4.7857,6.3571
3.69140625,4.245542464179448e-05,1.2677086056305808e-05,1.0724408116273763e-05,3.1227526486610226e-05,4.7857,6.3571
3.6953125,5.124247537193867e-05,7.795391206225697e-06,1.2677086056305808e-05,1.902328936140995e-05,4.7857,6.3571
3.69921875,5.417149228198674e-05,2.292864524147404e-05,1.902328936140995e-05,1.2677086056305808e-05,4.7857,6.3571
3.703125,5.417149228198674e-05,2.3904984211490058e-05,1.755878090638592e-05,1.0236238631265752e-05,4.7857,6.3571
3.70703125,4.538444155184254e-05,2.1464136786450005e-05,8.283560691233709e-06,2.1952306271458016e-05,4.7857,6.3571
3.7109375,2.6834001121538125e-05,1.6582441936369896e-05,9.748069146257742e-06,3.0251187516594204e-05,4.7857,6.3571
3.71484375,2.3416814726482047e-05,5.842713266193654e-06,-3.401996356145554e-06,2.878667906157017e-05,4.7857,6.3571
3.71875,3.4156543396658294e-05,1.1212577601281776e-05,-1.44931841611351e-06,2.6834001121538125e-05,4.7857,6.3571
3.72265625,4.1479085671778456e-05,1.4629763996337851e-05,1.365342502632183e-05,3.5132882366674316e-05,4.7857,6.3571
3.7265625,3.610922133669034e-05,1.755878090638592e-05,2.0975967301441994e-05,2.878667906157017e-05,4.7857,6.3571
3.73046875,3.562105185168232e-05,8.283560691233709e-06,1.6094272451361885e-05,2.3904984211490058e-05,4.7857,6.3571
3.734375,2.3904984211490058e-05,1.2677086056305808e-05,1.1212577601281776e-05,2.829850957656216e-05,4.7857,6.3571
3.73828125,2.5857662151522106e-05,2.7322170606546137e-05,2.1952306271458016e-05,1.9999628331425975e-05,4.7857,6.3571
3.7421875,3.171569597161824e-05,1.4629763996337851e-05,1.4141594511329842e-05,3.46447128816663e-05,4.7857,6.3571
3.74609375,3.269203494163426e-05,1.1212577601281776e-05,1.8535119876401938e-05,2.829850957656216e-05,4.7857,6.3571
3.75,3.318020442664227e-05,1.755878090638592e-05,3.0251187516594204e-05,1.3165255541313818e-05,4.7857,6.3571
3.75390625,3.3668373911650276e-05,1.2677086056305808e-05,1.8046950391393927e-05,1.8046950391393927e-05,4.7857,6.3571
3.7578125,3.318020442664227e-05,1.951145884641796e-05,9.748069146257742e-06,1.8535119876401938e-05,4.7857,6.3571
3.76171875,2.0975967301441994e-05,1.5117933481345863e-05,1.5606102966353874e-05,2.2440475756466028e-05,4.7857,6.3571
3.765625,2.2440475756466028e-05,1.5606102966353874e-05,3.4156543396658294e-05,1.8046950391393927e-05,4.7857,6.3571
3.76953125,2.829850957656216e-05,1.6094272451361885e-05,3.220386545662624e-05,9.259899661249731e-06,4.7857,6.3571
3.7734375,2.6834001121538125e-05,9.748069146257742e-06,1.7070611421377907e-05,1.951145884641796e-05,4.7857,6.3571
3.77734375,3.318020442664227e-05,2.1464136786450005e-05,2.0975967301441994e-05,3.610922133669034e-05,4.7857,6.3571
3.78125,4.977796691691464e-05,2.6345831636530114e-05,1.6094272451361885e-05,4.050274670176243e-05,4.7857,6.3571
3.78515625,3.46447128816663e-05,3.3668373911650276e-05,2.3416814726482047e-05,2.6345831636530114e-05,4.7857,6.3571
3.7890625,1.8535119876401938e-05,2.1464136786450005e-05,3.4156543396658294e-05,2.488132318150608e-05,4.7857,6.3571
3.79296875,2.1952306271458016e-05,9.259899661249731e-06,3.171569597161824e-05,3.3668373911650276e-05,4.7857,6.3571
3.796875,3.318020442664227e-05,1.8046950391393927e-05,1.902328936140995e-05,3.1227526486610226e-05,4.7857,6.3571
3.80078125,4.001457721675442e-05,2.5369492666514095e-05,2.2440475756466028e-05,3.8550068761730395e-05,4.7857,6.3571
3.8046875,4.440810258182652e-05,2.829850957656216e-05,3.610922133669034e-05,3.562105185168232e-05,4.7857,6.3571
3.80859375,4.440810258182652e-05,1.9999628331425975e-05,2.5857662151522106e-05,3.0739357001602215e-05,4.7857,6.3571
3.8125,4.391993309681851e-05,1.8535119876401938e-05,2.5369492666514095e-05,2.6834001121538125e-05,4.7857,6.3571
3.81640625,4.050274670176243e-05,3.8550068761730395e-05,4.0990916186770444e-05,1.755878090638592e-05,4.7857,6.3571
3.8203125,3.3668373911650276e-05,3.1227526486610226e-05,4.5872611036850557e-05,2.3416814726482047e-05,4.7857,6.3571
3.82421875,3.7085560306706354e-05,6.819052236209676e-06,6.330882751201665e-06,3.46447128816663e-05,4.7857,6.3571
3.828125,4.831345846189061e-05,6.330882751201665e-06,2.913696356145588e-06,2.5857662151522106e-05,4.7857,6.3571
3.83203125,4.880162794689862e-05,1.9999628331425975e-05,2.292864524147404e-05,1.6094272451361885e-05,4.7857,6.3571
3.8359375,4.245542464179448e-05,2.878667906157017e-05,1.7070611421377907e-05,2.7810340091554148e-05,4.7857,6.3571
3.83984375,3.8550068761730395e-05,3.318020442664227e-05,2.7322170606546137e-05,2.7810340091554148e-05,4.7857,6.3571
3.84375,3.90382382467384e-05,3.659739082169834e-05,4.001457721675442e-05,1.902328936140995e-05,4.7857,6.3571
3.84765625,4.4896272066834534e-05,2.976301803158619e-05,3.562105185168232e-05,2.292864524147404e-05,4.7857,6.3571
3.8515625,5.2218814341954696e-05,2.488132318150608e-05,3.46447128816663e-05,2.3904984211490058e-05,4.7857,6.3571
3.85546875,4.9289797431906635e-05,3.0251187516594204e-05,2.292864524147404e-05,2.3416814726482047e-05,4.7857,6.3571
3.859375,4.7825288976882595e-05,3.3668373911650276e-05,1.951145884641796e-05,2.0975967301441994e-05,4.7857,6.3571
3.86328125,4.440810258182652e-05,3.4156543396658294e-05,3.269203494163426e-05,1.365342502632183e-05,4.7857,6.3571
3.8671875,3.90382382467384e-05,2.7810340091554148e-05,2.6834001121538125e-05,2.1952306271458016e-05,4.7857,6.3571
3.87109375,4.391993309681851e-05,1.8046950391393927e-05,1.9999628331425975e-05,3.318020442664227e-05,4.7857,6.3571
3.875,5.124247537193867e-05,2.0487797816433986e-05,1.951145884641796e-05,2.7810340091554148e-05,4.7857,6.3571
3.87890625,4.880162794689862e-05,2.9274848546578178e-05,2.9274848546578178e-05,1.6582441936369896e-05,4.7857,6.3571
3.8828125,3.610922133669034e-05,3.4156543396658294e-05,2.976301803158619e-05,2.0975967301441994e-05,4.7857,6.3571
3.88671875,3.4156543396658294e-05,2.1952306271458016e-05,2.1464136786450005e-05,2.488132318150608e-05,4.7857,6.3571
3.890625,3.8550068761730395e-05,2.292864524147404e-05,2.9274848546578178e-05,1.6582441936369896e-05,4.7857,6.3571
3.89453125,3.46447128816663e-05,2.878667906157017e-05,2.9274848546578178e-05,1.902328936140995e-05,4.7857,6.3571
3.8984375,3.659739082169834e-05,2.7322170606546137e-05,2.976301803158619e-05,3.0739357001602215e-05,4.7857,6.3571
3.90234375,3.318020442664227e-05,2.9274848546578178e-05,3.3668373911650276e-05,4.34317636118105e-05,4.7857,6.3571
3.90625,3.0251187516594204e-05,2.488132318150608e-05,2.5369492666514095e-05,2.6345831636530114e-05,4.7857,6.3571
3.91015625,3.659739082169834e-05,1.9999628331425975e-05,2.6345831636530114e-05,1.5117933481345863e-05,4.7857,6.3571
3.9140625,4.196725515678646e-05,2.292864524147404e-05,1.7070611421377907e-05,1.9999628331425975e-05,4.7857,6.3571
3.91796875,5.1730644856946685e-05,2.9274848546578178e-05,2.0487797816433986e-05,2.2440475756466028e-05,4.7857,6.3571
3.921875,4.538444155184254e-05,3.1227526486610226e-05,3.1227526486610226e-05,2.6834001121538125e-05,4.7857,6.3571
3.92578125,3.4156543396658294e-05,2.878667906157017e-05,3.0739357001602215e-05,3.171569597161824e-05,4.7857,6.3571
3.9296875,4.245542464179448e-05,3.3668373911650276e-05,2.976301803158619e-05,2.3416814726482047e-05,4.7857,6.3571
3.93359375,3.7085560306706354e-05,3.46447128816663e-05,2.878667906157017e-05,2.6345831636530114e-05,4.7857,6.3571
3.9375,3.7573729791714366e-05,3.562105185168232e-05,2.7322170606546137e-05,2.7810340091554148e-05,4.7857,6.3571
3.94140625,4.538444155184254e-05,3.806189927672238e-05,2.3904984211490058e-05,1.902328936140995e-05,4.7857,6.3571
3.9453125,3.952640773174641e-05,3.1227526486610226e-05,3.610922133669034e-05,2.1464136786450005e-05,4.7857,6.3571
3.94921875,4.5872611036850557e-05,2.1464136786450005e-05,3.562105185168232e-05,1.902328936140995e-05,4.7857,6.3571
3.953125,5.612417022201878e-05,3.269203494163426e-05,2.9274848546578178e-05,1.6094272451361885e-05,4.7857,6.3571
3.95703125,4.050274670176243e-05,4.001457721675442e-05,3.659739082169834e-05,2.6834001121538125e-05,4.7857,6.3571
3.9609375,2.0487797816433986e-05,3.269203494163426e-05,4.440810258182652e-05,3.3668373911650276e-05,4.7857,6.3571
3.96484375,2.976301803158619e-05,2.878667906157017e-05,4.1479085671778456e-05,2.6834001121538125e-05,4.7857,6.3571
3.96875,4.538444155184254e-05,1.951145884641796e-05,1.9999628331425975e-05,2.3904984211490058e-05,4.7857,6.3571
3.97265625,4.880162794689862e-05,2.488132318150608e-05,2.5857662151522106e-05,3.562105185168232e-05,4.7857,6.3571
3.9765625,4.684895000686658e-05,3.610922133669034e-05,3.318020442664227e-05,2.5857662151522106e-05,4.7857,6.3571
3.98046875,4.4896272066834534e-05,2.976301803158619e-05,3.3668373911650276e-05,1.3165255541313818e-05,4.7857,6.3571
3.984375,4.684895000686658e-05,2.6834001121538125e-05,4.7825288976882595e-05,2.9274848546578178e-05,4.7857,6.3571
3.98828125,4.050274670176243e-05,3.659739082169834e-05,4.391993309681851e-05,2.488132318150608e-05,4.7857,6.3571
3.9921875,4.0990916186770444e-05,4.001457721675442e-05,3.7573729791714366e-05,2.9274848546578178e-05,4.7857,6.3571
3.99609375,4.9289797431906635e-05,3.0739357001602215e-05,3.562105185168232e-05,2.7322170606546137e-05,4.7857,6.3571
4.0,4.440810258182652e-05,2.6834001121538125e-05,2.5369492666514095e-05,3.890035326161609e-06,4.7857,6.3571
4.00390625,2.6345831636530114e-05,3.0739357001602215e-05,2.7322170606546137e-05,1.6094272451361885e-05,4.7857,6.3571
4.0078125,1.6582441936369896e-05,3.0739357001602215e-05,3.1227526486610226e-05,3.269203494163426e-05,4.7857,6.3571
4.01171875,2.3904984211490058e-05,2.6834001121538125e-05,2.7810340091554148e-05,2.7810340091554148e-05,4.7857,6.3571
4.015625,2.829850957656216e-05,2.439315369649807e-05,2.3904984211490058e-05,2.9274848546578178e-05,4.7857,6.3571
4.01953125,4.0990916186770444e-05,2.6345831636530114e-05,2.1952306271458016e-05,3.269203494163426e-05,4.7857,6.3571
4.0234375,5.417149228198674e-05,2.292864524147404e-05,1.951145884641796e-05,1.9999628331425975e-05,4.7857,6.3571
4.02734375,4.4896272066834534e-05,2.0487797816433986e-05,1.1212577601281776e-05,1.1212577601281776e-05,4.7857,6.3571
4.03125,4.538444155184254e-05,2.829850957656216e-05,1.5117933481345863e-05,1.4141594511329842e-05,4.7857,6.3571
4.03515625,4.684895000686658e-05,3.3668373911650276e-05,1.9999628331425975e-05,2.292864524147404e-05,4.7857,6.3571
4.0390625,4.440810258182652e-05,2.7322170606546137e-05,1.7070611421377907e-05,2.5369492666514095e-05,4.7857,6.3571
4.04296875,4.050274670176243e-05,2.3904984211490058e-05,2.9274848546578178e-05,2.0487797816433986e-05,4.7857,6.3571
4.046875,3.269203494163426e-05,3.0739357001602215e-05,3.7085560306706354e-05,2.6345831636530114e-05,4.7857,6.3571
4.05078125,3.269203494163426e-05,3.0251187516594204e-05,1.8535119876401938e-05,1.951145884641796e-05,4.7857,6.3571
4.0546875,2.7322170606546137e-05,1.365342502632183e-05,8.77173017624172e-06,1.0236238631265752e-05,4.7857,6.3571
4.05859375,3.7573729791714366e-05,1.1700747086289786e-05,1.4629763996337851e-05,2.0487797816433986e-05,4.7857,6.3571
4.0625,5.075430588693066e-05,1.6582441936369896e-05,2.5369492666514095e-05,2.2440475756466028e-05,4.7857,6.3571
4.06640625,3.562105185168232e-05,1.5606102966353874e-05,2.976301803158619e-05,2.976301803158619e-05,4.7857,6.3571
4.0703125,2.7810340091554148e-05,1.951145884641796e-05,1.1700747086289786e-05,2.5857662151522106e-05,4.7857,6.3571
4.07421875,4.294359412680248e-05,1.9999628331425975e-05,7.307221721217687e-06,1.7070611421377907e-05,4.7857,6.3571
4.078125,3.806189927672238e-05,2.6345831636530114e-05,2.5369492666514095e-05,2.2440475756466028e-05,4.7857,6.3571
4.08203125,2.2440475756466028e-05,2.829850957656216e-05,3.3668373911650276e-05,2.292864524147404e-05,4.7857,6.3571
4.0859375,3.562105185168232e-05,3.0251187516594204e-05,3.610922133669034e-05,2.1464136786450005e-05,4.7857,6.3571
4.08984375,4.245542464179448e-05,2.7810340091554148e-05,2.5369492666514095e-05,2.439315369649807e-05,4.7857,6.3571
4.09375,2.9274848546578178e-05,1.3165255541313818e-05,3.890035326161609e-06,2.9274848546578178e-05,4.7857,6.3571
