timestamp,TP9,AF7,AF8,TP10,Valence,Arousal
0.0,-0.00030663917746242463,3.0761929587243416e-05,3.0277932753490458e-05,5.664884595254439e-05,5.8667,7.0667
0.00390625,-0.00033592790014496066,1.3185930281528917e-05,3.907019554436516e-06,5.8114664934767626e-05,5.8667,7.0667
0.0078125,-0.00033104644636453804,1.9533203044174824e-05,-4.3900690241855925e-06,6.348011554894327e-05,5.8667,7.0667
0.01171875,-0.0003232333546196689,6.838657518882996e-06,8.802301815823567e-06,6.0064480750743833e-05,5.8667,7.0667
0.015625,-0.00031786790400549324,2.4912482139314826e-05,2.44146568245975e-05,5.420120482185087e-05,5.8667,7.0667
0.01953125,-0.0003373937191271839,3.8091024498359604e-05,5.8114664934767626e-05,6.054847758449678e-05,5.8667,7.0667
0.0234375,-0.00033592790014496066,4.395430042725257e-05,4.785393205920496e-05,5.908265860227354e-05,5.8667,7.0667
0.02734375,-0.0003076071711299306,6.251212188143734e-05,3.272557388418398e-05,6.251212188143734e-05,5.8667,7.0667
0.03125,-0.0003652304513084611,1.4651749263752151e-05,2.0999022026398067e-05,6.201429656672003e-05,5.8667,7.0667
0.03515625,-0.0003403253570916304,-3.759225181963839e-05,-1.7084614549477406e-05,5.859866176852059e-05,5.8667,7.0667
0.0390625,-0.00024560026248569464,7.3879224841277844e-09,-8.28970065613798e-06,6.201429656672003e-05,5.8667,7.0667
0.04296875,-0.0002841678958953231,3.320957071793694e-05,3.272557388418398e-05,6.29961187151903e-05,5.8667,7.0667
0.046875,-0.0003300646242160677,4.981757635614552e-05,1.4167752429999197e-05,6.153029973296706e-05,5.8667,7.0667
0.05078125,-0.00031590425970855267,4.102266246280609e-05,2.2464841008621306e-05,5.566702380407411e-05,5.8667,7.0667
0.0546875,-0.0002621944396429389,-3.4082468757153063e-06,3.8575021332112565e-05,5.664884595254439e-05,5.8667,7.0667
0.05859375,-0.0002675737187380789,1.758338722819863e-05,2.149684734111539e-05,5.8114664934767626e-05,5.8667,7.0667
0.0625,-0.00027392099150072476,3.515938653391313e-05,-8.28970065613798e-06,5.664884595254439e-05,5.8667,7.0667
0.06640625,-0.0003188358976729991,3.907019554436516e-06,-1.7084614549477406e-05,5.420120482185087e-05,5.8667,7.0667
0.0703125,-0.00035008826465247574,-5.855888006408818e-06,7.820479667353283e-06,5.128339533836876e-05,5.8667,7.0667
0.07421875,-0.00025487917321278706,1.1236114465552717e-05,1.8565209376668915e-05,5.518302697032115e-05,5.8667,7.0667
0.078125,-0.0002294900821622034,2.9309939085984546e-05,9.770295483329476e-06,5.664884595254439e-05,5.8667,7.0667
0.08203125,-0.00027147335037003127,3.419139286640722e-05,1.3185930281528917e-05,5.566702380407411e-05,5.8667,7.0667
0.0859375,-0.00032664898941786824,2.344666315709159e-05,1.6117568245975392e-05,5.664884595254439e-05,5.8667,7.0667
0.08984375,-0.00030419153633173113,7.3879224841277844e-09,1.0254292317082431e-05,5.420120482185087e-05,5.8667,7.0667
0.09375,-0.000275870807316701,2.149684734111539e-05,7.3364828336003285e-06,5.3717207988097916e-05,5.8667,7.0667
0.09765625,-0.00027000753138780806,6.348011554894327e-05,2.44146568245975e-05,5.763066810101467e-05,5.8667,7.0667
0.1015625,-0.0002748889851682307,6.054847758449678e-05,2.198084417486835e-05,6.10463028992141e-05,5.8667,7.0667
0.10546875,-0.00030467553316548406,2.4912482139314826e-05,5.870663851377088e-06,5.763066810101467e-05,5.8667,7.0667
0.109375,-0.0002944286287708858,1.3185930281528917e-05,2.0031028358892158e-05,5.273538583962764e-05,5.8667,7.0667
0.11328125,-0.000295894447753109,3.0761929587243416e-05,4.395430042725257e-05,5.1767392172121716e-05,5.8667,7.0667
0.1171875,-0.00027635480415045394,2.9309939085984546e-05,5.859866176852059e-05,5.3233211154344955e-05,5.8667,7.0667
0.12109375,-0.00025927663015945675,2.44146568245975e-05,4.004084031433581e-05,5.030157318989848e-05,5.8667,7.0667
0.125,-0.0003281148084000915,4.248848144502933e-05,2.6378301121538065e-05,4.347030359349961e-05,5.8667,7.0667
0.12890625,-0.0003100548122606241,5.1767392172121716e-05,3.320957071793694e-05,4.492229409475848e-05,5.8667,7.0667
0.1328125,-0.0002358373549248493,4.883575420767524e-05,2.734629478904398e-05,4.688593839169904e-05,5.8667,7.0667
0.13671875,-0.0002690395377203021,1.7099390394445676e-05,7.3364828336003285e-06,4.688593839169904e-05,5.8667,7.0667
0.140625,-0.0003212835388036927,2.296266632333863e-05,1.5633571412222437e-05,5.128339533836876e-05,5.8667,7.0667
0.14453125,-0.00034520681087205307,4.0538665629053134e-05,2.0999022026398067e-05,5.3717207988097916e-05,5.8667,7.0667
0.1484375,-0.00032469917360189205,2.9309939085984546e-05,4.248848144502933e-05,4.7369935225452e-05,5.8667,7.0667
0.15234375,-0.0003085889932784008,4.981757635614552e-05,6.787757249561298e-05,4.7369935225452e-05,5.8667,7.0667
0.15625,-0.00030467553316548406,7.03252136263065e-05,6.592775667963679e-05,5.4699030136568194e-05,5.8667,7.0667
0.16015625,-0.0003603489975280384,5.859866176852059e-05,3.419139286640722e-05,5.078557002365144e-05,5.8667,7.0667
0.1640625,-0.00037744099999999995,3.515938653391313e-05,4.404844869153848e-06,5.078557002365144e-05,5.8667,7.0667
0.16796875,-0.00030467553316548406,1.7099390394445676e-05,1.3185930281528917e-05,5.566702380407411e-05,5.8667,7.0667
0.171875,-0.00030272571734950786,1.1236114465552717e-05,1.1720111299305678e-05,5.8114664934767626e-05,5.8667,7.0667
0.17578125,-0.0002983282604028382,2.6862297955291026e-05,1.9533203044174824e-05,5.908265860227354e-05,5.8667,7.0667
0.1796875,-0.0003413071792401007,4.931975104142819e-05,3.5657211848630456e-05,4.7369935225452e-05,5.8667,7.0667
0.18359375,-0.0003530199026169222,6.0064480750743833e-05,2.198084417486835e-05,4.248848144502933e-05,5.8667,7.0667
0.1875,-0.0003076071711299306,5.859866176852059e-05,2.296266632333863e-05,4.492229409475848e-05,5.8667,7.0667
0.19140625,-0.0003032097141832608,5.128339533836876e-05,2.7844120103761304e-05,4.931975104142819e-05,5.8667,7.0667
0.1953125,-0.0002949126256046387,4.688593839169904e-05,2.149684734111539e-05,4.8351757373922284e-05,5.8667,7.0667
0.19921875,-0.0003212835388036927,4.102266246280609e-05,-9.271522804608253e-06,4.688593839169904e-05,5.8667,7.0667
0.203125,-0.0003217675356374456,-1.951842719920657e-05,-2.9295163241016282e-05,4.638811307698172e-05,5.8667,7.0667
0.20703125,-0.00033544390331120773,-2.489770629434656e-05,-5.358062691691501e-06,4.347030359349961e-05,5.8667,7.0667
0.2109375,-0.00031102280592812994,1.8067384061951585e-05,1.758338722819863e-05,4.638811307698172e-05,5.8667,7.0667
0.21484375,-0.00025487917321278706,1.6615393560692715e-05,3.320957071793694e-05,4.5420119409475806e-05,5.8667,7.0667
0.21875,-0.00031590425970855267,3.2227748569466655e-05,2.5880475806820738e-05,4.688593839169904e-05,5.8667,7.0667
0.22265625,-0.00030077590153353167,4.688593839169904e-05,2.344666315709159e-05,5.128339533836876e-05,5.8667,7.0667
0.2265625,-0.0002270424410315099,4.0538665629053134e-05,1.2701933447775956e-05,5.225138900587468e-05,5.8667,7.0667
0.23046875,-0.00023485553277637904,1.6117568245975392e-05,-1.4584310597391123e-06,5.078557002365144e-05,5.8667,7.0667
0.234375,-0.0002485319004501412,7.3364828336003285e-06,-3.4082468757153063e-06,4.638811307698172e-05,5.8667,7.0667
0.23828125,-0.00026171044280918587,-9.74434225986144e-07,-9.755519638361221e-06,3.9072846646829895e-05,5.8667,7.0667
0.2421875,-0.000240718808705272,9.286298649576522e-06,1.0752117631799763e-05,4.395430042725257e-05,5.8667,7.0667
0.24609375,-0.00023533952961013197,2.0999022026398067e-05,1.4167752429999197e-05,4.5420119409475806e-05,5.8667,7.0667
0.25,-0.00023045807582970927,1.4167752429999197e-05,1.6615393560692715e-05,5.128339533836876e-05,5.8667,7.0667
0.25390625,-0.00026512607760738533,3.614120868238341e-05,3.0277932753490458e-05,5.3233211154344955e-05,5.8667,7.0667
0.2578125,-0.0002778206231326772,3.0277932753490458e-05,2.344666315709159e-05,4.004084031433581e-05,5.8667,7.0667
0.26171875,-0.00020653480376134887,1.5633571412222437e-05,6.838657518882996e-06,3.9072846646829895e-05,5.8667,7.0667
0.265625,-0.00019189044242008088,9.286298649576522e-06,9.286298649576522e-06,4.492229409475848e-05,5.8667,7.0667
0.26953125,-0.0002031191689631495,-4.766089112688263e-07,1.0254292317082431e-05,4.2004484611276373e-05,5.8667,7.0667
0.2734375,-0.0002211791651026169,2.7844120103761304e-05,7.820479667353283e-06,3.8575021332112565e-05,5.8667,7.0667
0.27734375,-0.00021044826387426563,5.3717207988097916e-05,1.5633571412222437e-05,3.9072846646829895e-05,5.8667,7.0667
0.28125,-0.00019189044242008088,2.6378301121538065e-05,1.2217936614023003e-05,4.004084031433581e-05,5.8667,7.0667
0.28515625,-0.0002089824448920424,-3.892243709468261e-06,1.8067384061951585e-05,4.248848144502933e-05,5.8667,7.0667
0.2890625,-0.00019335626140230412,1.1720111299305678e-05,2.149684734111539e-05,4.248848144502933e-05,5.8667,7.0667
0.29296875,-0.00019384025823605708,3.2227748569466655e-05,2.149684734111539e-05,3.9072846646829895e-05,5.8667,7.0667
0.296875,-0.00017626425893034256,3.760702766460665e-05,1.904920621042187e-05,3.9072846646829895e-05,5.8667,7.0667
0.30078125,-0.00017333262096589608,2.344666315709159e-05,3.0277932753490458e-05,4.004084031433581e-05,5.8667,7.0667
0.3046875,-0.00018309552852674142,2.8328116937514265e-05,2.4550290531776538e-06,2.734629478904398e-05,5.8667,7.0667
0.30859375,-0.0001547747995117113,9.286298649576522e-06,-2.5381703128099516e-05,2.734629478904398e-05,5.8667,7.0667
0.3125,-0.00018309552852674142,1.4651749263752151e-05,1.8565209376668915e-05,3.955684348058285e-05,5.8667,7.0667
0.31640625,-0.00017088497983520258,5.518302697032115e-05,4.8351757373922284e-05,4.347030359349961e-05,5.8667,7.0667
0.3203125,-9.764934464789808e-05,4.8351757373922284e-05,4.981757635614552e-05,4.395430042725257e-05,5.8667,7.0667
0.32421875,-0.0001176729850843061,4.638811307698172e-05,3.125975490196074e-05,3.515938653391313e-05,5.8667,7.0667
0.328125,-0.00012986970529488062,3.9072846646829895e-05,2.296266632333863e-05,2.9309939085984546e-05,5.8667,7.0667
0.33203125,-0.00012450425468070496,2.6862297955291026e-05,2.5396478973067787e-05,3.3693567551689894e-05,5.8667,7.0667
0.3359375,-9.325188770122838e-05,2.296266632333863e-05,2.0031028358892158e-05,3.2227748569466655e-05,5.8667,7.0667
0.33984375,-8.837043392080571e-05,9.286298649576522e-06,2.44146568245975e-05,3.17437517357137e-05,5.8667,7.0667
0.34375,-9.618352566567486e-05,3.272557388418398e-05,5.225138900587468e-05,3.9072846646829895e-05,5.8667,7.0667
0.34765625,-0.00012791988947890442,5.420120482185087e-05,6.054847758449678e-05,4.102266246280609e-05,5.8667,7.0667
0.3515625,-0.00014111226031891357,4.297247827878228e-05,5.8114664934767626e-05,3.760702766460665e-05,5.8667,7.0667
0.35546875,-6.884461879911501e-05,4.297247827878228e-05,6.885939464408327e-05,3.3693567551689894e-05,5.8667,7.0667
0.359375,-6.346533970397498e-05,4.443829726100553e-05,7.324302310978861e-05,3.8575021332112565e-05,5.8667,7.0667
0.36328125,-8.9352256069276e-05,2.5396478973067787e-05,5.225138900587468e-05,3.760702766460665e-05,5.8667,7.0667
0.3671875,-8.885443075455865e-05,2.5880475806820738e-05,1.904920621042187e-05,2.9793935919737497e-05,5.8667,7.0667
0.37109375,-9.325188770122838e-05,1.8067384061951585e-05,1.6117568245975392e-05,2.8328116937514265e-05,5.8667,7.0667
0.375,-7.71417073777371e-05,3.423022720683562e-06,1.1236114465552717e-05,2.8328116937514265e-05,5.8667,7.0667
0.37890625,-4.882097836270698e-05,2.44146568245975e-05,2.2464841008621306e-05,2.9793935919737497e-05,5.8667,7.0667
0.3828125,-4.9304975196459935e-05,2.881211377126722e-05,2.9793935919737497e-05,2.881211377126722e-05,5.8667,7.0667
0.38671875,-5.565224795910583e-05,4.785393205920496e-05,3.8091024498359604e-05,3.0761929587243416e-05,5.8667,7.0667
0.390625,-5.370243214312964e-05,4.931975104142819e-05,4.8351757373922284e-05,3.320957071793694e-05,5.8667,7.0667
0.39453125,-7.615988522926682e-05,3.3693567551689894e-05,5.8114664934767626e-05,3.5657211848630456e-05,5.8667,7.0667
0.3984375,-9.276789086747541e-05,1.0752117631799763e-05,4.931975104142819e-05,3.614120868238341e-05,5.8667,7.0667
0.40234375,-4.442352141603726e-05,2.6862297955291026e-05,2.5880475806820738e-05,3.125975490196074e-05,5.8667,7.0667
0.40625,-7.812352952620738e-05,5.1767392172121716e-05,2.5396478973067787e-05,3.272557388418398e-05,5.8667,7.0667
0.41015625,-8.104133900968949e-05,4.004084031433581e-05,1.1720111299305678e-05,3.419139286640722e-05,5.8667,7.0667
0.4140625,7.3879224841277844e-09,3.3693567551689894e-05,1.1236114465552717e-05,3.0277932753490458e-05,5.8667,7.0667
0.41796875,-1.951842719920657e-05,1.9533203044174824e-05,2.881211377126722e-05,2.6862297955291026e-05,5.8667,7.0667
0.421875,-5.858388592355231e-05,1.9533203044174824e-05,4.8351757373922284e-05,2.3930659990844545e-05,5.8667,7.0667
0.42578125,-6.151552388799879e-05,2.0515025192645112e-05,5.273538583962764e-05,2.3930659990844545e-05,5.8667,7.0667
0.4296875,-3.905807080186163e-05,2.0031028358892158e-05,3.419139286640722e-05,2.6378301121538065e-05,5.8667,7.0667
0.43359375,-3.807624865339135e-05,1.9533203044174824e-05,1.3683755596246242e-05,2.5396478973067787e-05,5.8667,7.0667
0.4375,-3.892243709468261e-06,1.8565209376668915e-05,1.1720111299305678e-05,2.3930659990844545e-05,5.8667,7.0667
0.44140625,-2.733151894407571e-05,3.467538970016017e-05,1.904920621042187e-05,2.5396478973067787e-05,5.8667,7.0667
0.4453125,-6.004970490577557e-05,1.4167752429999197e-05,3.0277932753490458e-05,1.904920621042187e-05,5.8667,7.0667
0.44921875,1.0254292317082431e-05,7.3364828336003285e-06,3.71230308308537e-05,1.5633571412222437e-05,5.8667,7.0667
0.453125,3.71230308308537e-05,3.662520551613637e-05,3.17437517357137e-05,2.5396478973067787e-05,5.8667,7.0667
0.45703125,2.734629478904398e-05,2.4912482139314826e-05,3.662520551613637e-05,2.7844120103761304e-05,5.8667,7.0667
0.4609375,2.939025886930608e-06,8.304476501106236e-06,3.760702766460665e-05,2.344666315709159e-05,5.8667,7.0667
0.46484375,-8.28970065613798e-06,2.6862297955291026e-05,3.8091024498359604e-05,2.149684734111539e-05,5.8667,7.0667
0.46875,2.9309939085984546e-05,2.4912482139314826e-05,3.515938653391313e-05,2.0999022026398067e-05,5.8667,7.0667
0.47265625,3.17437517357137e-05,2.6862297955291026e-05,4.883575420767524e-05,2.44146568245975e-05,5.8667,7.0667
0.4765625,3.0277932753490458e-05,2.9793935919737497e-05,5.518302697032115e-05,2.8328116937514265e-05,5.8667,7.0667
0.48046875,1.3683755596246242e-05,1.758338722819863e-05,3.760702766460665e-05,2.5396478973067787e-05,5.8667,7.0667
0.484375,1.904920621042187e-05,2.0515025192645112e-05,3.71230308308537e-05,3.17437517357137e-05,5.8667,7.0667
0.48828125,2.881211377126722e-05,8.304476501106236e-06,3.0761929587243416e-05,3.272557388418398e-05,5.8667,7.0667
0.4921875,1.2217936614023003e-05,6.838657518882996e-06,2.881211377126722e-05,3.17437517357137e-05,5.8667,7.0667
0.49609375,1.5633571412222437e-05,1.6615393560692715e-05,6.739357566186003e-05,2.7844120103761304e-05,5.8667,7.0667
0.5,-1.6102792401007135e-05,9.286298649576522e-06,6.934339147783622e-05,1.7099390394445676e-05,5.8667,7.0667
0.50390625,2.0515025192645112e-05,1.957203738460322e-06,1.5633571412222437e-05,2.198084417486835e-05,5.8667,7.0667
0.5078125,8.300593067063395e-05,-4.3900690241855925e-06,-3.076098222323952e-05,2.7844120103761304e-05,5.8667,7.0667
0.51171875,8.055828953994043e-05,9.286298649576522e-06,-2.3431887312123323e-05,2.8328116937514265e-05,5.8667,7.0667
0.515625,7.90924705577172e-05,-2.4413709460593607e-05,-2.9779160074769236e-05,3.17437517357137e-05,5.8667,7.0667
0.51953125,6.68957503471427e-05,-5.272060999465938e-05,-4.295770243381402e-05,1.904920621042187e-05,5.8667,7.0667
0.5234375,9.032119710078577e-05,-5.418642897688261e-05,-6.053370173952851e-05,9.770295483329476e-06,5.8667,7.0667
0.52734375,0.00010497938692301817,-6.493115868619825e-05,-9.423370984969864e-05,1.1720111299305678e-05,5.8667,7.0667
0.53125,0.00011767393244831001,-6.151552388799879e-05,-9.423370984969864e-05,-2.9242500419623523e-06,5.8667,7.0667
0.53515625,9.618447302967874e-05,-7.90915231937133e-05,-0.00012352243253223468,-5.855888006408818e-06,5.8667,7.0667
0.5390625,7.860847372396423e-05,-6.932861563286795e-05,-0.00011913880406652935,-5.855888006408818e-06,5.8667,7.0667
0.54296875,0.0001415972045166704,-6.1031527054245854e-05,-0.00011375952497138934,-1.4636973418783896e-05,5.8667,7.0667
0.546875,0.00014794447727931633,-7.71417073777371e-05,-0.00012402025784695204,-2.1482071496147126e-05,5.8667,7.0667
0.55078125,0.00015770738484016168,-8.9352256069276e-05,-0.00011570934078736553,-2.196606832990008e-05,5.8667,7.0667
0.5546875,0.00015917320382238492,-0.00010399661741054398,-0.0001332991685740444,-1.951842719920657e-05,5.8667,7.0667
0.55859375,0.00016552047658503085,-9.66675224994278e-05,-0.00014794352991531244,-3.026315690852219e-05,5.8667,7.0667
0.5625,0.00019335720876630802,-6.053370173952851e-05,-0.00012743589264515144,-2.7829344258793043e-05,5.8667,7.0667
0.56640625,0.00020067247519645984,-1.2203160769054733e-05,-0.00010154897627985047,-2.489770629434656e-05,5.8667,7.0667
0.5703125,0.00020995138592355223,-2.879733792629895e-05,-8.885443075455865e-05,-3.66104296711681e-05,5.8667,7.0667
0.57421875,0.00020995138592355223,-4.5889340398260496e-05,-9.178606871900513e-05,-3.514461068894486e-05,5.8667,7.0667
0.578125,0.00023632229912260615,-2.3431887312123323e-05,-9.37497130159457e-05,-3.2212972724498384e-05,5.8667,7.0667
0.58203125,0.00022802521054398405,-2.1482071496147126e-05,-7.860752635996035e-05,-4.198970876630811e-05,5.8667,7.0667
0.5859375,0.0002480350224994277,-1.3171154436560655e-05,-6.834679348439767e-05,-3.710825498588544e-05,5.8667,7.0667
0.58984375,0.0003012608457312885,4.888841702906802e-06,-2.3915884145876274e-05,-3.9542067635614586e-05,5.8667,7.0667
0.59375,0.0002563459395590142,1.904920621042187e-05,-3.4082468757153063e-06,-4.9802800511177265e-05,5.8667,7.0667
0.59765625,0.0002783193958113984,1.0254292317082431e-05,-6.339884840161787e-06,-4.345552774853135e-05,5.8667,7.0667
0.6015625,0.0003168870292210269,-1.0253344953078539e-05,-7.805703822385027e-06,-4.8336981528954027e-05,5.8667,7.0667
0.60546875,0.00029539756980239557,3.423022720683562e-06,-8.28970065613798e-06,-5.468425429159992e-05,5.8667,7.0667
0.609375,0.0003198186671854733,1.0752117631799763e-05,1.5149574578469483e-05,-4.442352141603726e-05,5.8667,7.0667
0.61328125,0.00031200557544060415,1.6615393560692715e-05,1.7099390394445676e-05,-3.759225181963839e-05,5.8667,7.0667
0.6171875,0.00035350484681467907,4.347030359349961e-05,1.8067384061951585e-05,-4.492134673075459e-05,5.8667,7.0667
0.62109375,0.00035350484681467907,3.614120868238341e-05,-9.74434225986144e-07,-4.5889340398260496e-05,5.8667,7.0667
0.625,0.00034032630445563427,2.5396478973067787e-05,-5.855888006408818e-06,-3.66104296711681e-05,5.8667,7.0667
0.62890625,0.00032128448616769656,4.981757635614552e-05,1.9533203044174824e-05,-3.905807080186163e-05,5.8667,7.0667
0.6328125,0.0002919819350041961,4.248848144502933e-05,7.3364828336003285e-06,-4.198970876630811e-05,5.8667,7.0667
0.63671875,0.0003676652113221941,1.0752117631799763e-05,5.870663851377088e-06,-3.319479487296867e-05,5.8667,7.0667
0.640625,0.0003969677624856945,2.881211377126722e-05,2.881211377126722e-05,-3.466061385519191e-05,5.8667,7.0667
0.64453125,0.0003642495765239947,5.3717207988097916e-05,2.9793935919737497e-05,-3.85602454871443e-05,5.8667,7.0667
0.6484375,0.00034032630445563427,5.713284278629735e-05,2.881211377126722e-05,-3.66104296711681e-05,5.8667,7.0667
0.65234375,0.0003603499448920423,2.0031028358892158e-05,7.3364828336003285e-06,-2.8313341092545994e-05,5.8667,7.0667
0.65625,0.00037742811888303945,2.8328116937514265e-05,1.7099390394445676e-05,-2.3431887312123323e-05,5.8667,7.0667
0.66015625,0.00034715757405203313,5.859866176852059e-05,4.688593839169904e-05,-3.172897589074543e-05,5.8667,7.0667
0.6640625,0.0003461895803845272,6.68957503471427e-05,5.713284278629735e-05,-2.63635252765698e-05,5.8667,7.0667
0.66796875,0.00036864703347066444,9.66684698634317e-05,7.520666740672918e-05,-3.076098222323952e-05,5.8667,7.0667
0.671875,0.0003915884833905546,8.154011168841071e-05,5.225138900587468e-05,-3.172897589074543e-05,5.8667,7.0667
0.67578125,0.0003647335733577477,9.813428884565493e-05,9.228484139772635e-05,-3.2212972724498384e-05,5.8667,7.0667
0.6796875,0.0003496052151827267,9.520265088120846e-05,0.00011132665968566408,-3.56424360036622e-05,5.8667,7.0667
0.68359375,0.0003813415789959562,7.957646739147016e-05,9.178701608300904e-05,-2.6847522110322755e-05,5.8667,7.0667
0.6875,0.00031395539125658034,0.00010154992364385437,0.0001020477489585717,-2.3431887312123323e-05,5.8667,7.0667
0.69140625,0.0003173710260547798,0.0001103448375371938,9.276883823147931e-05,-2.1482071496147126e-05,5.8667,7.0667
0.6953125,0.0003964837656519416,0.00014403101716639957,0.00012010774509803916,-1.7568611383230374e-05,5.8667,7.0667
0.69921875,0.0003749943062333103,0.00014501283931486983,0.0001406153823682001,-1.7084614549477406e-05,5.8667,7.0667
0.703125,0.0003500892120164796,0.00013231829378957804,0.00014013138553444719,-1.7084614549477406e-05,5.8667,7.0667
0.70703125,0.00033397903169298833,0.000138181569718471,0.00013621792542153042,-1.1705335454337414e-05,5.8667,7.0667
0.7109375,0.0003608339417257953,0.0001259710210269321,0.00010497938692301817,-8.28970065613798e-06,5.8667,7.0667
0.71484375,0.0003764601252155336,0.0001083950217212176,9.520265088120846e-05,-4.874065857938546e-06,5.8667,7.0667
0.71875,0.00037011285245288765,0.00011229465335317,0.00011767393244831001,2.939025886930608e-06,5.8667,7.0667
0.72265625,0.00034715757405203313,0.00013426810960555423,0.000138181569718471,1.0752117631799763e-05,5.8667,7.0667
0.7265625,0.0003281157557640954,0.00011620811346608676,0.00011181065651941705,9.770295483329476e-06,5.8667,7.0667
0.73046875,0.00041454376179140905,0.00010154992364385437,0.00012010774509803916,1.5633571412222437e-05,5.8667,7.0667
0.734375,0.00045457721418326076,0.0001215735640802624,0.0001464786582970931,2.44146568245975e-05,5.8667,7.0667
0.73828125,0.0004262564851682306,0.00012743684000915536,0.0001240212052109559,2.6378301121538065e-05,5.8667,7.0667
0.7421875,0.0004116121238269626,0.00013036847797360184,0.0001396473887006942,2.6378301121538065e-05,5.8667,7.0667
0.74609375,0.0004399328528419927,0.00011522629131761648,0.00015965720065613787,2.8328116937514265e-05,5.8667,7.0667
0.75,0.00048094812738231463,0.00012108956724650943,0.00014989429309529253,3.3693567551689894e-05,5.8667,7.0667
0.75390625,0.0005048713994506751,0.0001259710210269321,0.00016162084495307847,3.8091024498359604e-05,5.8667,7.0667
0.7578125,0.0005092688563973448,9.863211416037226e-05,0.00016162084495307847,3.614120868238341e-05,5.8667,7.0667
0.76171875,0.0004897430412756541,9.373683189898523e-05,0.00016942010821698324,3.3693567551689894e-05,5.8667,7.0667
0.765625,0.0004990219520027465,9.618447302967874e-05,0.00017919684425879296,3.8575021332112565e-05,5.8667,7.0667
0.76953125,0.0004912088602578773,9.960010782787817e-05,0.00016503647975127787,3.9072846646829895e-05,5.8667,7.0667
0.7734375,0.0005029215836346989,0.0001083950217212176,0.00016600447341878378,3.8091024498359604e-05,5.8667,7.0667
0.77734375,0.0005288084999999998,0.00012108956724650943,0.0001733335683299,3.955684348058285e-05,5.8667,7.0667
0.78125,0.0005073190405813686,0.0001215735640802624,0.00017626520629434645,3.955684348058285e-05,5.8667,7.0667
0.78515625,0.0005058532215991454,9.813428884565493e-05,0.0001684521145494773,4.102266246280609e-05,5.8667,7.0667
0.7890625,0.0004916928570916303,9.228484139772635e-05,0.0001840782980392156,4.443829726100553e-05,5.8667,7.0667
0.79296875,0.0004804641305485617,9.765029201190198e-05,0.00020898339225604632,4.590411624322876e-05,5.8667,7.0667
0.796875,0.0004785143147325855,9.276883823147931e-05,0.0001767492031280994,3.760702766460665e-05,5.8667,7.0667
0.80078125,0.00042284085037003113,8.54397433203631e-05,0.00015917320382238492,3.419139286640722e-05,5.8667,7.0667
0.8046875,0.0004360332212100403,9.032119710078577e-05,0.00016258883862058432,3.614120868238341e-05,5.8667,7.0667
0.80859375,0.0004472619477531089,9.032119710078577e-05,0.00015965720065613787,3.955684348058285e-05,5.8667,7.0667
0.8125,0.00042822012946517116,8.300593067063395e-05,0.00015429175004196224,4.2004484611276373e-05,5.8667,7.0667
0.81640625,0.0003969677624856945,8.885537811856255e-05,0.00014549683614862284,3.760702766460665e-05,5.8667,7.0667
0.8203125,0.00034325794242008075,7.616083259327072e-05,0.00013573392858777744,4.102266246280609e-05,5.8667,7.0667
0.82421875,0.00037304449041733413,6.787757249561298e-05,0.00013183429695582505,4.395430042725257e-05,5.8667,7.0667
0.828125,0.000394520121355001,6.787757249561298e-05,0.00012205756091401535,4.150665929655905e-05,5.8667,7.0667
0.83203125,0.0003442259360875867,5.8114664934767626e-05,0.00012108956724650943,4.004084031433581e-05,5.8667,7.0667
0.8359375,0.0003085899406424047,6.054847758449678e-05,0.00011669211029983972,3.955684348058285e-05,5.8667,7.0667
0.83984375,0.00032470012096589597,6.592775667963679e-05,0.00011082883437094675,3.3693567551689894e-05,5.8667,7.0667
0.84375,0.00033006557158007157,5.566702380407411e-05,0.00011474229448386353,3.0761929587243416e-05,5.8667,7.0667
0.84765625,0.0003110237532921338,3.662520551613637e-05,0.00011913975143053323,3.467538970016017e-05,5.8667,7.0667
0.8515625,0.0002910139413366902,4.8351757373922284e-05,0.00010692920273899437,3.8091024498359604e-05,5.8667,7.0667
0.85546875,0.0002758717546807049,7.179103260852975e-05,9.130301924925607e-05,3.662520551613637e-05,5.8667,7.0667
0.859375,0.0002753877578469519,6.68957503471427e-05,8.34899275043869e-05,3.760702766460665e-05,5.8667,7.0667
0.86328125,0.00025096666046387417,7.7142654741741e-05,8.495574648661014e-05,4.102266246280609e-05,5.8667,7.0667
0.8671875,0.00024022193075455854,6.153029973296706e-05,7.080921046005946e-05,3.760702766460665e-05,5.8667,7.0667
0.87109375,0.000269524481918059,5.030157318989848e-05,6.739357566186003e-05,3.515938653391313e-05,5.8667,7.0667
0.875,0.0001909095676356145,6.542993136491946e-05,7.324302310978861e-05,3.614120868238341e-05,5.8667,7.0667
0.87890625,0.00019579102141603714,5.713284278629735e-05,5.713284278629735e-05,3.2227748569466655e-05,5.8667,7.0667
0.8828125,0.00025243247944609743,5.3717207988097916e-05,5.664884595254439e-05,1.904920621042187e-05,5.8667,7.0667
0.88671875,0.0002216779377813381,5.8114664934767626e-05,5.4699030136568194e-05,2.0515025192645112e-05,5.8667,7.0667
0.890625,0.0001972568403982604,4.5420119409475806e-05,5.8114664934767626e-05,3.272557388418398e-05,5.8667,7.0667
0.89453125,0.00019384120560006095,3.955684348058285e-05,6.0064480750743833e-05,3.125975490196074e-05,5.8667,7.0667
0.8984375,0.00021776447766842138,3.71230308308537e-05,4.8351757373922284e-05,2.8328116937514265e-05,5.8667,7.0667
0.90234375,0.00019335720876630802,3.125975490196074e-05,5.616484911879143e-05,2.9793935919737497e-05,5.8667,7.0667
0.90625,0.0001772331999618524,2.8328116937514265e-05,3.125975490196074e-05,2.5396478973067787e-05,5.8667,7.0667
0.91015625,0.00013085247480735477,2.44146568245975e-05,1.3683755596246242e-05,1.5633571412222437e-05,5.8667,7.0667
0.9140625,0.0001083950217212176,2.344666315709159e-05,2.7844120103761304e-05,1.8565209376668915e-05,5.8667,7.0667
0.91796875,0.00015868920698863193,3.0761929587243416e-05,3.0761929587243416e-05,2.5396478973067787e-05,5.8667,7.0667
0.921875,0.0001704019303654535,2.149684734111539e-05,2.734629478904398e-05,1.0752117631799763e-05,5.8667,7.0667
0.92578125,0.00016357066076905466,2.2464841008621306e-05,2.7844120103761304e-05,3.423022720683562e-06,5.8667,7.0667
0.9296875,0.0001298706526588845,3.272557388418398e-05,1.5633571412222437e-05,1.5149574578469483e-05,5.8667,7.0667
0.93359375,0.00013621792542153042,3.9072846646829895e-05,1.2217936614023003e-05,2.6862297955291026e-05,5.8667,7.0667
0.9375,0.00016357066076905466,2.6378301121538065e-05,2.296266632333863e-05,2.7844120103761304e-05,5.8667,7.0667
0.94140625,0.00014794447727931633,1.4651749263752151e-05,2.7844120103761304e-05,2.198084417486835e-05,5.8667,7.0667
0.9453125,0.00013231829378957804,1.758338722819863e-05,2.44146568245975e-05,1.9533203044174824e-05,5.8667,7.0667
0.94921875,0.00010546338375677113,2.0031028358892158e-05,2.0031028358892158e-05,2.0031028358892158e-05,5.8667,7.0667
0.953125,0.00012695284317540238,2.5880475806820738e-05,2.4912482139314826e-05,2.198084417486835e-05,5.8667,7.0667
0.95703125,0.00013475210643930716,2.296266632333863e-05,1.6117568245975392e-05,1.8067384061951585e-05,5.8667,7.0667
0.9609375,0.00012303938306248565,2.0999022026398067e-05,4.913847562370818e-07,1.2701933447775956e-05,5.8667,7.0667
0.96484375,0.0001406153823682001,6.354660685130042e-06,-6.339884840161787e-06,1.6615393560692715e-05,5.8667,7.0667
0.96875,0.00013378411277180125,1.0254292317082431e-05,-1.1221338620584462e-05,1.3683755596246242e-05,5.8667,7.0667
0.97265625,0.00014208120135042338,1.2701933447775956e-05,-3.4082468757153063e-06,1.6117568245975392e-05,5.8667,7.0667
0.9765625,0.00014599466146334014,2.4550290531776538e-06,-1.9424278934920665e-06,1.6117568245975392e-05,5.8667,7.0667
0.98046875,0.00013621792542153042,1.2217936614023003e-05,-4.3900690241855925e-06,1.3185930281528917e-05,5.8667,7.0667
0.984375,0.00010986084070344086,3.0277932753490458e-05,3.423022720683562e-06,1.0752117631799763e-05,5.8667,7.0667
0.98828125,4.590411624322876e-05,1.4167752429999197e-05,-8.28970065613798e-06,6.838657518882996e-06,5.8667,7.0667
0.9921875,9.325283506523226e-05,5.372838536659756e-06,-1.7084614549477406e-05,5.870663851377088e-06,5.8667,7.0667
0.99609375,0.00015575756902418548,1.5633571412222437e-05,-6.339884840161787e-06,1.2217936614023003e-05,5.8667,7.0667
1.0,0.0001279208368429083,-1.4584310597391123e-06,-2.9242500419623523e-06,1.5633571412222437e-05,5.8667,7.0667
1.00390625,9.276883823147931e-05,-1.2203160769054733e-05,-1.7568611383230374e-05,1.4651749263752151e-05,5.8667,7.0667
1.0078125,5.518302697032115e-05,-1.1221338620584462e-05,-1.8550433531700648e-05,1.758338722819863e-05,5.8667,7.0667
1.01171875,0.00012108956724650943,-7.805703822385027e-06,-1.8550433531700648e-05,1.8565209376668915e-05,5.8667,7.0667
1.015625,0.0001621048417868314,3.907019554436516e-06,-2.1482071496147126e-05,1.5149574578469483e-05,5.8667,7.0667
1.01953125,0.00013621792542153042,-3.4082468757153063e-06,-2.2450065163653035e-05,8.802301815823567e-06,5.8667,7.0667
1.0234375,9.765029201190198e-05,-4.3900690241855925e-06,-2.733151894407571e-05,1.2701933447775956e-05,5.8667,7.0667
1.02734375,9.423465721370255e-05,-9.271522804608253e-06,-1.2203160769054733e-05,2.198084417486835e-05,5.8667,7.0667
1.03125,0.00012060557041275649,-2.5381703128099516e-05,-1.1705335454337414e-05,1.6615393560692715e-05,5.8667,7.0667
1.03515625,0.00011327647550164029,-3.319479487296867e-05,-3.2212972724498384e-05,1.3683755596246242e-05,5.8667,7.0667
1.0390625,0.00011717610713359268,-1.3668979751277973e-05,-3.710825498588544e-05,1.8565209376668915e-05,5.8667,7.0667
1.04296875,9.130301924925607e-05,5.870663851377088e-06,-5.370243214312964e-05,2.0031028358892158e-05,5.8667,7.0667
1.046875,9.032119710078577e-05,-1.2203160769054733e-05,-6.249734603646909e-05,2.3930659990844545e-05,5.8667,7.0667
1.05078125,9.570047619592579e-05,-3.4082468757153063e-06,-5.663407010757612e-05,2.0999022026398067e-05,5.8667,7.0667
1.0546875,0.00010106592681010141,-1.1705335454337414e-05,-3.66104296711681e-05,2.4912482139314826e-05,5.8667,7.0667
1.05859375,0.00014208120135042338,-3.319479487296867e-05,-2.2947890478370368e-05,2.6378301121538065e-05,5.8667,7.0667
1.0625,7.90924705577172e-05,-4.1007886617837825e-05,-5.516825112535289e-05,2.0999022026398067e-05,5.8667,7.0667
1.06640625,7.03252136263065e-05,-2.733151894407571e-05,-6.737879981689176e-05,1.6117568245975392e-05,5.8667,7.0667
1.0703125,0.00014306302349889364,-1.26871576028077e-05,-6.932861563286795e-05,9.770295483329476e-06,5.8667,7.0667
1.07421875,0.00012743684000915536,-2.3431887312123323e-05,-7.567588839551387e-05,1.8067384061951585e-05,5.8667,7.0667
1.078125,0.0001235233798962386,-1.9034430365453602e-05,-7.127843144884414e-05,1.7099390394445676e-05,5.8667,7.0667
1.08203125,0.00012060557041275649,-1.8550433531700648e-05,-6.053370173952851e-05,1.758338722819863e-05,5.8667,7.0667
1.0859375,0.00016698629556725407,4.913847562370818e-07,-4.345552774853135e-05,2.2464841008621306e-05,5.8667,7.0667
1.08984375,0.00019335720876630802,1.758338722819863e-05,-2.050024934767684e-05,2.0515025192645112e-05,5.8667,7.0667
1.09375,0.00020018847836270686,1.6117568245975392e-05,7.820479667353283e-06,2.198084417486835e-05,5.8667,7.0667
1.09765625,0.00018016483792629884,3.320957071793694e-05,4.347030359349961e-05,1.758338722819863e-05,5.8667,7.0667
1.1015625,0.00016063902280460813,4.8351757373922284e-05,6.348011554894327e-05,1.5633571412222437e-05,5.8667,7.0667
1.10546875,0.00022899320421148996,5.859866176852059e-05,6.934339147783622e-05,1.758338722819863e-05,5.8667,7.0667
1.109375,0.00024853284781414505,5.763066810101467e-05,7.569066424048213e-05,1.4651749263752151e-05,5.8667,7.0667
1.11328125,0.00023632229912260615,5.616484911879143e-05,6.836156932936594e-05,9.770295483329476e-06,5.8667,7.0667
1.1171875,0.00021533066501869223,6.39779408636606e-05,6.787757249561298e-05,1.0254292317082431e-05,5.8667,7.0667
1.12109375,0.00017088592719920645,6.592775667963679e-05,7.957646739147016e-05,1.7099390394445676e-05,5.8667,7.0667
1.125,0.00016258883862058432,5.664884595254439e-05,7.275902627603565e-05,1.5149574578469483e-05,5.8667,7.0667
1.12890625,0.00017431539047837026,6.641175351338974e-05,6.0064480750743833e-05,1.7099390394445676e-05,5.8667,7.0667
1.1328125,0.0001665022987335011,7.470884209201185e-05,6.494593453116649e-05,1.1236114465552717e-05,5.8667,7.0667
1.13671875,0.00014549683614862284,4.785393205920496e-05,7.179103260852975e-05,5.372838536659756e-06,5.8667,7.0667
1.140625,0.00012645501786068508,3.8091024498359604e-05,5.908265860227354e-05,6.354660685130042e-06,5.8667,7.0667
1.14453125,9.960010782787817e-05,5.030157318989848e-05,4.395430042725257e-05,4.888841702906802e-06,5.8667,7.0667
1.1484375,0.00011132665968566408,5.030157318989848e-05,3.8575021332112565e-05,1.1236114465552717e-05,5.8667,7.0667
1.15234375,0.0001415972045166704,5.078557002365144e-05,3.320957071793694e-05,1.4651749263752151e-05,5.8667,7.0667
1.15625,7.616083259327072e-05,3.614120868238341e-05,3.2227748569466655e-05,8.304476501106236e-06,5.8667,7.0667
1.16015625,7.957646739147016e-05,3.955684348058285e-05,3.614120868238341e-05,9.286298649576522e-06,5.8667,7.0667
1.1640625,0.00013183429695582505,3.320957071793694e-05,2.6862297955291026e-05,8.802301815823567e-06,5.8667,7.0667
1.16796875,1.8067384061951585e-05,2.3930659990844545e-05,-4.9802800511177265e-05,4.888841702906802e-06,5.8667,7.0667
1.171875,-4.882097836270698e-05,3.467538970016017e-05,-9.66675224994278e-05,1.957203738460322e-06,5.8667,7.0667
1.17578125,-1.1705335454337414e-05,2.881211377126722e-05,-8.300498330663006e-05,1.957203738460322e-06,5.8667,7.0667
1.1796875,1.4651749263752151e-05,2.8328116937514265e-05,-6.346533970397498e-05,5.372838536659756e-06,5.8667,7.0667
1.18359375,1.6117568245975392e-05,3.467538970016017e-05,-6.053370173952851e-05,7.820479667353283e-06,5.8667,7.0667
1.1875,2.4912482139314826e-05,4.883575420767524e-05,-6.053370173952851e-05,7.3364828336003285e-06,5.8667,7.0667
1.19140625,1.2701933447775956e-05,3.467538970016017e-05,-3.759225181963839e-05,4.913847562370818e-07,5.8667,7.0667
1.1953125,8.304476501106236e-06,2.198084417486835e-05,-4.39395245822843e-05,7.3879224841277844e-09,5.8667,7.0667
1.19921875,6.982738831158918e-05,3.5657211848630456e-05,-4.149188345159078e-05,4.913847562370818e-07,5.8667,7.0667
1.203125,8.593756863508043e-05,3.419139286640722e-05,-3.514461068894486e-05,4.888841702906802e-06,5.8667,7.0667
1.20703125,5.958048391699087e-05,2.5880475806820738e-05,-2.6847522110322755e-05,6.354660685130042e-06,5.8667,7.0667
1.2109375,3.955684348058285e-05,3.125975490196074e-05,-2.5865699961852484e-05,8.802301815823567e-06,5.8667,7.0667
1.21484375,4.248848144502933e-05,4.931975104142819e-05,-2.196606832990008e-05,8.304476501106236e-06,5.8667,7.0667
1.21875,6.054847758449678e-05,4.347030359349961e-05,-9.74434225986144e-07,9.770295483329476e-06,5.8667,7.0667
1.22265625,5.8114664934767626e-05,2.0031028358892158e-05,9.892100709544137e-07,1.1720111299305678e-05,5.8667,7.0667
1.2265625,6.0064480750743833e-05,2.6378301121538065e-05,1.0752117631799763e-05,7.820479667353283e-06,5.8667,7.0667
1.23046875,5.030157318989848e-05,3.515938653391313e-05,7.820479667353283e-06,1.0752117631799763e-05,5.8667,7.0667
1.234375,5.664884595254439e-05,3.8575021332112565e-05,2.5396478973067787e-05,2.0031028358892158e-05,5.8667,7.0667
1.23828125,5.566702380407411e-05,3.5657211848630456e-05,3.17437517357137e-05,1.758338722819863e-05,5.8667,7.0667
1.2421875,4.638811307698172e-05,1.2701933447775956e-05,2.0999022026398067e-05,1.6615393560692715e-05,5.8667,7.0667
1.24609375,4.347030359349961e-05,2.4912482139314826e-05,2.8328116937514265e-05,9.770295483329476e-06,5.8667,7.0667
1.25,5.3717207988097916e-05,4.004084031433581e-05,1.5633571412222437e-05,4.888841702906802e-06,5.8667,7.0667
1.25390625,7.179103260852975e-05,3.320957071793694e-05,2.0999022026398067e-05,1.4167752429999197e-05,5.8667,7.0667
1.2578125,7.22750294422827e-05,2.44146568245975e-05,4.004084031433581e-05,1.6615393560692715e-05,5.8667,7.0667
1.26171875,6.934339147783622e-05,2.0031028358892158e-05,4.931975104142819e-05,1.2217936614023003e-05,5.8667,7.0667
1.265625,4.638811307698172e-05,4.004084031433581e-05,4.931975104142819e-05,3.423022720683562e-06,5.8667,7.0667
1.26953125,-7.321706988632059e-06,4.102266246280609e-05,4.5420119409475806e-05,1.0752117631799763e-05,5.8667,7.0667
1.2734375,3.8575021332112565e-05,3.467538970016017e-05,4.102266246280609e-05,1.3185930281528917e-05,5.8667,7.0667
1.27734375,7.762665157549396e-05,4.297247827878228e-05,5.1767392172121716e-05,6.838657518882996e-06,5.8667,7.0667
1.28125,4.590411624322876e-05,4.2004484611276373e-05,5.859866176852059e-05,7.3364828336003285e-06,5.8667,7.0667
1.28515625,6.354660685130042e-06,2.3930659990844545e-05,5.3233211154344955e-05,-4.766089112688263e-07,5.8667,7.0667
1.2890625,-8.28970065613798e-06,1.7099390394445676e-05,3.71230308308537e-05,4.888841702906802e-06,5.8667,7.0667
1.29296875,3.955684348058285e-05,3.272557388418398e-05,2.881211377126722e-05,9.286298649576522e-06,5.8667,7.0667
1.296875,4.347030359349961e-05,5.273538583962764e-05,4.347030359349961e-05,8.802301815823567e-06,5.8667,7.0667
1.30078125,4.5420119409475806e-05,4.150665929655905e-05,3.662520551613637e-05,9.286298649576522e-06,5.8667,7.0667
1.3046875,1.904920621042187e-05,4.102266246280609e-05,1.904920621042187e-05,2.4550290531776538e-06,5.8667,7.0667
1.30859375,8.304476501106236e-06,5.030157318989848e-05,2.198084417486835e-05,6.354660685130042e-06,5.8667,7.0667
1.3125,3.467538970016017e-05,3.125975490196074e-05,2.5396478973067787e-05,8.304476501106236e-06,5.8667,7.0667
1.31640625,3.419139286640722e-05,2.6378301121538065e-05,3.125975490196074e-05,3.907019554436516e-06,5.8667,7.0667
1.3203125,1.6615393560692715e-05,3.8091024498359604e-05,3.320957071793694e-05,2.4550290531776538e-06,5.8667,7.0667
1.32421875,7.820479667353283e-06,4.590411624322876e-05,2.4912482139314826e-05,9.892100709544137e-07,5.8667,7.0667
1.328125,8.802301815823567e-06,3.0277932753490458e-05,2.0031028358892158e-05,7.3879224841277844e-09,5.8667,7.0667
1.33203125,-8.28970065613798e-06,2.149684734111539e-05,4.590411624322876e-05,-4.766089112688263e-07,5.8667,7.0667
1.3359375,1.904920621042187e-05,1.3683755596246242e-05,5.4699030136568194e-05,5.870663851377088e-06,5.8667,7.0667
1.33984375,4.785393205920496e-05,1.3683755596246242e-05,2.734629478904398e-05,6.838657518882996e-06,5.8667,7.0667
1.34375,-2.050024934767684e-05,3.17437517357137e-05,2.44146568245975e-05,-2.4402532082093843e-06,5.8667,7.0667
1.34765625,-1.9424278934920665e-06,3.272557388418398e-05,1.6615393560692715e-05,-3.892243709468261e-06,5.8667,7.0667
1.3515625,5.664884595254439e-05,3.515938653391313e-05,7.820479667353283e-06,2.939025886930608e-06,5.8667,7.0667
1.35546875,3.8091024498359604e-05,3.2227748569466655e-05,2.296266632333863e-05,4.404844869153848e-06,5.8667,7.0667
1.359375,4.5420119409475806e-05,3.0277932753490458e-05,4.004084031433581e-05,4.888841702906802e-06,5.8667,7.0667
1.36328125,2.0031028358892158e-05,3.9072846646829895e-05,2.296266632333863e-05,1.4732069047073678e-06,5.8667,7.0667
1.3671875,3.125975490196074e-05,4.785393205920496e-05,1.6117568245975392e-05,9.892100709544137e-07,5.8667,7.0667
1.37109375,5.420120482185087e-05,4.931975104142819e-05,2.198084417486835e-05,4.913847562370818e-07,5.8667,7.0667
1.375,5.566702380407411e-05,3.614120868238341e-05,2.7844120103761304e-05,1.957203738460322e-06,5.8667,7.0667
1.37890625,2.4912482139314826e-05,2.344666315709159e-05,3.760702766460665e-05,2.939025886930608e-06,5.8667,7.0667
1.3828125,-4.766089112688263e-07,1.8565209376668915e-05,3.272557388418398e-05,5.870663851377088e-06,5.8667,7.0667
1.38671875,4.2004484611276373e-05,9.770295483329476e-06,2.296266632333863e-05,1.2217936614023003e-05,5.8667,7.0667
1.390625,5.958048391699087e-05,9.770295483329476e-06,1.904920621042187e-05,1.0254292317082431e-05,5.8667,7.0667
1.39453125,5.518302697032115e-05,2.5880475806820738e-05,2.198084417486835e-05,1.0254292317082431e-05,5.8667,7.0667
1.3984375,3.614120868238341e-05,2.6862297955291026e-05,2.344666315709159e-05,8.304476501106236e-06,5.8667,7.0667
1.40234375,3.272557388418398e-05,2.5880475806820738e-05,1.2217936614023003e-05,8.304476501106236e-06,5.8667,7.0667
1.40625,5.4699030136568194e-05,3.125975490196074e-05,8.304476501106236e-06,1.0254292317082431e-05,5.8667,7.0667
1.41015625,2.6862297955291026e-05,3.0761929587243416e-05,7.820479667353283e-06,9.286298649576522e-06,5.8667,7.0667
1.4140625,3.17437517357137e-05,2.7844120103761304e-05,3.423022720683562e-06,1.0752117631799763e-05,5.8667,7.0667
1.41796875,5.616484911879143e-05,2.7844120103761304e-05,1.1236114465552717e-05,1.758338722819863e-05,5.8667,7.0667
1.421875,5.713284278629735e-05,2.6862297955291026e-05,9.770295483329476e-06,1.904920621042187e-05,5.8667,7.0667
1.42578125,3.8575021332112565e-05,2.881211377126722e-05,-4.766089112688263e-07,1.7099390394445676e-05,5.8667,7.0667
1.4296875,4.443829726100553e-05,1.9533203044174824e-05,-3.892243709468261e-06,1.6117568245975392e-05,5.8667,7.0667
1.43359375,7.812447689021128e-05,2.0999022026398067e-05,5.372838536659756e-06,1.8067384061951585e-05,5.8667,7.0667
1.4375,1.758338722819863e-05,2.3930659990844545e-05,1.1720111299305678e-05,1.6117568245975392e-05,5.8667,7.0667
1.44140625,2.344666315709159e-05,2.6378301121538065e-05,1.2701933447775956e-05,1.7099390394445676e-05,5.8667,7.0667
1.4453125,7.569066424048213e-05,2.881211377126722e-05,1.2701933447775956e-05,2.149684734111539e-05,5.8667,7.0667
1.44921875,5.8114664934767626e-05,2.44146568245975e-05,3.907019554436516e-06,1.7099390394445676e-05,5.8667,7.0667
1.453125,7.03252136263065e-05,1.5633571412222437e-05,1.0752117631799763e-05,1.5633571412222437e-05,5.8667,7.0667
1.45703125,6.10463028992141e-05,4.404844869153848e-06,3.614120868238341e-05,7.820479667353283e-06,5.8667,7.0667
1.4609375,8.250810535591663e-05,2.939025886930608e-06,3.17437517357137e-05,1.3185930281528917e-05,5.8667,7.0667
1.46484375,7.957646739147016e-05,9.286298649576522e-06,7.3364828336003285e-06,2.0515025192645112e-05,5.8667,7.0667
1.46875,7.275902627603565e-05,1.3683755596246242e-05,1.5633571412222437e-05,1.6117568245975392e-05,5.8667,7.0667
1.47265625,7.080921046005946e-05,1.904920621042187e-05,2.198084417486835e-05,1.3185930281528917e-05,5.8667,7.0667
1.4765625,6.29961187151903e-05,2.5396478973067787e-05,2.2464841008621306e-05,8.802301815823567e-06,5.8667,7.0667
1.48046875,0.00011669211029983972,5.372838536659756e-06,1.6615393560692715e-05,9.286298649576522e-06,5.8667,7.0667
1.484375,0.00013671575073624773,7.820479667353283e-06,1.6615393560692715e-05,1.3185930281528917e-05,5.8667,7.0667
1.48828125,0.00011620811346608676,2.8328116937514265e-05,1.758338722819863e-05,1.4167752429999197e-05,5.8667,7.0667
1.4921875,0.00010008410466163113,1.6615393560692715e-05,2.149684734111539e-05,9.770295483329476e-06,5.8667,7.0667
1.49609375,0.00011327647550164029,1.8565209376668915e-05,5.8114664934767626e-05,1.2217936614023003e-05,5.8667,7.0667
1.5,0.00013671575073624773,3.272557388418398e-05,6.446193769741354e-05,1.0254292317082431e-05,5.8667,7.0667
1.50390625,0.00013866556655222392,3.17437517357137e-05,4.981757635614552e-05,8.304476501106236e-06,5.8667,7.0667
1.5078125,0.00013330011593804832,2.344666315709159e-05,6.348011554894327e-05,1.2701933447775956e-05,5.8667,7.0667
1.51171875,0.00011864192611581592,1.758338722819863e-05,6.542993136491946e-05,1.6117568245975392e-05,5.8667,7.0667
1.515625,0.00013621792542153042,1.8067384061951585e-05,6.054847758449678e-05,1.6615393560692715e-05,5.8667,7.0667
1.51953125,0.00013573392858777744,3.0277932753490458e-05,7.762665157549396e-05,1.2701933447775956e-05,5.8667,7.0667
1.5234375,0.00011620811346608676,1.5633571412222437e-05,7.7142654741741e-05,1.2701933447775956e-05,5.8667,7.0667
1.52734375,0.0001415972045166704,3.423022720683562e-06,7.179103260852975e-05,1.4167752429999197e-05,5.8667,7.0667
1.53125,0.00010351356794079493,1.1720111299305678e-05,8.54397433203631e-05,1.2701933447775956e-05,5.8667,7.0667
1.53515625,0.00010644520590524141,2.344666315709159e-05,8.300593067063395e-05,1.6117568245975392e-05,5.8667,7.0667
1.5390625,0.0001767492031280994,1.7099390394445676e-05,7.860847372396423e-05,1.4167752429999197e-05,5.8667,7.0667
1.54296875,0.00015282593105973898,1.4651749263752151e-05,7.860847372396423e-05,9.286298649576522e-06,5.8667,7.0667
1.546875,0.00012890265899137858,1.4167752429999197e-05,6.739357566186003e-05,1.3683755596246242e-05,5.8667,7.0667
1.55078125,0.00011815792928206296,1.4651749263752151e-05,5.030157318989848e-05,1.758338722819863e-05,5.8667,7.0667
1.5546875,0.00012060557041275649,2.0031028358892158e-05,6.542993136491946e-05,1.5633571412222437e-05,5.8667,7.0667
1.55859375,0.00011913975143053323,2.44146568245975e-05,7.90924705577172e-05,1.5149574578469483e-05,5.8667,7.0667
1.5625,0.00011474229448386353,2.5396478973067787e-05,6.446193769741354e-05,1.2701933447775956e-05,5.8667,7.0667
1.56640625,6.885939464408327e-05,3.5657211848630456e-05,4.5420119409475806e-05,8.304476501106236e-06,5.8667,7.0667
1.5703125,4.5420119409475806e-05,2.7844120103761304e-05,3.272557388418398e-05,7.3364828336003285e-06,5.8667,7.0667
1.57421875,0.0001196237482642862,1.1720111299305678e-05,4.297247827878228e-05,3.907019554436516e-06,5.8667,7.0667
1.578125,0.00013085247480735477,2.7844120103761304e-05,7.129320729381242e-05,6.354660685130042e-06,5.8667,7.0667
1.58203125,8.788738445105662e-05,4.102266246280609e-05,7.324302310978861e-05,8.304476501106236e-06,5.8667,7.0667
1.5859375,7.616083259327072e-05,3.419139286640722e-05,5.3717207988097916e-05,7.3879224841277844e-09,5.8667,7.0667
1.58984375,9.618447302967874e-05,3.3693567551689894e-05,4.347030359349961e-05,2.4550290531776538e-06,5.8667,7.0667
1.59375,0.0001142444691691462,2.198084417486835e-05,4.688593839169904e-05,1.0752117631799763e-05,5.8667,7.0667
1.59765625,0.00010887901855497056,1.1720111299305678e-05,5.078557002365144e-05,1.0254292317082431e-05,5.8667,7.0667
1.6015625,0.00010594738059052408,2.4912482139314826e-05,4.688593839169904e-05,8.304476501106236e-06,5.8667,7.0667
1.60546875,9.178701608300904e-05,3.2227748569466655e-05,3.614120868238341e-05,9.286298649576522e-06,5.8667,7.0667
1.609375,9.66684698634317e-05,3.8575021332112565e-05,3.0277932753490458e-05,3.423022720683562e-06,5.8667,7.0667
1.61328125,9.032119710078577e-05,4.5420119409475806e-05,2.881211377126722e-05,8.802301815823567e-06,5.8667,7.0667
1.6171875,8.788738445105662e-05,3.662520551613637e-05,2.734629478904398e-05,1.4167752429999197e-05,5.8667,7.0667
1.62109375,0.00011669211029983972,2.0515025192645112e-05,4.0538665629053134e-05,9.286298649576522e-06,5.8667,7.0667
1.625,5.518302697032115e-05,1.2217936614023003e-05,2.881211377126722e-05,6.838657518882996e-06,5.8667,7.0667
1.62890625,5.225138900587468e-05,2.6378301121538065e-05,1.8067384061951585e-05,9.770295483329476e-06,5.8667,7.0667
1.6328125,0.00011767393244831001,3.8575021332112565e-05,2.6862297955291026e-05,1.5149574578469483e-05,5.8667,7.0667
1.63671875,9.813428884565493e-05,2.881211377126722e-05,4.102266246280609e-05,1.6615393560692715e-05,5.8667,7.0667
1.640625,5.128339533836876e-05,3.419139286640722e-05,4.004084031433581e-05,9.286298649576522e-06,5.8667,7.0667
1.64453125,5.420120482185087e-05,3.0761929587243416e-05,1.8565209376668915e-05,5.372838536659756e-06,5.8667,7.0667
1.6484375,0.00011229465335317,3.320957071793694e-05,2.3930659990844545e-05,1.2701933447775956e-05,5.8667,7.0667
1.65234375,0.00012303938306248565,1.8067384061951585e-05,2.0515025192645112e-05,1.0752117631799763e-05,5.8667,7.0667
1.65625,0.00011767393244831001,1.5149574578469483e-05,1.1720111299305678e-05,3.423022720683562e-06,5.8667,7.0667
1.66015625,8.495574648661014e-05,2.3930659990844545e-05,1.4167752429999197e-05,7.820479667353283e-06,5.8667,7.0667
1.6640625,4.8351757373922284e-05,1.3683755596246242e-05,1.904920621042187e-05,9.770295483329476e-06,5.8667,7.0667
1.66796875,0.00010887901855497056,2.344666315709159e-05,1.2701933447775956e-05,8.802301815823567e-06,5.8667,7.0667
1.671875,0.00011815792928206296,3.0277932753490458e-05,1.2217936614023003e-05,1.0752117631799763e-05,5.8667,7.0667
1.67578125,0.00010106592681010141,2.0515025192645112e-05,1.3683755596246242e-05,1.3683755596246242e-05,5.8667,7.0667
1.6796875,9.228484139772635e-05,2.4912482139314826e-05,1.3185930281528917e-05,1.758338722819863e-05,5.8667,7.0667
1.68359375,8.642156546883338e-05,1.1720111299305678e-05,1.2701933447775956e-05,1.4651749263752151e-05,5.8667,7.0667
1.6875,9.911611099412522e-05,-3.892243709468261e-06,-1.9424278934920665e-06,1.6615393560692715e-05,5.8667,7.0667
1.69140625,9.178701608300904e-05,3.760702766460665e-05,1.2217936614023003e-05,2.2464841008621306e-05,5.8667,7.0667
1.6953125,0.0001030157426260776,2.7844120103761304e-05,2.0515025192645112e-05,2.6378301121538065e-05,5.8667,7.0667
1.69921875,7.520666740672918e-05,1.2701933447775956e-05,1.4651749263752151e-05,1.8067384061951585e-05,5.8667,7.0667
1.703125,7.616083259327072e-05,4.102266246280609e-05,-2.4402532082093843e-06,5.372838536659756e-06,5.8667,7.0667
1.70703125,8.837138128480958e-05,2.6378301121538065e-05,-1.5134798733501212e-05,8.304476501106236e-06,5.8667,7.0667
1.7109375,8.837138128480958e-05,2.6862297955291026e-05,-3.892243709468261e-06,1.0752117631799763e-05,5.8667,7.0667
1.71484375,0.00012060557041275649,3.320957071793694e-05,-2.9242500419623523e-06,1.4651749263752151e-05,5.8667,7.0667
1.71875,7.374084842450594e-05,2.881211377126722e-05,-8.28970065613798e-06,1.1236114465552717e-05,5.8667,7.0667
1.72265625,6.885939464408327e-05,3.955684348058285e-05,-1.0253344953078539e-05,8.802301815823567e-06,5.8667,7.0667
1.7265625,0.00012205756091401535,2.881211377126722e-05,-1.9424278934920665e-06,1.4167752429999197e-05,5.8667,7.0667
1.73046875,0.00011717610713359268,4.150665929655905e-05,1.3185930281528917e-05,1.904920621042187e-05,5.8667,7.0667
1.734375,0.00011082883437094675,5.078557002365144e-05,1.3683755596246242e-05,1.8565209376668915e-05,5.8667,7.0667
1.73828125,0.00010106592681010141,3.515938653391313e-05,2.0031028358892158e-05,1.6117568245975392e-05,5.8667,7.0667
1.7421875,0.00010789719640650028,3.272557388418398e-05,1.2217936614023003e-05,1.1236114465552717e-05,5.8667,7.0667
1.74609375,0.00011767393244831001,3.515938653391313e-05,-8.787525970855298e-06,5.870663851377088e-06,5.8667,7.0667
1.75,0.00010497938692301817,3.662520551613637e-05,-1.3171154436560655e-05,1.3185930281528917e-05,5.8667,7.0667
1.75390625,8.397392433813987e-05,3.2227748569466655e-05,-1.3668979751277973e-05,1.4651749263752151e-05,5.8667,7.0667
1.7578125,8.837138128480958e-05,2.6862297955291026e-05,-1.1705335454337414e-05,1.0752117631799763e-05,5.8667,7.0667
1.76171875,0.0001396473887006942,3.467538970016017e-05,-5.855888006408818e-06,1.2217936614023003e-05,5.8667,7.0667
1.765625,0.0001484284741130693,2.881211377126722e-05,-1.6102792401007135e-05,1.4651749263752151e-05,5.8667,7.0667
1.76953125,0.0001298706526588845,3.2227748569466655e-05,-2.7829344258793043e-05,1.3683755596246242e-05,5.8667,7.0667
1.7734375,0.00010644520590524141,3.467538970016017e-05,-1.3171154436560655e-05,1.3683755596246242e-05,5.8667,7.0667
1.77734375,0.00011620811346608676,3.320957071793694e-05,7.820479667353283e-06,1.8067384061951585e-05,5.8667,7.0667
1.78125,0.00013768374440375363,3.8091024498359604e-05,1.8067384061951585e-05,1.8067384061951585e-05,5.8667,7.0667
1.78515625,0.00011522629131761648,1.8565209376668915e-05,2.939025886930608e-06,1.8565209376668915e-05,5.8667,7.0667
1.7890625,0.00011913975143053323,2.5880475806820738e-05,-3.892243709468261e-06,2.296266632333863e-05,5.8667,7.0667
1.79296875,0.00011864192611581592,3.0761929587243416e-05,-5.358062691691501e-06,2.5880475806820738e-05,5.8667,7.0667
1.796875,0.0001279208368429083,1.0752117631799763e-05,-1.5134798733501212e-05,2.4912482139314826e-05,5.8667,7.0667
1.80078125,0.00012205756091401535,1.6117568245975392e-05,-1.7084614549477406e-05,1.6117568245975392e-05,5.8667,7.0667
1.8046875,0.00011132665968566408,3.71230308308537e-05,-2.8313341092545994e-05,1.5633571412222437e-05,5.8667,7.0667
1.80859375,0.0001396473887006942,2.296266632333863e-05,-2.489770629434656e-05,1.8067384061951585e-05,5.8667,7.0667
1.8125,9.520265088120846e-05,1.1720111299305678e-05,-1.6102792401007135e-05,1.1720111299305678e-05,5.8667,7.0667
1.81640625,9.765029201190198e-05,3.320957071793694e-05,-1.2203160769054733e-05,1.758338722819863e-05,5.8667,7.0667
1.8203125,0.00014696265513084602,8.304476501106236e-06,-5.855888006408818e-06,2.4912482139314826e-05,5.8667,7.0667
1.82421875,0.0001235233798962386,-7.805703822385027e-06,-4.874065857938546e-06,2.198084417486835e-05,5.8667,7.0667
1.828125,0.0001245052020447089,1.0254292317082431e-05,-1.7568611383230374e-05,2.344666315709159e-05,5.8667,7.0667
1.83203125,0.0001225553862287327,2.149684734111539e-05,-1.6102792401007135e-05,2.6378301121538065e-05,5.8667,7.0667
1.8359375,0.00013183429695582505,1.6117568245975392e-05,2.939025886930608e-06,2.44146568245975e-05,5.8667,7.0667
1.83984375,0.00013475210643930716,1.4167752429999197e-05,3.423022720683562e-06,2.149684734111539e-05,5.8667,7.0667
1.84375,0.00013426810960555423,1.8067384061951585e-05,-7.321706988632059e-06,1.9533203044174824e-05,5.8667,7.0667
1.84765625,9.66684698634317e-05,1.6615393560692715e-05,-7.805703822385027e-06,2.0999022026398067e-05,5.8667,7.0667
1.8515625,7.616083259327072e-05,1.4167752429999197e-05,-2.9242500419623523e-06,2.0999022026398067e-05,5.8667,7.0667
1.85546875,0.0001425651981841763,1.2217936614023003e-05,1.1720111299305678e-05,2.344666315709159e-05,5.8667,7.0667
1.859375,0.0001601550259708552,1.957203738460322e-06,1.0752117631799763e-05,2.734629478904398e-05,5.8667,7.0667
1.86328125,0.00014208120135042338,1.5149574578469483e-05,2.939025886930608e-06,2.6378301121538065e-05,5.8667,7.0667
1.8671875,0.00011474229448386353,3.760702766460665e-05,-3.892243709468261e-06,2.344666315709159e-05,5.8667,7.0667
1.87109375,0.0001020477489585717,2.8328116937514265e-05,-1.1221338620584462e-05,2.44146568245975e-05,5.8667,7.0667
1.875,0.00012840483367666127,2.3930659990844545e-05,1.6615393560692715e-05,2.2464841008621306e-05,5.8667,7.0667
1.87890625,0.00014794447727931633,3.467538970016017e-05,3.17437517357137e-05,1.8565209376668915e-05,5.8667,7.0667
1.8828125,0.000138181569718471,2.3930659990844545e-05,2.7844120103761304e-05,2.344666315709159e-05,5.8667,7.0667
1.88671875,0.0001196237482642862,2.2464841008621306e-05,1.4167752429999197e-05,2.734629478904398e-05,5.8667,7.0667
1.890625,0.00011913975143053323,1.2701933447775956e-05,-1.5618795567254167e-05,3.0277932753490458e-05,5.8667,7.0667
1.89453125,0.00011767393244831001,1.4732069047073678e-06,-7.805703822385027e-06,2.8328116937514265e-05,5.8667,7.0667
1.8984375,0.00011913975143053323,1.904920621042187e-05,1.8067384061951585e-05,2.149684734111539e-05,5.8667,7.0667
1.90234375,0.00014501283931486983,3.955684348058285e-05,1.6117568245975392e-05,2.4912482139314826e-05,5.8667,7.0667
1.90625,9.66684698634317e-05,4.102266246280609e-05,8.304476501106236e-06,2.734629478904398e-05,5.8667,7.0667
1.91015625,9.032119710078577e-05,2.0515025192645112e-05,1.1720111299305678e-05,3.125975490196074e-05,5.8667,7.0667
1.9140625,0.00015722338800640872,1.8565209376668915e-05,1.3185930281528917e-05,2.7844120103761304e-05,5.8667,7.0667
1.91796875,0.00015037828992904548,2.198084417486835e-05,1.3683755596246242e-05,2.0031028358892158e-05,5.8667,7.0667
1.921875,0.00012498919887846184,2.0031028358892158e-05,1.9533203044174824e-05,2.0999022026398067e-05,5.8667,7.0667
1.92578125,0.00010692920273899437,1.0254292317082431e-05,7.820479667353283e-06,1.8565209376668915e-05,5.8667,7.0667
1.9296875,0.0001225553862287327,2.198084417486835e-05,-1.4636973418783896e-05,1.6117568245975392e-05,5.8667,7.0667
1.93359375,0.00014013138553444719,3.3693567551689894e-05,-1.2203160769054733e-05,2.4912482139314826e-05,5.8667,7.0667
1.9375,0.000138181569718471,3.423022720683562e-06,-9.74434225986144e-07,2.3930659990844545e-05,5.8667,7.0667
1.94140625,0.00010008410466163113,1.1236114465552717e-05,6.838657518882996e-06,1.6117568245975392e-05,5.8667,7.0667
1.9453125,7.90924705577172e-05,2.5396478973067787e-05,1.957203738460322e-06,2.2464841008621306e-05,5.8667,7.0667
1.94921875,0.00013621792542153042,7.820479667353283e-06,-9.271522804608253e-06,2.198084417486835e-05,5.8667,7.0667
1.953125,0.0001484284741130693,1.5633571412222437e-05,-7.805703822385027e-06,2.0031028358892158e-05,5.8667,7.0667
1.95703125,0.00012695284317540238,2.8328116937514265e-05,4.404844869153848e-06,1.8565209376668915e-05,5.8667,7.0667
1.9609375,0.00010644520590524141,2.344666315709159e-05,1.5633571412222437e-05,1.6615393560692715e-05,5.8667,7.0667
1.96484375,0.00011815792928206296,2.5396478973067787e-05,1.0254292317082431e-05,1.8067384061951585e-05,5.8667,7.0667
1.96875,0.0001406153823682001,3.419139286640722e-05,1.758338722819863e-05,2.149684734111539e-05,5.8667,7.0667
1.97265625,0.00014403101716639957,3.955684348058285e-05,1.6117568245975392e-05,2.0999022026398067e-05,5.8667,7.0667
1.9765625,0.00014111320768291744,2.6862297955291026e-05,1.5149574578469483e-05,2.44146568245975e-05,5.8667,7.0667
1.98046875,0.0001196237482642862,4.888841702906802e-06,1.758338722819863e-05,1.4167752429999197e-05,5.8667,7.0667
1.984375,0.00012890265899137858,-1.7568611383230374e-05,-1.8052608216983328e-05,1.1236114465552717e-05,5.8667,7.0667
1.98828125,0.00014306302349889364,-1.3668979751277973e-05,-2.63635252765698e-05,2.8328116937514265e-05,5.8667,7.0667
1.9921875,0.00014941029626153957,-4.002606446936754e-05,-4.540534356450754e-05,1.2217936614023003e-05,5.8667,7.0667
1.99609375,0.00017088592719920645,-6.493115868619825e-05,-6.396316501869234e-05,-1.9424278934920665e-06,5.8667,7.0667
2.0,0.00015282593105973898,-7.665771054398416e-05,-6.1031527054245854e-05,4.888841702906802e-06,5.8667,7.0667
2.00390625,0.0001733335683299,-9.423370984969864e-05,-8.397297697413597e-05,1.3683755596246242e-05,5.8667,7.0667
2.0078125,0.00023192484217593643,-0.00010253079842832076,-0.00011180970915541314,1.9533203044174824e-05,5.8667,7.0667
2.01171875,0.00025194848261234445,-0.00013133552427710383,-0.0001342671622415503,1.6615393560692715e-05,5.8667,7.0667
2.015625,0.00026904048508430607,-0.0001484275267490654,-0.00016356971340505074,1.4167752429999197e-05,5.8667,7.0667
2.01953125,0.000263661205989166,-0.00018602716649118793,-0.00020018753099870296,9.286298649576522e-06,5.8667,7.0667
2.0234375,0.000304676480529488,-0.00021922934928664072,-0.00021483189233997103,7.3364828336003285e-06,5.8667,7.0667
2.02734375,0.00032470012096589597,-0.0002250926252155337,-0.00024120280553902493,1.1720111299305678e-05,5.8667,7.0667
2.03125,0.0003066401248264285,-0.0002294900821622034,-0.0002582948080109865,2.734629478904398e-05,5.8667,7.0667
2.03515625,0.0002792873894789043,-0.00023143989797817959,-0.0002514635384145876,3.5657211848630456e-05,5.8667,7.0667
2.0390625,0.0002587797522087433,-0.00022216098725108717,-0.0002538973510643167,3.955684348058285e-05,5.8667,7.0667
2.04296875,0.0002914979381704431,-0.00021239807969024183,-0.0002397369865568017,4.638811307698172e-05,5.8667,7.0667
2.046875,0.0002910139413366902,-0.0002031191689631495,-0.00020800062274357214,4.492229409475848e-05,5.8667,7.0667
2.05078125,0.0002812372052948805,-0.0001992057088502327,-0.0002089824448920424,3.2227748569466655e-05,5.8667,7.0667
2.0546875,0.000263177209155413,-0.00017626425893034256,-0.00017919589689478906,3.320957071793694e-05,5.8667,7.0667
2.05859375,0.0002460852066834515,-0.00014794352991531244,-0.0001401304381704433,4.7369935225452e-05,5.8667,7.0667
2.0625,0.0002534143015945677,-0.000139148616021973,-0.00014501189195086596,4.590411624322876e-05,5.8667,7.0667
2.06640625,0.00022655939156176078,-0.00011425735028610668,-0.00012498825151445795,4.248848144502933e-05,5.8667,7.0667
2.0703125,0.00020995138592355223,-6.884461879911501e-05,-8.543879595635923e-05,3.17437517357137e-05,5.8667,7.0667
2.07421875,0.0001928593834515907,-6.004970490577557e-05,-9.37497130159457e-05,2.4912482139314826e-05,5.8667,7.0667
2.078125,0.00016698629556725407,-2.9295163241016282e-05,-5.95657080720226e-05,2.4912482139314826e-05,5.8667,7.0667
2.08203125,0.00014208120135042338,-1.9424278934920665e-06,-8.787525970855298e-06,2.0515025192645112e-05,5.8667,7.0667
2.0859375,0.00012205756091401535,-1.4152976585030928e-05,-8.787525970855298e-06,1.5633571412222437e-05,5.8667,7.0667
2.08984375,0.00013671575073624773,2.0515025192645112e-05,7.820479667353283e-06,1.3683755596246242e-05,5.8667,7.0667
2.09375,0.0001225553862287327,4.5420119409475806e-05,3.419139286640722e-05,1.2701933447775956e-05,5.8667,7.0667
2.09765625,0.00012938665582513156,2.2464841008621306e-05,3.515938653391313e-05,4.404844869153848e-06,5.8667,7.0667
2.1015625,0.00010936301538872352,3.125975490196074e-05,4.297247827878228e-05,-2.4402532082093843e-06,5.8667,7.0667
2.10546875,7.374084842450594e-05,7.422484525825889e-05,6.10463028992141e-05,-2.9242500419623523e-06,5.8667,7.0667
2.109375,8.202410852216367e-05,9.228484139772635e-05,7.03252136263065e-05,7.3879224841277844e-09,5.8667,7.0667
2.11328125,6.494593453116649e-05,9.960010782787817e-05,8.202410852216367e-05,4.913847562370818e-07,5.8667,7.0667
2.1171875,8.447174965285719e-05,0.00011767393244831001,0.00010154992364385437,7.3879224841277844e-09,5.8667,7.0667
2.12109375,8.54397433203631e-05,0.00011815792928206296,0.00010986084070344086,3.423022720683562e-06,5.8667,7.0667
2.125,6.592775667963679e-05,0.00010253174579232465,0.00010692920273899437,7.3364828336003285e-06,5.8667,7.0667
2.12890625,4.347030359349961e-05,0.00010887901855497056,0.0001235233798962386,8.304476501106236e-06,5.8667,7.0667
2.1328125,3.419139286640722e-05,0.00011620811346608676,0.00013573392858777744,5.372838536659756e-06,5.8667,7.0667
2.13671875,8.935320343327988e-05,0.00011815792928206296,0.00013573392858777744,-2.9242500419623523e-06,5.8667,7.0667
2.140625,9.081902241550311e-05,0.00012695284317540238,0.00012890265899137858,-3.892243709468261e-06,5.8667,7.0667
2.14453125,6.348011554894327e-05,0.0001240212052109559,0.00011181065651941705,-1.9424278934920665e-06,5.8667,7.0667
2.1484375,5.030157318989848e-05,0.0001083950217212176,0.00010399756477454789,-5.358062691691501e-06,5.8667,7.0667
2.15234375,6.10463028992141e-05,0.00010594738059052408,0.00010546338375677113,-4.874065857938546e-06,5.8667,7.0667
2.15625,7.90924705577172e-05,0.0001245052020447089,0.00012108956724650943,-2.4402532082093843e-06,5.8667,7.0667
2.16015625,5.273538583962764e-05,0.00013085247480735477,0.00013231829378957804,2.939025886930608e-06,5.8667,7.0667
2.1640625,5.4699030136568194e-05,0.00013036847797360184,0.00012010774509803916,1.0254292317082431e-05,5.8667,7.0667
2.16796875,7.129320729381242e-05,0.0001215735640802624,0.00011327647550164029,1.1236114465552717e-05,5.8667,7.0667
2.171875,6.641175351338974e-05,0.00010253174579232465,0.00011669211029983972,1.3185930281528917e-05,5.8667,7.0667
2.17578125,5.763066810101467e-05,0.00010497938692301817,0.00011132665968566408,1.1236114465552717e-05,5.8667,7.0667
2.1796875,6.885939464408327e-05,0.00011669211029983972,0.00010887901855497056,8.802301815823567e-06,5.8667,7.0667
2.18359375,9.178701608300904e-05,0.00010887901855497056,0.00010887901855497056,1.3683755596246242e-05,5.8667,7.0667
2.1875,3.955684348058285e-05,9.618447302967874e-05,0.00010741319957274732,1.5149574578469483e-05,5.8667,7.0667
2.19140625,4.931975104142819e-05,8.690556230258634e-05,0.00011571028815136944,2.0031028358892158e-05,5.8667,7.0667
2.1953125,0.0001103448375371938,9.130301924925607e-05,0.00010741319957274732,2.198084417486835e-05,5.8667,7.0667
2.19921875,9.520265088120846e-05,8.73895591363393e-05,0.00010008410466163113,1.7099390394445676e-05,5.8667,7.0667
2.203125,8.154011168841071e-05,7.422484525825889e-05,0.00010741319957274732,1.7099390394445676e-05,5.8667,7.0667
2.20703125,6.787757249561298e-05,7.324302310978861e-05,9.960010782787817e-05,2.198084417486835e-05,5.8667,7.0667
2.2109375,8.593756863508043e-05,8.202410852216367e-05,9.373683189898523e-05,2.734629478904398e-05,5.8667,7.0667
2.21484375,9.520265088120846e-05,0.0001030157426260776,9.032119710078577e-05,2.9309939085984546e-05,5.8667,7.0667
2.21875,8.202410852216367e-05,9.178701608300904e-05,8.935320343327988e-05,2.4912482139314826e-05,5.8667,7.0667
2.22265625,7.080921046005946e-05,7.616083259327072e-05,0.00010351356794079493,2.296266632333863e-05,5.8667,7.0667
2.2265625,5.3717207988097916e-05,7.520666740672918e-05,0.00010154992364385437,2.9309939085984546e-05,5.8667,7.0667
2.23046875,8.495574648661014e-05,7.616083259327072e-05,9.66684698634317e-05,2.9309939085984546e-05,5.8667,7.0667
2.234375,0.00010497938692301817,8.54397433203631e-05,0.00010106592681010141,3.0277932753490458e-05,5.8667,7.0667
2.23828125,0.00010644520590524141,7.324302310978861e-05,8.690556230258634e-05,2.881211377126722e-05,5.8667,7.0667
2.2421875,8.055828953994043e-05,6.787757249561298e-05,8.34899275043869e-05,2.6862297955291026e-05,5.8667,7.0667
2.24609375,6.739357566186003e-05,7.129320729381242e-05,9.423465721370255e-05,2.734629478904398e-05,5.8667,7.0667
2.25,0.00011082883437094675,8.593756863508043e-05,8.397392433813987e-05,2.3930659990844545e-05,5.8667,7.0667
2.25390625,0.0001196237482642862,9.325283506523226e-05,8.10422863736934e-05,2.44146568245975e-05,5.8667,7.0667
2.2578125,0.00010497938692301817,8.250810535591663e-05,8.885537811856255e-05,2.9793935919737497e-05,5.8667,7.0667
2.26171875,9.570047619592579e-05,5.763066810101467e-05,8.154011168841071e-05,3.3693567551689894e-05,5.8667,7.0667
2.265625,9.911611099412522e-05,5.908265860227354e-05,7.569066424048213e-05,3.272557388418398e-05,5.8667,7.0667
2.26953125,8.788738445105662e-05,9.228484139772635e-05,7.957646739147016e-05,3.3693567551689894e-05,5.8667,7.0667
2.2734375,8.690556230258634e-05,7.324302310978861e-05,8.300593067063395e-05,3.0761929587243416e-05,5.8667,7.0667
2.27734375,0.00011082883437094675,5.273538583962764e-05,8.54397433203631e-05,2.9793935919737497e-05,5.8667,7.0667
2.28125,6.641175351338974e-05,7.03252136263065e-05,8.983720026703283e-05,3.0277932753490458e-05,5.8667,7.0667
2.28515625,6.592775667963679e-05,6.592775667963679e-05,8.495574648661014e-05,3.467538970016017e-05,5.8667,7.0667
2.2890625,0.00011815792928206296,5.908265860227354e-05,8.54397433203631e-05,3.515938653391313e-05,5.8667,7.0667
2.29296875,0.00010887901855497056,7.080921046005946e-05,8.54397433203631e-05,3.467538970016017e-05,5.8667,7.0667
2.296875,0.0001279208368429083,7.374084842450594e-05,8.202410852216367e-05,3.8575021332112565e-05,5.8667,7.0667
2.30078125,0.00012060557041275649,7.616083259327072e-05,7.665865790798804e-05,3.467538970016017e-05,5.8667,7.0667
2.3046875,0.0001235233798962386,5.713284278629735e-05,6.982738831158918e-05,3.272557388418398e-05,5.8667,7.0667
2.30859375,0.00011669211029983972,3.5657211848630456e-05,7.080921046005946e-05,3.17437517357137e-05,5.8667,7.0667
2.3125,0.00011669211029983972,5.8114664934767626e-05,7.324302310978861e-05,2.734629478904398e-05,5.8667,7.0667
2.31640625,0.00010741319957274732,6.982738831158918e-05,7.7142654741741e-05,2.7844120103761304e-05,5.8667,7.0667
2.3203125,6.836156932936594e-05,6.739357566186003e-05,8.837138128480958e-05,3.662520551613637e-05,5.8667,7.0667
2.32421875,0.00011571028815136944,6.836156932936594e-05,7.7142654741741e-05,4.150665929655905e-05,5.8667,7.0667
2.328125,0.00015087611524376279,5.713284278629735e-05,6.542993136491946e-05,3.419139286640722e-05,5.8667,7.0667
2.33203125,0.00011620811346608676,5.616484911879143e-05,7.860847372396423e-05,2.44146568245975e-05,5.8667,7.0667
2.3359375,9.276883823147931e-05,5.4699030136568194e-05,7.7142654741741e-05,3.2227748569466655e-05,5.8667,7.0667
2.33984375,0.00011376047233539325,5.664884595254439e-05,8.154011168841071e-05,4.004084031433581e-05,5.8667,7.0667
2.34375,0.00013280229062333096,4.004084031433581e-05,6.787757249561298e-05,3.8575021332112565e-05,5.8667,7.0667
2.34765625,0.00011522629131761648,2.8328116937514265e-05,5.4699030136568194e-05,3.662520551613637e-05,5.8667,7.0667
2.3515625,0.00010644520590524141,3.614120868238341e-05,6.787757249561298e-05,3.320957071793694e-05,5.8667,7.0667
2.35546875,0.00010253174579232465,4.883575420767524e-05,7.324302310978861e-05,3.125975490196074e-05,5.8667,7.0667
2.359375,0.00011620811346608676,5.273538583962764e-05,7.275902627603565e-05,3.662520551613637e-05,5.8667,7.0667
2.36328125,0.00010497938692301817,3.71230308308537e-05,6.68957503471427e-05,3.419139286640722e-05,5.8667,7.0667
2.3671875,0.00010594738059052408,4.004084031433581e-05,5.3233211154344955e-05,3.17437517357137e-05,5.8667,7.0667
2.37109375,0.00013085247480735477,5.958048391699087e-05,6.201429656672003e-05,2.8328116937514265e-05,5.8667,7.0667
2.375,8.73895591363393e-05,6.836156932936594e-05,6.542993136491946e-05,2.4912482139314826e-05,5.8667,7.0667
2.37890625,0.00010351356794079493,6.982738831158918e-05,5.030157318989848e-05,2.9793935919737497e-05,5.8667,7.0667
2.3828125,0.00015330992789349196,5.859866176852059e-05,4.638811307698172e-05,2.8328116937514265e-05,5.8667,7.0667
2.38671875,0.00011913975143053323,5.3233211154344955e-05,5.420120482185087e-05,2.9309939085984546e-05,5.8667,7.0667
2.390625,0.00010351356794079493,4.785393205920496e-05,6.39779408636606e-05,2.6862297955291026e-05,5.8667,7.0667
2.39453125,0.00011181065651941705,5.3233211154344955e-05,7.520666740672918e-05,2.5880475806820738e-05,5.8667,7.0667
2.3984375,0.0001215735640802624,4.492229409475848e-05,5.958048391699087e-05,2.8328116937514265e-05,5.8667,7.0667
2.40234375,0.0001259710210269321,4.004084031433581e-05,5.128339533836876e-05,2.6378301121538065e-05,5.8667,7.0667
2.40625,0.00012205756091401535,4.785393205920496e-05,5.713284278629735e-05,2.5396478973067787e-05,5.8667,7.0667
2.41015625,8.007429270618747e-05,4.297247827878228e-05,5.420120482185087e-05,2.44146568245975e-05,5.8667,7.0667
2.4140625,9.081902241550311e-05,5.273538583962764e-05,6.739357566186003e-05,3.0761929587243416e-05,5.8667,7.0667
2.41796875,0.0001406153823682001,6.054847758449678e-05,8.788738445105662e-05,3.8091024498359604e-05,5.8667,7.0667
2.421875,0.00013133647164110775,5.030157318989848e-05,7.03252136263065e-05,3.3693567551689894e-05,5.8667,7.0667
2.42578125,0.0001245052020447089,4.883575420767524e-05,3.419139286640722e-05,3.614120868238341e-05,5.8667,7.0667
2.4296875,9.325283506523226e-05,5.1767392172121716e-05,3.320957071793694e-05,3.0277932753490458e-05,5.8667,7.0667
2.43359375,8.055828953994043e-05,4.688593839169904e-05,4.102266246280609e-05,2.5880475806820738e-05,5.8667,7.0667
2.4375,0.00013426810960555423,5.3233211154344955e-05,5.518302697032115e-05,3.515938653391313e-05,5.8667,7.0667
2.44140625,0.00013426810960555423,5.420120482185087e-05,6.201429656672003e-05,3.515938653391313e-05,5.8667,7.0667
2.4453125,0.00011082883437094675,4.785393205920496e-05,4.492229409475848e-05,3.5657211848630456e-05,5.8667,7.0667
2.44921875,0.00010058192997634846,5.958048391699087e-05,4.7369935225452e-05,3.614120868238341e-05,5.8667,7.0667
2.453125,0.00011571028815136944,5.958048391699087e-05,5.566702380407411e-05,3.8091024498359604e-05,5.8667,7.0667
2.45703125,0.00011082883437094675,5.518302697032115e-05,4.347030359349961e-05,4.2004484611276373e-05,5.8667,7.0667
2.4609375,0.00010253174579232465,5.273538583962764e-05,5.1767392172121716e-05,4.102266246280609e-05,5.8667,7.0667
2.46484375,0.0001279208368429083,3.9072846646829895e-05,5.225138900587468e-05,3.0277932753490458e-05,5.8667,7.0667
2.46875,9.66684698634317e-05,3.2227748569466655e-05,4.492229409475848e-05,2.6862297955291026e-05,5.8667,7.0667
2.47265625,9.47186540474555e-05,2.9309939085984546e-05,5.908265860227354e-05,3.662520551613637e-05,5.8667,7.0667
2.4765625,0.00014549683614862284,4.2004484611276373e-05,5.273538583962764e-05,3.955684348058285e-05,5.8667,7.0667
2.48046875,0.00014013138553444719,5.225138900587468e-05,4.443829726100553e-05,3.320957071793694e-05,5.8667,7.0667
2.484375,0.00011327647550164029,4.931975104142819e-05,4.981757635614552e-05,3.0761929587243416e-05,5.8667,7.0667
2.48828125,9.130301924925607e-05,4.0538665629053134e-05,4.638811307698172e-05,3.419139286640722e-05,5.8667,7.0667
2.4921875,0.00011669211029983972,2.7844120103761304e-05,3.8575021332112565e-05,3.320957071793694e-05,5.8667,7.0667
2.49609375,0.00012840483367666127,2.4912482139314826e-05,4.248848144502933e-05,2.8328116937514265e-05,5.8667,7.0667
2.5,0.00011571028815136944,3.272557388418398e-05,5.128339533836876e-05,2.9793935919737497e-05,5.8667,7.0667
2.50390625,9.178701608300904e-05,3.71230308308537e-05,4.688593839169904e-05,3.272557388418398e-05,5.8667,7.0667
2.5078125,6.836156932936594e-05,1.758338722819863e-05,4.931975104142819e-05,3.17437517357137e-05,5.8667,7.0667
2.51171875,0.00011913975143053323,3.614120868238341e-05,4.785393205920496e-05,2.5880475806820738e-05,5.8667,7.0667
2.515625,0.0001538077532082093,5.078557002365144e-05,3.760702766460665e-05,2.881211377126722e-05,5.8667,7.0667
2.51953125,0.00014549683614862284,3.17437517357137e-05,4.638811307698172e-05,3.0761929587243416e-05,5.8667,7.0667
2.5234375,0.00010887901855497056,3.0277932753490458e-05,4.0538665629053134e-05,2.734629478904398e-05,5.8667,7.0667
2.52734375,8.885537811856255e-05,2.734629478904398e-05,2.9793935919737497e-05,2.734629478904398e-05,5.8667,7.0667
2.53125,0.0001225553862287327,3.125975490196074e-05,4.590411624322876e-05,2.296266632333863e-05,5.8667,7.0667
2.53515625,0.00012060557041275649,3.71230308308537e-05,4.443829726100553e-05,2.149684734111539e-05,5.8667,7.0667
2.5390625,0.00011669211029983972,4.883575420767524e-05,3.662520551613637e-05,2.6862297955291026e-05,5.8667,7.0667
2.54296875,9.813428884565493e-05,4.5420119409475806e-05,3.662520551613637e-05,2.6862297955291026e-05,5.8667,7.0667
2.546875,0.0001020477489585717,3.5657211848630456e-05,3.419139286640722e-05,2.2464841008621306e-05,5.8667,7.0667
2.55078125,0.00011522629131761648,4.004084031433581e-05,2.6862297955291026e-05,2.198084417486835e-05,5.8667,7.0667
2.5546875,0.00011327647550164029,2.734629478904398e-05,3.0761929587243416e-05,2.296266632333863e-05,5.8667,7.0667
2.55859375,0.000138181569718471,3.320957071793694e-05,4.004084031433581e-05,2.296266632333863e-05,5.8667,7.0667
2.5625,8.495574648661014e-05,3.8575021332112565e-05,2.9309939085984546e-05,2.198084417486835e-05,5.8667,7.0667
2.56640625,7.616083259327072e-05,1.5633571412222437e-05,2.5880475806820738e-05,2.3930659990844545e-05,5.8667,7.0667
2.5703125,0.00014306302349889364,1.904920621042187e-05,4.004084031433581e-05,1.9533203044174824e-05,5.8667,7.0667
2.57421875,0.00013475210643930716,3.467538970016017e-05,4.150665929655905e-05,1.6615393560692715e-05,5.8667,7.0667
2.578125,0.0001225553862287327,3.760702766460665e-05,4.248848144502933e-05,2.296266632333863e-05,5.8667,7.0667
2.58203125,0.00011474229448386353,3.955684348058285e-05,4.883575420767524e-05,2.8328116937514265e-05,5.8667,7.0667
2.5859375,0.0001240212052109559,3.760702766460665e-05,3.0761929587243416e-05,2.6378301121538065e-05,5.8667,7.0667
2.58984375,0.0001245052020447089,3.955684348058285e-05,4.248848144502933e-05,1.8067384061951585e-05,5.8667,7.0667
2.59375,0.00010789719640650028,3.419139286640722e-05,5.078557002365144e-05,1.7099390394445676e-05,5.8667,7.0667
2.59765625,8.788738445105662e-05,2.7844120103761304e-05,3.17437517357137e-05,2.0999022026398067e-05,5.8667,7.0667
2.6015625,7.470884209201185e-05,2.3930659990844545e-05,2.344666315709159e-05,1.904920621042187e-05,5.8667,7.0667
2.60546875,0.00011767393244831001,4.102266246280609e-05,2.881211377126722e-05,2.344666315709159e-05,5.8667,7.0667
2.609375,0.00013378411277180125,4.443829726100553e-05,3.320957071793694e-05,2.734629478904398e-05,5.8667,7.0667
2.61328125,0.00012303938306248565,4.297247827878228e-05,2.5396478973067787e-05,2.6378301121538065e-05,5.8667,7.0667
2.6171875,0.0001103448375371938,3.662520551613637e-05,3.419139286640722e-05,2.4912482139314826e-05,5.8667,7.0667
2.62109375,9.66684698634317e-05,1.4167752429999197e-05,4.7369935225452e-05,1.7099390394445676e-05,5.8667,7.0667
2.625,0.00011620811346608676,1.9533203044174824e-05,3.467538970016017e-05,1.2217936614023003e-05,5.8667,7.0667
2.62890625,0.00011864192611581592,3.8091024498359604e-05,1.6615393560692715e-05,1.4651749263752151e-05,5.8667,7.0667
2.6328125,9.960010782787817e-05,3.17437517357137e-05,3.71230308308537e-05,2.198084417486835e-05,5.8667,7.0667
2.63671875,9.66684698634317e-05,1.5633571412222437e-05,4.688593839169904e-05,2.734629478904398e-05,5.8667,7.0667
2.640625,0.0001103448375371938,1.3185930281528917e-05,2.2464841008621306e-05,2.5880475806820738e-05,5.8667,7.0667
2.64453125,0.00010644520590524141,2.0031028358892158e-05,2.2464841008621306e-05,1.5633571412222437e-05,5.8667,7.0667
2.6484375,9.863211416037226e-05,2.5396478973067787e-05,2.881211377126722e-05,1.8565209376668915e-05,5.8667,7.0667
2.65234375,0.0001225553862287327,1.5149574578469483e-05,2.9793935919737497e-05,2.344666315709159e-05,5.8667,7.0667
2.65625,8.593756863508043e-05,1.1236114465552717e-05,3.760702766460665e-05,1.4167752429999197e-05,5.8667,7.0667
2.66015625,6.446193769741354e-05,3.955684348058285e-05,4.248848144502933e-05,2.198084417486835e-05,5.8667,7.0667
2.6640625,0.0001103448375371938,4.7369935225452e-05,3.419139286640722e-05,2.344666315709159e-05,5.8667,7.0667
2.66796875,0.00012010774509803916,3.9072846646829895e-05,2.9793935919737497e-05,8.304476501106236e-06,5.8667,7.0667
2.671875,0.0001196237482642862,3.515938653391313e-05,2.198084417486835e-05,1.7099390394445676e-05,5.8667,7.0667
2.67578125,0.00011474229448386353,2.6862297955291026e-05,2.0999022026398067e-05,2.149684734111539e-05,5.8667,7.0667
2.6796875,9.863211416037226e-05,1.7099390394445676e-05,2.4912482139314826e-05,2.0999022026398067e-05,5.8667,7.0667
2.68359375,0.0001083950217212176,2.7844120103761304e-05,2.7844120103761304e-05,2.198084417486835e-05,5.8667,7.0667
2.6875,0.00010986084070344086,2.9793935919737497e-05,2.734629478904398e-05,2.44146568245975e-05,5.8667,7.0667
2.69140625,7.569066424048213e-05,1.9533203044174824e-05,3.0277932753490458e-05,2.6862297955291026e-05,5.8667,7.0667
2.6953125,5.713284278629735e-05,1.4167752429999197e-05,2.881211377126722e-05,2.881211377126722e-05,5.8667,7.0667
2.69921875,0.0001020477489585717,2.296266632333863e-05,3.2227748569466655e-05,3.419139286640722e-05,5.8667,7.0667
2.703125,0.00013426810960555423,3.8575021332112565e-05,4.0538665629053134e-05,1.7099390394445676e-05,5.8667,7.0667
2.70703125,0.0001240212052109559,3.0277932753490458e-05,3.515938653391313e-05,4.404844869153848e-06,5.8667,7.0667
2.7109375,9.911611099412522e-05,3.0761929587243416e-05,3.515938653391313e-05,1.3185930281528917e-05,5.8667,7.0667
2.71484375,0.00010644520590524141,2.734629478904398e-05,2.3930659990844545e-05,1.758338722819863e-05,5.8667,7.0667
2.71875,0.00012548702419317917,2.149684734111539e-05,2.296266632333863e-05,1.6117568245975392e-05,5.8667,7.0667
2.72265625,0.00010887901855497056,3.0761929587243416e-05,2.9793935919737497e-05,2.296266632333863e-05,5.8667,7.0667
2.7265625,9.716629517814902e-05,2.7844120103761304e-05,2.6378301121538065e-05,2.734629478904398e-05,5.8667,7.0667
2.73046875,8.885537811856255e-05,2.5880475806820738e-05,2.881211377126722e-05,1.3185930281528917e-05,5.8667,7.0667
2.734375,0.00011864192611581592,2.9309939085984546e-05,2.881211377126722e-05,3.17437517357137e-05,5.8667,7.0667
2.73828125,0.00011767393244831001,1.0254292317082431e-05,3.272557388418398e-05,2.9309939085984546e-05,5.8667,7.0667
2.7421875,9.716629517814902e-05,1.2217936614023003e-05,3.71230308308537e-05,7.3879224841277844e-09,5.8667,7.0667
2.74609375,0.00010644520590524141,3.614120868238341e-05,4.492229409475848e-05,2.0999022026398067e-05,5.8667,7.0667
2.75,6.885939464408327e-05,5.273538583962764e-05,6.29961187151903e-05,2.881211377126722e-05,5.8667,7.0667
2.75390625,9.130301924925607e-05,4.2004484611276373e-05,4.2004484611276373e-05,1.7099390394445676e-05,5.8667,7.0667
2.7578125,0.00015184410891126872,2.9309939085984546e-05,9.770295483329476e-06,2.44146568245975e-05,5.8667,7.0667
2.76171875,0.00012645501786068508,3.2227748569466655e-05,2.7844120103761304e-05,2.6862297955291026e-05,5.8667,7.0667
2.765625,0.00011279247866788734,7.820479667353283e-06,3.515938653391313e-05,2.734629478904398e-05,5.8667,7.0667
2.76953125,0.00010741319957274732,7.820479667353283e-06,2.0031028358892158e-05,3.17437517357137e-05,5.8667,7.0667
2.7734375,0.00012060557041275649,2.149684734111539e-05,8.802301815823567e-06,1.7099390394445676e-05,5.8667,7.0667
2.77734375,0.0001142444691691462,6.838657518882996e-06,9.286298649576522e-06,1.8067384061951585e-05,5.8667,7.0667
2.78125,0.00011620811346608676,7.820479667353283e-06,2.296266632333863e-05,2.3930659990844545e-05,5.8667,7.0667
2.78515625,9.47186540474555e-05,1.0254292317082431e-05,2.4912482139314826e-05,1.0752117631799763e-05,5.8667,7.0667
2.7890625,5.225138900587468e-05,3.3693567551689894e-05,2.881211377126722e-05,1.5149574578469483e-05,5.8667,7.0667
2.79296875,0.0001020477489585717,5.908265860227354e-05,3.71230308308537e-05,2.5880475806820738e-05,5.8667,7.0667
2.796875,0.00013280229062333096,3.9072846646829895e-05,3.8575021332112565e-05,1.904920621042187e-05,5.8667,7.0667
2.80078125,0.00013280229062333096,2.881211377126722e-05,3.419139286640722e-05,1.9533203044174824e-05,5.8667,7.0667
2.8046875,0.00011717610713359268,3.0761929587243416e-05,3.3693567551689894e-05,1.904920621042187e-05,5.8667,7.0667
2.80859375,0.00010789719640650028,2.7844120103761304e-05,4.0538665629053134e-05,1.758338722819863e-05,5.8667,7.0667
2.8125,0.00012548702419317917,1.904920621042187e-05,3.2227748569466655e-05,2.9309939085984546e-05,5.8667,7.0667
2.81640625,0.00011767393244831001,1.6117568245975392e-05,3.2227748569466655e-05,4.150665929655905e-05,5.8667,7.0667
2.8203125,0.00010399756477454789,3.0277932753490458e-05,3.8575021332112565e-05,2.9309939085984546e-05,5.8667,7.0667
2.82421875,9.423465721370255e-05,5.763066810101467e-05,5.225138900587468e-05,6.354660685130042e-06,5.8667,7.0667
2.828125,0.00010594738059052408,5.3717207988097916e-05,6.201429656672003e-05,1.1236114465552717e-05,5.8667,7.0667
2.83203125,0.0001020477489585717,3.8575021332112565e-05,5.078557002365144e-05,2.5396478973067787e-05,5.8667,7.0667
2.8359375,9.960010782787817e-05,4.785393205920496e-05,4.931975104142819e-05,2.0031028358892158e-05,5.8667,7.0667
2.83984375,0.00013085247480735477,3.662520551613637e-05,4.785393205920496e-05,3.0761929587243416e-05,5.8667,7.0667
2.84375,8.154011168841071e-05,1.4651749263752151e-05,3.614120868238341e-05,3.272557388418398e-05,5.8667,7.0667
2.84765625,8.007429270618747e-05,9.286298649576522e-06,3.8575021332112565e-05,2.198084417486835e-05,5.8667,7.0667
2.8515625,0.00012548702419317917,2.6378301121538065e-05,4.2004484611276373e-05,2.0999022026398067e-05,5.8667,7.0667
2.85546875,0.00011864192611581592,5.030157318989848e-05,4.7369935225452e-05,2.0515025192645112e-05,5.8667,7.0667
2.859375,0.00011571028815136944,5.4699030136568194e-05,5.420120482185087e-05,2.44146568245975e-05,5.8667,7.0667
2.86328125,9.178701608300904e-05,3.662520551613637e-05,4.785393205920496e-05,2.0999022026398067e-05,5.8667,7.0667
2.8671875,0.00010789719640650028,4.2004484611276373e-05,4.0538665629053134e-05,2.198084417486835e-05,5.8667,7.0667
2.87109375,0.00011864192611581592,4.931975104142819e-05,3.662520551613637e-05,3.320957071793694e-05,5.8667,7.0667
2.875,0.00011717610713359268,3.71230308308537e-05,3.71230308308537e-05,3.320957071793694e-05,5.8667,7.0667
2.87890625,9.47186540474555e-05,3.71230308308537e-05,3.515938653391313e-05,2.5880475806820738e-05,5.8667,7.0667
2.8828125,7.129320729381242e-05,5.030157318989848e-05,2.6862297955291026e-05,2.3930659990844545e-05,5.8667,7.0667
2.88671875,0.00011279247866788734,4.347030359349961e-05,3.0761929587243416e-05,2.198084417486835e-05,5.8667,7.0667
2.890625,0.00013524993175402451,2.5880475806820738e-05,2.9793935919737497e-05,2.198084417486835e-05,5.8667,7.0667
2.89453125,0.0001215735640802624,3.8575021332112565e-05,2.9793935919737497e-05,2.198084417486835e-05,5.8667,7.0667
2.8984375,8.642156546883338e-05,2.7844120103761304e-05,3.2227748569466655e-05,2.9793935919737497e-05,5.8667,7.0667
2.90234375,9.228484139772635e-05,2.198084417486835e-05,3.515938653391313e-05,2.9793935919737497e-05,5.8667,7.0667
2.90625,0.00011571028815136944,2.4912482139314826e-05,2.7844120103761304e-05,2.0999022026398067e-05,5.8667,7.0667
2.91015625,8.837138128480958e-05,1.9533203044174824e-05,1.5149574578469483e-05,2.44146568245975e-05,5.8667,7.0667
2.9140625,0.0001030157426260776,2.9793935919737497e-05,2.6378301121538065e-05,2.5880475806820738e-05,5.8667,7.0667
2.91796875,0.00011082883437094675,2.6378301121538065e-05,3.760702766460665e-05,2.344666315709159e-05,5.8667,7.0667
2.921875,9.863211416037226e-05,2.8328116937514265e-05,3.0277932753490458e-05,2.9309939085984546e-05,5.8667,7.0667
2.92578125,8.788738445105662e-05,3.2227748569466655e-05,2.2464841008621306e-05,3.0761929587243416e-05,5.8667,7.0667
2.9296875,8.300593067063395e-05,1.8067384061951585e-05,1.4651749263752151e-05,3.17437517357137e-05,5.8667,7.0667
2.93359375,0.00011767393244831001,2.2464841008621306e-05,1.3683755596246242e-05,2.7844120103761304e-05,5.8667,7.0667
2.9375,8.495574648661014e-05,1.758338722819863e-05,2.881211377126722e-05,2.344666315709159e-05,5.8667,7.0667
2.94140625,7.665865790798804e-05,1.9533203044174824e-05,2.881211377126722e-05,2.7844120103761304e-05,5.8667,7.0667
2.9453125,0.00012060557041275649,2.2464841008621306e-05,1.4167752429999197e-05,2.9793935919737497e-05,5.8667,7.0667
2.94921875,0.00010058192997634846,1.4651749263752151e-05,1.4167752429999197e-05,3.515938653391313e-05,5.8667,7.0667
2.953125,0.00010058192997634846,1.1236114465552717e-05,2.9309939085984546e-05,2.6378301121538065e-05,5.8667,7.0667
2.95703125,9.813428884565493e-05,1.4651749263752151e-05,2.734629478904398e-05,2.2464841008621306e-05,5.8667,7.0667
2.9609375,0.00011181065651941705,1.2701933447775956e-05,1.7099390394445676e-05,2.6378301121538065e-05,5.8667,7.0667
2.96484375,9.813428884565493e-05,1.4651749263752151e-05,7.3364828336003285e-06,2.296266632333863e-05,5.8667,7.0667
2.96875,8.007429270618747e-05,3.0761929587243416e-05,1.5633571412222437e-05,2.6378301121538065e-05,5.8667,7.0667
2.97265625,7.665865790798804e-05,2.9309939085984546e-05,3.2227748569466655e-05,2.734629478904398e-05,5.8667,7.0667
2.9765625,9.47186540474555e-05,2.6862297955291026e-05,2.7844120103761304e-05,2.5396478973067787e-05,5.8667,7.0667
2.98046875,0.00012303938306248565,1.8565209376668915e-05,1.8565209376668915e-05,2.5396478973067787e-05,5.8667,7.0667
2.984375,0.00010399756477454789,1.0752117631799763e-05,3.0277932753490458e-05,1.8565209376668915e-05,5.8667,7.0667
2.98828125,9.570047619592579e-05,3.3693567551689894e-05,3.2227748569466655e-05,1.7099390394445676e-05,5.8667,7.0667
2.9921875,7.129320729381242e-05,2.8328116937514265e-05,2.4912482139314826e-05,2.198084417486835e-05,5.8667,7.0667
2.99609375,5.616484911879143e-05,1.4732069047073678e-06,4.004084031433581e-05,2.881211377126722e-05,5.8667,7.0667
3.0,0.00011571028815136944,7.3364828336003285e-06,3.320957071793694e-05,2.881211377126722e-05,5.8667,7.0667
3.00390625,0.00012060557041275649,2.6862297955291026e-05,3.3693567551689894e-05,2.7844120103761304e-05,5.8667,7.0667
3.0078125,9.813428884565493e-05,3.272557388418398e-05,2.7844120103761304e-05,3.3693567551689894e-05,5.8667,7.0667
3.01171875,8.54397433203631e-05,1.904920621042187e-05,2.2464841008621306e-05,3.419139286640722e-05,5.8667,7.0667
3.015625,8.935320343327988e-05,2.7844120103761304e-05,4.443829726100553e-05,3.0277932753490458e-05,5.8667,7.0667
3.01953125,9.47186540474555e-05,5.078557002365144e-05,5.420120482185087e-05,2.296266632333863e-05,5.8667,7.0667
3.0234375,8.788738445105662e-05,2.8328116937514265e-05,2.44146568245975e-05,2.198084417486835e-05,5.8667,7.0667
3.02734375,0.00010058192997634846,2.939025886930608e-06,-4.3900690241855925e-06,2.344666315709159e-05,5.8667,7.0667
3.03125,6.446193769741354e-05,-2.4402532082093843e-06,-1.4584310597391123e-06,2.6378301121538065e-05,5.8667,7.0667
3.03515625,7.275902627603565e-05,4.913847562370818e-07,1.4167752429999197e-05,2.7844120103761304e-05,5.8667,7.0667
3.0390625,0.00013280229062333096,9.770295483329476e-06,1.2701933447775956e-05,2.6862297955291026e-05,5.8667,7.0667
3.04296875,0.00011864192611581592,1.2701933447775956e-05,9.892100709544137e-07,2.2464841008621306e-05,5.8667,7.0667
3.046875,0.00010887901855497056,1.5633571412222437e-05,5.870663851377088e-06,2.2464841008621306e-05,5.8667,7.0667
3.05078125,9.813428884565493e-05,1.2701933447775956e-05,7.3364828336003285e-06,2.5396478973067787e-05,5.8667,7.0667
3.0546875,0.00011327647550164029,1.0254292317082431e-05,2.2464841008621306e-05,2.6862297955291026e-05,5.8667,7.0667
3.05859375,0.00011229465335317,1.7099390394445676e-05,2.881211377126722e-05,3.125975490196074e-05,5.8667,7.0667
3.0625,9.618447302967874e-05,1.4651749263752151e-05,8.304476501106236e-06,3.320957071793694e-05,5.8667,7.0667
3.06640625,7.03252136263065e-05,1.7099390394445676e-05,4.913847562370818e-07,2.344666315709159e-05,5.8667,7.0667
3.0703125,4.785393205920496e-05,2.149684734111539e-05,-7.805703822385027e-06,1.5633571412222437e-05,5.8667,7.0667
3.07421875,0.00010644520590524141,1.904920621042187e-05,-2.9242500419623523e-06,2.0031028358892158e-05,5.8667,7.0667
3.078125,0.0001391495633859769,1.4167752429999197e-05,1.6117568245975392e-05,2.8328116937514265e-05,5.8667,7.0667
3.08203125,9.911611099412522e-05,1.5633571412222437e-05,2.0999022026398067e-05,3.0761929587243416e-05,5.8667,7.0667
3.0859375,7.374084842450594e-05,1.758338722819863e-05,1.6117568245975392e-05,2.9309939085984546e-05,5.8667,7.0667
3.08984375,0.00010448156160830084,2.149684734111539e-05,2.0031028358892158e-05,2.7844120103761304e-05,5.8667,7.0667
3.09375,0.00012303938306248565,3.955684348058285e-05,2.296266632333863e-05,2.0999022026398067e-05,5.8667,7.0667
3.09765625,0.0001103448375371938,3.955684348058285e-05,2.5880475806820738e-05,1.8565209376668915e-05,5.8667,7.0667
3.1015625,0.00010741319957274732,2.7844120103761304e-05,3.17437517357137e-05,2.0031028358892158e-05,5.8667,7.0667
3.10546875,9.081902241550311e-05,2.198084417486835e-05,2.344666315709159e-05,1.5633571412222437e-05,5.8667,7.0667
3.109375,8.73895591363393e-05,2.734629478904398e-05,1.5633571412222437e-05,1.7099390394445676e-05,5.8667,7.0667
3.11328125,9.081902241550311e-05,2.9793935919737497e-05,1.9533203044174824e-05,1.5149574578469483e-05,5.8667,7.0667
3.1171875,9.276883823147931e-05,4.2004484611276373e-05,3.0761929587243416e-05,7.3364828336003285e-06,5.8667,7.0667
3.12109375,0.0001196237482642862,5.030157318989848e-05,3.467538970016017e-05,1.2217936614023003e-05,5.8667,7.0667
3.125,6.29961187151903e-05,4.150665929655905e-05,2.881211377126722e-05,1.904920621042187e-05,5.8667,7.0667
3.12890625,6.054847758449678e-05,3.3693567551689894e-05,1.6615393560692715e-05,1.7099390394445676e-05,5.8667,7.0667
3.1328125,0.00012938665582513156,3.5657211848630456e-05,2.734629478904398e-05,1.8067384061951585e-05,5.8667,7.0667
3.13671875,0.00010106592681010141,1.7099390394445676e-05,2.734629478904398e-05,1.8067384061951585e-05,5.8667,7.0667
3.140625,8.642156546883338e-05,2.939025886930608e-06,2.6862297955291026e-05,1.5149574578469483e-05,5.8667,7.0667
3.14453125,9.911611099412522e-05,2.3930659990844545e-05,4.7369935225452e-05,2.198084417486835e-05,5.8667,7.0667
3.1484375,0.00010986084070344086,4.248848144502933e-05,3.5657211848630456e-05,2.3930659990844545e-05,5.8667,7.0667
3.15234375,0.00011279247866788734,3.272557388418398e-05,2.0515025192645112e-05,1.6615393560692715e-05,5.8667,7.0667
3.15625,0.00011571028815136944,2.149684734111539e-05,2.198084417486835e-05,1.2217936614023003e-05,5.8667,7.0667
3.16015625,8.447174965285719e-05,2.6862297955291026e-05,2.9793935919737497e-05,1.7099390394445676e-05,5.8667,7.0667
3.1640625,7.762665157549396e-05,3.9072846646829895e-05,3.272557388418398e-05,2.344666315709159e-05,5.8667,7.0667
3.16796875,0.00010936301538872352,3.760702766460665e-05,3.2227748569466655e-05,2.0515025192645112e-05,5.8667,7.0667
3.171875,0.00011082883437094675,2.6378301121538065e-05,3.71230308308537e-05,1.6615393560692715e-05,5.8667,7.0667
3.17578125,0.00012010774509803916,2.5880475806820738e-05,2.9793935919737497e-05,1.9533203044174824e-05,5.8667,7.0667
3.1796875,9.373683189898523e-05,1.4167752429999197e-05,2.9793935919737497e-05,1.6117568245975392e-05,5.8667,7.0667
3.18359375,6.39779408636606e-05,1.5149574578469483e-05,3.760702766460665e-05,2.0515025192645112e-05,5.8667,7.0667
3.1875,0.00012303938306248565,3.419139286640722e-05,2.6862297955291026e-05,2.734629478904398e-05,5.8667,7.0667
3.19140625,0.0001225553862287327,4.492229409475848e-05,2.9309939085984546e-05,2.149684734111539e-05,5.8667,7.0667
3.1953125,0.0001020477489585717,5.566702380407411e-05,4.0538665629053134e-05,2.149684734111539e-05,5.8667,7.0667
3.19921875,9.520265088120846e-05,4.150665929655905e-05,3.17437517357137e-05,2.149684734111539e-05,5.8667,7.0667
3.203125,0.00010008410466163113,1.8565209376668915e-05,3.0761929587243416e-05,1.7099390394445676e-05,5.8667,7.0667
3.20703125,9.570047619592579e-05,2.198084417486835e-05,3.467538970016017e-05,2.3930659990844545e-05,5.8667,7.0667
3.2109375,9.66684698634317e-05,3.614120868238341e-05,2.9793935919737497e-05,2.6862297955291026e-05,5.8667,7.0667
3.21484375,0.00012743684000915536,3.760702766460665e-05,2.881211377126722e-05,2.6862297955291026e-05,5.8667,7.0667
3.21875,8.447174965285719e-05,3.17437517357137e-05,4.248848144502933e-05,2.6378301121538065e-05,5.8667,7.0667
3.22265625,8.007429270618747e-05,2.149684734111539e-05,4.248848144502933e-05,2.3930659990844545e-05,5.8667,7.0667
3.2265625,0.00012498919887846184,2.8328116937514265e-05,1.5633571412222437e-05,2.3930659990844545e-05,5.8667,7.0667
3.23046875,0.0001103448375371938,3.760702766460665e-05,1.3185930281528917e-05,2.5396478973067787e-05,5.8667,7.0667
3.234375,0.00010741319957274732,2.0031028358892158e-05,2.6862297955291026e-05,2.3930659990844545e-05,5.8667,7.0667
3.23828125,0.00010594738059052408,1.2701933447775956e-05,4.688593839169904e-05,1.8067384061951585e-05,5.8667,7.0667
3.2421875,0.00010887901855497056,1.5633571412222437e-05,3.8091024498359604e-05,2.734629478904398e-05,5.8667,7.0667
3.24609375,0.00010789719640650028,2.3930659990844545e-05,1.6117568245975392e-05,2.7844120103761304e-05,5.8667,7.0667
3.25,0.00010448156160830084,3.8091024498359604e-05,2.6378301121538065e-05,2.0031028358892158e-05,5.8667,7.0667
3.25390625,8.10422863736934e-05,2.8328116937514265e-05,3.419139286640722e-05,2.2464841008621306e-05,5.8667,7.0667
3.2578125,6.348011554894327e-05,1.2217936614023003e-05,3.272557388418398e-05,2.344666315709159e-05,5.8667,7.0667
3.26171875,0.00011669211029983972,1.0752117631799763e-05,2.6862297955291026e-05,2.4912482139314826e-05,5.8667,7.0667
3.265625,0.00013671575073624773,1.4651749263752151e-05,1.6117568245975392e-05,2.9309939085984546e-05,5.8667,7.0667
3.26953125,0.00011327647550164029,1.0752117631799763e-05,1.8565209376668915e-05,3.272557388418398e-05,5.8667,7.0667
3.2734375,0.00010058192997634846,1.1720111299305678e-05,1.904920621042187e-05,2.6378301121538065e-05,5.8667,7.0667
3.27734375,9.276883823147931e-05,3.467538970016017e-05,2.6378301121538065e-05,2.344666315709159e-05,5.8667,7.0667
3.28125,0.00010741319957274732,4.297247827878228e-05,3.955684348058285e-05,2.5880475806820738e-05,5.8667,7.0667
3.28515625,0.00010497938692301817,3.272557388418398e-05,2.881211377126722e-05,2.2464841008621306e-05,5.8667,7.0667
3.2890625,9.813428884565493e-05,1.4651749263752151e-05,2.2464841008621306e-05,1.9533203044174824e-05,5.8667,7.0667
3.29296875,9.66684698634317e-05,1.4167752429999197e-05,2.9309939085984546e-05,2.0031028358892158e-05,5.8667,7.0667
3.296875,0.00010986084070344086,2.3930659990844545e-05,3.662520551613637e-05,2.296266632333863e-05,5.8667,7.0667
3.30078125,0.0001030157426260776,2.0515025192645112e-05,3.614120868238341e-05,2.198084417486835e-05,5.8667,7.0667
3.3046875,9.813428884565493e-05,3.272557388418398e-05,2.9309939085984546e-05,2.296266632333863e-05,5.8667,7.0667
3.30859375,0.00011279247866788734,3.467538970016017e-05,2.5396478973067787e-05,2.5396478973067787e-05,5.8667,7.0667
3.3125,0.00010058192997634846,3.419139286640722e-05,2.5396478973067787e-05,2.344666315709159e-05,5.8667,7.0667
3.31640625,0.00011620811346608676,3.662520551613637e-05,2.881211377126722e-05,2.5880475806820738e-05,5.8667,7.0667
3.3203125,0.0001259710210269321,3.125975490196074e-05,2.9793935919737497e-05,3.2227748569466655e-05,5.8667,7.0667
3.32421875,0.00010351356794079493,2.3930659990844545e-05,2.9793935919737497e-05,2.9793935919737497e-05,5.8667,7.0667
3.328125,0.00010106592681010141,1.758338722819863e-05,2.5880475806820738e-05,2.344666315709159e-05,5.8667,7.0667
3.33203125,7.569066424048213e-05,3.515938653391313e-05,2.6378301121538065e-05,2.149684734111539e-05,5.8667,7.0667
3.3359375,0.0001020477489585717,4.297247827878228e-05,3.3693567551689894e-05,2.44146568245975e-05,5.8667,7.0667
3.33984375,0.00013621792542153042,3.2227748569466655e-05,3.419139286640722e-05,2.7844120103761304e-05,5.8667,7.0667
3.34375,0.00010887901855497056,3.2227748569466655e-05,3.0761929587243416e-05,3.0761929587243416e-05,5.8667,7.0667
3.34765625,8.202410852216367e-05,4.0538665629053134e-05,2.9793935919737497e-05,3.17437517357137e-05,5.8667,7.0667
3.3515625,7.179103260852975e-05,4.2004484611276373e-05,2.4912482139314826e-05,2.5880475806820738e-05,5.8667,7.0667
3.35546875,0.00011229465335317,3.515938653391313e-05,2.5396478973067787e-05,2.734629478904398e-05,5.8667,7.0667
3.359375,0.00012303938306248565,3.419139286640722e-05,3.2227748569466655e-05,3.320957071793694e-05,5.8667,7.0667
3.36328125,0.00010789719640650028,1.4651749263752151e-05,2.5396478973067787e-05,3.272557388418398e-05,5.8667,7.0667
3.3671875,8.935320343327988e-05,2.5880475806820738e-05,2.9309939085984546e-05,3.419139286640722e-05,5.8667,7.0667
3.37109375,8.495574648661014e-05,4.150665929655905e-05,3.2227748569466655e-05,2.9309939085984546e-05,5.8667,7.0667
3.375,0.00011132665968566408,2.9793935919737497e-05,3.467538970016017e-05,2.9793935919737497e-05,5.8667,7.0667
3.37890625,0.0001142444691691462,3.0761929587243416e-05,3.272557388418398e-05,3.467538970016017e-05,5.8667,7.0667
3.3828125,0.0001083950217212176,3.614120868238341e-05,2.4912482139314826e-05,2.9793935919737497e-05,5.8667,7.0667
3.38671875,9.716629517814902e-05,3.0761929587243416e-05,2.296266632333863e-05,2.9793935919737497e-05,5.8667,7.0667
3.390625,9.813428884565493e-05,2.881211377126722e-05,2.9309939085984546e-05,3.419139286640722e-05,5.8667,7.0667
3.39453125,0.00010594738059052408,2.5396478973067787e-05,4.004084031433581e-05,2.881211377126722e-05,5.8667,7.0667
3.3984375,0.00010253174579232465,2.3930659990844545e-05,3.5657211848630456e-05,2.44146568245975e-05,5.8667,7.0667
3.40234375,0.00011620811346608676,2.5880475806820738e-05,3.8091024498359604e-05,3.17437517357137e-05,5.8667,7.0667
3.40625,8.055828953994043e-05,2.7844120103761304e-05,3.125975490196074e-05,2.734629478904398e-05,5.8667,7.0667
3.41015625,7.374084842450594e-05,4.248848144502933e-05,2.4912482139314826e-05,2.7844120103761304e-05,5.8667,7.0667
3.4140625,0.0001240212052109559,3.0761929587243416e-05,2.6862297955291026e-05,3.125975490196074e-05,5.8667,7.0667
3.41796875,0.00012205756091401535,2.296266632333863e-05,2.0031028358892158e-05,2.6378301121538065e-05,5.8667,7.0667
3.421875,0.00011571028815136944,2.0999022026398067e-05,2.0515025192645112e-05,2.6378301121538065e-05,5.8667,7.0667
3.42578125,9.66684698634317e-05,9.770295483329476e-06,1.5633571412222437e-05,2.734629478904398e-05,5.8667,7.0667
3.4296875,9.813428884565493e-05,1.7099390394445676e-05,1.4167752429999197e-05,2.5880475806820738e-05,5.8667,7.0667
3.43359375,0.00012010774509803916,2.734629478904398e-05,2.5880475806820738e-05,2.344666315709159e-05,5.8667,7.0667
3.4375,0.0001240212052109559,1.904920621042187e-05,3.125975490196074e-05,2.0515025192645112e-05,5.8667,7.0667
3.44140625,8.690556230258634e-05,1.7099390394445676e-05,1.3683755596246242e-05,1.8067384061951585e-05,5.8667,7.0667
3.4453125,7.90924705577172e-05,3.17437517357137e-05,2.296266632333863e-05,2.7844120103761304e-05,5.8667,7.0667
3.44921875,0.0001196237482642862,2.4912482139314826e-05,3.419139286640722e-05,3.419139286640722e-05,5.8667,7.0667
3.453125,0.00011669211029983972,2.296266632333863e-05,2.9793935919737497e-05,3.320957071793694e-05,5.8667,7.0667
3.45703125,0.00011522629131761648,2.7844120103761304e-05,4.590411624322876e-05,3.71230308308537e-05,5.8667,7.0667
3.4609375,9.423465721370255e-05,2.7844120103761304e-05,3.8091024498359604e-05,3.760702766460665e-05,5.8667,7.0667
3.46484375,8.642156546883338e-05,1.5149574578469483e-05,6.838657518882996e-06,3.17437517357137e-05,5.8667,7.0667
3.46875,0.0001396473887006942,-1.4584310597391123e-06,-2.9242500419623523e-06,2.0515025192645112e-05,5.8667,7.0667
3.47265625,0.00014794447727931633,-3.892243709468261e-06,6.354660685130042e-06,2.9793935919737497e-05,5.8667,7.0667
3.4765625,0.00014989429309529253,-1.5134798733501212e-05,-9.74434225986144e-07,3.662520551613637e-05,5.8667,7.0667
3.48046875,0.00015477574687571517,-3.807624865339135e-05,-2.733151894407571e-05,2.4912482139314826e-05,5.8667,7.0667
3.484375,0.00015087611524376279,-5.908171123826966e-05,-5.370243214312964e-05,2.344666315709159e-05,5.8667,7.0667
3.48828125,0.0001611230196383611,-6.542898400091556e-05,-7.372607257953768e-05,2.344666315709159e-05,5.8667,7.0667
3.4921875,0.0001972568403982604,-8.738861177233542e-05,-0.00010204680159456779,2.5396478973067787e-05,5.8667,7.0667
3.49609375,0.00024168774973678178,-0.00012060462304875258,-0.00013036753060959792,2.149684734111539e-05,5.8667,7.0667
3.5,0.00020995138592355223,-0.0001328013432593271,-0.00014892535206378272,1.8067384061951585e-05,5.8667,7.0667
3.50390625,0.00021629865868619814,-0.00016063807544060426,-0.00018309552852674142,1.1236114465552717e-05,5.8667,7.0667
3.5078125,0.0002846666685740443,-0.0001899406266041047,-0.00020263517212939648,1.4167752429999197e-05,5.8667,7.0667
3.51171875,0.00029931102991531233,-0.00020360316579690242,-0.00021141625754177157,2.6378301121538065e-05,5.8667,7.0667
3.515625,0.0002919819350041961,-0.00022802426317998015,-0.00021434789550621802,3.320957071793694e-05,5.8667,7.0667
3.51953125,0.0002846666685740443,-0.00021971334612039367,-0.00022021117143511098,4.395430042725257e-05,5.8667,7.0667
3.5234375,0.00028075320846112755,-0.00020067152783245592,-0.00022557662204928663,5.128339533836876e-05,5.8667,7.0667
3.52734375,0.00026464302813763627,-0.00021434789550621802,-0.00021776353030441748,4.981757635614552e-05,5.8667,7.0667
3.53125,0.0002592637490424963,-0.00019872171201647972,-0.00021629771132219421,5.3717207988097916e-05,5.8667,7.0667
3.53515625,0.00024755102566567476,-0.00018407735067521173,-0.00020018753099870296,5.664884595254439e-05,5.8667,7.0667
3.5390625,0.0002128830238879987,-0.0001767482557640955,-0.00017723225259784847,5.713284278629735e-05,5.8667,7.0667
3.54296875,0.00022997502635996024,-0.00016503553238727398,-0.0001777300779125658,5.908265860227354e-05,5.8667,7.0667
3.546875,0.0002578117585412374,-0.00016453770707255665,-0.00017431444311436637,6.054847758449678e-05,5.8667,7.0667
3.55078125,0.00025389829842832064,-0.00014159625715266653,-0.00014403006980239568,6.153029973296706e-05,5.8667,7.0667
3.5546875,0.00021581466185244518,-0.00012205661355001145,-0.00012205661355001145,5.713284278629735e-05,5.8667,7.0667
3.55859375,0.00019872265938048362,-0.00012986970529488062,-0.00012352243253223468,5.566702380407411e-05,5.8667,7.0667
3.5625,0.00021434884287022194,-0.00010106497944609753,-0.00010546243639276725,5.664884595254439e-05,5.8667,7.0667
3.56640625,0.00020653575112535277,-6.542898400091556e-05,-7.762570421149007e-05,5.078557002365144e-05,5.8667,7.0667
3.5703125,0.00019432520243381393,-6.004970490577557e-05,-6.834679348439767e-05,4.7369935225452e-05,5.8667,7.0667
3.57421875,0.0001621048417868314,-6.396316501869234e-05,-6.834679348439767e-05,4.931975104142819e-05,5.8667,7.0667
3.578125,0.00015330992789349196,-4.149188345159078e-05,-4.492134673075459e-05,3.8575021332112565e-05,5.8667,7.0667
3.58203125,0.00013768374440375363,-4.3900690241855925e-06,-1.7084614549477406e-05,2.9793935919737497e-05,5.8667,7.0667
3.5859375,0.00011132665968566408,6.354660685130042e-06,-7.805703822385027e-06,2.9793935919737497e-05,5.8667,7.0667
3.58984375,0.00013426810960555423,1.8565209376668915e-05,8.802301815823567e-06,2.8328116937514265e-05,5.8667,7.0667
3.59375,0.0001030157426260776,3.8091024498359604e-05,3.419139286640722e-05,2.4912482139314826e-05,5.8667,7.0667
3.59765625,8.885537811856255e-05,4.102266246280609e-05,4.785393205920496e-05,2.296266632333863e-05,5.8667,7.0667
3.6015625,0.00011767393244831001,4.638811307698172e-05,5.664884595254439e-05,1.904920621042187e-05,5.8667,7.0667
3.60546875,9.863211416037226e-05,4.347030359349961e-05,5.958048391699087e-05,1.3683755596246242e-05,5.8667,7.0667
3.609375,0.00010692920273899437,6.39779408636606e-05,7.957646739147016e-05,1.2701933447775956e-05,5.8667,7.0667
3.61328125,8.73895591363393e-05,9.47186540474555e-05,9.765029201190198e-05,1.4167752429999197e-05,5.8667,7.0667
3.6171875,8.690556230258634e-05,9.911611099412522e-05,0.00010154992364385437,1.0752117631799763e-05,5.8667,7.0667
3.62109375,8.397392433813987e-05,0.00010644520590524141,0.00011717610713359268,6.838657518882996e-06,5.8667,7.0667
3.625,5.713284278629735e-05,0.0001225553862287327,0.0001240212052109559,5.372838536659756e-06,5.8667,7.0667
3.62890625,4.395430042725257e-05,0.0001215735640802624,0.00011327647550164029,4.404844869153848e-06,5.8667,7.0667
3.6328125,3.0761929587243416e-05,0.0001215735640802624,0.00011181065651941705,3.907019554436516e-06,5.8667,7.0667
3.63671875,7.129320729381242e-05,0.0001235233798962386,0.0001215735640802624,1.0752117631799763e-05,5.8667,7.0667
3.640625,8.54397433203631e-05,0.00010594738059052408,0.0001196237482642862,1.3683755596246242e-05,5.8667,7.0667
3.64453125,5.518302697032115e-05,0.00011376047233539325,0.0001142444691691462,8.304476501106236e-06,5.8667,7.0667
3.6484375,3.614120868238341e-05,0.0001298706526588845,0.00011229465335317,9.286298649576522e-06,5.8667,7.0667
3.65234375,4.883575420767524e-05,0.00013524993175402451,0.00011864192611581592,7.3364828336003285e-06,5.8667,7.0667
3.65625,6.348011554894327e-05,0.00011864192611581592,0.00012010774509803916,3.423022720683562e-06,5.8667,7.0667
3.66015625,3.419139286640722e-05,0.00010887901855497056,0.00013330011593804832,5.372838536659756e-06,5.8667,7.0667
3.6640625,2.6862297955291026e-05,0.00012205756091401535,0.00013621792542153042,9.770295483329476e-06,5.8667,7.0667
3.66796875,2.9309939085984546e-05,0.00011767393244831001,0.0001142444691691462,7.820479667353283e-06,5.8667,7.0667
3.671875,5.1767392172121716e-05,0.00011229465335317,0.0001235233798962386,4.404844869153848e-06,5.8667,7.0667
3.67578125,4.638811307698172e-05,9.813428884565493e-05,0.00013621792542153042,6.838657518882996e-06,5.8667,7.0667
3.6796875,3.515938653391313e-05,0.00010253174579232465,0.0001215735640802624,1.0752117631799763e-05,5.8667,7.0667
3.68359375,5.859866176852059e-05,0.00011229465335317,0.00010106592681010141,1.5633571412222437e-05,5.8667,7.0667
3.6875,1.6615393560692715e-05,0.00010789719640650028,9.325283506523226e-05,1.8067384061951585e-05,5.8667,7.0667
3.69140625,9.286298649576522e-06,0.00011815792928206296,0.0001142444691691462,1.758338722819863e-05,5.8667,7.0667
3.6953125,7.520666740672918e-05,0.00011522629131761648,0.00012303938306248565,1.5149574578469483e-05,5.8667,7.0667
3.69921875,7.03252136263065e-05,0.00010692920273899437,0.00010887901855497056,1.4651749263752151e-05,5.8667,7.0667
3.703125,4.5420119409475806e-05,0.00010789719640650028,0.0001103448375371938,1.4651749263752151e-05,5.8667,7.0667
3.70703125,4.883575420767524e-05,9.520265088120846e-05,0.00010546338375677113,1.5633571412222437e-05,5.8667,7.0667
3.7109375,6.592775667963679e-05,9.228484139772635e-05,0.00010546338375677113,1.9533203044174824e-05,5.8667,7.0667
3.71484375,6.836156932936594e-05,8.837138128480958e-05,0.00011327647550164029,1.0752117631799763e-05,5.8667,7.0667
3.71875,5.616484911879143e-05,8.788738445105662e-05,0.00010986084070344086,7.820479667353283e-06,5.8667,7.0667
3.72265625,3.272557388418398e-05,8.202410852216367e-05,0.0001030157426260776,1.0254292317082431e-05,5.8667,7.0667
3.7265625,1.1720111299305678e-05,8.250810535591663e-05,9.520265088120846e-05,1.3683755596246242e-05,5.8667,7.0667
3.73046875,5.713284278629735e-05,9.716629517814902e-05,9.47186540474555e-05,1.4651749263752151e-05,5.8667,7.0667
3.734375,7.665865790798804e-05,9.765029201190198e-05,0.00010058192997634846,1.4167752429999197e-05,5.8667,7.0667
3.73828125,6.592775667963679e-05,8.837138128480958e-05,9.911611099412522e-05,2.296266632333863e-05,5.8667,7.0667
3.7421875,5.225138900587468e-05,8.397392433813987e-05,9.423465721370255e-05,2.44146568245975e-05,5.8667,7.0667
3.74609375,3.955684348058285e-05,8.055828953994043e-05,7.080921046005946e-05,2.0031028358892158e-05,5.8667,7.0667
3.75,6.251212188143734e-05,7.129320729381242e-05,6.39779408636606e-05,1.904920621042187e-05,5.8667,7.0667
3.75390625,7.03252136263065e-05,6.10463028992141e-05,7.422484525825889e-05,1.8565209376668915e-05,5.8667,7.0667
3.7578125,7.324302310978861e-05,5.078557002365144e-05,5.763066810101467e-05,2.0515025192645112e-05,5.8667,7.0667
3.76171875,5.8114664934767626e-05,5.713284278629735e-05,5.908265860227354e-05,1.904920621042187e-05,5.8667,7.0667
3.765625,4.981757635614552e-05,6.446193769741354e-05,7.569066424048213e-05,1.9533203044174824e-05,5.8667,7.0667
3.76953125,5.8114664934767626e-05,6.494593453116649e-05,7.860847372396423e-05,2.296266632333863e-05,5.8667,7.0667
3.7734375,5.566702380407411e-05,5.420120482185087e-05,7.374084842450594e-05,1.904920621042187e-05,5.8667,7.0667
3.77734375,6.251212188143734e-05,5.1767392172121716e-05,7.422484525825889e-05,2.0031028358892158e-05,5.8667,7.0667
3.78125,4.931975104142819e-05,6.39779408636606e-05,6.201429656672003e-05,2.296266632333863e-05,5.8667,7.0667
3.78515625,5.616484911879143e-05,6.39779408636606e-05,4.443829726100553e-05,3.0761929587243416e-05,5.8667,7.0667
3.7890625,0.00010106592681010141,6.29961187151903e-05,5.664884595254439e-05,3.3693567551689894e-05,5.8667,7.0667
3.79296875,0.00010253174579232465,6.10463028992141e-05,6.641175351338974e-05,2.6378301121538065e-05,5.8667,7.0667
3.796875,8.007429270618747e-05,5.273538583962764e-05,6.39779408636606e-05,2.5880475806820738e-05,5.8667,7.0667
3.80078125,5.908265860227354e-05,4.638811307698172e-05,6.836156932936594e-05,2.9309939085984546e-05,5.8667,7.0667
3.8046875,7.569066424048213e-05,4.0538665629053134e-05,6.68957503471427e-05,3.0277932753490458e-05,5.8667,7.0667
3.80859375,7.616083259327072e-05,4.688593839169904e-05,5.4699030136568194e-05,2.4912482139314826e-05,5.8667,7.0667
3.8125,6.446193769741354e-05,6.153029973296706e-05,5.3717207988097916e-05,2.344666315709159e-05,5.8667,7.0667
3.81640625,5.908265860227354e-05,7.03252136263065e-05,7.129320729381242e-05,2.0515025192645112e-05,5.8667,7.0667
3.8203125,3.8091024498359604e-05,6.787757249561298e-05,6.592775667963679e-05,1.8565209376668915e-05,5.8667,7.0667
3.82421875,7.616083259327072e-05,5.225138900587468e-05,4.2004484611276373e-05,2.9309939085984546e-05,5.8667,7.0667
3.828125,9.765029201190198e-05,5.763066810101467e-05,4.0538665629053134e-05,3.5657211848630456e-05,5.8667,7.0667
3.83203125,7.812447689021128e-05,5.566702380407411e-05,5.030157318989848e-05,3.320957071793694e-05,5.8667,7.0667
3.8359375,6.494593453116649e-05,4.931975104142819e-05,5.3233211154344955e-05,3.8575021332112565e-05,5.8667,7.0667
3.83984375,7.080921046005946e-05,4.5420119409475806e-05,4.981757635614552e-05,4.0538665629053134e-05,5.8667,7.0667
3.84375,9.373683189898523e-05,3.515938653391313e-05,4.981757635614552e-05,3.17437517357137e-05,5.8667,7.0667
3.84765625,8.935320343327988e-05,3.515938653391313e-05,4.2004484611276373e-05,2.2464841008621306e-05,5.8667,7.0667
3.8515625,7.569066424048213e-05,4.7369935225452e-05,4.248848144502933e-05,2.3930659990844545e-05,5.8667,7.0667
3.85546875,6.201429656672003e-05,5.3717207988097916e-05,6.641175351338974e-05,2.6378301121538065e-05,5.8667,7.0667
3.859375,8.202410852216367e-05,5.030157318989848e-05,6.10463028992141e-05,2.3930659990844545e-05,5.8667,7.0667
3.86328125,6.934339147783622e-05,4.590411624322876e-05,4.883575420767524e-05,2.8328116937514265e-05,5.8667,7.0667
3.8671875,6.446193769741354e-05,3.0761929587243416e-05,4.5420119409475806e-05,3.0761929587243416e-05,5.8667,7.0667
3.87109375,9.276883823147931e-05,2.6862297955291026e-05,3.419139286640722e-05,3.125975490196074e-05,5.8667,7.0667
3.875,5.8114664934767626e-05,3.2227748569466655e-05,3.3693567551689894e-05,2.5880475806820738e-05,5.8667,7.0667
3.87890625,6.39779408636606e-05,3.662520551613637e-05,4.347030359349961e-05,2.5396478973067787e-05,5.8667,7.0667
3.8828125,0.0001083950217212176,4.248848144502933e-05,4.395430042725257e-05,2.6862297955291026e-05,5.8667,7.0667
3.88671875,9.178701608300904e-05,4.0538665629053134e-05,3.662520551613637e-05,2.44146568245975e-05,5.8667,7.0667
3.890625,7.665865790798804e-05,3.8575021332112565e-05,4.297247827878228e-05,2.6378301121538065e-05,5.8667,7.0667
3.89453125,8.54397433203631e-05,4.688593839169904e-05,5.566702380407411e-05,2.4912482139314826e-05,5.8667,7.0667
3.8984375,0.00010058192997634846,5.3233211154344955e-05,5.616484911879143e-05,2.6862297955291026e-05,5.8667,7.0667
3.90234375,8.983720026703283e-05,4.0538665629053134e-05,3.467538970016017e-05,2.7844120103761304e-05,5.8667,7.0667
3.90625,8.593756863508043e-05,2.0515025192645112e-05,2.5880475806820738e-05,2.8328116937514265e-05,5.8667,7.0667
3.91015625,7.03252136263065e-05,2.0031028358892158e-05,3.614120868238341e-05,2.8328116937514265e-05,5.8667,7.0667
3.9140625,4.5420119409475806e-05,2.344666315709159e-05,3.955684348058285e-05,2.6378301121538065e-05,5.8667,7.0667
3.91796875,8.788738445105662e-05,5.3233211154344955e-05,5.030157318989848e-05,2.344666315709159e-05,5.8667,7.0667
3.921875,0.0001083950217212176,7.179103260852975e-05,5.8114664934767626e-05,2.344666315709159e-05,5.8667,7.0667
3.92578125,9.276883823147931e-05,4.2004484611276373e-05,4.492229409475848e-05,3.0277932753490458e-05,5.8667,7.0667
3.9296875,8.154011168841071e-05,1.5633571412222437e-05,3.17437517357137e-05,3.320957071793694e-05,5.8667,7.0667
3.93359375,7.665865790798804e-05,1.3683755596246242e-05,1.9533203044174824e-05,3.515938653391313e-05,5.8667,7.0667
3.9375,8.642156546883338e-05,2.149684734111539e-05,2.0999022026398067e-05,3.662520551613637e-05,5.8667,7.0667
3.94140625,8.055828953994043e-05,7.820479667353283e-06,2.734629478904398e-05,3.17437517357137e-05,5.8667,7.0667
3.9453125,7.860847372396423e-05,-6.339884840161787e-06,2.4912482139314826e-05,2.7844120103761304e-05,5.8667,7.0667
3.94921875,6.641175351338974e-05,1.7099390394445676e-05,2.44146568245975e-05,2.9309939085984546e-05,5.8667,7.0667
3.953125,7.812447689021128e-05,3.272557388418398e-05,1.9533203044174824e-05,3.320957071793694e-05,5.8667,7.0667
3.95703125,8.250810535591663e-05,3.17437517357137e-05,2.8328116937514265e-05,3.2227748569466655e-05,5.8667,7.0667
3.9609375,7.569066424048213e-05,2.6862297955291026e-05,3.320957071793694e-05,3.467538970016017e-05,5.8667,7.0667
3.96484375,8.690556230258634e-05,2.0999022026398067e-05,2.6378301121538065e-05,3.614120868238341e-05,5.8667,7.0667
3.96875,5.713284278629735e-05,3.8091024498359604e-05,3.17437517357137e-05,4.297247827878228e-05,5.8667,7.0667
3.97265625,6.39779408636606e-05,2.6378301121538065e-05,2.7844120103761304e-05,4.638811307698172e-05,5.8667,7.0667
3.9765625,0.0001103448375371938,1.758338722819863e-05,1.3185930281528917e-05,3.2227748569466655e-05,5.8667,7.0667
3.98046875,0.00010789719640650028,5.372838536659756e-06,7.820479667353283e-06,2.0999022026398067e-05,5.8667,7.0667
3.984375,0.00010986084070344086,-1.7568611383230374e-05,-1.26871576028077e-05,1.9533203044174824e-05,5.8667,7.0667
3.98828125,0.0001245052020447089,-3.367879170672162e-05,-5.468425429159992e-05,1.8067384061951585e-05,5.8667,7.0667
3.9921875,0.00015575756902418548,-5.516825112535289e-05,-7.226025359731443e-05,2.44146568245975e-05,5.8667,7.0667
3.99609375,0.00015868920698863193,-8.983625290302893e-05,-9.66675224994278e-05,3.0277932753490458e-05,5.8667,7.0667
4.0,0.0001757812094605935,-0.0001176729850843061,-0.00014159625715266653,4.150665929655905e-05,5.8667,7.0667
4.00390625,0.000187977929671168,-0.0001694329893339437,-0.00019872171201647972,4.638811307698172e-05,5.8667,7.0667
4.0078125,0.0002016542973449301,-0.00023095590114442666,-0.00025194753524834053,4.102266246280609e-05,5.8667,7.0667
4.01171875,0.0002651270249713892,-0.0002490158972838941,-0.0002792864421149004,5.030157318989848e-05,5.8667,7.0667
4.015625,0.0002958953951171129,-0.0002675737187380789,-0.00028075226109712363,6.10463028992141e-05,5.8667,7.0667
4.01953125,0.0002890502970397497,-0.0002851497180437934,-0.0002812362579308766,7.520666740672918e-05,5.8667,7.0667
4.0234375,0.0002714742977340352,-0.00027538681048294803,-0.0002993100825513084,8.73895591363393e-05,5.8667,7.0667
4.02734375,0.0002724561198825054,-0.0002773366262989242,-0.0003085889932784008,8.495574648661014e-05,5.8667,7.0667
4.03125,0.0002910139413366902,-0.0002851497180437934,-0.00029101299397268633,8.495574648661014e-05,5.8667,7.0667
4.03515625,0.00028026921162737457,-0.00025877880484473945,-0.00024803407513542377,8.837138128480958e-05,5.8667,7.0667
4.0390625,0.00026904048508430607,-0.00023485553277637904,-0.00023437153594262604,7.860847372396423e-05,5.8667,7.0667
4.04296875,0.00023290666432440672,-0.0002158137144884413,-0.0002377871707408255,7.520666740672918e-05,5.8667,7.0667
4.046875,0.0002236277535973143,-0.00018261153169298847,-0.00021239807969024183,7.275902627603565e-05,5.8667,7.0667
4.05078125,0.00021434884287022194,-0.00014061443500419624,-0.00015917225645838105,7.080921046005946e-05,5.8667,7.0667
4.0546875,0.00021581466185244518,-0.00011962280090028229,-0.00011570934078736553,7.275902627603565e-05,5.8667,7.0667
4.05859375,0.00022899320421148996,-8.983625290302893e-05,-0.00010936206802471963,5.8114664934767626e-05,5.8667,7.0667
4.0625,0.00017186774934767674,-7.372607257953768e-05,-0.0001000969857785916,5.1767392172121716e-05,5.8667,7.0667
4.06640625,0.00014696265513084602,-5.663407010757612e-05,-6.199952072175176e-05,5.518302697032115e-05,5.8667,7.0667
4.0703125,0.00017186774934767674,-3.1244979056992475e-05,-3.417661702143895e-05,4.590411624322876e-05,5.8667,7.0667
4.07421875,0.00016453865443656051,-9.755519638361221e-06,-1.1221338620584462e-05,3.5657211848630456e-05,5.8667,7.0667
4.078125,0.00014013138553444719,1.7099390394445676e-05,1.2701933447775956e-05,2.8328116937514265e-05,5.8667,7.0667
4.08203125,0.0001215735640802624,2.3930659990844545e-05,2.0515025192645112e-05,1.4167752429999197e-05,5.8667,7.0667
4.0859375,0.00011522629131761648,3.955684348058285e-05,4.2004484611276373e-05,1.2701933447775956e-05,5.8667,7.0667
4.08984375,0.00010008410466163113,4.931975104142819e-05,6.054847758449678e-05,2.0999022026398067e-05,5.8667,7.0667
4.09375,8.250810535591663e-05,5.225138900587468e-05,7.03252136263065e-05,2.6378301121538065e-05,5.8667,7.0667
4.09765625,6.446193769741354e-05,7.374084842450594e-05,9.813428884565493e-05,2.3930659990844545e-05,5.8667,7.0667
