timestamp,TP9,AF7,AF8,TP10,Valence,Arousal
0.0,4.9803002883955116e-05,-0.00029394253893492024,-0.0003647366196887159,-0.00015870084346532388,4.2,3.0
0.00390625,4.5892554113069306e-05,-0.0002919873145494774,-0.000358390153650721,-0.00017871251162890057,4.2,3.0
0.0078125,5.223902015106427e-05,-0.00028613232567940795,-0.0003427697271396963,-0.0001904331736552987,4.2,3.0
0.01171875,6.933387816586554e-05,-0.0002788029053055619,-0.00034472495152513925,-0.00017871251162890057,4.2,3.0
0.015625,5.2730497318989814e-05,-0.000310545919781796,-0.00038817794374151215,-0.00020019861129625391,4.2,3.0
0.01953125,5.614946892195007e-05,-0.00029101504449988554,-0.00036425582680704965,-0.00021484676775768673,4.2,3.0
0.0234375,6.1032187742427705e-05,-0.0002646462260120546,-0.0003334957666666667,-0.00022021027945983064,4.2,3.0
0.02734375,5.126675010147249e-05,-0.0002612272544090944,-0.00032225589752193484,-0.0002158297220935378,4.2,3.0
0.03125,5.3702767368581644e-05,-0.00026170804729076064,-0.00033397655954833295,-0.00021289154337224384,4.2,3.0
0.03515625,6.1032187742427705e-05,-0.00024657909794766156,-0.00033642326110170143,-0.00023193094148622872,4.2,3.0
0.0390625,6.346820500953686e-05,-0.00020850030171969177,-0.0002988252577553979,-0.0002392496775738155,4.2,3.0
0.04296875,6.054071057450215e-05,-0.0001782317187472343,-0.0002665907661112383,-0.00022802049271534295,4.2,3.0
0.046875,6.249593495994503e-05,-0.0001572264119615473,-0.00023729445318837263,-0.0002177635779064622,4.2,3.0
0.05078125,6.151298062409399e-05,-0.00014502495705348288,-0.00022313777389486533,-0.0002192380094102388,4.2,3.0
0.0546875,4.4428806895551984e-05,-0.00013769553667963686,-0.0002158297220935378,-0.00024365160351262684,4.2,3.0
0.05859375,3.9054610907148825e-05,-0.00011377341974517435,-0.00018896942643778134,-0.00024853432233310445,4.2,3.0
0.0625,4.2473582510109055e-05,-8.252188243686581e-05,-0.00015576266474402994,-0.00022900344705119403,4.2,3.0
0.06640625,3.173587481956204e-05,-5.1270345128557266e-05,-0.00012452181172198064,-0.0002314394643183032,4.2,3.0
0.0703125,3.857381802548255e-05,-3.173946984664684e-05,-9.277879724574655e-05,-0.0002177635779064622,4.2,3.0
0.07421875,3.270814486915387e-05,-2.9303452579537663e-05,-9.13150500282292e-05,-0.00019824338691081103,4.2,3.0
0.078125,1.2685792419317892e-05,-1.0744847347219064e-05,-8.447710682230871e-05,-0.0001953158924757763,4.2,3.0
0.08203125,7.803073598840286e-06,-1.9623640421149274e-06,-5.859976550240333e-05,-0.0001953158924757763,4.2,3.0
0.0859375,-3.4261112596322787e-06,6.8308035492484855e-06,-2.2956986541542704e-05,-0.00019189692087281604,4.2,3.0
0.08984375,1.4566075608453275e-06,3.270814486915387e-05,4.38410199588003e-06,-0.00016894707398794538,4.2,3.0
0.09375,-4.398381309224106e-06,3.0272127602044688e-05,-4.986168245975762e-07,-0.0001479524514885176,4.2,3.0
0.09765625,-1.0264054465552789e-05,3.4663369254596745e-05,9.758297984283189e-06,-0.00013769553667963686,4.2,3.0
0.1015625,-1.1236324515144588e-05,4.6864824162661135e-05,2.343418439612418e-05,-0.00012304738021820402,4.2,3.0
0.10546875,-1.3672341782253767e-05,4.638403128099486e-05,3.221666770122832e-05,-0.00010742695370717939,4.2,3.0
0.109375,-1.0744847347219064e-05,5.663026180361635e-05,4.5401076945143814e-05,-0.00010009753333333334,4.2,3.0
0.11328125,-2.6856751026169235e-05,6.151298062409399e-05,4.150131246051728e-05,-0.00010987365526054782,4.2,3.0
0.1171875,-2.7348228194094784e-05,7.665261425345233e-05,5.4194244536507197e-05,-8.838755559319449e-05,4.2,3.0
0.12109375,-3.076719979705504e-05,7.81163614709697e-05,6.639569944457156e-05,-7.227565191424432e-05,4.2,3.0
0.125,-3.076719979705504e-05,7.81163614709697e-05,7.323364265049208e-05,-7.666689356679638e-05,4.2,3.0
0.12890625,-1.4163818950179318e-05,9.911098397039745e-05,9.521121948577091e-05,-6.933747319295034e-05,4.2,3.0
0.1328125,-3.808593588464182e-05,8.007158585641258e-05,7.372511981841761e-05,-7.080122041046771e-05,4.2,3.0
0.13671875,-5.8108288334477774e-05,5.322197448691537e-05,5.223902015106427e-05,-7.76391636163882e-05,4.2,3.0
0.140625,-4.834285069352256e-05,5.614946892195007e-05,7.176989543297474e-05,-7.032042752880141e-05,4.2,3.0
0.14453125,-5.0298075078965463e-05,5.5166514586099026e-05,7.909931580682075e-05,-6.836520314335854e-05,4.2,3.0
0.1484375,-5.468931673151752e-05,4.784777849851224e-05,7.421659698634317e-05,-5.859976550240333e-05,4.2,3.0
0.15234375,-5.615306394903487e-05,5.223902015106427e-05,7.469738986800945e-05,-4.4923879090562304e-05,4.2,3.0
0.15625,-4.2487861823453126e-05,7.421659698634317e-05,8.740100623025864e-05,-4.102411460593578e-05,4.2,3.0
0.16015625,-3.808593588464182e-05,8.056306302433813e-05,9.081997783321884e-05,-3.467764856794082e-05,4.2,3.0
0.1640625,-6.05549898878462e-05,5.4194244536507197e-05,7.421659698634317e-05,-4.4923879090562304e-05,4.2,3.0
0.16796875,-5.615306394903487e-05,4.3456536845960155e-05,6.835092383001449e-05,-4.1504907487602053e-05,4.2,3.0
0.171875,-4.4923879090562304e-05,4.100983529259173e-05,6.542342939497974e-05,-4.1504907487602053e-05,4.2,3.0
0.17578125,-5.1270345128557266e-05,3.221666770122832e-05,6.787013094834817e-05,-4.980659791103991e-05,4.2,3.0
0.1796875,-6.397396149080645e-05,1.7568511239795498e-05,5.3702767368581644e-05,-3.9068890220492875e-05,4.2,3.0
0.18359375,-6.690145592584116e-05,1.4149539636835271e-05,4.0037565242999904e-05,-3.956036738841843e-05,4.2,3.0
0.1875,-5.420852384985125e-05,2.0015212793163926e-05,4.5401076945143814e-05,-3.808593588464182e-05,4.2,3.0
0.19140625,-5.0298075078965463e-05,2.7825426048676264e-05,4.1982105342183556e-05,-3.076719979705504e-05,4.2,3.0
0.1953125,-4.687910347600521e-05,3.612711647211412e-05,3.954608807507435e-05,-2.392925659113453e-05,4.2,3.0
0.19921875,-4.834285069352256e-05,3.954608807507435e-05,4.735630133058669e-05,-1.4163818950179318e-05,4.2,3.0
0.203125,-5.909124267032885e-05,3.075292048371097e-05,4.931152571602956e-05,-2.0510284988174276e-05,4.2,3.0
0.20703125,-6.103578276951247e-05,2.343418439612418e-05,5.223902015106427e-05,-2.2956986541542704e-05,4.2,3.0
0.2109375,-6.0063512719920676e-05,1.2204999537651615e-05,3.954608807507435e-05,-2.0029492106508e-05,4.2,3.0
0.21484375,-6.494623154039829e-05,-3.906904141298554e-06,2.0987482842755752e-05,-2.4912210926985606e-05,4.2,3.0
0.21875,-6.739293309376672e-05,-6.845082862592534e-06,2.4406454445716006e-05,-3.2230947014572394e-05,4.2,3.0
0.22265625,-6.201873710536355e-05,9.758146791790522e-07,3.075292048371097e-05,-1.3672341782253767e-05,4.2,3.0
0.2265625,-5.0298075078965463e-05,1.5132493972686318e-05,3.369109920500494e-05,8.294550766765837e-06,4.2,3.0
0.23046875,-5.518079389944307e-05,-1.4708868741893752e-06,1.3668746755168967e-05,-1.2208594564736414e-05,4.2,3.0
0.234375,-7.129269757839324e-05,-2.5393003808651883e-05,-4.88985847714963e-06,-3.956036738841843e-05,4.2,3.0
0.23828125,-6.787372597543299e-05,-1.6610520503547746e-05,9.266820816357636e-06,-2.9794929747463212e-05,4.2,3.0
0.2421875,-6.0063512719920676e-05,9.758146791790522e-07,2.4406454445716006e-05,-1.2700071732661967e-05,4.2,3.0
0.24609375,-5.8108288334477774e-05,-4.986168245975762e-07,2.5870201663233358e-05,-1.562756616769667e-05,4.2,3.0
0.25,-4.834285069352256e-05,-4.986168245975762e-07,2.0987482842755752e-05,-2.0029492106508e-05,4.2,3.0
0.25390625,-4.3460131873044955e-05,6.8308035492484855e-06,1.708771835812922e-05,-2.0510284988174276e-05,4.2,3.0
0.2578125,-5.1270345128557266e-05,3.903309114213755e-06,9.758297984283189e-06,-1.8074267721065098e-05,4.2,3.0
0.26171875,-5.5672271067368596e-05,-5.862128526741458e-06,2.4395618966964036e-06,-2.8320498243686584e-05,4.2,3.0
0.265625,-5.225329946440834e-05,-3.906904141298554e-06,1.4149539636835271e-05,-3.662218866712445e-05,4.2,3.0
0.26953125,-4.590683342641338e-05,4.843375112535e-07,4.38410199588003e-06,-2.4912210926985606e-05,4.2,3.0
0.2734375,-5.615306394903487e-05,-9.281100129701712e-06,-2.10017621560998e-05,-3.2230947014572394e-05,4.2,3.0
0.27734375,-5.420852384985125e-05,-1.4163818950179318e-05,-1.6610520503547746e-05,-3.272242418249791e-05,4.2,3.0
0.28125,-4.883432786144809e-05,-1.3191548900587492e-05,-7.325875744258809e-06,-2.392925659113453e-05,4.2,3.0
0.28515625,-5.176182229648282e-05,-1.562756616769667e-05,-1.2700071732661967e-05,-2.5393003808651883e-05,4.2,3.0
0.2890625,-3.711366583505e-05,4.875579163805582e-06,2.4395618966964036e-06,-1.5146773286030395e-05,4.2,3.0
0.29296875,-3.1258676964980564e-05,1.7568511239795498e-05,8.294550766765837e-06,-1.0744847347219064e-05,4.2,3.0
0.296875,-4.7862057811856285e-05,-5.862128526741458e-06,-2.4912210926985606e-05,-2.4420733759060056e-05,4.2,3.0
0.30078125,-4.687910347600521e-05,-1.855506060273137e-05,-2.2956986541542704e-05,-2.6375958144502958e-05,4.2,3.0
0.3046875,-5.3717046681925694e-05,-3.027572262912949e-05,-1.855506060273137e-05,-2.5884480976577405e-05,4.2,3.0
0.30859375,-5.7136018284885944e-05,-4.00411602700847e-05,-3.320321706416422e-05,-3.515844144960709e-05,4.2,3.0
0.3125,-4.590683342641338e-05,-4.3460131873044955e-05,-3.272242418249791e-05,-2.6375958144502958e-05,4.2,3.0
0.31640625,-4.395160904097048e-05,-4.687910347600521e-05,-3.467764856794082e-05,-1.7091313385214022e-05,4.2,3.0
0.3203125,-3.808593588464182e-05,-2.6375958144502958e-05,-2.6856751026169235e-05,-2.6856751026169235e-05,4.2,3.0
0.32421875,-3.5649918617532645e-05,-7.325875744258809e-06,-9.281100129701712e-06,-3.515844144960709e-05,4.2,3.0
0.328125,-3.9068890220492875e-05,-2.4431569237812027e-06,4.875579163805582e-06,-1.855506060273137e-05,4.2,3.0
0.33203125,-4.737058064393073e-05,-2.0510284988174276e-05,-2.392925659113453e-05,-2.934634091706755e-06,4.2,3.0
0.3359375,-5.274477663233389e-05,-4.590683342641338e-05,-5.322556951400017e-05,-5.381335645075183e-06,4.2,3.0
0.33984375,-5.274477663233389e-05,-3.857741305256735e-05,-4.4923879090562304e-05,-4.398381309224106e-06,4.2,3.0
0.34375,-5.7136018284885944e-05,-3.711366583505e-05,-4.4443086208896034e-05,-5.381335645075183e-06,4.2,3.0
0.34765625,-5.6644541116960425e-05,-3.418617140001527e-05,-3.857741305256735e-05,4.875579163805582e-06,4.2,3.0
0.3515625,-5.7136018284885944e-05,-2.783970536202031e-05,-3.467764856794082e-05,5.8585334996566585e-06,4.2,3.0
0.35546875,-5.5672271067368596e-05,-3.173946984664684e-05,-2.4420733759060056e-05,-3.4261112596322787e-06,4.2,3.0
0.359375,-5.420852384985125e-05,-3.1258676964980564e-05,-2.197403220569163e-05,9.758146791790522e-07,4.2,3.0
0.36328125,-4.980659791103991e-05,-1.953801493858245e-05,-6.845082862592534e-06,-7.139656672023875e-09,4.2,3.0
0.3671875,-3.956036738841843e-05,-1.1236324515144588e-05,7.32228071717401e-06,2.920354778362679e-06,4.2,3.0
0.37109375,-4.834285069352256e-05,-2.392925659113453e-05,-1.5146773286030395e-05,-3.4261112596322787e-06,4.2,3.0
0.375,-5.1270345128557266e-05,-2.4420733759060056e-05,-2.197403220569163e-05,-1.7091313385214022e-05,4.2,3.0
0.37890625,-3.808593588464182e-05,-1.0744847347219064e-05,-9.281100129701712e-06,-1.6119043335622193e-05,4.2,3.0
0.3828125,-3.076719979705504e-05,-3.906904141298554e-06,8.294550766765837e-06,-9.794097062638513e-07,4.2,3.0
0.38671875,-4.590683342641338e-05,-1.7582790553139572e-05,-4.88985847714963e-06,-9.772577297627236e-06,4.2,3.0
0.390625,-5.957203555199512e-05,-3.076719979705504e-05,-1.953801493858245e-05,-2.6375958144502958e-05,4.2,3.0
0.39453125,-4.638762630807966e-05,-2.4912210926985606e-05,-7.325875744258809e-06,-1.6119043335622193e-05,4.2,3.0
0.3984375,-4.102411460593578e-05,-2.6375958144502958e-05,-3.906904141298554e-06,-1.6119043335622193e-05,4.2,3.0
0.40234375,-4.638762630807966e-05,-2.8811975411612137e-05,-1.0264054465552789e-05,-3.1258676964980564e-05,4.2,3.0
0.40625,-4.102411460593578e-05,-2.8320498243686584e-05,-9.772577297627236e-06,-2.392925659113453e-05,4.2,3.0
0.41015625,-4.102411460593578e-05,-2.6856751026169235e-05,-1.3672341782253767e-05,-1.562756616769667e-05,4.2,3.0
0.4140625,-4.4443086208896034e-05,-2.783970536202031e-05,-2.0029492106508e-05,-2.2956986541542704e-05,4.2,3.0
0.41796875,-3.369469423208974e-05,-2.1493239324025352e-05,-2.10017621560998e-05,-2.4420733759060056e-05,4.2,3.0
0.421875,-2.6375958144502958e-05,-2.4431569237812027e-06,-9.772577297627236e-06,-2.1493239324025352e-05,4.2,3.0
0.42578125,-3.857741305256735e-05,-6.353605694666981e-06,-4.88985847714963e-06,-2.8320498243686584e-05,4.2,3.0
0.4296875,-4.4923879090562304e-05,-1.2700071732661967e-05,-6.353605694666981e-06,-3.027572262912949e-05,4.2,3.0
0.43359375,-3.711366583505e-05,-1.3672341782253767e-05,-1.4163818950179318e-05,-2.7348228194094784e-05,4.2,3.0
0.4375,-3.614139578545817e-05,-1.953801493858245e-05,-2.6375958144502958e-05,-3.467764856794082e-05,4.2,3.0
0.44140625,-3.467764856794082e-05,-1.562756616769667e-05,-1.3191548900587492e-05,-3.369469423208974e-05,4.2,3.0
0.4453125,-3.027572262912949e-05,-1.2700071732661967e-05,6.339326381322933e-06,-3.857741305256735e-05,4.2,3.0
0.44921875,-3.515844144960709e-05,-2.0510284988174276e-05,-3.4261112596322787e-06,-4.1996384655527607e-05,4.2,3.0
0.453125,-3.614139578545817e-05,-1.562756616769667e-05,-3.027572262912949e-05,-4.102411460593578e-05,4.2,3.0
0.45703125,-3.5649918617532645e-05,-1.2208594564736414e-05,-4.883432786144809e-05,-4.297933899137868e-05,4.2,3.0
0.4609375,-3.467764856794082e-05,-2.0510284988174276e-05,-4.1504907487602053e-05,-3.857741305256735e-05,4.2,3.0
0.46484375,-3.272242418249791e-05,-1.8074267721065098e-05,-3.027572262912949e-05,-3.857741305256735e-05,4.2,3.0
0.46875,-2.6375958144502958e-05,-2.934634091706755e-06,-1.7582790553139572e-05,-2.4912210926985606e-05,4.2,3.0
0.47265625,-3.2230947014572394e-05,-8.308830080109885e-06,-2.2465509373617178e-05,-3.027572262912949e-05,4.2,3.0
0.4765625,-3.418617140001527e-05,-2.10017621560998e-05,-2.9303452579537663e-05,-4.2487861823453126e-05,4.2,3.0
0.48046875,-2.8320498243686584e-05,-1.172780168307014e-05,-1.8074267721065098e-05,-3.272242418249791e-05,4.2,3.0
0.484375,-3.320321706416422e-05,-1.6119043335622193e-05,-2.0510284988174276e-05,-3.418617140001527e-05,4.2,3.0
0.48828125,-3.1258676964980564e-05,-2.392925659113453e-05,-1.6610520503547746e-05,-4.834285069352256e-05,4.2,3.0
0.4921875,-3.2230947014572394e-05,-3.1258676964980564e-05,-2.197403220569163e-05,-4.737058064393073e-05,4.2,3.0
0.49609375,-2.7348228194094784e-05,-3.2230947014572394e-05,-3.272242418249791e-05,-3.272242418249791e-05,4.2,3.0
0.5,-2.1493239324025352e-05,-2.392925659113453e-05,-1.7582790553139572e-05,-2.783970536202031e-05,4.2,3.0
0.50390625,-2.8811975411612137e-05,-2.3437779423208977e-05,-3.906904141298554e-06,-3.614139578545817e-05,4.2,3.0
0.5078125,-2.6375958144502958e-05,-2.7348228194094784e-05,-1.6610520503547746e-05,-3.418617140001527e-05,4.2,3.0
0.51171875,-2.0029492106508e-05,-2.2956986541542704e-05,-3.320321706416422e-05,-2.7348228194094784e-05,4.2,3.0
0.515625,-1.7582790553139572e-05,-1.953801493858245e-05,-4.00411602700847e-05,-3.467764856794082e-05,4.2,3.0
0.51953125,-2.6375958144502958e-05,-2.5393003808651883e-05,-3.027572262912949e-05,-4.687910347600521e-05,4.2,3.0
0.5234375,-3.5649918617532645e-05,-2.783970536202031e-05,-2.9794929747463212e-05,-3.515844144960709e-05,4.2,3.0
0.52734375,-3.2230947014572394e-05,-2.2465509373617178e-05,-2.7348228194094784e-05,-3.173946984664684e-05,4.2,3.0
0.53125,-3.711366583505e-05,-3.5649918617532645e-05,-2.9303452579537663e-05,-4.834285069352256e-05,4.2,3.0
0.53515625,-2.9794929747463212e-05,-3.027572262912949e-05,-4.00411602700847e-05,-4.932580502937364e-05,4.2,3.0
0.5390625,-2.10017621560998e-05,-1.7091313385214022e-05,-4.00411602700847e-05,-3.515844144960709e-05,4.2,3.0
0.54296875,-3.614139578545817e-05,-3.173946984664684e-05,-3.956036738841843e-05,-3.515844144960709e-05,4.2,3.0
0.546875,-4.883432786144809e-05,-3.662218866712445e-05,-3.760514300297552e-05,-4.737058064393073e-05,4.2,3.0
0.55078125,-4.980659791103991e-05,-3.418617140001527e-05,-2.5884480976577405e-05,-5.420852384985125e-05,4.2,3.0
0.5546875,-4.102411460593578e-05,-3.614139578545817e-05,-3.418617140001527e-05,-4.7862057811856285e-05,4.2,3.0
0.55859375,-3.076719979705504e-05,-5.1270345128557266e-05,-5.176182229648282e-05,-4.297933899137868e-05,4.2,3.0
0.5625,-3.515844144960709e-05,-6.0063512719920676e-05,-5.957203555199512e-05,-5.8108288334477774e-05,4.2,3.0
0.56640625,-3.369469423208974e-05,-5.3717046681925694e-05,-5.176182229648282e-05,-6.494623154039829e-05,4.2,3.0
0.5703125,-2.7348228194094784e-05,-5.1270345128557266e-05,-4.980659791103991e-05,-6.25102142732891e-05,4.2,3.0
0.57421875,-2.0510284988174276e-05,-3.5649918617532645e-05,-5.909124267032885e-05,-7.227565191424432e-05,4.2,3.0
0.578125,-2.197403220569163e-05,-3.662218866712445e-05,-6.885668031128407e-05,-7.715837073472193e-05,4.2,3.0
0.58203125,-1.9046537770656924e-05,-4.1504907487602053e-05,-6.591850158999011e-05,-7.95943880018311e-05,4.2,3.0
0.5859375,-1.3191548900587492e-05,-3.467764856794082e-05,-5.8108288334477774e-05,-8.886834847486077e-05,4.2,3.0
0.58984375,-1.172780168307014e-05,-2.5393003808651883e-05,-5.176182229648282e-05,-8.692380837567714e-05,4.2,3.0
0.59375,-1.5146773286030395e-05,-1.855506060273137e-05,-5.0298075078965463e-05,-8.544937687190054e-05,4.2,3.0
0.59765625,-2.0510284988174276e-05,-2.8811975411612137e-05,-5.909124267032885e-05,-7.95943880018311e-05,4.2,3.0
0.6015625,-2.1493239324025352e-05,-3.320321706416422e-05,-5.7136018284885944e-05,-7.27564447959106e-05,4.2,3.0
0.60546875,-2.6856751026169235e-05,-3.369469423208974e-05,-4.541535625848786e-05,-7.76391636163882e-05,4.2,3.0
0.609375,-1.5146773286030395e-05,-1.855506060273137e-05,-3.027572262912949e-05,-6.201873710536355e-05,4.2,3.0
0.61328125,-1.172780168307014e-05,-1.2208594564736414e-05,-2.8320498243686584e-05,-5.1270345128557266e-05,4.2,3.0
0.6171875,-3.076719979705504e-05,-3.173946984664684e-05,-4.102411460593578e-05,-5.468931673151752e-05,4.2,3.0
0.62109375,-3.320321706416422e-05,-3.5649918617532645e-05,-3.1258676964980564e-05,-5.274477663233389e-05,4.2,3.0
0.625,-3.076719979705504e-05,-3.1258676964980564e-05,-3.1258676964980564e-05,-5.8108288334477774e-05,4.2,3.0
0.62890625,-2.8811975411612137e-05,-2.9303452579537663e-05,-3.956036738841843e-05,-6.152725993743802e-05,4.2,3.0
0.6328125,-1.953801493858245e-05,-1.8074267721065098e-05,-2.9794929747463212e-05,-4.2487861823453126e-05,4.2,3.0
0.63671875,-1.172780168307014e-05,1.9480847287708513e-06,-1.0744847347219064e-05,-3.467764856794082e-05,4.2,3.0
0.640625,-2.2956986541542704e-05,-7.325875744258809e-06,-2.934634091706755e-06,-4.297933899137868e-05,4.2,3.0
0.64453125,-4.00411602700847e-05,-3.808593588464182e-05,-2.2956986541542704e-05,-4.834285069352256e-05,4.2,3.0
0.6484375,-4.1504907487602053e-05,-4.4443086208896034e-05,-3.5649918617532645e-05,-6.348248432288093e-05,4.2,3.0
0.65234375,-4.053263743801025e-05,-4.395160904097048e-05,-4.1996384655527607e-05,-7.178417474631876e-05,4.2,3.0
0.65625,-3.9068890220492875e-05,-4.737058064393073e-05,-5.0298075078965463e-05,-6.201873710536355e-05,4.2,3.0
0.66015625,-2.197403220569163e-05,-2.9303452579537663e-05,-3.076719979705504e-05,-4.737058064393073e-05,4.2,3.0
0.6640625,-2.0029492106508e-05,-1.6610520503547746e-05,-1.4655296118104842e-05,-3.808593588464182e-05,4.2,3.0
0.66796875,-3.857741305256735e-05,-2.5884480976577405e-05,-1.953801493858245e-05,-4.932580502937364e-05,4.2,3.0
0.671875,-2.8320498243686584e-05,-1.855506060273137e-05,-2.0510284988174276e-05,-4.590683342641338e-05,4.2,3.0
0.67578125,-1.4163818950179318e-05,-6.353605694666981e-06,-1.4655296118104842e-05,-3.614139578545817e-05,4.2,3.0
0.6796875,-1.8074267721065098e-05,-1.2208594564736414e-05,-2.10017621560998e-05,-4.3460131873044955e-05,4.2,3.0
0.68359375,-1.562756616769667e-05,-1.6119043335622193e-05,-1.4655296118104842e-05,-4.590683342641338e-05,4.2,3.0
0.6875,-1.3191548900587492e-05,-1.8074267721065098e-05,-4.398381309224106e-06,-3.760514300297552e-05,4.2,3.0
0.69140625,-2.4912210926985606e-05,-2.9794929747463212e-05,-2.783970536202031e-05,-3.9068890220492875e-05,4.2,3.0
0.6953125,-3.076719979705504e-05,-3.614139578545817e-05,-4.00411602700847e-05,-4.932580502937364e-05,4.2,3.0
0.69921875,-7.325875744258809e-06,-1.4655296118104842e-05,-1.5146773286030395e-05,-2.9794929747463212e-05,4.2,3.0
0.703125,-4.88985847714963e-06,-2.0510284988174276e-05,-2.197403220569163e-05,-2.1493239324025352e-05,4.2,3.0
0.70703125,-2.2956986541542704e-05,-3.760514300297552e-05,-3.711366583505e-05,-3.760514300297552e-05,4.2,3.0
0.7109375,-3.173946984664684e-05,-3.418617140001527e-05,-4.1996384655527607e-05,-4.737058064393073e-05,4.2,3.0
0.71484375,-3.5649918617532645e-05,-3.711366583505e-05,-5.1270345128557266e-05,-4.7862057811856285e-05,4.2,3.0
0.71875,-2.4420733759060056e-05,-3.076719979705504e-05,-4.590683342641338e-05,-4.638762630807966e-05,4.2,3.0
0.72265625,-1.7091313385214022e-05,-2.0510284988174276e-05,-3.467764856794082e-05,-3.711366583505e-05,4.2,3.0
0.7265625,-1.4163818950179318e-05,-1.953801493858245e-05,-2.8320498243686584e-05,-3.369469423208974e-05,4.2,3.0
0.73046875,-1.8074267721065098e-05,-2.6856751026169235e-05,-2.6856751026169235e-05,-4.1504907487602053e-05,4.2,3.0
0.734375,-2.1493239324025352e-05,-3.027572262912949e-05,-3.711366583505e-05,-2.2956986541542704e-05,4.2,3.0
0.73828125,-2.6856751026169235e-05,-3.320321706416422e-05,-4.2487861823453126e-05,-2.392925659113453e-05,4.2,3.0
0.7421875,-3.515844144960709e-05,-3.418617140001527e-05,-3.2230947014572394e-05,-3.467764856794082e-05,4.2,3.0
0.74609375,-3.1258676964980564e-05,-3.515844144960709e-05,-2.6856751026169235e-05,-3.369469423208974e-05,4.2,3.0
0.75,-2.8811975411612137e-05,-3.5649918617532645e-05,-3.5649918617532645e-05,-4.053263743801025e-05,4.2,3.0
0.75390625,-2.9303452579537663e-05,-3.173946984664684e-05,-4.1504907487602053e-05,-3.711366583505e-05,4.2,3.0
0.7578125,-2.10017621560998e-05,-3.2230947014572394e-05,-4.3460131873044955e-05,-2.6375958144502958e-05,4.2,3.0
0.76171875,-2.3437779423208977e-05,-2.783970536202031e-05,-4.102411460593578e-05,-1.953801493858245e-05,4.2,3.0
0.765625,-2.7348228194094784e-05,-3.662218866712445e-05,-4.102411460593578e-05,-2.0029492106508e-05,4.2,3.0
0.76953125,-2.5884480976577405e-05,-4.883432786144809e-05,-4.3460131873044955e-05,-3.515844144960709e-05,4.2,3.0
0.7734375,-3.857741305256735e-05,-5.3717046681925694e-05,-4.883432786144809e-05,-4.980659791103991e-05,4.2,3.0
0.77734375,-4.7862057811856285e-05,-5.468931673151752e-05,-5.7136018284885944e-05,-4.1996384655527607e-05,4.2,3.0
0.78125,-4.297933899137868e-05,-4.4443086208896034e-05,-5.5672271067368596e-05,-3.272242418249791e-05,4.2,3.0
0.78515625,-3.5649918617532645e-05,-2.783970536202031e-05,-3.711366583505e-05,-2.8811975411612137e-05,4.2,3.0
0.7890625,-3.320321706416422e-05,-2.3437779423208977e-05,-3.2230947014572394e-05,-3.027572262912949e-05,4.2,3.0
0.79296875,-3.369469423208974e-05,-3.272242418249791e-05,-4.590683342641338e-05,-3.808593588464182e-05,4.2,3.0
0.796875,-3.173946984664684e-05,-3.956036738841843e-05,-5.225329946440834e-05,-4.1996384655527607e-05,4.2,3.0
0.80078125,-3.808593588464182e-05,-4.4923879090562304e-05,-5.225329946440834e-05,-5.078955224689099e-05,4.2,3.0
0.8046875,-3.9068890220492875e-05,-4.2487861823453126e-05,-4.1996384655527607e-05,-5.0298075078965463e-05,4.2,3.0
0.80859375,-2.6856751026169235e-05,-3.369469423208974e-05,-3.515844144960709e-05,-3.369469423208974e-05,4.2,3.0
0.8125,-2.6375958144502958e-05,-4.395160904097048e-05,-5.322556951400017e-05,-3.2230947014572394e-05,4.2,3.0
0.81640625,-2.10017621560998e-05,-4.00411602700847e-05,-4.638762630807966e-05,-3.857741305256735e-05,4.2,3.0
0.8203125,-8.308830080109885e-06,-1.7582790553139572e-05,-1.0744847347219064e-05,-3.320321706416422e-05,4.2,3.0
0.82421875,-1.562756616769667e-05,-2.5393003808651883e-05,-1.0264054465552789e-05,-1.7582790553139572e-05,4.2,3.0
0.828125,-2.5884480976577405e-05,-4.00411602700847e-05,-3.418617140001527e-05,-1.6610520503547746e-05,4.2,3.0
0.83203125,-3.614139578545817e-05,-4.3460131873044955e-05,-5.176182229648282e-05,-2.8811975411612137e-05,4.2,3.0
0.8359375,-4.980659791103991e-05,-5.274477663233389e-05,-6.445475437247274e-05,-4.834285069352256e-05,4.2,3.0
0.83984375,-4.980659791103991e-05,-5.615306394903487e-05,-6.103578276951247e-05,-5.176182229648282e-05,4.2,3.0
0.84375,-4.737058064393073e-05,-5.8108288334477774e-05,-4.4443086208896034e-05,-3.760514300297552e-05,4.2,3.0
0.84765625,-4.2487861823453126e-05,-5.078955224689099e-05,-3.515844144960709e-05,-3.711366583505e-05,4.2,3.0
0.8515625,-3.711366583505e-05,-4.638762630807966e-05,-4.541535625848786e-05,-3.418617140001527e-05,4.2,3.0
0.85546875,-3.2230947014572394e-05,-5.1270345128557266e-05,-5.420852384985125e-05,-3.272242418249791e-05,4.2,3.0
0.859375,-3.467764856794082e-05,-5.225329946440834e-05,-5.0298075078965463e-05,-4.102411460593578e-05,4.2,3.0
0.86328125,-3.857741305256735e-05,-3.418617140001527e-05,-3.027572262912949e-05,-4.053263743801025e-05,4.2,3.0
0.8671875,-2.6375958144502958e-05,-1.3191548900587492e-05,-3.272242418249791e-05,-3.418617140001527e-05,4.2,3.0
0.87109375,-1.0264054465552789e-05,-2.10017621560998e-05,-4.980659791103991e-05,-2.8811975411612137e-05,4.2,3.0
0.875,-9.772577297627236e-06,-4.2487861823453126e-05,-6.739293309376672e-05,-3.369469423208974e-05,4.2,3.0
0.87890625,-1.3672341782253767e-05,-4.3460131873044955e-05,-6.54377087083238e-05,-6.299100715495539e-05,4.2,3.0
0.8828125,-5.381335645075183e-06,-4.102411460593578e-05,-6.54377087083238e-05,-7.178417474631876e-05,4.2,3.0
0.88671875,-4.398381309224106e-06,-5.225329946440834e-05,-6.933747319295034e-05,-7.422019201342795e-05,4.2,3.0
0.890625,-2.934634091706755e-06,-4.395160904097048e-05,-7.032042752880141e-05,-8.643233120775159e-05,4.2,3.0
0.89453125,9.758297984283189e-06,-2.4420733759060056e-05,-7.520314634927901e-05,-8.252188243686581e-05,4.2,3.0
0.8984375,1.0741252320134265e-05,-3.467764856794082e-05,-8.204108955519953e-05,-8.643233120775159e-05,4.2,3.0
0.90234375,-1.6610520503547746e-05,-5.909124267032885e-05,-9.228732007782104e-05,-0.0001083992237567712,4.2,3.0
0.90625,-9.281100129701712e-06,-4.1996384655527607e-05,-7.76391636163882e-05,-0.00010645468365758757,4.2,3.0
0.91015625,1.4149539636835271e-05,-2.8320498243686584e-05,-5.8108288334477774e-05,-0.0001049909364400702,4.2,3.0
0.9140625,4.38410199588003e-06,-3.614139578545817e-05,-7.373939913176167e-05,-0.0001250026046036469,4.2,3.0
0.91796875,9.758146791790522e-07,-3.272242418249791e-05,-8.838755559319449e-05,-0.00012549408177157245,4.2,3.0
0.921875,-3.4261112596322787e-06,-2.9794929747463212e-05,-7.324792196383614e-05,-0.0001240303345540551,4.2,3.0
0.92578125,-2.0029492106508e-05,-3.808593588464182e-05,-6.836520314335854e-05,-0.00013379577219501033,4.2,3.0
0.9296875,-1.3191548900587492e-05,-2.392925659113453e-05,-6.25102142732891e-05,-0.00012452181172198064,4.2,3.0
0.93359375,-1.172780168307014e-05,-2.0029492106508e-05,-5.1270345128557266e-05,-0.00010987365526054782,4.2,3.0
0.9375,-1.7582790553139572e-05,-3.027572262912949e-05,-5.7136018284885944e-05,-0.00011133740247806517,4.2,3.0
0.94140625,-1.3672341782253767e-05,-1.953801493858245e-05,-4.395160904097048e-05,-0.00010596320648966203,4.2,3.0
0.9453125,-1.4655296118104842e-05,-7.817352912184361e-06,-2.4912210926985606e-05,-9.327027441367209e-05,4.2,3.0
0.94921875,-1.562756616769667e-05,-6.845082862592534e-06,-2.4420733759060056e-05,-9.327027441367209e-05,4.2,3.0
0.953125,-9.772577297627236e-06,-5.381335645075183e-06,-2.7348228194094784e-05,-8.935982564278631e-05,4.2,3.0
0.95703125,-9.281100129701712e-06,-6.353605694666981e-06,-2.8320498243686584e-05,-8.643233120775159e-05,4.2,3.0
0.9609375,-1.2208594564736414e-05,-5.862128526741458e-06,-2.5884480976577405e-05,-8.643233120775159e-05,4.2,3.0
0.96484375,-1.8074267721065098e-05,-6.845082862592534e-06,-1.7091313385214022e-05,-7.568393923094532e-05,4.2,3.0
0.96875,-2.0510284988174276e-05,-1.0264054465552789e-05,-1.1236324515144588e-05,-8.398562965438316e-05,4.2,3.0
0.97265625,-2.0029492106508e-05,-1.1236324515144588e-05,-2.10017621560998e-05,-8.154961238727398e-05,4.2,3.0
0.9765625,-2.0510284988174276e-05,-9.281100129701712e-06,-2.9303452579537663e-05,-6.933747319295034e-05,4.2,3.0
0.98046875,-2.197403220569163e-05,2.4395618966964036e-06,-5.862128526741458e-06,-7.373939913176167e-05,4.2,3.0
0.984375,-2.2465509373617178e-05,4.38410199588003e-06,7.32228071717401e-06,-6.982895036087589e-05,4.2,3.0
0.98828125,-2.4420733759060056e-05,-3.906904141298554e-06,-7.139656672023875e-09,-6.05549898878462e-05,4.2,3.0
0.9921875,-3.076719979705504e-05,-1.9046537770656924e-05,-1.6610520503547746e-05,-6.885668031128407e-05,4.2,3.0
0.99609375,-1.9046537770656924e-05,-1.7582790553139572e-05,-9.772577297627236e-06,-6.640997875791564e-05,4.2,3.0
1.0,-7.325875744258809e-06,2.4395618966964036e-06,1.3177269587243443e-05,-5.078955224689099e-05,4.2,3.0
1.00390625,-4.398381309224106e-06,1.0249775152208712e-05,2.8316903216601786e-05,-4.102411460593578e-05,4.2,3.0
1.0078125,-1.4655296118104842e-05,-1.0264054465552789e-05,2.0506689961089475e-05,-4.638762630807966e-05,4.2,3.0
1.01171875,-2.6375958144502958e-05,-2.6856751026169235e-05,4.843375112535e-07,-4.7862057811856285e-05,4.2,3.0
1.015625,-3.076719979705504e-05,-2.8320498243686584e-05,-5.381335645075183e-06,-4.4443086208896034e-05,4.2,3.0
1.01953125,-2.2465509373617178e-05,-2.9794929747463212e-05,1.4566075608453275e-06,-3.515844144960709e-05,4.2,3.0
1.0234375,-2.197403220569163e-05,-3.614139578545817e-05,4.843375112535e-07,-3.9068890220492875e-05,4.2,3.0
1.02734375,-2.8811975411612137e-05,-4.1504907487602053e-05,-4.88985847714963e-06,-5.225329946440834e-05,4.2,3.0
1.03125,-3.027572262912949e-05,-4.00411602700847e-05,-7.817352912184361e-06,-4.834285069352256e-05,4.2,3.0
1.03515625,-3.173946984664684e-05,-4.638762630807966e-05,-1.9046537770656924e-05,-4.541535625848786e-05,4.2,3.0
1.0390625,-2.7348228194094784e-05,-4.053263743801025e-05,-1.172780168307014e-05,-4.7862057811856285e-05,4.2,3.0
1.04296875,-2.8811975411612137e-05,-3.369469423208974e-05,1.4566075608453275e-06,-4.00411602700847e-05,4.2,3.0
1.046875,-3.173946984664684e-05,-3.1258676964980564e-05,9.266820816357636e-06,-2.10017621560998e-05,4.2,3.0
1.05078125,-4.3460131873044955e-05,-3.418617140001527e-05,1.9480847287708513e-06,-2.0029492106508e-05,4.2,3.0
1.0546875,-4.4923879090562304e-05,-3.515844144960709e-05,-4.986168245975762e-07,-2.2465509373617178e-05,4.2,3.0
1.05859375,-3.027572262912949e-05,-2.4420733759060056e-05,1.65962411902037e-05,-2.10017621560998e-05,4.2,3.0
1.0625,-3.076719979705504e-05,-2.4912210926985606e-05,1.9042942743572127e-05,-1.3672341782253767e-05,4.2,3.0
1.06640625,-3.5649918617532645e-05,-3.076719979705504e-05,9.266820816357636e-06,-1.1236324515144588e-05,4.2,3.0
1.0703125,-3.467764856794082e-05,-3.272242418249791e-05,9.758297984283189e-06,-2.197403220569163e-05,4.2,3.0
1.07421875,-4.1504907487602053e-05,-4.102411460593578e-05,7.32228071717401e-06,-2.4420733759060056e-05,4.2,3.0
1.078125,-4.1996384655527607e-05,-3.711366583505e-05,8.294550766765837e-06,-1.855506060273137e-05,4.2,3.0
1.08203125,-3.711366583505e-05,-2.9794929747463212e-05,1.562397114061187e-05,-1.7091313385214022e-05,4.2,3.0
1.0859375,-4.053263743801025e-05,-3.2230947014572394e-05,1.562397114061187e-05,-1.5146773286030395e-05,4.2,3.0
1.08984375,-4.980659791103991e-05,-4.737058064393073e-05,3.411831946288231e-06,-1.9046537770656924e-05,4.2,3.0
1.09375,-5.225329946440834e-05,-5.225329946440834e-05,-1.1236324515144588e-05,-2.197403220569163e-05,4.2,3.0
1.09765625,-5.274477663233389e-05,-5.176182229648282e-05,-1.562756616769667e-05,-1.4163818950179318e-05,4.2,3.0
1.1015625,-4.541535625848786e-05,-4.3460131873044955e-05,8.294550766765837e-06,-4.398381309224106e-06,4.2,3.0
1.10546875,-4.883432786144809e-05,-4.541535625848786e-05,1.0741252320134265e-05,-1.6610520503547746e-05,4.2,3.0
1.109375,-5.0298075078965463e-05,-5.6644541116960425e-05,-1.3191548900587492e-05,-1.7091313385214022e-05,4.2,3.0
1.11328125,-4.102411460593578e-05,-4.7862057811856285e-05,-1.855506060273137e-05,-1.9623640421149274e-06,4.2,3.0
1.1171875,-4.687910347600521e-05,-4.737058064393073e-05,-2.0510284988174276e-05,-1.0744847347219064e-05,4.2,3.0
1.12109375,-4.395160904097048e-05,-5.1270345128557266e-05,-1.9046537770656924e-05,-1.2208594564736414e-05,4.2,3.0
1.125,-3.808593588464182e-05,-4.687910347600521e-05,-1.2208594564736414e-05,-9.772577297627236e-06,4.2,3.0
1.12890625,-4.4923879090562304e-05,-4.737058064393073e-05,-1.953801493858245e-05,-2.0029492106508e-05,4.2,3.0
1.1328125,-4.7862057811856285e-05,-5.8108288334477774e-05,-3.5649918617532645e-05,-1.7582790553139572e-05,4.2,3.0
1.13671875,-4.2487861823453126e-05,-5.8108288334477774e-05,-3.662218866712445e-05,-1.4163818950179318e-05,4.2,3.0
1.140625,-4.7862057811856285e-05,-5.518079389944307e-05,-2.8320498243686584e-05,-1.9046537770656924e-05,4.2,3.0
1.14453125,-5.1270345128557266e-05,-5.468931673151752e-05,-1.9046537770656924e-05,-2.0510284988174276e-05,4.2,3.0
1.1484375,-4.3460131873044955e-05,-4.4443086208896034e-05,-8.308830080109885e-06,-2.1493239324025352e-05,4.2,3.0
1.15234375,-5.078955224689099e-05,-5.176182229648282e-05,-1.7091313385214022e-05,-2.2465509373617178e-05,4.2,3.0
1.15625,-5.76274954528115e-05,-5.7136018284885944e-05,-3.1258676964980564e-05,-2.392925659113453e-05,4.2,3.0
1.16015625,-4.737058064393073e-05,-4.102411460593578e-05,-1.8074267721065098e-05,-2.0510284988174276e-05,4.2,3.0
1.1640625,-5.0298075078965463e-05,-4.590683342641338e-05,-1.0744847347219064e-05,-1.6119043335622193e-05,4.2,3.0
1.16796875,-5.615306394903487e-05,-6.0063512719920676e-05,-1.953801493858245e-05,-1.8074267721065098e-05,4.2,3.0
1.171875,-4.980659791103991e-05,-5.225329946440834e-05,-2.6856751026169235e-05,-1.8074267721065098e-05,4.2,3.0
1.17578125,-5.0298075078965463e-05,-5.518079389944307e-05,-3.272242418249791e-05,-2.197403220569163e-05,4.2,3.0
1.1796875,-5.176182229648282e-05,-5.859976550240333e-05,-2.8811975411612137e-05,-2.197403220569163e-05,4.2,3.0
1.18359375,-5.468931673151752e-05,-4.541535625848786e-05,-2.197403220569163e-05,-1.562756616769667e-05,4.2,3.0
1.1875,-4.590683342641338e-05,-2.6856751026169235e-05,-2.0510284988174276e-05,-9.281100129701712e-06,4.2,3.0
1.19140625,-4.053263743801025e-05,-3.320321706416422e-05,-1.7582790553139572e-05,-1.6119043335622193e-05,4.2,3.0
1.1953125,-4.737058064393073e-05,-3.808593588464182e-05,-1.0744847347219064e-05,-2.4420733759060056e-05,4.2,3.0
1.19921875,-4.737058064393073e-05,-4.297933899137868e-05,-1.5146773286030395e-05,-2.10017621560998e-05,4.2,3.0
1.203125,-4.737058064393073e-05,-4.834285069352256e-05,-1.7091313385214022e-05,-1.953801493858245e-05,4.2,3.0
1.20703125,-4.687910347600521e-05,-3.320321706416422e-05,-3.4261112596322787e-06,-1.3191548900587492e-05,4.2,3.0
1.2109375,-5.420852384985125e-05,-4.395160904097048e-05,-1.855506060273137e-05,-2.197403220569163e-05,4.2,3.0
1.21484375,-4.687910347600521e-05,-3.956036738841843e-05,-2.5884480976577405e-05,-2.6375958144502958e-05,4.2,3.0
1.21875,-1.855506060273137e-05,-3.906904141298554e-06,1.0741252320134265e-05,-3.4261112596322787e-06,4.2,3.0
1.22265625,-3.076719979705504e-05,-2.4420733759060056e-05,1.122204520180054e-05,-1.3672341782253767e-05,4.2,3.0
1.2265625,-5.420852384985125e-05,-4.687910347600521e-05,-7.325875744258809e-06,-3.027572262912949e-05,4.2,3.0
1.23046875,-4.4923879090562304e-05,-3.320321706416422e-05,-3.4261112596322787e-06,-1.4163818950179318e-05,4.2,3.0
1.234375,-3.857741305256735e-05,-2.5393003808651883e-05,-4.986168245975762e-07,-8.308830080109885e-06,4.2,3.0
1.23828125,-4.590683342641338e-05,-3.027572262912949e-05,1.4566075608453275e-06,-1.953801493858245e-05,4.2,3.0
1.2421875,-4.638762630807966e-05,-2.8811975411612137e-05,1.2685792419317892e-05,-2.0029492106508e-05,4.2,3.0
1.24609375,-4.2487861823453126e-05,-2.4420733759060056e-05,1.562397114061187e-05,-5.381335645075183e-06,4.2,3.0
1.25,-4.541535625848786e-05,-2.6375958144502958e-05,1.0741252320134265e-05,-4.88985847714963e-06,4.2,3.0
1.25390625,-5.176182229648282e-05,-2.392925659113453e-05,1.95237356252384e-05,-2.392925659113453e-05,4.2,3.0
1.2578125,-5.518079389944307e-05,-4.1504907487602053e-05,1.4566075608453275e-06,-2.4420733759060056e-05,4.2,3.0
1.26171875,-4.737058064393073e-05,-5.468931673151752e-05,-1.7582790553139572e-05,-1.9046537770656924e-05,4.2,3.0
1.265625,-3.857741305256735e-05,-3.662218866712445e-05,-1.9623640421149274e-06,-1.855506060273137e-05,4.2,3.0
1.26953125,-3.760514300297552e-05,-2.6375958144502958e-05,1.4566075608453275e-06,-1.953801493858245e-05,4.2,3.0
1.2734375,-3.614139578545817e-05,-4.395160904097048e-05,-2.3437779423208977e-05,-2.9303452579537663e-05,4.2,3.0
1.27734375,-4.638762630807966e-05,-6.25102142732891e-05,-3.467764856794082e-05,-3.272242418249791e-05,4.2,3.0
1.28125,-3.760514300297552e-05,-5.176182229648282e-05,-2.0029492106508e-05,-3.5649918617532645e-05,4.2,3.0
1.28515625,-3.076719979705504e-05,-5.078955224689099e-05,-1.3672341782253767e-05,-4.395160904097048e-05,4.2,3.0
1.2890625,-2.8811975411612137e-05,-4.590683342641338e-05,-8.308830080109885e-06,-4.00411602700847e-05,4.2,3.0
1.29296875,-2.3437779423208977e-05,-3.711366583505e-05,-1.562756616769667e-05,-3.320321706416422e-05,4.2,3.0
1.296875,-3.320321706416422e-05,-4.102411460593578e-05,-2.3437779423208977e-05,-4.1504907487602053e-05,4.2,3.0
1.30078125,-3.515844144960709e-05,-3.076719979705504e-05,-7.817352912184361e-06,-3.808593588464182e-05,4.2,3.0
1.3046875,-3.614139578545817e-05,-2.9794929747463212e-05,-2.934634091706755e-06,-1.953801493858245e-05,4.2,3.0
1.30859375,-4.1996384655527607e-05,-4.2487861823453126e-05,-1.4163818950179318e-05,-2.5884480976577405e-05,4.2,3.0
1.3125,-4.00411602700847e-05,-4.102411460593578e-05,-2.7348228194094784e-05,-4.590683342641338e-05,4.2,3.0
1.31640625,-2.9303452579537663e-05,-1.953801493858245e-05,-2.0029492106508e-05,-2.5393003808651883e-05,4.2,3.0
1.3203125,-2.3437779423208977e-05,-6.353605694666981e-06,-1.0264054465552789e-05,-1.2208594564736414e-05,4.2,3.0
1.32421875,-4.2487861823453126e-05,-3.808593588464182e-05,-2.5393003808651883e-05,-3.614139578545817e-05,4.2,3.0
1.328125,-4.932580502937364e-05,-5.274477663233389e-05,-3.272242418249791e-05,-4.638762630807966e-05,4.2,3.0
1.33203125,-4.00411602700847e-05,-4.102411460593578e-05,-3.515844144960709e-05,-3.9068890220492875e-05,4.2,3.0
1.3359375,-3.857741305256735e-05,-3.808593588464182e-05,-4.297933899137868e-05,-2.783970536202031e-05,4.2,3.0
1.33984375,-4.4443086208896034e-05,-2.0510284988174276e-05,-3.272242418249791e-05,-2.0029492106508e-05,4.2,3.0
1.34375,-4.102411460593578e-05,-5.381335645075183e-06,1.9480847287708513e-06,-2.6375958144502958e-05,4.2,3.0
1.34765625,-2.3437779423208977e-05,-8.308830080109885e-06,9.266820816357636e-06,-1.562756616769667e-05,4.2,3.0
1.3515625,-2.8320498243686584e-05,-2.8320498243686584e-05,-1.855506060273137e-05,-1.3191548900587492e-05,4.2,3.0
1.35546875,-3.515844144960709e-05,-3.956036738841843e-05,-3.1258676964980564e-05,-2.783970536202031e-05,4.2,3.0
1.359375,-3.2230947014572394e-05,-2.8811975411612137e-05,-2.0029492106508e-05,-2.783970536202031e-05,4.2,3.0
1.36328125,-3.662218866712445e-05,-2.7348228194094784e-05,-1.172780168307014e-05,-2.0029492106508e-05,4.2,3.0
1.3671875,-3.515844144960709e-05,-2.3437779423208977e-05,-1.5146773286030395e-05,-5.381335645075183e-06,4.2,3.0
1.37109375,-4.2487861823453126e-05,-3.272242418249791e-05,-3.369469423208974e-05,-8.78962296177616e-06,4.2,3.0
1.375,-4.737058064393073e-05,-4.1996384655527607e-05,-4.3460131873044955e-05,-1.8074267721065098e-05,4.2,3.0
1.37890625,-3.614139578545817e-05,-2.8811975411612137e-05,-2.6375958144502958e-05,-1.4163818950179318e-05,4.2,3.0
1.3828125,-3.2230947014572394e-05,-2.3437779423208977e-05,-1.8074267721065098e-05,-1.9046537770656924e-05,4.2,3.0
1.38671875,-3.320321706416422e-05,-3.1258676964980564e-05,-2.5393003808651883e-05,-2.6856751026169235e-05,4.2,3.0
1.390625,-2.9794929747463212e-05,-2.783970536202031e-05,-2.5393003808651883e-05,-2.2956986541542704e-05,4.2,3.0
1.39453125,-1.855506060273137e-05,-1.1236324515144588e-05,-1.4163818950179318e-05,-7.325875744258809e-06,4.2,3.0
1.3984375,-2.7348228194094784e-05,-1.0744847347219064e-05,-1.4163818950179318e-05,-2.934634091706755e-06,4.2,3.0
1.40234375,-3.857741305256735e-05,-4.88985847714963e-06,-2.934634091706755e-06,-8.308830080109885e-06,4.2,3.0
1.40625,-3.857741305256735e-05,-7.325875744258809e-06,6.8308035492484855e-06,-1.2700071732661967e-05,4.2,3.0
1.41015625,-4.102411460593578e-05,-2.6375958144502958e-05,-1.172780168307014e-05,-9.772577297627236e-06,4.2,3.0
1.4140625,-5.0298075078965463e-05,-5.176182229648282e-05,-3.515844144960709e-05,-2.5884480976577405e-05,4.2,3.0
1.41796875,-4.4923879090562304e-05,-3.808593588464182e-05,-2.392925659113453e-05,-2.8811975411612137e-05,4.2,3.0
1.421875,-4.932580502937364e-05,-3.2230947014572394e-05,-1.953801493858245e-05,-2.5884480976577405e-05,4.2,3.0
1.42578125,-5.859976550240333e-05,-4.4923879090562304e-05,-1.8074267721065098e-05,-3.467764856794082e-05,4.2,3.0
1.4296875,-4.980659791103991e-05,-3.515844144960709e-05,-6.845082862592534e-06,-3.515844144960709e-05,4.2,3.0
1.43359375,-3.418617140001527e-05,-2.1493239324025352e-05,1.9480847287708513e-06,-2.783970536202031e-05,4.2,3.0
1.4375,-3.076719979705504e-05,-2.197403220569163e-05,2.4395618966964036e-06,-1.3191548900587492e-05,4.2,3.0
1.44140625,-3.760514300297552e-05,-2.6856751026169235e-05,-2.4431569237812027e-06,-1.5146773286030395e-05,4.2,3.0
1.4453125,-3.808593588464182e-05,-3.5649918617532645e-05,1.4566075608453275e-06,-2.4912210926985606e-05,4.2,3.0
1.44921875,-3.515844144960709e-05,-5.615306394903487e-05,-2.7348228194094784e-05,-2.7348228194094784e-05,4.2,3.0
1.453125,-2.8320498243686584e-05,-5.6644541116960425e-05,-3.857741305256735e-05,-3.027572262912949e-05,4.2,3.0
1.45703125,-2.4912210926985606e-05,-5.0298075078965463e-05,-3.027572262912949e-05,-2.6375958144502958e-05,4.2,3.0
1.4609375,-3.2230947014572394e-05,-4.737058064393073e-05,-2.2465509373617178e-05,-3.076719979705504e-05,4.2,3.0
1.46484375,-3.173946984664684e-05,-3.2230947014572394e-05,-1.4708868741893752e-06,-2.392925659113453e-05,4.2,3.0
1.46875,-4.2487861823453126e-05,-4.102411460593578e-05,-9.281100129701712e-06,-2.8811975411612137e-05,4.2,3.0
1.47265625,-4.4443086208896034e-05,-4.883432786144809e-05,-1.9046537770656924e-05,-5.176182229648282e-05,4.2,3.0
1.4765625,-4.00411602700847e-05,-4.00411602700847e-05,-1.7582790553139572e-05,-5.1270345128557266e-05,4.2,3.0
1.48046875,-4.687910347600521e-05,-3.711366583505e-05,-4.88985847714963e-06,-4.1504907487602053e-05,4.2,3.0
1.484375,-5.615306394903487e-05,-4.4443086208896034e-05,-1.9623640421149274e-06,-3.369469423208974e-05,4.2,3.0
1.48828125,-5.468931673151752e-05,-4.1996384655527607e-05,-7.817352912184361e-06,-3.173946984664684e-05,4.2,3.0
1.4921875,-5.468931673151752e-05,-5.1270345128557266e-05,-2.10017621560998e-05,-4.590683342641338e-05,4.2,3.0
1.49609375,-5.078955224689099e-05,-4.7862057811856285e-05,-1.4163818950179318e-05,-4.1504907487602053e-05,4.2,3.0
1.5,-3.760514300297552e-05,-2.2465509373617178e-05,2.920354778362679e-06,-2.2956986541542704e-05,4.2,3.0
1.50390625,-3.711366583505e-05,-2.392925659113453e-05,6.8308035492484855e-06,-2.4420733759060056e-05,4.2,3.0
1.5078125,-4.297933899137868e-05,-4.102411460593578e-05,1.4566075608453275e-06,-3.515844144960709e-05,4.2,3.0
1.51171875,-4.4923879090562304e-05,-4.638762630807966e-05,-1.0264054465552789e-05,-3.9068890220492875e-05,4.2,3.0
1.515625,-3.9068890220492875e-05,-3.760514300297552e-05,-1.172780168307014e-05,-2.8811975411612137e-05,4.2,3.0
1.51953125,-2.8811975411612137e-05,-2.10017621560998e-05,2.4395618966964036e-06,-1.0744847347219064e-05,4.2,3.0
1.5234375,-3.760514300297552e-05,-2.2465509373617178e-05,3.903309114213755e-06,-2.5393003808651883e-05,4.2,3.0
1.52734375,-4.932580502937364e-05,-4.053263743801025e-05,-1.0744847347219064e-05,-3.9068890220492875e-05,4.2,3.0
1.53125,-4.590683342641338e-05,-4.590683342641338e-05,-1.953801493858245e-05,-3.760514300297552e-05,4.2,3.0
1.53515625,-2.8811975411612137e-05,-2.392925659113453e-05,-1.0264054465552789e-05,-3.418617140001527e-05,4.2,3.0
1.5390625,-3.369469423208974e-05,-1.7091313385214022e-05,-1.9623640421149274e-06,-3.369469423208974e-05,4.2,3.0
1.54296875,-4.053263743801025e-05,-1.855506060273137e-05,6.8308035492484855e-06,-2.7348228194094784e-05,4.2,3.0
1.546875,-2.6375958144502958e-05,-1.6119043335622193e-05,1.8551465575646574e-05,-1.7091313385214022e-05,4.2,3.0
1.55078125,-2.4420733759060056e-05,-1.9046537770656924e-05,1.3668746755168967e-05,-1.7582790553139572e-05,4.2,3.0
1.5546875,-3.760514300297552e-05,-2.8811975411612137e-05,-1.4708868741893752e-06,-2.9794929747463212e-05,4.2,3.0
1.55859375,-3.320321706416422e-05,-3.418617140001527e-05,-2.934634091706755e-06,-3.467764856794082e-05,4.2,3.0
1.5625,-3.320321706416422e-05,-3.614139578545817e-05,-4.88985847714963e-06,-3.1258676964980564e-05,4.2,3.0
1.56640625,-4.4443086208896034e-05,-4.4923879090562304e-05,-7.817352912184361e-06,-4.3460131873044955e-05,4.2,3.0
1.5703125,-4.00411602700847e-05,-3.857741305256735e-05,8.294550766765837e-06,-4.2487861823453126e-05,4.2,3.0
1.57421875,-3.5649918617532645e-05,-4.3460131873044955e-05,-4.88985847714963e-06,-2.5884480976577405e-05,4.2,3.0
1.578125,-4.2487861823453126e-05,-5.176182229648282e-05,-2.392925659113453e-05,-3.614139578545817e-05,4.2,3.0
1.58203125,-3.857741305256735e-05,-3.2230947014572394e-05,-1.6119043335622193e-05,-3.808593588464182e-05,4.2,3.0
1.5859375,-3.272242418249791e-05,-2.5884480976577405e-05,-2.4431569237812027e-06,-1.7582790553139572e-05,4.2,3.0
1.58984375,-3.369469423208974e-05,-4.834285069352256e-05,-1.172780168307014e-05,-1.7582790553139572e-05,4.2,3.0
1.59375,-2.5884480976577405e-05,-4.053263743801025e-05,-1.562756616769667e-05,-2.3437779423208977e-05,4.2,3.0
1.59765625,-3.173946984664684e-05,-3.1258676964980564e-05,-1.562756616769667e-05,-3.027572262912949e-05,4.2,3.0
1.6015625,-4.3460131873044955e-05,-4.053263743801025e-05,-2.8811975411612137e-05,-2.9303452579537663e-05,4.2,3.0
1.60546875,-3.076719979705504e-05,-2.4420733759060056e-05,-7.817352912184361e-06,-1.2700071732661967e-05,4.2,3.0
1.609375,-1.6119043335622193e-05,-1.4163818950179318e-05,8.786027934691361e-06,-1.1236324515144588e-05,4.2,3.0
1.61328125,-1.9046537770656924e-05,-3.614139578545817e-05,-2.2956986541542704e-05,-3.711366583505e-05,4.2,3.0
1.6171875,-2.783970536202031e-05,-7.47116691813535e-05,-5.1270345128557266e-05,-4.7862057811856285e-05,4.2,3.0
1.62109375,-2.197403220569163e-05,-8.544937687190054e-05,-5.7136018284885944e-05,-3.662218866712445e-05,4.2,3.0
1.625,9.266820816357636e-06,-6.640997875791564e-05,-4.737058064393073e-05,-1.5146773286030395e-05,4.2,3.0
1.62890625,9.758297984283189e-06,-8.544937687190054e-05,-6.201873710536355e-05,-1.855506060273137e-05,4.2,3.0
1.6328125,5.367056331731106e-06,-0.0001357509965804532,-0.00012011988578316931,-4.4443086208896034e-05,4.2,3.0
1.63671875,2.0506689961089475e-05,-0.00016211981506828414,-0.00015625414191195545,-4.4923879090562304e-05,4.2,3.0
1.640625,2.636167883115891e-05,-0.00018165069035019457,-0.00017529354002594036,-4.590683342641338e-05,4.2,3.0
1.64453125,3.221666770122832e-05,-0.0002021538356816968,-0.0001972711168612192,-6.397396149080645e-05,4.2,3.0
1.6484375,4.3456536845960155e-05,-0.00022118254950942247,-0.00021241075049057754,-6.0063512719920676e-05,4.2,3.0
1.65234375,4.29650596780346e-05,-0.00024705989082932783,-0.0002338861658716716,-4.102411460593578e-05,4.2,3.0
1.65625,3.612711647211412e-05,-0.00025878055285572595,-0.0002548807883710994,-4.932580502937364e-05,4.2,3.0
1.66015625,2.9289173266193612e-05,-0.0002885683429465171,-0.0002778306352559701,-6.201873710536355e-05,4.2,3.0
1.6640625,2.5389408781567082e-05,-0.00029687003336995493,-0.0002729479164354925,-6.397396149080645e-05,4.2,3.0
1.66796875,3.5635639304188574e-05,-0.0002778306352559701,-0.00025389783403524836,-5.274477663233389e-05,4.2,3.0
1.671875,2.1970437178606828e-05,-0.00029540628615243764,-0.00026757372044708936,-5.274477663233389e-05,4.2,3.0
1.67578125,-7.139656672023875e-09,-0.0002919873145494774,-0.00025682532847028306,-5.7136018284885944e-05,4.2,3.0
1.6796875,-1.9623640421149274e-06,-0.00027733915808804454,-0.000246087620779736,-4.395160904097048e-05,4.2,3.0
1.68359375,-4.398381309224106e-06,-0.0002670822432791638,-0.00023241173436789502,-3.9068890220492875e-05,4.2,3.0
1.6875,-6.353605694666981e-06,-0.00024023263190966657,-0.00020996404893720911,-4.102411460593578e-05,4.2,3.0
1.69140625,-1.855506060273137e-05,-0.00023681366030670636,-0.0002050813301167315,-3.515844144960709e-05,4.2,3.0
1.6953125,-2.783970536202031e-05,-0.00021533824492561227,-0.00017871251162890057,-4.053263743801025e-05,4.2,3.0
1.69921875,-1.9046537770656924e-05,-0.0001640643551674678,-0.00012549408177157245,-3.173946984664684e-05,4.2,3.0
1.703125,-1.8074267721065098e-05,-0.00014502495705348288,-0.00010157196483710995,-2.7348228194094784e-05,4.2,3.0
1.70703125,-1.562756616769667e-05,-0.00011768386851606014,-6.933747319295034e-05,-3.320321706416422e-05,4.2,3.0
1.7109375,-2.4420733759060056e-05,-0.00010742695370717939,-5.5672271067368596e-05,-2.7348228194094784e-05,4.2,3.0
1.71484375,-4.980659791103991e-05,-0.00011181819535973146,-6.836520314335854e-05,-4.1996384655527607e-05,4.2,3.0
1.71875,-5.274477663233389e-05,-7.568393923094532e-05,-3.418617140001527e-05,-5.078955224689099e-05,4.2,3.0
1.72265625,-4.4443086208896034e-05,-5.76274954528115e-05,-3.4261112596322787e-06,-2.9794929747463212e-05,4.2,3.0
1.7265625,-4.7862057811856285e-05,-5.615306394903487e-05,-9.794097062638513e-07,-3.076719979705504e-05,4.2,3.0
1.73046875,-5.8108288334477774e-05,-4.4443086208896034e-05,-4.986168245975762e-07,-4.102411460593578e-05,4.2,3.0
1.734375,-5.225329946440834e-05,-2.9794929747463212e-05,1.2685792419317892e-05,-3.857741305256735e-05,4.2,3.0
1.73828125,-4.7862057811856285e-05,-2.0029492106508e-05,2.8316903216601786e-05,-2.9303452579537663e-05,4.2,3.0
1.7421875,-5.5672271067368596e-05,-7.325875744258809e-06,4.1982105342183556e-05,-2.9794929747463212e-05,4.2,3.0
1.74609375,-5.3717046681925694e-05,1.4149539636835271e-05,5.322197448691537e-05,-3.9068890220492875e-05,4.2,3.0
1.75,-5.420852384985125e-05,1.3177269587243443e-05,4.4920284063477476e-05,-4.297933899137868e-05,4.2,3.0
1.75390625,-6.445475437247274e-05,5.367056331731106e-06,3.9054610907148825e-05,-4.3460131873044955e-05,4.2,3.0
1.7578125,-5.8108288334477774e-05,2.0987482842755752e-05,5.468572170443275e-05,-3.5649918617532645e-05,4.2,3.0
1.76171875,-4.395160904097048e-05,3.319962203707939e-05,7.81163614709697e-05,-2.6375958144502958e-05,4.2,3.0
1.765625,-4.4443086208896034e-05,3.369109920500494e-05,9.66749667032883e-05,-3.076719979705504e-05,4.2,3.0
1.76953125,-4.834285069352256e-05,2.7825426048676264e-05,8.740100623025864e-05,-2.783970536202031e-05,4.2,3.0
1.7734375,-5.909124267032885e-05,2.0506689961089475e-05,7.030614821545736e-05,-2.7348228194094784e-05,4.2,3.0
1.77734375,-6.0063512719920676e-05,2.733394888075071e-05,7.665261425345233e-05,-2.3437779423208977e-05,4.2,3.0
1.78125,-6.640997875791564e-05,1.95237356252384e-05,8.349055745937283e-05,-3.027572262912949e-05,4.2,3.0
1.78515625,-7.227565191424432e-05,1.65962411902037e-05,8.837327627985041e-05,-3.9068890220492875e-05,4.2,3.0
1.7890625,-5.5672271067368596e-05,2.8316903216601786e-05,9.228372505073622e-05,-2.9794929747463212e-05,4.2,3.0
1.79296875,-6.152725993743802e-05,3.0272127602044688e-05,8.105454019226363e-05,-3.711366583505e-05,4.2,3.0
1.796875,-6.836520314335854e-05,3.369109920500494e-05,7.421659698634317e-05,-4.3460131873044955e-05,4.2,3.0
1.80078125,-5.859976550240333e-05,4.0037565242999904e-05,8.934554632944224e-05,-3.956036738841843e-05,4.2,3.0
1.8046875,-5.322556951400017e-05,4.2473582510109055e-05,0.00010302143274128325,-2.4912210926985606e-05,4.2,3.0
1.80859375,-5.859976550240333e-05,3.319962203707939e-05,9.911098397039745e-05,-2.6856751026169235e-05,4.2,3.0
1.8125,-6.152725993743802e-05,2.0987482842755752e-05,8.934554632944224e-05,-2.9794929747463212e-05,4.2,3.0
1.81640625,-5.225329946440834e-05,2.880838038452734e-05,8.740100623025864e-05,-1.9046537770656924e-05,4.2,3.0
1.8203125,-4.737058064393073e-05,4.1982105342183556e-05,0.00010497665712672613,-1.6610520503547746e-05,4.2,3.0
1.82421875,-5.322556951400017e-05,3.1244397651636514e-05,0.00010594892717631796,-2.6856751026169235e-05,4.2,3.0
1.828125,-5.909124267032885e-05,1.9042942743572127e-05,9.130077071488517e-05,-3.467764856794082e-05,4.2,3.0
1.83203125,-5.7136018284885944e-05,1.805998840772105e-05,8.349055745937283e-05,-2.8811975411612137e-05,4.2,3.0
1.8359375,-5.615306394903487e-05,1.562397114061187e-05,7.909931580682075e-05,-2.8320498243686584e-05,4.2,3.0
1.83984375,-5.8108288334477774e-05,1.3177269587243443e-05,8.349055745937283e-05,-3.076719979705504e-05,4.2,3.0
1.84375,-5.615306394903487e-05,2.3925661564049733e-05,0.00010009393830624855,-2.4912210926985606e-05,4.2,3.0
1.84765625,-5.518079389944307e-05,2.0506689961089475e-05,9.618348953536275e-05,-3.320321706416422e-05,4.2,3.0
1.8515625,-5.615306394903487e-05,1.2204999537651615e-05,7.86078386388952e-05,-4.638762630807966e-05,4.2,3.0
1.85546875,-5.909124267032885e-05,2.0987482842755752e-05,8.202681024185545e-05,-3.857741305256735e-05,4.2,3.0
1.859375,-5.6644541116960425e-05,1.95237356252384e-05,8.690952906233309e-05,-2.10017621560998e-05,4.2,3.0
1.86328125,-5.078955224689099e-05,1.7568511239795498e-05,8.690952906233309e-05,-1.953801493858245e-05,4.2,3.0
1.8671875,-5.274477663233389e-05,1.65962411902037e-05,8.740100623025864e-05,-2.5393003808651883e-05,4.2,3.0
1.87109375,-5.0298075078965463e-05,1.4641016804760795e-05,8.007158585641258e-05,-2.1493239324025352e-05,4.2,3.0
1.875,-4.395160904097048e-05,1.4149539636835271e-05,6.688717661249711e-05,-2.10017621560998e-05,4.2,3.0
1.87890625,-4.980659791103991e-05,3.411831946288231e-06,6.445115934538796e-05,-2.4912210926985606e-05,4.2,3.0
1.8828125,-4.834285069352256e-05,9.758146791790522e-07,6.884240099793999e-05,-2.0029492106508e-05,4.2,3.0
1.88671875,-4.2487861823453126e-05,1.9480847287708513e-06,6.00492334065766e-05,-2.4420733759060056e-05,4.2,3.0
1.890625,-3.760514300297552e-05,6.339326381322933e-06,5.077527293354694e-05,-2.9303452579537663e-05,4.2,3.0
1.89453125,-4.297933899137868e-05,2.4395618966964036e-06,3.51548464225223e-05,-2.9794929747463212e-05,4.2,3.0
1.8984375,-5.078955224689099e-05,-9.794097062638513e-07,3.417189208667122e-05,-3.173946984664684e-05,4.2,3.0
1.90234375,-4.7862057811856285e-05,-1.4708868741893752e-06,5.8104693307392946e-05,-1.953801493858245e-05,4.2,3.0
1.90625,-4.737058064393073e-05,-1.3672341782253767e-05,4.0518358124666174e-05,-1.7091313385214022e-05,4.2,3.0
1.91015625,-4.4443086208896034e-05,-1.4163818950179318e-05,1.6104764022278146e-05,-3.369469423208974e-05,4.2,3.0
1.9140625,-4.2487861823453126e-05,-1.0744847347219064e-05,1.4641016804760795e-05,-3.272242418249791e-05,4.2,3.0
1.91796875,-4.4443086208896034e-05,-2.0510284988174276e-05,1.4566075608453275e-06,-3.369469423208974e-05,4.2,3.0
1.921875,-3.857741305256735e-05,-1.4655296118104842e-05,1.2204999537651615e-05,-2.6856751026169235e-05,4.2,3.0
1.92578125,-3.173946984664684e-05,-5.381335645075183e-06,2.636167883115891e-05,-2.2465509373617178e-05,4.2,3.0
1.9296875,-4.053263743801025e-05,-1.3191548900587492e-05,1.0249775152208712e-05,-3.173946984664684e-05,4.2,3.0
1.93359375,-4.834285069352256e-05,-2.2956986541542704e-05,-1.0744847347219064e-05,-3.614139578545817e-05,4.2,3.0
1.9375,-4.053263743801025e-05,-1.6610520503547746e-05,-1.6610520503547746e-05,-3.711366583505e-05,4.2,3.0
1.94140625,-3.418617140001527e-05,-4.986168245975762e-07,-4.398381309224106e-06,-2.9794929747463212e-05,4.2,3.0
1.9453125,-3.711366583505e-05,9.758146791790522e-07,9.758297984283189e-06,-3.027572262912949e-05,4.2,3.0
1.94921875,-4.4443086208896034e-05,-1.0264054465552789e-05,-7.817352912184361e-06,-3.662218866712445e-05,4.2,3.0
1.953125,-5.0298075078965463e-05,-1.2700071732661967e-05,-2.1493239324025352e-05,-3.857741305256735e-05,4.2,3.0
1.95703125,-4.297933899137868e-05,-1.3672341782253767e-05,-2.8811975411612137e-05,-3.5649918617532645e-05,4.2,3.0
1.9609375,-3.027572262912949e-05,-1.6610520503547746e-05,-3.614139578545817e-05,-3.1258676964980564e-05,4.2,3.0
1.96484375,-3.320321706416422e-05,-2.197403220569163e-05,-2.5393003808651883e-05,-3.515844144960709e-05,4.2,3.0
1.96875,-3.857741305256735e-05,-2.0510284988174276e-05,-1.953801493858245e-05,-3.272242418249791e-05,4.2,3.0
1.97265625,-3.614139578545817e-05,-2.1493239324025352e-05,-2.8811975411612137e-05,-2.7348228194094784e-05,4.2,3.0
1.9765625,-4.00411602700847e-05,-2.783970536202031e-05,-3.662218866712445e-05,-3.076719979705504e-05,4.2,3.0
1.98046875,-4.2487861823453126e-05,-2.2956986541542704e-05,-3.320321706416422e-05,-2.4420733759060056e-05,4.2,3.0
1.984375,-4.3460131873044955e-05,-2.0510284988174276e-05,-3.760514300297552e-05,-2.0510284988174276e-05,4.2,3.0
1.98828125,-3.614139578545817e-05,-2.8320498243686584e-05,-4.053263743801025e-05,-3.2230947014572394e-05,4.2,3.0
1.9921875,-3.857741305256735e-05,-2.9303452579537663e-05,-5.3717046681925694e-05,-3.467764856794082e-05,4.2,3.0
1.99609375,-4.7862057811856285e-05,-3.173946984664684e-05,-5.76274954528115e-05,-3.1258676964980564e-05,4.2,3.0
2.0,-3.760514300297552e-05,-2.3437779423208977e-05,-4.395160904097048e-05,-2.8811975411612137e-05,4.2,3.0
2.00390625,-3.027572262912949e-05,-1.7582790553139572e-05,-3.320321706416422e-05,-3.076719979705504e-05,4.2,3.0
2.0078125,-3.515844144960709e-05,-2.6856751026169235e-05,-4.4443086208896034e-05,-3.808593588464182e-05,4.2,3.0
2.01171875,-3.369469423208974e-05,-2.6375958144502958e-05,-5.0298075078965463e-05,-4.1504907487602053e-05,4.2,3.0
2.015625,-2.8320498243686584e-05,-2.0029492106508e-05,-4.395160904097048e-05,-4.4443086208896034e-05,4.2,3.0
2.01953125,-3.467764856794082e-05,-2.197403220569163e-05,-4.395160904097048e-05,-5.176182229648282e-05,4.2,3.0
2.0234375,-3.173946984664684e-05,-9.281100129701712e-06,-3.711366583505e-05,-4.297933899137868e-05,4.2,3.0
2.02734375,-2.5393003808651883e-05,-4.398381309224106e-06,-3.467764856794082e-05,-3.418617140001527e-05,4.2,3.0
2.03125,-3.076719979705504e-05,-1.4655296118104842e-05,-4.395160904097048e-05,-4.00411602700847e-05,4.2,3.0
2.03515625,-3.369469423208974e-05,-1.953801493858245e-05,-5.5672271067368596e-05,-4.590683342641338e-05,4.2,3.0
2.0390625,-2.7348228194094784e-05,-1.3191548900587492e-05,-4.980659791103991e-05,-4.00411602700847e-05,4.2,3.0
2.04296875,-2.1493239324025352e-05,-8.308830080109885e-06,-3.956036738841843e-05,-3.418617140001527e-05,4.2,3.0
2.046875,-2.5393003808651883e-05,-1.6119043335622193e-05,-4.687910347600521e-05,-4.00411602700847e-05,4.2,3.0
2.05078125,-2.8811975411612137e-05,-2.3437779423208977e-05,-4.1996384655527607e-05,-5.078955224689099e-05,4.2,3.0
2.0546875,-2.10017621560998e-05,-2.3437779423208977e-05,-3.9068890220492875e-05,-3.515844144960709e-05,4.2,3.0
2.05859375,-3.027572262912949e-05,-2.5393003808651883e-05,-4.7862057811856285e-05,-3.662218866712445e-05,4.2,3.0
2.0625,-2.8811975411612137e-05,-1.8074267721065098e-05,-3.515844144960709e-05,-4.4923879090562304e-05,4.2,3.0
2.06640625,-1.2208594564736414e-05,-1.562756616769667e-05,-2.6856751026169235e-05,-3.808593588464182e-05,4.2,3.0
2.0703125,-2.5393003808651883e-05,-3.173946984664684e-05,-5.957203555199512e-05,-4.687910347600521e-05,4.2,3.0
2.07421875,-3.1258676964980564e-05,-2.783970536202031e-05,-7.129269757839324e-05,-4.687910347600521e-05,4.2,3.0
2.078125,-2.4912210926985606e-05,-1.2700071732661967e-05,-5.322556951400017e-05,-4.737058064393073e-05,4.2,3.0
2.08203125,-2.5393003808651883e-05,-1.1236324515144588e-05,-4.4443086208896034e-05,-5.3717046681925694e-05,4.2,3.0
2.0859375,-2.3437779423208977e-05,-1.7582790553139572e-05,-3.808593588464182e-05,-4.932580502937364e-05,4.2,3.0
2.08984375,-2.8320498243686584e-05,-2.4420733759060056e-05,-6.348248432288093e-05,-6.0063512719920676e-05,4.2,3.0
2.09375,-2.9303452579537663e-05,-2.2956986541542704e-05,-4.4443086208896034e-05,-5.615306394903487e-05,4.2,3.0
2.09765625,-1.855506060273137e-05,-1.5146773286030395e-05,-4.883432786144809e-05,-4.102411460593578e-05,4.2,3.0
2.1015625,-2.3437779423208977e-05,-2.2956986541542704e-05,-0.0004018538301533532,-6.640997875791564e-05,4.2,3.0
2.10546875,-3.1258676964980564e-05,-3.320321706416422e-05,-0.000566894,-8.105813521934845e-05,4.2,3.0
2.109375,-3.711366583505e-05,-4.1996384655527607e-05,-0.00046337395043411915,-8.056665805142292e-05,4.2,3.0
2.11328125,-3.857741305256735e-05,-4.883432786144809e-05,-0.00042674821713740746,-7.47116691813535e-05,4.2,3.0
2.1171875,-3.320321706416422e-05,-3.9068890220492875e-05,-0.00037450205732967115,-6.299100715495539e-05,4.2,3.0
2.12109375,-3.369469423208974e-05,-3.418617140001527e-05,-0.0003227473746898604,-6.05549898878462e-05,4.2,3.0
2.125,-3.614139578545817e-05,-3.662218866712445e-05,-0.0002822218769085222,-5.859976550240333e-05,4.2,3.0
2.12890625,-3.614139578545817e-05,-3.614139578545817e-05,-0.00025389783403524836,-5.615306394903487e-05,4.2,3.0
2.1328125,-3.760514300297552e-05,-3.662218866712445e-05,-0.0002382774075242237,-4.883432786144809e-05,4.2,3.0
2.13671875,-3.808593588464182e-05,-3.320321706416422e-05,-0.00021387449770809492,-4.590683342641338e-05,4.2,3.0
2.140625,-3.173946984664684e-05,-2.5393003808651883e-05,-0.00017432126997634853,-5.0298075078965463e-05,4.2,3.0
2.14453125,-2.5393003808651883e-05,-2.197403220569163e-05,-0.00015820936629739837,-3.9068890220492875e-05,4.2,3.0
2.1484375,-3.272242418249791e-05,-2.4420733759060056e-05,-0.00015429891752651256,-3.808593588464182e-05,4.2,3.0
2.15234375,-3.956036738841843e-05,-2.9303452579537663e-05,-0.00014844392865644311,-4.4923879090562304e-05,4.2,3.0
2.15625,-3.9068890220492875e-05,-4.4443086208896034e-05,-0.00014257825550011445,-4.297933899137868e-05,4.2,3.0
2.16015625,-3.320321706416422e-05,-4.932580502937364e-05,-0.0001289130533745327,-3.857741305256735e-05,4.2,3.0
2.1640625,-3.5649918617532645e-05,-5.322556951400017e-05,-0.00012256658733653775,-3.711366583505e-05,4.2,3.0
2.16796875,-3.418617140001527e-05,-5.0298075078965463e-05,-0.0001152371669626917,-3.662218866712445e-05,4.2,3.0
2.171875,-2.392925659113453e-05,-3.9068890220492875e-05,-0.00010108048766918441,-3.1258676964980564e-05,4.2,3.0
2.17578125,-2.5393003808651883e-05,-3.808593588464182e-05,-9.424254446326393e-05,-3.173946984664684e-05,4.2,3.0
2.1796875,-2.9303452579537663e-05,-3.5649918617532645e-05,-8.935982564278631e-05,-4.1504907487602053e-05,4.2,3.0
2.18359375,-2.4420733759060056e-05,-3.076719979705504e-05,-7.27564447959106e-05,-3.515844144960709e-05,4.2,3.0
2.1875,-3.614139578545817e-05,-4.541535625848786e-05,-7.568393923094532e-05,-3.076719979705504e-05,4.2,3.0
2.19140625,-4.053263743801025e-05,-5.420852384985125e-05,-8.985130281071185e-05,-4.1504907487602053e-05,4.2,3.0
2.1953125,-3.1258676964980564e-05,-4.638762630807966e-05,-9.424254446326393e-05,-4.395160904097048e-05,4.2,3.0
2.19921875,-3.027572262912949e-05,-3.467764856794082e-05,-8.544937687190054e-05,-3.857741305256735e-05,4.2,3.0
2.203125,-3.9068890220492875e-05,-3.614139578545817e-05,-7.47116691813535e-05,-3.956036738841843e-05,4.2,3.0
2.20703125,-3.418617140001527e-05,-3.662218866712445e-05,-7.47116691813535e-05,-4.053263743801025e-05,4.2,3.0
2.2109375,-2.4420733759060056e-05,-2.8811975411612137e-05,-6.933747319295034e-05,-3.662218866712445e-05,4.2,3.0
2.21484375,-2.5884480976577405e-05,-2.8320498243686584e-05,-5.518079389944307e-05,-4.102411460593578e-05,4.2,3.0
2.21875,-2.783970536202031e-05,-2.9303452579537663e-05,-5.176182229648282e-05,-3.173946984664684e-05,4.2,3.0
2.22265625,-3.076719979705504e-05,-2.9303452579537663e-05,-5.3717046681925694e-05,-2.5884480976577405e-05,4.2,3.0
2.2265625,-3.808593588464182e-05,-3.272242418249791e-05,-5.3717046681925694e-05,-3.369469423208974e-05,4.2,3.0
2.23046875,-4.1996384655527607e-05,-4.590683342641338e-05,-6.103578276951247e-05,-3.173946984664684e-05,4.2,3.0
2.234375,-4.1996384655527607e-05,-5.176182229648282e-05,-7.080122041046771e-05,-3.662218866712445e-05,4.2,3.0
2.23828125,-3.173946984664684e-05,-3.857741305256735e-05,-5.5672271067368596e-05,-2.8811975411612137e-05,4.2,3.0
2.2421875,-2.9794929747463212e-05,-2.7348228194094784e-05,-4.053263743801025e-05,-2.5884480976577405e-05,4.2,3.0
2.24609375,-3.515844144960709e-05,-3.418617140001527e-05,-4.932580502937364e-05,-3.956036738841843e-05,4.2,3.0
2.25,-3.614139578545817e-05,-5.078955224689099e-05,-7.324792196383614e-05,-3.9068890220492875e-05,4.2,3.0
2.25390625,-3.272242418249791e-05,-5.3717046681925694e-05,-7.76391636163882e-05,-3.515844144960709e-05,4.2,3.0
2.2578125,-2.5884480976577405e-05,-4.1996384655527607e-05,-7.129269757839324e-05,-3.320321706416422e-05,4.2,3.0
2.26171875,-3.320321706416422e-05,-4.1996384655527607e-05,-6.787372597543299e-05,-3.369469423208974e-05,4.2,3.0
2.265625,-4.4443086208896034e-05,-4.1996384655527607e-05,-7.080122041046771e-05,-3.2230947014572394e-05,4.2,3.0
2.26953125,-4.590683342641338e-05,-2.8811975411612137e-05,-7.862211795223928e-05,-3.614139578545817e-05,4.2,3.0
2.2734375,-3.956036738841843e-05,-2.783970536202031e-05,-8.056665805142292e-05,-3.662218866712445e-05,4.2,3.0
2.27734375,-4.2487861823453126e-05,-3.418617140001527e-05,-7.373939913176167e-05,-2.6375958144502958e-05,4.2,3.0
2.28125,-5.420852384985125e-05,-3.515844144960709e-05,-6.25102142732891e-05,-2.9794929747463212e-05,4.2,3.0
2.28515625,-4.395160904097048e-05,-2.8320498243686584e-05,-4.053263743801025e-05,-2.7348228194094784e-05,4.2,3.0
2.2890625,-2.6375958144502958e-05,-2.4420733759060056e-05,-2.0510284988174276e-05,-2.8811975411612137e-05,4.2,3.0
2.29296875,-2.2465509373617178e-05,-2.0510284988174276e-05,-2.2956986541542704e-05,-1.953801493858245e-05,4.2,3.0
2.296875,-2.4420733759060056e-05,-1.1236324515144588e-05,-2.3437779423208977e-05,-8.78962296177616e-06,4.2,3.0
2.30078125,-4.053263743801025e-05,-3.711366583505e-05,-2.7348228194094784e-05,-3.418617140001527e-05,4.2,3.0
2.3046875,-4.834285069352256e-05,-5.1270345128557266e-05,-3.076719979705504e-05,-3.662218866712445e-05,4.2,3.0
2.30859375,-4.1504907487602053e-05,-4.4443086208896034e-05,-3.173946984664684e-05,-2.9303452579537663e-05,4.2,3.0
2.3125,-3.808593588464182e-05,-3.956036738841843e-05,-4.00411602700847e-05,-2.6375958144502958e-05,4.2,3.0
2.31640625,-4.3460131873044955e-05,-4.541535625848786e-05,-4.1504907487602053e-05,-2.9303452579537663e-05,4.2,3.0
2.3203125,-4.638762630807966e-05,-4.638762630807966e-05,-2.5393003808651883e-05,-4.102411460593578e-05,4.2,3.0
2.32421875,-3.857741305256735e-05,-3.711366583505e-05,-2.0510284988174276e-05,-3.614139578545817e-05,4.2,3.0
2.328125,-3.076719979705504e-05,-3.5649918617532645e-05,-2.1493239324025352e-05,-2.4912210926985606e-05,4.2,3.0
2.33203125,-2.4420733759060056e-05,-3.1258676964980564e-05,-1.7091313385214022e-05,-2.3437779423208977e-05,4.2,3.0
2.3359375,-3.418617140001527e-05,-5.0298075078965463e-05,-3.662218866712445e-05,-4.102411460593578e-05,4.2,3.0
2.33984375,-4.541535625848786e-05,-5.420852384985125e-05,-4.4443086208896034e-05,-4.980659791103991e-05,4.2,3.0
2.34375,-3.857741305256735e-05,-2.6856751026169235e-05,-9.772577297627236e-06,-3.711366583505e-05,4.2,3.0
2.34765625,-3.369469423208974e-05,-1.8074267721065098e-05,8.294550766765837e-06,-2.8320498243686584e-05,4.2,3.0
2.3515625,-3.467764856794082e-05,-2.3437779423208977e-05,-2.934634091706755e-06,-2.5393003808651883e-05,4.2,3.0
2.35546875,-2.1493239324025352e-05,-1.0264054465552789e-05,7.803073598840286e-06,-5.381335645075183e-06,4.2,3.0
2.359375,-2.2956986541542704e-05,-1.6610520503547746e-05,1.708771835812922e-05,-1.3191548900587492e-05,4.2,3.0
2.36328125,-3.662218866712445e-05,-2.0510284988174276e-05,2.4897931613641532e-05,-4.4923879090562304e-05,4.2,3.0
2.3671875,-3.956036738841843e-05,-1.953801493858245e-05,2.5389408781567082e-05,-4.3460131873044955e-05,4.2,3.0
2.37109375,-3.5649918617532645e-05,-2.9794929747463212e-05,6.8308035492484855e-06,-3.173946984664684e-05,4.2,3.0
2.375,-4.00411602700847e-05,-3.5649918617532645e-05,2.1478960010681305e-05,-2.8811975411612137e-05,4.2,3.0
2.37890625,-3.515844144960709e-05,-3.027572262912949e-05,6.054071057450215e-05,-2.5393003808651883e-05,4.2,3.0
2.3828125,-3.2230947014572394e-05,-3.418617140001527e-05,6.787013094834817e-05,-2.4912210926985606e-05,4.2,3.0
2.38671875,-4.3460131873044955e-05,-3.956036738841843e-05,7.030614821545736e-05,-2.5393003808651883e-05,4.2,3.0
2.390625,-4.4923879090562304e-05,-3.711366583505e-05,8.007158585641258e-05,-2.9303452579537663e-05,4.2,3.0
2.39453125,-4.297933899137868e-05,-3.956036738841843e-05,9.27645179324025e-05,-2.1493239324025352e-05,4.2,3.0
2.3984375,-4.053263743801025e-05,-2.4912210926985606e-05,0.0001181610663706416,-5.381335645075183e-06,4.2,3.0
2.40234375,-3.173946984664684e-05,-1.2208594564736414e-05,0.0001323177456641489,-7.325875744258809e-06,4.2,3.0
2.40625,-3.760514300297552e-05,-2.4912210926985606e-05,0.00012547980245822837,-2.4420733759060056e-05,4.2,3.0
2.41015625,-4.4923879090562304e-05,-2.3437779423208977e-05,0.00012646275679407948,-2.9303452579537663e-05,4.2,3.0
2.4140625,-4.053263743801025e-05,-1.562756616769667e-05,0.00012352457807278551,-1.6119043335622193e-05,4.2,3.0
2.41796875,-3.711366583505e-05,-2.5884480976577405e-05,0.00011717811203479055,-1.9046537770656924e-05,4.2,3.0
2.421875,-3.5649918617532645e-05,-2.0510284988174276e-05,0.00012646275679407948,-2.5884480976577405e-05,4.2,3.0
2.42578125,-3.662218866712445e-05,-2.2465509373617178e-05,0.00012988172839703975,-3.076719979705504e-05,4.2,3.0
2.4296875,-3.467764856794082e-05,-2.783970536202031e-05,0.00011327834755016402,-3.515844144960709e-05,4.2,3.0
2.43359375,-3.9068890220492875e-05,-2.4912210926985606e-05,0.00010448517995880064,-3.5649918617532645e-05,4.2,3.0
2.4375,-4.7862057811856285e-05,-2.8811975411612137e-05,0.00010106620835584038,-4.00411602700847e-05,4.2,3.0
2.44140625,-4.932580502937364e-05,-3.320321706416422e-05,0.00010058541547417405,-4.2487861823453126e-05,4.2,3.0
2.4453125,-4.4923879090562304e-05,-2.4420733759060056e-05,9.130077071488517e-05,-2.9794929747463212e-05,4.2,3.0
2.44921875,-4.00411602700847e-05,-2.6375958144502958e-05,7.56803442038605e-05,-2.4912210926985606e-05,4.2,3.0
2.453125,-3.956036738841843e-05,-2.5884480976577405e-05,6.737865378042267e-05,-3.369469423208974e-05,4.2,3.0
2.45703125,-4.00411602700847e-05,-2.10017621560998e-05,6.445115934538796e-05,-3.369469423208974e-05,4.2,3.0
2.4609375,-4.297933899137868e-05,-3.2230947014572394e-05,5.174754298313877e-05,-3.5649918617532645e-05,4.2,3.0
2.46484375,-4.1504907487602053e-05,-3.320321706416422e-05,4.0518358124666174e-05,-4.00411602700847e-05,4.2,3.0
2.46875,-4.1996384655527607e-05,-2.2956986541542704e-05,4.4920284063477476e-05,-4.102411460593578e-05,4.2,3.0
2.47265625,-4.053263743801025e-05,-4.102411460593578e-05,3.319962203707939e-05,-4.2487861823453126e-05,4.2,3.0
2.4765625,-3.2230947014572394e-05,-4.395160904097048e-05,1.562397114061187e-05,-4.102411460593578e-05,4.2,3.0
2.48046875,-3.418617140001527e-05,-3.1258676964980564e-05,1.8551465575646574e-05,-3.9068890220492875e-05,4.2,3.0
2.484375,-3.9068890220492875e-05,-4.102411460593578e-05,1.0741252320134265e-05,-4.1504907487602053e-05,4.2,3.0
2.48828125,-3.369469423208974e-05,-5.0298075078965463e-05,6.339326381322933e-06,-3.418617140001527e-05,4.2,3.0
2.4921875,-3.956036738841843e-05,-5.078955224689099e-05,1.4566075608453275e-06,-4.00411602700847e-05,4.2,3.0
2.49609375,-3.5649918617532645e-05,-4.2487861823453126e-05,-1.1236324515144588e-05,-4.1996384655527607e-05,4.2,3.0
2.5,-1.953801493858245e-05,-2.0510284988174276e-05,-4.398381309224106e-06,-2.8320498243686584e-05,4.2,3.0
2.50390625,-3.369469423208974e-05,-3.027572262912949e-05,-1.7091313385214022e-05,-4.00411602700847e-05,4.2,3.0
2.5078125,-4.395160904097048e-05,-4.1504907487602053e-05,-4.541535625848786e-05,-5.176182229648282e-05,4.2,3.0
2.51171875,-4.3460131873044955e-05,-4.541535625848786e-05,-5.274477663233389e-05,-4.1504907487602053e-05,4.2,3.0
2.515625,-4.395160904097048e-05,-4.7862057811856285e-05,-4.7862057811856285e-05,-4.102411460593578e-05,4.2,3.0
2.51953125,-4.053263743801025e-05,-4.102411460593578e-05,-5.0298075078965463e-05,-3.5649918617532645e-05,4.2,3.0
2.5234375,-4.053263743801025e-05,-4.3460131873044955e-05,-5.468931673151752e-05,-3.614139578545817e-05,4.2,3.0
2.52734375,-3.173946984664684e-05,-3.662218866712445e-05,-5.468931673151752e-05,-3.272242418249791e-05,4.2,3.0
2.53125,-3.2230947014572394e-05,-3.320321706416422e-05,-6.54377087083238e-05,-2.392925659113453e-05,4.2,3.0
2.53515625,-3.320321706416422e-05,-4.3460131873044955e-05,-7.910291083390555e-05,-3.5649918617532645e-05,4.2,3.0
2.5390625,-3.418617140001527e-05,-5.322556951400017e-05,-8.105813521934845e-05,-4.7862057811856285e-05,4.2,3.0
2.54296875,-4.00411602700847e-05,-4.2487861823453126e-05,-7.129269757839324e-05,-4.4923879090562304e-05,4.2,3.0
2.546875,-3.9068890220492875e-05,-3.515844144960709e-05,-6.54377087083238e-05,-4.297933899137868e-05,4.2,3.0
2.55078125,-4.1504907487602053e-05,-4.1996384655527607e-05,-7.373939913176167e-05,-4.00411602700847e-05,4.2,3.0
2.5546875,-4.590683342641338e-05,-3.369469423208974e-05,-8.594085403982606e-05,-3.076719979705504e-05,4.2,3.0
2.55859375,-4.00411602700847e-05,-3.760514300297552e-05,-6.885668031128407e-05,-3.760514300297552e-05,4.2,3.0
2.5625,-3.662218866712445e-05,-4.737058064393073e-05,-6.494623154039829e-05,-4.053263743801025e-05,4.2,3.0
2.56640625,-3.515844144960709e-05,-4.541535625848786e-05,-7.373939913176167e-05,-3.662218866712445e-05,4.2,3.0
2.5703125,-3.956036738841843e-05,-4.834285069352256e-05,-7.76391636163882e-05,-4.932580502937364e-05,4.2,3.0
2.57421875,-3.662218866712445e-05,-4.4443086208896034e-05,-7.129269757839324e-05,-5.225329946440834e-05,4.2,3.0
2.578125,-2.4912210926985606e-05,-3.320321706416422e-05,-6.152725993743802e-05,-4.395160904097048e-05,4.2,3.0
2.58203125,-2.8320498243686584e-05,-3.467764856794082e-05,-6.299100715495539e-05,-4.834285069352256e-05,4.2,3.0
2.5859375,-2.392925659113453e-05,-3.418617140001527e-05,-5.274477663233389e-05,-4.834285069352256e-05,4.2,3.0
2.58984375,-2.1493239324025352e-05,-3.5649918617532645e-05,-5.225329946440834e-05,-4.1504907487602053e-05,4.2,3.0
2.59375,-2.2956986541542704e-05,-3.9068890220492875e-05,-6.201873710536355e-05,-3.662218866712445e-05,4.2,3.0
2.59765625,-2.2956986541542704e-05,-4.00411602700847e-05,-6.0063512719920676e-05,-3.467764856794082e-05,4.2,3.0
2.6015625,-2.6856751026169235e-05,-3.614139578545817e-05,-4.541535625848786e-05,-3.515844144960709e-05,4.2,3.0
2.60546875,-2.783970536202031e-05,-2.5393003808651883e-05,-2.9794929747463212e-05,-4.590683342641338e-05,4.2,3.0
2.609375,-1.8074267721065098e-05,-2.6375958144502958e-05,-5.274477663233389e-05,-3.711366583505e-05,4.2,3.0
2.61328125,-1.9046537770656924e-05,-4.590683342641338e-05,-6.299100715495539e-05,-2.6375958144502958e-05,4.2,3.0
2.6171875,-2.5884480976577405e-05,-4.297933899137868e-05,-4.932580502937364e-05,-4.4443086208896034e-05,4.2,3.0
2.62109375,-3.173946984664684e-05,-3.076719979705504e-05,-4.737058064393073e-05,-4.687910347600521e-05,4.2,3.0
2.625,-3.857741305256735e-05,-3.760514300297552e-05,-4.541535625848786e-05,-2.4420733759060056e-05,4.2,3.0
2.62890625,-3.857741305256735e-05,-4.687910347600521e-05,-5.176182229648282e-05,-2.1493239324025352e-05,4.2,3.0
2.6328125,-4.053263743801025e-05,-4.541535625848786e-05,-5.615306394903487e-05,-1.953801493858245e-05,4.2,3.0
2.63671875,-5.225329946440834e-05,-4.932580502937364e-05,-6.0063512719920676e-05,-1.5146773286030395e-05,4.2,3.0
2.640625,-5.76274954528115e-05,-5.322556951400017e-05,-5.6644541116960425e-05,-8.308830080109885e-06,4.2,3.0
2.64453125,-5.225329946440834e-05,-4.932580502937364e-05,-4.053263743801025e-05,5.8585334996566585e-06,4.2,3.0
2.6484375,-5.468931673151752e-05,-4.980659791103991e-05,-3.1258676964980564e-05,1.4566075608453275e-06,4.2,3.0
2.65234375,-6.397396149080645e-05,-4.834285069352256e-05,-3.1258676964980564e-05,2.4395618966964036e-06,4.2,3.0
2.65625,-7.178417474631876e-05,-5.6644541116960425e-05,-4.590683342641338e-05,1.9042942743572127e-05,4.2,3.0
2.66015625,-7.373939913176167e-05,-5.468931673151752e-05,-4.541535625848786e-05,2.6853155999084434e-05,4.2,3.0
2.6640625,-7.373939913176167e-05,-4.541535625848786e-05,-3.272242418249791e-05,2.2451230060273104e-05,4.2,3.0
2.66796875,-7.324792196383614e-05,-4.590683342641338e-05,-2.392925659113453e-05,2.9780650434119138e-05,4.2,3.0
2.671875,-7.129269757839324e-05,-4.541535625848786e-05,-2.2465509373617178e-05,4.8820048548104064e-05,4.2,3.0
2.67578125,-8.350483677271688e-05,-5.518079389944307e-05,-3.9068890220492875e-05,4.6864824162661135e-05,4.2,3.0
2.6796875,-9.033209569237812e-05,-6.152725993743802e-05,-4.053263743801025e-05,4.393732972762643e-05,4.2,3.0
2.68359375,-8.838755559319449e-05,-6.494623154039829e-05,-3.076719979705504e-05,5.0283795765621386e-05,4.2,3.0
2.6875,-8.838755559319449e-05,-6.787372597543299e-05,-3.662218866712445e-05,5.4194244536507197e-05,4.2,3.0
2.69140625,-8.985130281071185e-05,-6.348248432288093e-05,-3.711366583505e-05,5.126675010147249e-05,4.2,3.0
2.6953125,-8.740460125734341e-05,-5.6644541116960425e-05,-2.3437779423208977e-05,4.8339255666437734e-05,4.2,3.0
2.69921875,-8.789607842526896e-05,-5.078955224689099e-05,-1.855506060273137e-05,6.00492334065766e-05,4.2,3.0
2.703125,-7.95943880018311e-05,-4.1504907487602053e-05,-1.172780168307014e-05,5.2730497318989814e-05,4.2,3.0
2.70703125,-7.422019201342795e-05,-4.297933899137868e-05,-1.2208594564736414e-05,3.954608807507435e-05,4.2,3.0
2.7109375,-8.154961238727398e-05,-5.3717046681925694e-05,-2.3437779423208977e-05,4.0518358124666174e-05,4.2,3.0
2.71484375,-8.056665805142292e-05,-5.322556951400017e-05,-2.8811975411612137e-05,4.0518358124666174e-05,4.2,3.0
2.71875,-7.617541639887085e-05,-4.7862057811856285e-05,-2.783970536202031e-05,3.9054610907148825e-05,4.2,3.0
2.72265625,-7.080122041046771e-05,-3.662218866712445e-05,-8.308830080109885e-06,4.0037565242999904e-05,4.2,3.0
2.7265625,-6.54377087083238e-05,-3.9068890220492875e-05,-1.6119043335622193e-05,3.709938652170592e-05,4.2,3.0
2.73046875,-7.373939913176167e-05,-6.445475437247274e-05,-4.932580502937364e-05,2.1478960010681305e-05,4.2,3.0
2.734375,-7.568393923094532e-05,-6.25102142732891e-05,-5.7136018284885944e-05,1.7568511239795498e-05,4.2,3.0
2.73828125,-6.591850158999011e-05,-4.1996384655527607e-05,-3.467764856794082e-05,2.1478960010681305e-05,4.2,3.0
2.7421875,-6.397396149080645e-05,-4.932580502937364e-05,-3.076719979705504e-05,1.7568511239795498e-05,4.2,3.0
2.74609375,-6.445475437247274e-05,-5.8108288334477774e-05,-4.3460131873044955e-05,8.786027934691361e-06,4.2,3.0
2.75,-5.274477663233389e-05,-4.687910347600521e-05,-3.808593588464182e-05,1.65962411902037e-05,4.2,3.0
2.75390625,-5.078955224689099e-05,-4.687910347600521e-05,-3.711366583505e-05,1.805998840772105e-05,4.2,3.0
2.7578125,-6.0063512719920676e-05,-4.834285069352256e-05,-4.834285069352256e-05,1.2204999537651615e-05,4.2,3.0
2.76171875,-5.859976550240333e-05,-4.1504907487602053e-05,-4.102411460593578e-05,1.0741252320134265e-05,4.2,3.0
2.765625,-4.687910347600521e-05,-3.857741305256735e-05,-3.1258676964980564e-05,1.3177269587243443e-05,4.2,3.0
2.76953125,-5.0298075078965463e-05,-4.1996384655527607e-05,-4.297933899137868e-05,4.875579163805582e-06,4.2,3.0
2.7734375,-5.859976550240333e-05,-5.1270345128557266e-05,-6.25102142732891e-05,-6.353605694666981e-06,4.2,3.0
2.77734375,-4.980659791103991e-05,-3.320321706416422e-05,-5.8108288334477774e-05,1.9480847287708513e-06,4.2,3.0
2.78125,-4.1996384655527607e-05,-1.6610520503547746e-05,-4.638762630807966e-05,-3.906904141298554e-06,4.2,3.0
2.78515625,-4.2487861823453126e-05,-2.1493239324025352e-05,-5.420852384985125e-05,-1.855506060273137e-05,4.2,3.0
2.7890625,-3.711366583505e-05,-2.0029492106508e-05,-6.0063512719920676e-05,-1.9046537770656924e-05,4.2,3.0
2.79296875,-3.418617140001527e-05,-1.8074267721065098e-05,-7.080122041046771e-05,-1.953801493858245e-05,4.2,3.0
2.796875,-2.8320498243686584e-05,-6.353605694666981e-06,-7.373939913176167e-05,-1.8074267721065098e-05,4.2,3.0
2.80078125,-3.760514300297552e-05,-6.845082862592534e-06,-5.7136018284885944e-05,-2.197403220569163e-05,4.2,3.0
2.8046875,-4.7862057811856285e-05,-2.8811975411612137e-05,-6.05549898878462e-05,-2.0510284988174276e-05,4.2,3.0
2.80859375,-4.102411460593578e-05,-3.662218866712445e-05,-7.178417474631876e-05,-2.10017621560998e-05,4.2,3.0
2.8125,-3.857741305256735e-05,-2.9303452579537663e-05,-6.885668031128407e-05,-2.4420733759060056e-05,4.2,3.0
2.81640625,-4.395160904097048e-05,-3.515844144960709e-05,-6.885668031128407e-05,-2.2956986541542704e-05,4.2,3.0
2.8203125,-4.883432786144809e-05,-4.638762630807966e-05,-6.982895036087589e-05,-2.4420733759060056e-05,4.2,3.0
2.82421875,-4.1996384655527607e-05,-4.1996384655527607e-05,-6.0063512719920676e-05,-2.1493239324025352e-05,4.2,3.0
2.828125,-3.173946984664684e-05,-4.00411602700847e-05,-6.348248432288093e-05,-2.0510284988174276e-05,4.2,3.0
2.83203125,-2.9794929747463212e-05,-4.1504907487602053e-05,-8.008586516975663e-05,-2.5393003808651883e-05,4.2,3.0
2.8359375,-3.956036738841843e-05,-4.590683342641338e-05,-8.398562965438316e-05,-2.4420733759060056e-05,4.2,3.0
2.83984375,-3.662218866712445e-05,-4.4923879090562304e-05,-7.910291083390555e-05,-1.3672341782253767e-05,4.2,3.0
2.84375,-3.173946984664684e-05,-3.272242418249791e-05,-6.299100715495539e-05,-1.6610520503547746e-05,4.2,3.0
2.84765625,-4.297933899137868e-05,-4.053263743801025e-05,-6.54377087083238e-05,-2.7348228194094784e-05,4.2,3.0
2.8515625,-4.395160904097048e-05,-4.687910347600521e-05,-8.447710682230871e-05,-2.392925659113453e-05,4.2,3.0
2.85546875,-3.662218866712445e-05,-3.662218866712445e-05,-7.862211795223928e-05,-2.1493239324025352e-05,4.2,3.0
2.859375,-3.662218866712445e-05,-3.2230947014572394e-05,-6.348248432288093e-05,-1.855506060273137e-05,4.2,3.0
2.86328125,-4.102411460593578e-05,-3.857741305256735e-05,-6.348248432288093e-05,-1.8074267721065098e-05,4.2,3.0
2.8671875,-4.4923879090562304e-05,-4.395160904097048e-05,-7.568393923094532e-05,-2.6856751026169235e-05,4.2,3.0
2.87109375,-3.9068890220492875e-05,-3.956036738841843e-05,-7.813064078431375e-05,-2.9794929747463212e-05,4.2,3.0
2.875,-3.027572262912949e-05,-3.027572262912949e-05,-7.129269757839324e-05,-3.027572262912949e-05,4.2,3.0
2.87890625,-3.272242418249791e-05,-2.5884480976577405e-05,-6.25102142732891e-05,-3.857741305256735e-05,4.2,3.0
2.8828125,-2.2956986541542704e-05,-1.953801493858245e-05,-4.883432786144809e-05,-2.783970536202031e-05,4.2,3.0
2.88671875,-1.7091313385214022e-05,-1.7091313385214022e-05,-4.053263743801025e-05,-2.0510284988174276e-05,4.2,3.0
2.890625,-3.320321706416422e-05,-2.9303452579537663e-05,-4.932580502937364e-05,-3.2230947014572394e-05,4.2,3.0
2.89453125,-3.614139578545817e-05,-3.320321706416422e-05,-6.836520314335854e-05,-2.5884480976577405e-05,4.2,3.0
2.8984375,-3.369469423208974e-05,-2.5393003808651883e-05,-6.787372597543299e-05,-3.272242418249791e-05,4.2,3.0
2.90234375,-3.467764856794082e-05,-2.9794929747463212e-05,-6.05549898878462e-05,-3.369469423208974e-05,4.2,3.0
2.90625,-4.2487861823453126e-05,-4.687910347600521e-05,-7.129269757839324e-05,-2.7348228194094784e-05,4.2,3.0
2.91015625,-4.297933899137868e-05,-4.687910347600521e-05,-7.032042752880141e-05,-2.7348228194094784e-05,4.2,3.0
2.9140625,-3.418617140001527e-05,-4.1504907487602053e-05,-6.494623154039829e-05,-1.7091313385214022e-05,4.2,3.0
2.91796875,-3.320321706416422e-05,-3.614139578545817e-05,-5.274477663233389e-05,-1.6610520503547746e-05,4.2,3.0
2.921875,-3.076719979705504e-05,-2.783970536202031e-05,-4.4923879090562304e-05,-1.3191548900587492e-05,4.2,3.0
2.92578125,-3.173946984664684e-05,-3.467764856794082e-05,-5.6644541116960425e-05,-2.5393003808651883e-05,4.2,3.0
2.9296875,-3.956036738841843e-05,-3.5649918617532645e-05,-6.299100715495539e-05,-4.541535625848786e-05,4.2,3.0
2.93359375,-4.1996384655527607e-05,-2.783970536202031e-05,-4.834285069352256e-05,-4.541535625848786e-05,4.2,3.0
2.9375,-3.808593588464182e-05,-3.1258676964980564e-05,-4.1504907487602053e-05,-3.662218866712445e-05,4.2,3.0
2.94140625,-4.297933899137868e-05,-3.808593588464182e-05,-5.225329946440834e-05,-2.8320498243686584e-05,4.2,3.0
2.9453125,-4.541535625848786e-05,-3.515844144960709e-05,-5.3717046681925694e-05,-3.1258676964980564e-05,4.2,3.0
2.94921875,-4.1504907487602053e-05,-3.173946984664684e-05,-6.152725993743802e-05,-3.760514300297552e-05,4.2,3.0
2.953125,-3.711366583505e-05,-4.834285069352256e-05,-6.982895036087589e-05,-3.711366583505e-05,4.2,3.0
2.95703125,-3.2230947014572394e-05,-5.76274954528115e-05,-7.568393923094532e-05,-4.2487861823453126e-05,4.2,3.0
2.9609375,-3.1258676964980564e-05,-4.102411460593578e-05,-6.103578276951247e-05,-3.956036738841843e-05,4.2,3.0
2.96484375,-2.8811975411612137e-05,-2.8320498243686584e-05,-4.2487861823453126e-05,-2.9794929747463212e-05,4.2,3.0
2.96875,-2.6856751026169235e-05,-3.662218866712445e-05,-5.76274954528115e-05,-3.369469423208974e-05,4.2,3.0
2.97265625,-2.197403220569163e-05,-3.5649918617532645e-05,-6.0063512719920676e-05,-3.272242418249791e-05,4.2,3.0
2.9765625,-2.197403220569163e-05,-2.6856751026169235e-05,-5.615306394903487e-05,-3.173946984664684e-05,4.2,3.0
2.98046875,-3.173946984664684e-05,-2.8320498243686584e-05,-4.590683342641338e-05,-3.9068890220492875e-05,4.2,3.0
2.984375,-3.076719979705504e-05,-3.2230947014572394e-05,-4.4923879090562304e-05,-3.5649918617532645e-05,4.2,3.0
2.98828125,-2.2956986541542704e-05,-2.2956986541542704e-05,-4.297933899137868e-05,-2.6856751026169235e-05,4.2,3.0
2.9921875,-2.783970536202031e-05,-2.6375958144502958e-05,-4.2487861823453126e-05,-2.783970536202031e-05,4.2,3.0
2.99609375,-3.711366583505e-05,-4.1504907487602053e-05,-5.7136018284885944e-05,-4.102411460593578e-05,4.2,3.0
3.0,-3.515844144960709e-05,-4.00411602700847e-05,-4.883432786144809e-05,-4.4923879090562304e-05,4.2,3.0
3.00390625,-3.076719979705504e-05,-3.076719979705504e-05,-3.467764856794082e-05,-3.711366583505e-05,4.2,3.0
3.0078125,-2.4420733759060056e-05,-2.2956986541542704e-05,-2.8811975411612137e-05,-3.369469423208974e-05,4.2,3.0
3.01171875,-3.173946984664684e-05,-3.9068890220492875e-05,-4.883432786144809e-05,-4.102411460593578e-05,4.2,3.0
3.015625,-3.9068890220492875e-05,-5.5672271067368596e-05,-6.445475437247274e-05,-4.883432786144809e-05,4.2,3.0
3.01953125,-3.1258676964980564e-05,-4.590683342641338e-05,-5.420852384985125e-05,-4.4443086208896034e-05,4.2,3.0
3.0234375,-2.392925659113453e-05,-3.272242418249791e-05,-3.369469423208974e-05,-3.467764856794082e-05,4.2,3.0
3.02734375,-1.7582790553139572e-05,-3.515844144960709e-05,-2.6856751026169235e-05,-2.9303452579537663e-05,4.2,3.0
3.03125,-1.855506060273137e-05,-3.808593588464182e-05,-4.053263743801025e-05,-2.8811975411612137e-05,4.2,3.0
3.03515625,-2.4420733759060056e-05,-3.760514300297552e-05,-5.1270345128557266e-05,-3.369469423208974e-05,4.2,3.0
3.0390625,-3.027572262912949e-05,-4.2487861823453126e-05,-4.932580502937364e-05,-4.1504907487602053e-05,4.2,3.0
3.04296875,-2.9794929747463212e-05,-3.956036738841843e-05,-3.467764856794082e-05,-4.1996384655527607e-05,4.2,3.0
3.046875,-2.197403220569163e-05,-3.272242418249791e-05,-2.4420733759060056e-05,-3.320321706416422e-05,4.2,3.0
3.05078125,-2.7348228194094784e-05,-3.5649918617532645e-05,-3.320321706416422e-05,-3.956036738841843e-05,4.2,3.0
3.0546875,-3.711366583505e-05,-3.760514300297552e-05,-4.1996384655527607e-05,-4.883432786144809e-05,4.2,3.0
3.05859375,-3.760514300297552e-05,-3.711366583505e-05,-2.7348228194094784e-05,-4.102411460593578e-05,4.2,3.0
3.0625,-3.760514300297552e-05,-3.467764856794082e-05,-1.562756616769667e-05,-3.760514300297552e-05,4.2,3.0
3.06640625,-4.102411460593578e-05,-3.173946984664684e-05,-1.4655296118104842e-05,-4.1996384655527607e-05,4.2,3.0
3.0703125,-3.711366583505e-05,-3.173946984664684e-05,-1.9623640421149274e-06,-3.662218866712445e-05,4.2,3.0
3.07421875,-2.9794929747463212e-05,-2.4912210926985606e-05,-1.0264054465552789e-05,-2.392925659113453e-05,4.2,3.0
3.078125,-3.614139578545817e-05,-2.9794929747463212e-05,-2.2465509373617178e-05,-3.272242418249791e-05,4.2,3.0
3.08203125,-3.320321706416422e-05,-4.4923879090562304e-05,-1.9046537770656924e-05,-4.102411460593578e-05,4.2,3.0
3.0859375,-2.0029492106508e-05,-4.980659791103991e-05,-2.2465509373617178e-05,-3.614139578545817e-05,4.2,3.0
3.08984375,-3.272242418249791e-05,-6.05549898878462e-05,-3.467764856794082e-05,-4.00411602700847e-05,4.2,3.0
3.09375,-3.614139578545817e-05,-5.6644541116960425e-05,-3.9068890220492875e-05,-4.590683342641338e-05,4.2,3.0
3.09765625,-3.1258676964980564e-05,-5.3717046681925694e-05,-3.2230947014572394e-05,-5.0298075078965463e-05,4.2,3.0
3.1015625,-3.369469423208974e-05,-4.7862057811856285e-05,-8.78962296177616e-06,-4.3460131873044955e-05,4.2,3.0
3.10546875,-3.662218866712445e-05,-3.760514300297552e-05,6.8308035492484855e-06,-3.5649918617532645e-05,4.2,3.0
3.109375,-3.467764856794082e-05,-4.297933899137868e-05,1.4566075608453275e-06,-3.857741305256735e-05,4.2,3.0
3.11328125,-3.5649918617532645e-05,-4.737058064393073e-05,-3.4261112596322787e-06,-4.638762630807966e-05,4.2,3.0
3.1171875,-3.5649918617532645e-05,-4.102411460593578e-05,6.339326381322933e-06,-4.687910347600521e-05,4.2,3.0
3.12109375,-3.515844144960709e-05,-4.00411602700847e-05,1.1713522369726093e-05,-4.4923879090562304e-05,4.2,3.0
3.125,-3.418617140001527e-05,-3.418617140001527e-05,2.0506689961089475e-05,-3.808593588464182e-05,4.2,3.0
3.12890625,-2.8320498243686584e-05,-2.4420733759060056e-05,3.1244397651636514e-05,-2.8811975411612137e-05,4.2,3.0
3.1328125,-3.808593588464182e-05,-3.662218866712445e-05,1.805998840772105e-05,-2.9303452579537663e-05,4.2,3.0
3.13671875,-3.662218866712445e-05,-3.272242418249791e-05,1.1713522369726093e-05,-2.8320498243686584e-05,4.2,3.0
3.140625,-3.076719979705504e-05,-2.197403220569163e-05,2.0987482842755752e-05,-2.5884480976577405e-05,4.2,3.0
3.14453125,-4.102411460593578e-05,-3.1258676964980564e-05,1.0741252320134265e-05,-3.760514300297552e-05,4.2,3.0
3.1484375,-3.076719979705504e-05,-4.053263743801025e-05,4.843375112535e-07,-4.053263743801025e-05,4.2,3.0
3.15234375,-2.3437779423208977e-05,-4.737058064393073e-05,-1.1236324515144588e-05,-3.272242418249791e-05,4.2,3.0
3.15625,-2.8320498243686584e-05,-4.590683342641338e-05,-2.3437779423208977e-05,-3.5649918617532645e-05,4.2,3.0
3.16015625,-3.515844144960709e-05,-3.857741305256735e-05,-2.7348228194094784e-05,-4.1996384655527607e-05,4.2,3.0
3.1640625,-2.9794929747463212e-05,-3.760514300297552e-05,-2.8811975411612137e-05,-3.711366583505e-05,4.2,3.0
3.16796875,-1.7091313385214022e-05,-3.614139578545817e-05,-2.7348228194094784e-05,-3.076719979705504e-05,4.2,3.0
3.171875,-2.5393003808651883e-05,-3.808593588464182e-05,-3.711366583505e-05,-4.1996384655527607e-05,4.2,3.0
3.17578125,-3.5649918617532645e-05,-4.102411460593578e-05,-3.614139578545817e-05,-5.3717046681925694e-05,4.2,3.0
3.1796875,-3.808593588464182e-05,-4.053263743801025e-05,-3.760514300297552e-05,-5.420852384985125e-05,4.2,3.0
3.18359375,-3.076719979705504e-05,-2.7348228194094784e-05,-3.027572262912949e-05,-4.737058064393073e-05,4.2,3.0
3.1875,-2.10017621560998e-05,-1.2700071732661967e-05,-1.6610520503547746e-05,-4.541535625848786e-05,4.2,3.0
3.19140625,-1.9046537770656924e-05,-1.172780168307014e-05,-1.8074267721065098e-05,-4.395160904097048e-05,4.2,3.0
3.1953125,-1.9046537770656924e-05,-2.10017621560998e-05,-2.2956986541542704e-05,-4.1504907487602053e-05,4.2,3.0
3.19921875,-3.2230947014572394e-05,-3.857741305256735e-05,-3.1258676964980564e-05,-4.7862057811856285e-05,4.2,3.0
3.203125,-3.173946984664684e-05,-2.783970536202031e-05,-2.2465509373617178e-05,-3.956036738841843e-05,4.2,3.0
3.20703125,-2.197403220569163e-05,-1.855506060273137e-05,-1.0744847347219064e-05,-3.173946984664684e-05,4.2,3.0
3.2109375,-3.272242418249791e-05,-4.638762630807966e-05,-3.662218866712445e-05,-4.7862057811856285e-05,4.2,3.0
3.21484375,-3.614139578545817e-05,-5.518079389944307e-05,-5.5672271067368596e-05,-4.980659791103991e-05,4.2,3.0
3.21875,-2.6375958144502958e-05,-3.467764856794082e-05,-3.272242418249791e-05,-4.687910347600521e-05,4.2,3.0
3.22265625,-2.8320498243686584e-05,-3.320321706416422e-05,-1.8074267721065098e-05,-4.00411602700847e-05,4.2,3.0
3.2265625,-2.9303452579537663e-05,-3.711366583505e-05,-2.2956986541542704e-05,-3.272242418249791e-05,4.2,3.0
3.23046875,-2.392925659113453e-05,-3.760514300297552e-05,-2.9303452579537663e-05,-3.711366583505e-05,4.2,3.0
3.234375,-3.369469423208974e-05,-5.0298075078965463e-05,-4.053263743801025e-05,-4.297933899137868e-05,4.2,3.0
3.23828125,-3.711366583505e-05,-4.1996384655527607e-05,-4.053263743801025e-05,-4.541535625848786e-05,4.2,3.0
3.2421875,-2.4420733759060056e-05,-3.711366583505e-05,-4.638762630807966e-05,-4.980659791103991e-05,4.2,3.0
3.24609375,-2.0029492106508e-05,-3.808593588464182e-05,-4.2487861823453126e-05,-4.1996384655527607e-05,4.2,3.0
3.25,-3.173946984664684e-05,-4.687910347600521e-05,-5.6644541116960425e-05,-4.4443086208896034e-05,4.2,3.0
3.25390625,-3.1258676964980564e-05,-5.518079389944307e-05,-7.76391636163882e-05,-5.7136018284885944e-05,4.2,3.0
3.2578125,-2.5884480976577405e-05,-4.4923879090562304e-05,-6.348248432288093e-05,-4.932580502937364e-05,4.2,3.0
3.26171875,-3.1258676964980564e-05,-3.9068890220492875e-05,-4.737058064393073e-05,-4.395160904097048e-05,4.2,3.0
3.265625,-3.320321706416422e-05,-3.711366583505e-05,-2.9794929747463212e-05,-5.322556951400017e-05,4.2,3.0
3.26953125,-3.076719979705504e-05,-3.027572262912949e-05,-2.8811975411612137e-05,-4.590683342641338e-05,4.2,3.0
3.2734375,-3.467764856794082e-05,-4.102411460593578e-05,-5.1270345128557266e-05,-3.467764856794082e-05,4.2,3.0
3.27734375,-4.00411602700847e-05,-4.980659791103991e-05,-6.690145592584116e-05,-3.515844144960709e-05,4.2,3.0
3.28125,-3.2230947014572394e-05,-4.00411602700847e-05,-4.638762630807966e-05,-3.320321706416422e-05,4.2,3.0
3.28515625,-3.614139578545817e-05,-4.638762630807966e-05,-3.711366583505e-05,-3.760514300297552e-05,4.2,3.0
3.2890625,-4.4923879090562304e-05,-5.225329946440834e-05,-5.322556951400017e-05,-3.272242418249791e-05,4.2,3.0
3.29296875,-4.541535625848786e-05,-5.1270345128557266e-05,-5.3717046681925694e-05,-2.8811975411612137e-05,4.2,3.0
3.296875,-4.4443086208896034e-05,-4.638762630807966e-05,-5.0298075078965463e-05,-2.9794929747463212e-05,4.2,3.0
3.30078125,-4.1996384655527607e-05,-4.1504907487602053e-05,-4.737058064393073e-05,-3.272242418249791e-05,4.2,3.0
3.3046875,-3.808593588464182e-05,-3.467764856794082e-05,-4.4923879090562304e-05,-2.9794929747463212e-05,4.2,3.0
3.30859375,-4.737058064393073e-05,-3.956036738841843e-05,-5.518079389944307e-05,-3.9068890220492875e-05,4.2,3.0
3.3125,-5.1270345128557266e-05,-5.322556951400017e-05,-6.787372597543299e-05,-4.590683342641338e-05,4.2,3.0
3.31640625,-4.541535625848786e-05,-4.4443086208896034e-05,-6.690145592584116e-05,-4.102411460593578e-05,4.2,3.0
3.3203125,-3.173946984664684e-05,-2.6375958144502958e-05,-5.078955224689099e-05,-3.515844144960709e-05,4.2,3.0
3.32421875,-3.369469423208974e-05,-2.197403220569163e-05,-4.737058064393073e-05,-3.027572262912949e-05,4.2,3.0
3.328125,-3.9068890220492875e-05,-2.9303452579537663e-05,-6.201873710536355e-05,-2.8811975411612137e-05,4.2,3.0
3.33203125,-3.076719979705504e-05,-3.418617140001527e-05,-6.982895036087589e-05,-2.7348228194094784e-05,4.2,3.0
3.3359375,-3.614139578545817e-05,-3.467764856794082e-05,-6.348248432288093e-05,-3.1258676964980564e-05,4.2,3.0
3.33984375,-3.5649918617532645e-05,-4.2487861823453126e-05,-5.76274954528115e-05,-3.5649918617532645e-05,4.2,3.0
3.34375,-2.783970536202031e-05,-4.834285069352256e-05,-5.274477663233389e-05,-3.027572262912949e-05,4.2,3.0
3.34765625,-3.760514300297552e-05,-4.7862057811856285e-05,-5.078955224689099e-05,-3.272242418249791e-05,4.2,3.0
3.3515625,-3.662218866712445e-05,-4.4443086208896034e-05,-5.1270345128557266e-05,-4.102411460593578e-05,4.2,3.0
3.35546875,-2.3437779423208977e-05,-2.5884480976577405e-05,-3.857741305256735e-05,-3.418617140001527e-05,4.2,3.0
3.359375,-2.4912210926985606e-05,-3.1258676964980564e-05,-3.515844144960709e-05,-2.4912210926985606e-05,4.2,3.0
3.36328125,-2.7348228194094784e-05,-3.173946984664684e-05,-2.6856751026169235e-05,-2.6856751026169235e-05,4.2,3.0
3.3671875,-2.783970536202031e-05,-2.6856751026169235e-05,-1.6119043335622193e-05,-3.2230947014572394e-05,4.2,3.0
3.37109375,-2.9794929747463212e-05,-4.102411460593578e-05,-3.369469423208974e-05,-3.027572262912949e-05,4.2,3.0
3.375,-3.760514300297552e-05,-4.4923879090562304e-05,-5.3717046681925694e-05,-3.5649918617532645e-05,4.2,3.0
3.37890625,-3.5649918617532645e-05,-4.2487861823453126e-05,-4.7862057811856285e-05,-3.808593588464182e-05,4.2,3.0
3.3828125,-2.9303452579537663e-05,-4.4443086208896034e-05,-3.614139578545817e-05,-3.614139578545817e-05,4.2,3.0
3.38671875,-3.1258676964980564e-05,-4.883432786144809e-05,-3.418617140001527e-05,-4.053263743801025e-05,4.2,3.0
3.390625,-3.272242418249791e-05,-5.468931673151752e-05,-4.395160904097048e-05,-3.320321706416422e-05,4.2,3.0
3.39453125,-4.102411460593578e-05,-5.7136018284885944e-05,-5.5672271067368596e-05,-3.711366583505e-05,4.2,3.0
3.3984375,-4.541535625848786e-05,-4.4443086208896034e-05,-3.9068890220492875e-05,-3.9068890220492875e-05,4.2,3.0
3.40234375,-3.173946984664684e-05,-3.760514300297552e-05,-1.953801493858245e-05,-2.9794929747463212e-05,4.2,3.0
3.40625,-2.5884480976577405e-05,-3.9068890220492875e-05,-2.6856751026169235e-05,-2.6856751026169235e-05,4.2,3.0
3.41015625,-3.076719979705504e-05,-3.369469423208974e-05,-3.9068890220492875e-05,-3.027572262912949e-05,4.2,3.0
3.4140625,-3.515844144960709e-05,-3.027572262912949e-05,-3.956036738841843e-05,-3.857741305256735e-05,4.2,3.0
3.41796875,-3.467764856794082e-05,-2.5884480976577405e-05,-3.515844144960709e-05,-3.320321706416422e-05,4.2,3.0
3.421875,-3.467764856794082e-05,-2.197403220569163e-05,-2.2956986541542704e-05,-2.9303452579537663e-05,4.2,3.0
3.42578125,-3.9068890220492875e-05,-2.5393003808651883e-05,-1.953801493858245e-05,-4.590683342641338e-05,4.2,3.0
3.4296875,-3.515844144960709e-05,-3.662218866712445e-05,-2.6375958144502958e-05,-4.00411602700847e-05,4.2,3.0
3.43359375,-2.1493239324025352e-05,-3.418617140001527e-05,-2.9794929747463212e-05,-2.2465509373617178e-05,4.2,3.0
3.4375,-3.614139578545817e-05,-4.102411460593578e-05,-4.053263743801025e-05,-3.662218866712445e-05,4.2,3.0
3.44140625,-4.834285069352256e-05,-4.4923879090562304e-05,-3.418617140001527e-05,-4.638762630807966e-05,4.2,3.0
3.4453125,-3.173946984664684e-05,-2.783970536202031e-05,-6.353605694666981e-06,-3.857741305256735e-05,4.2,3.0
3.44921875,-9.772577297627236e-06,-1.2700071732661967e-05,-1.4708868741893752e-06,-1.0744847347219064e-05,4.2,3.0
3.453125,-1.562756616769667e-05,-2.2956986541542704e-05,-1.6610520503547746e-05,-3.4261112596322787e-06,4.2,3.0
3.45703125,-3.515844144960709e-05,-2.9794929747463212e-05,-2.4420733759060056e-05,-2.6375958144502958e-05,4.2,3.0
3.4609375,-4.1996384655527607e-05,-4.053263743801025e-05,-2.8320498243686584e-05,-3.418617140001527e-05,4.2,3.0
3.46484375,-3.2230947014572394e-05,-3.418617140001527e-05,-2.0510284988174276e-05,-1.855506060273137e-05,4.2,3.0
3.46875,-3.467764856794082e-05,-3.1258676964980564e-05,-2.5393003808651883e-05,-1.9046537770656924e-05,4.2,3.0
3.47265625,-4.053263743801025e-05,-4.297933899137868e-05,-4.102411460593578e-05,-3.515844144960709e-05,4.2,3.0
3.4765625,-4.4443086208896034e-05,-4.590683342641338e-05,-4.1504907487602053e-05,-4.102411460593578e-05,4.2,3.0
3.48046875,-3.808593588464182e-05,-3.515844144960709e-05,-1.7582790553139572e-05,-2.3437779423208977e-05,4.2,3.0
3.484375,-3.515844144960709e-05,-2.8811975411612137e-05,-1.2208594564736414e-05,-1.9046537770656924e-05,4.2,3.0
3.48828125,-3.467764856794082e-05,-3.369469423208974e-05,-2.1493239324025352e-05,-2.7348228194094784e-05,4.2,3.0
3.4921875,-3.614139578545817e-05,-3.173946984664684e-05,-2.2465509373617178e-05,-2.2465509373617178e-05,4.2,3.0
3.49609375,-3.614139578545817e-05,-3.662218866712445e-05,-3.760514300297552e-05,-2.0510284988174276e-05,4.2,3.0
3.5,-3.369469423208974e-05,-3.760514300297552e-05,-3.515844144960709e-05,-2.197403220569163e-05,4.2,3.0
3.50390625,-4.00411602700847e-05,-3.2230947014572394e-05,-2.197403220569163e-05,-2.8811975411612137e-05,4.2,3.0
3.5078125,-3.857741305256735e-05,-3.2230947014572394e-05,-2.9794929747463212e-05,-2.6856751026169235e-05,4.2,3.0
3.51171875,-3.418617140001527e-05,-2.9794929747463212e-05,-3.272242418249791e-05,-2.2465509373617178e-05,4.2,3.0
3.515625,-3.027572262912949e-05,-1.8074267721065098e-05,-2.3437779423208977e-05,-2.783970536202031e-05,4.2,3.0
3.51953125,-2.4420733759060056e-05,-1.2208594564736414e-05,-1.7091313385214022e-05,-2.6856751026169235e-05,4.2,3.0
3.5234375,-2.8320498243686584e-05,-1.8074267721065098e-05,-1.9046537770656924e-05,-2.8811975411612137e-05,4.2,3.0
3.52734375,-3.1258676964980564e-05,-2.0029492106508e-05,-2.3437779423208977e-05,-3.320321706416422e-05,4.2,3.0
3.53125,-2.5393003808651883e-05,-2.0510284988174276e-05,-2.4912210926985606e-05,-3.027572262912949e-05,4.2,3.0
3.53515625,-2.6375958144502958e-05,-2.8811975411612137e-05,-3.662218866712445e-05,-2.8811975411612137e-05,4.2,3.0
3.5390625,-3.076719979705504e-05,-3.369469423208974e-05,-3.9068890220492875e-05,-3.272242418249791e-05,4.2,3.0
3.54296875,-2.8320498243686584e-05,-2.8320498243686584e-05,-2.5884480976577405e-05,-2.783970536202031e-05,4.2,3.0
3.546875,-3.467764856794082e-05,-3.808593588464182e-05,-3.027572262912949e-05,-2.6375958144502958e-05,4.2,3.0
3.55078125,-4.883432786144809e-05,-5.859976550240333e-05,-4.2487861823453126e-05,-3.808593588464182e-05,4.2,3.0
3.5546875,-5.274477663233389e-05,-6.445475437247274e-05,-5.8108288334477774e-05,-4.2487861823453126e-05,4.2,3.0
3.55859375,-4.638762630807966e-05,-5.859976550240333e-05,-5.274477663233389e-05,-4.4923879090562304e-05,4.2,3.0
3.5625,-4.2487861823453126e-05,-3.956036738841843e-05,-2.5884480976577405e-05,-2.6856751026169235e-05,4.2,3.0
3.56640625,-4.932580502937364e-05,-3.956036738841843e-05,-2.4420733759060056e-05,-1.9046537770656924e-05,4.2,3.0
3.5703125,-4.7862057811856285e-05,-5.5672271067368596e-05,-3.614139578545817e-05,-3.027572262912949e-05,4.2,3.0
3.57421875,-4.4923879090562304e-05,-5.518079389944307e-05,-4.980659791103991e-05,-3.614139578545817e-05,4.2,3.0
3.578125,-4.4443086208896034e-05,-4.1504907487602053e-05,-5.322556951400017e-05,-3.467764856794082e-05,4.2,3.0
3.58203125,-4.102411460593578e-05,-2.9303452579537663e-05,-4.1996384655527607e-05,-3.467764856794082e-05,4.2,3.0
3.5859375,-3.1258676964980564e-05,-2.4420733759060056e-05,-3.711366583505e-05,-2.7348228194094784e-05,4.2,3.0
3.58984375,-2.8320498243686584e-05,-3.027572262912949e-05,-4.1996384655527607e-05,-2.0029492106508e-05,4.2,3.0
3.59375,-3.614139578545817e-05,-3.662218866712445e-05,-5.176182229648282e-05,-3.5649918617532645e-05,4.2,3.0
3.59765625,-4.2487861823453126e-05,-4.4923879090562304e-05,-5.8108288334477774e-05,-4.1996384655527607e-05,4.2,3.0
3.6015625,-4.3460131873044955e-05,-4.395160904097048e-05,-6.201873710536355e-05,-3.1258676964980564e-05,4.2,3.0
3.60546875,-3.760514300297552e-05,-3.760514300297552e-05,-6.0063512719920676e-05,-3.027572262912949e-05,4.2,3.0
3.609375,-3.5649918617532645e-05,-4.834285069352256e-05,-5.322556951400017e-05,-3.2230947014572394e-05,4.2,3.0
3.61328125,-3.467764856794082e-05,-4.834285069352256e-05,-5.7136018284885944e-05,-2.6856751026169235e-05,4.2,3.0
3.6171875,-3.760514300297552e-05,-4.395160904097048e-05,-6.739293309376672e-05,-3.076719979705504e-05,4.2,3.0
3.62109375,-4.053263743801025e-05,-3.9068890220492875e-05,-5.1270345128557266e-05,-2.9303452579537663e-05,4.2,3.0
3.625,-4.395160904097048e-05,-3.515844144960709e-05,-3.467764856794082e-05,-2.9794929747463212e-05,4.2,3.0
3.62890625,-3.760514300297552e-05,-3.369469423208974e-05,-3.956036738841843e-05,-3.173946984664684e-05,4.2,3.0
3.6328125,-3.614139578545817e-05,-3.956036738841843e-05,-4.834285069352256e-05,-2.783970536202031e-05,4.2,3.0
3.63671875,-4.053263743801025e-05,-3.467764856794082e-05,-3.711366583505e-05,-3.173946984664684e-05,4.2,3.0
3.640625,-3.076719979705504e-05,-1.562756616769667e-05,-1.3672341782253767e-05,-2.9303452579537663e-05,4.2,3.0
3.64453125,-2.5393003808651883e-05,-1.6119043335622193e-05,-2.4420733759060056e-05,-1.8074267721065098e-05,4.2,3.0
3.6484375,-2.392925659113453e-05,-2.9794929747463212e-05,-3.808593588464182e-05,-1.855506060273137e-05,4.2,3.0
3.65234375,-1.8074267721065098e-05,-3.808593588464182e-05,-4.1996384655527607e-05,-2.2465509373617178e-05,4.2,3.0
3.65625,-1.7091313385214022e-05,-4.053263743801025e-05,-4.4443086208896034e-05,-3.076719979705504e-05,4.2,3.0
3.66015625,-1.953801493858245e-05,-3.711366583505e-05,-3.808593588464182e-05,-3.272242418249791e-05,4.2,3.0
3.6640625,-3.076719979705504e-05,-3.614139578545817e-05,-3.956036738841843e-05,-3.369469423208974e-05,4.2,3.0
3.66796875,-3.467764856794082e-05,-3.662218866712445e-05,-4.590683342641338e-05,-3.5649918617532645e-05,4.2,3.0
3.671875,-3.857741305256735e-05,-4.1996384655527607e-05,-6.201873710536355e-05,-3.1258676964980564e-05,4.2,3.0
3.67578125,-4.1996384655527607e-05,-4.541535625848786e-05,-7.227565191424432e-05,-3.369469423208974e-05,4.2,3.0
3.6796875,-3.5649918617532645e-05,-3.5649918617532645e-05,-6.299100715495539e-05,-2.9303452579537663e-05,4.2,3.0
3.68359375,-2.7348228194094784e-05,-2.2956986541542704e-05,-3.5649918617532645e-05,-2.4912210926985606e-05,4.2,3.0
3.6875,-3.272242418249791e-05,-2.9794929747463212e-05,-3.808593588464182e-05,-3.027572262912949e-05,4.2,3.0
3.69140625,-3.1258676964980564e-05,-4.2487861823453126e-05,-6.494623154039829e-05,-3.369469423208974e-05,4.2,3.0
3.6953125,-1.6610520503547746e-05,-3.711366583505e-05,-6.640997875791564e-05,-3.515844144960709e-05,4.2,3.0
3.69921875,-2.392925659113453e-05,-3.662218866712445e-05,-6.299100715495539e-05,-3.808593588464182e-05,4.2,3.0
3.703125,-2.783970536202031e-05,-3.2230947014572394e-05,-5.76274954528115e-05,-2.7348228194094784e-05,4.2,3.0
3.70703125,-1.5146773286030395e-05,-2.7348228194094784e-05,-4.395160904097048e-05,-1.8074267721065098e-05,4.2,3.0
3.7109375,-2.197403220569163e-05,-4.2487861823453126e-05,-5.225329946440834e-05,-3.369469423208974e-05,4.2,3.0
3.71484375,-2.5393003808651883e-05,-3.760514300297552e-05,-5.420852384985125e-05,-4.297933899137868e-05,4.2,3.0
3.71875,-3.1258676964980564e-05,-3.857741305256735e-05,-4.3460131873044955e-05,-3.857741305256735e-05,4.2,3.0
3.72265625,-3.369469423208974e-05,-3.662218866712445e-05,-3.614139578545817e-05,-3.515844144960709e-05,4.2,3.0
3.7265625,-2.5884480976577405e-05,-2.4420733759060056e-05,-2.9794929747463212e-05,-3.1258676964980564e-05,4.2,3.0
3.73046875,-4.102411460593578e-05,-4.2487861823453126e-05,-3.711366583505e-05,-4.00411602700847e-05,4.2,3.0
3.734375,-4.541535625848786e-05,-4.980659791103991e-05,-4.932580502937364e-05,-3.418617140001527e-05,4.2,3.0
3.73828125,-4.053263743801025e-05,-4.638762630807966e-05,-5.225329946440834e-05,-3.5649918617532645e-05,4.2,3.0
3.7421875,-3.1258676964980564e-05,-3.418617140001527e-05,-3.5649918617532645e-05,-3.320321706416422e-05,4.2,3.0
3.74609375,-2.10017621560998e-05,-2.9794929747463212e-05,-2.6375958144502958e-05,-2.5884480976577405e-05,4.2,3.0
3.75,-3.173946984664684e-05,-4.2487861823453126e-05,-4.4923879090562304e-05,-3.515844144960709e-05,4.2,3.0
3.75390625,-3.662218866712445e-05,-3.2230947014572394e-05,-4.3460131873044955e-05,-3.173946984664684e-05,4.2,3.0
3.7578125,-3.320321706416422e-05,-3.515844144960709e-05,-3.857741305256735e-05,-2.6375958144502958e-05,4.2,3.0
3.76171875,-2.9303452579537663e-05,-4.1996384655527607e-05,-4.3460131873044955e-05,-2.7348228194094784e-05,4.2,3.0
3.765625,-2.7348228194094784e-05,-3.614139578545817e-05,-2.8320498243686584e-05,-3.027572262912949e-05,4.2,3.0
3.76953125,-3.369469423208974e-05,-3.760514300297552e-05,-2.7348228194094784e-05,-2.5393003808651883e-05,4.2,3.0
3.7734375,-3.1258676964980564e-05,-3.369469423208974e-05,-3.418617140001527e-05,-2.3437779423208977e-05,4.2,3.0
3.77734375,-3.320321706416422e-05,-3.467764856794082e-05,-3.760514300297552e-05,-2.8811975411612137e-05,4.2,3.0
3.78125,-4.00411602700847e-05,-5.615306394903487e-05,-4.980659791103991e-05,-2.5393003808651883e-05,4.2,3.0
3.78515625,-3.956036738841843e-05,-6.05549898878462e-05,-2.783970536202031e-05,-1.6610520503547746e-05,4.2,3.0
3.7890625,-4.053263743801025e-05,-4.980659791103991e-05,-1.6119043335622193e-05,-1.8074267721065098e-05,4.2,3.0
3.79296875,-4.1996384655527607e-05,-4.7862057811856285e-05,-3.2230947014572394e-05,-2.0510284988174276e-05,4.2,3.0
3.796875,-2.9303452579537663e-05,-3.711366583505e-05,-2.4420733759060056e-05,-1.2700071732661967e-05,4.2,3.0
3.80078125,-2.7348228194094784e-05,-2.5393003808651883e-05,-6.845082862592534e-06,-1.7582790553139572e-05,4.2,3.0
3.8046875,-4.00411602700847e-05,-1.855506060273137e-05,-1.9623640421149274e-06,-2.10017621560998e-05,4.2,3.0
3.80859375,-4.834285069352256e-05,-3.515844144960709e-05,-2.3437779423208977e-05,-2.0510284988174276e-05,4.2,3.0
3.8125,-4.541535625848786e-05,-3.808593588464182e-05,-5.274477663233389e-05,-2.9303452579537663e-05,4.2,3.0
3.81640625,-4.102411460593578e-05,-3.760514300297552e-05,-5.615306394903487e-05,-2.783970536202031e-05,4.2,3.0
3.8203125,-3.711366583505e-05,-2.9794929747463212e-05,-2.392925659113453e-05,-7.817352912184361e-06,4.2,3.0
3.82421875,-2.5884480976577405e-05,-8.78962296177616e-06,-1.3191548900587492e-05,9.758146791790522e-07,4.2,3.0
3.828125,-1.8074267721065098e-05,-2.934634091706755e-06,-2.4420733759060056e-05,-6.353605694666981e-06,4.2,3.0
3.83203125,-1.7091313385214022e-05,-1.562756616769667e-05,-3.076719979705504e-05,-4.88985847714963e-06,4.2,3.0
3.8359375,-2.8811975411612137e-05,-5.176182229648282e-05,-6.397396149080645e-05,-2.10017621560998e-05,4.2,3.0
3.83984375,-4.590683342641338e-05,-9.521481451285574e-05,-9.473402163118947e-05,-3.173946984664684e-05,4.2,3.0
3.84375,-2.5884480976577405e-05,-6.494623154039829e-05,-7.324792196383614e-05,-1.2208594564736414e-05,4.2,3.0
3.84765625,-7.817352912184361e-06,-6.739293309376672e-05,-7.129269757839324e-05,1.2204999537651615e-05,4.2,3.0
3.8515625,-1.7582790553139572e-05,-0.00012793009903868164,-0.00012988532342412453,-9.281100129701712e-06,4.2,3.0
3.85546875,-4.88985847714963e-06,-0.00012793009903868164,-0.00014209746261844815,-1.5146773286030395e-05,4.2,3.0
3.859375,-8.78962296177616e-06,-0.00016113686073243306,-0.00015234369314106968,1.0249775152208712e-05,4.2,3.0
3.86328125,-1.4163818950179318e-05,-0.00020606428445258258,-0.00018457818478522927,1.95237356252384e-05,4.2,3.0
3.8671875,-1.0744847347219064e-05,-0.00024266864917677576,-0.00022118254950942247,5.367056331731106e-06,4.2,3.0
3.87109375,-3.4261112596322787e-06,-0.00025878055285572595,-0.0002641547488441291,-6.353605694666981e-06,4.2,3.0
3.875,5.367056331731106e-06,-0.00024853432233310445,-0.0002582997599740597,9.758297984283189e-06,4.2,3.0
3.87890625,-4.986168245975762e-07,-0.0002548807883710994,-0.0002504788624322881,1.65962411902037e-05,4.2,3.0
3.8828125,-2.10017621560998e-05,-0.00029345106176699475,-0.0002690374676646067,2.1478960010681305e-05,4.2,3.0
3.88671875,-1.2700071732661967e-05,-0.0002949148089845121,-0.000283194146958114,2.2942707228198657e-05,4.2,3.0
3.890625,-3.906904141298554e-06,-0.00029345106176699475,-0.00029052356733196005,1.122204520180054e-05,4.2,3.0
3.89453125,-1.0264054465552789e-05,-0.0002988252577553979,-0.0002827133540764477,1.3668746755168967e-05,4.2,3.0
3.8984375,-1.0264054465552789e-05,-0.00027538393370260165,-0.00027489245653467616,1.4149539636835271e-05,4.2,3.0
3.90234375,-6.845082862592534e-06,-0.0002392496775738155,-0.00024853432233310445,2.4897931613641532e-05,4.2,3.0
3.90625,3.411831946288231e-06,-0.0002172827850247959,-0.0002094725717692836,3.6618593640039646e-05,4.2,3.0
3.91015625,-3.906904141298554e-06,-0.00022900344705119403,-0.0002172827850247959,2.6853155999084434e-05,4.2,3.0
3.9140625,-1.953801493858245e-05,-0.00022070175662775615,-0.00021191927332265203,2.343418439612418e-05,4.2,3.0
3.91796875,-2.3437779423208977e-05,-0.00019092465082322426,-0.00018896942643778134,2.880838038452734e-05,4.2,3.0
3.921875,-2.4912210926985606e-05,-0.00016211981506828414,-0.00017529354002594036,2.343418439612418e-05,4.2,3.0
3.92578125,-2.5884480976577405e-05,-0.0001313490706416419,-0.00013916996818341345,1.3668746755168967e-05,4.2,3.0
3.9296875,-2.783970536202031e-05,-0.00013476804224460214,-0.00015528187186236362,2.0015212793163926e-05,4.2,3.0
3.93359375,-3.662218866712445e-05,-0.0001313490706416419,-0.00014453347988555736,2.1970437178606828e-05,4.2,3.0
3.9375,-4.1996384655527607e-05,-0.00011084592531013963,-0.0001035165049362936,1.708771835812922e-05,4.2,3.0
3.94140625,-4.102411460593578e-05,-0.00010791843087510492,-0.00011084592531013963,-6.353605694666981e-06,4.2,3.0
3.9453125,-4.687910347600521e-05,-7.129269757839324e-05,-6.397396149080645e-05,-2.934634091706755e-06,4.2,3.0
3.94921875,-4.395160904097048e-05,-4.4443086208896034e-05,-3.711366583505e-05,8.786027934691361e-06,4.2,3.0
3.953125,-3.320321706416422e-05,-4.4443086208896034e-05,-3.5649918617532645e-05,-1.172780168307014e-05,4.2,3.0
3.95703125,-3.956036738841843e-05,-5.381335645075183e-06,4.38410199588003e-06,-3.906904141298554e-06,4.2,3.0
3.9609375,-4.1504907487602053e-05,4.875579163805582e-06,-7.139656672023875e-09,-3.4261112596322787e-06,4.2,3.0
3.96484375,-3.711366583505e-05,9.758146791790522e-07,-7.325875744258809e-06,-1.7091313385214022e-05,4.2,3.0
3.96875,-3.1258676964980564e-05,2.5389408781567082e-05,2.1478960010681305e-05,-2.7348228194094784e-05,4.2,3.0
3.97265625,-2.783970536202031e-05,3.270814486915387e-05,1.6104764022278146e-05,-2.6856751026169235e-05,4.2,3.0
3.9765625,-3.614139578545817e-05,3.0272127602044688e-05,1.8551465575646574e-05,-1.172780168307014e-05,4.2,3.0
3.98046875,-3.467764856794082e-05,3.319962203707939e-05,4.393732972762643e-05,-1.4163818950179318e-05,4.2,3.0
3.984375,-2.3437779423208977e-05,4.1982105342183556e-05,4.8820048548104064e-05,-2.6375958144502958e-05,4.2,3.0
3.98828125,-2.10017621560998e-05,5.223902015106427e-05,4.1982105342183556e-05,-2.7348228194094784e-05,4.2,3.0
3.9921875,-2.9303452579537663e-05,5.322197448691537e-05,4.0037565242999904e-05,-2.7348228194094784e-05,4.2,3.0
3.99609375,-3.662218866712445e-05,5.565799175402452e-05,5.4194244536507197e-05,-2.5884480976577405e-05,4.2,3.0
4.0,-3.272242418249791e-05,6.639569944457156e-05,5.9076963356984776e-05,-3.5649918617532645e-05,4.2,3.0
4.00390625,-3.2230947014572394e-05,7.226137260090024e-05,6.835092383001449e-05,-4.4923879090562304e-05,4.2,3.0
4.0078125,-3.076719979705504e-05,8.593725901274126e-05,8.886475344777597e-05,-4.1504907487602053e-05,4.2,3.0
4.01171875,-2.5393003808651883e-05,8.934554632944224e-05,9.618348953536275e-05,-4.2487861823453126e-05,4.2,3.0
4.015625,-3.272242418249791e-05,8.056306302433813e-05,7.909931580682075e-05,-5.0298075078965463e-05,4.2,3.0
4.01953125,-3.027572262912949e-05,8.495430467689016e-05,6.346820500953686e-05,-4.297933899137868e-05,4.2,3.0
4.0234375,-1.855506060273137e-05,8.299908029144729e-05,8.2518287409781e-05,-3.808593588464182e-05,4.2,3.0
4.02734375,-2.4912210926985606e-05,8.153533307392995e-05,7.86078386388952e-05,-4.1504907487602053e-05,4.2,3.0
4.03125,-3.320321706416422e-05,7.079762538338292e-05,5.4194244536507197e-05,-5.1270345128557266e-05,4.2,3.0
4.03515625,-3.1258676964980564e-05,6.981467104753181e-05,6.445115934538796e-05,-5.1270345128557266e-05,4.2,3.0
4.0390625,-2.2956986541542704e-05,6.933387816586554e-05,6.933387816586554e-05,-3.760514300297552e-05,4.2,3.0
4.04296875,-1.9046537770656924e-05,6.688717661249711e-05,6.151298062409399e-05,-3.272242418249791e-05,4.2,3.0
4.046875,-9.281100129701712e-06,8.886475344777597e-05,5.077527293354694e-05,-4.1504907487602053e-05,4.2,3.0
4.05078125,-9.772577297627236e-06,7.469738986800945e-05,4.2473582510109055e-05,-4.102411460593578e-05,4.2,3.0
4.0546875,-2.4420733759060056e-05,3.709938652170592e-05,3.709938652170592e-05,-4.1996384655527607e-05,4.2,3.0
4.05859375,-2.5393003808651883e-05,5.0283795765621386e-05,5.565799175402452e-05,-4.834285069352256e-05,4.2,3.0
4.0625,-1.6119043335622193e-05,8.299908029144729e-05,7.226137260090024e-05,-4.1504907487602053e-05,4.2,3.0
4.06640625,-1.0744847347219064e-05,8.056306302433813e-05,7.469738986800945e-05,-2.4420733759060056e-05,4.2,3.0
4.0703125,-2.7348228194094784e-05,5.663026180361635e-05,6.933387816586554e-05,-2.5884480976577405e-05,4.2,3.0
4.07421875,-3.614139578545817e-05,4.735630133058669e-05,5.077527293354694e-05,-3.614139578545817e-05,4.2,3.0
4.078125,-2.4420733759060056e-05,6.445115934538796e-05,4.931152571602956e-05,-4.4443086208896034e-05,4.2,3.0
4.08203125,-2.2465509373617178e-05,6.835092383001449e-05,6.737865378042267e-05,-4.1504907487602053e-05,4.2,3.0
4.0859375,-1.7091313385214022e-05,5.174754298313877e-05,6.884240099793999e-05,-3.808593588464182e-05,4.2,3.0
4.08984375,-1.7582790553139572e-05,5.4194244536507197e-05,4.0037565242999904e-05,-5.274477663233389e-05,4.2,3.0
4.09375,-2.5884480976577405e-05,5.8104693307392946e-05,4.0518358124666174e-05,-4.4923879090562304e-05,4.2,3.0
4.09765625,-2.9794929747463212e-05,3.4663369254596745e-05,6.591490656290529e-05,-3.2230947014572394e-05,4.2,3.0
4.1015625,-2.4420733759060056e-05,2.1478960010681305e-05,3.612711647211412e-05,-5.225329946440834e-05,4.2,3.0
4.10546875,-1.1236324515144588e-05,3.709938652170592e-05,3.709938652170592e-05,-6.299100715495539e-05,4.2,3.0
4.109375,-1.4163818950179318e-05,4.9803002883955116e-05,3.612711647211412e-05,-4.4443086208896034e-05,4.2,3.0
4.11328125,-2.10017621560998e-05,3.51548464225223e-05,1.8551465575646574e-05,-3.857741305256735e-05,4.2,3.0
4.1171875,-8.78962296177616e-06,4.784777849851224e-05,2.7825426048676264e-05,-4.590683342641338e-05,4.2,3.0
4.12109375,-1.4708868741893752e-06,6.639569944457156e-05,3.612711647211412e-05,-4.297933899137868e-05,4.2,3.0
4.125,-1.7091313385214022e-05,4.6864824162661135e-05,5.4194244536507197e-05,-3.614139578545817e-05,4.2,3.0
4.12890625,-1.953801493858245e-05,3.612711647211412e-05,5.223902015106427e-05,-4.102411460593578e-05,4.2,3.0
4.1328125,-2.5884480976577405e-05,2.3925661564049733e-05,2.4406454445716006e-05,-5.078955224689099e-05,4.2,3.0
4.13671875,-3.711366583505e-05,8.786027934691361e-06,2.636167883115891e-05,-3.9068890220492875e-05,4.2,3.0
4.140625,-2.2465509373617178e-05,2.5389408781567082e-05,3.319962203707939e-05,-3.2230947014572394e-05,4.2,3.0
4.14453125,-9.772577297627236e-06,5.223902015106427e-05,1.1713522369726093e-05,-3.956036738841843e-05,4.2,3.0
4.1484375,-2.2465509373617178e-05,3.954608807507435e-05,1.0741252320134265e-05,-4.687910347600521e-05,4.2,3.0
4.15234375,-2.2465509373617178e-05,2.0506689961089475e-05,2.2451230060273104e-05,-3.5649918617532645e-05,4.2,3.0
4.15625,-1.6610520503547746e-05,3.903309114213755e-06,2.920354778362679e-06,-2.5884480976577405e-05,4.2,3.0
4.16015625,-1.562756616769667e-05,2.0987482842755752e-05,-7.325875744258809e-06,-4.4443086208896034e-05,4.2,3.0
4.1640625,-1.6119043335622193e-05,2.4897931613641532e-05,2.4395618966964036e-06,-4.980659791103991e-05,4.2,3.0
4.16796875,-1.8074267721065098e-05,1.65962411902037e-05,2.4897931613641532e-05,-3.614139578545817e-05,4.2,3.0
4.171875,-1.3191548900587492e-05,1.6104764022278146e-05,2.0506689961089475e-05,-3.369469423208974e-05,4.2,3.0
4.17578125,-2.0029492106508e-05,5.367056331731106e-06,-6.845082862592534e-06,-4.2487861823453126e-05,4.2,3.0
4.1796875,-2.7348228194094784e-05,5.367056331731106e-06,9.266820816357636e-06,-4.4923879090562304e-05,4.2,3.0
4.18359375,-1.3191548900587492e-05,3.417189208667122e-05,5.126675010147249e-05,-3.418617140001527e-05,4.2,3.0
4.1875,-4.398381309224106e-06,4.29650596780346e-05,3.221666770122832e-05,-3.662218866712445e-05,4.2,3.0
4.19140625,-9.772577297627236e-06,1.95237356252384e-05,3.411831946288231e-06,-4.1996384655527607e-05,4.2,3.0
4.1953125,-2.0510284988174276e-05,-4.398381309224106e-06,2.0506689961089475e-05,-4.297933899137868e-05,4.2,3.0
4.19921875,-2.0029492106508e-05,1.0741252320134265e-05,1.4149539636835271e-05,-4.2487861823453126e-05,4.2,3.0
4.203125,-1.0744847347219064e-05,1.805998840772105e-05,1.122204520180054e-05,-3.515844144960709e-05,4.2,3.0
4.20703125,-1.7582790553139572e-05,-4.88985847714963e-06,4.875579163805582e-06,-3.5649918617532645e-05,4.2,3.0
4.2109375,-2.1493239324025352e-05,-2.934634091706755e-06,-6.353605694666981e-06,-4.1504907487602053e-05,4.2,3.0
4.21484375,-2.0510284988174276e-05,-1.2208594564736414e-05,-7.817352912184361e-06,-3.614139578545817e-05,4.2,3.0
4.21875,-2.0029492106508e-05,-5.381335645075183e-06,-7.139656672023875e-09,-2.9794929747463212e-05,4.2,3.0
4.22265625,-1.5146773286030395e-05,1.1713522369726093e-05,6.8308035492484855e-06,-3.614139578545817e-05,4.2,3.0
