timestamp,TP9,AF7,AF8,TP10,Valence,Arousal
0.0,0.0006723466132661937,7.47051212451362e-05,0.00032028488279697875,-6.491135146715494e-05,5.9286,6.9286
0.00390625,0.0006328048849805447,7.616962970016024e-05,0.00030905698464179447,-6.491135146715494e-05,5.9286,6.9286
0.0078125,0.0006845508503913939,6.0029526102082876e-05,0.0003193085438269627,-7.812243815518424e-05,5.9286,6.9286
0.01171875,0.0007289742735271229,7.714596867017625e-05,0.0003295601030121309,-8.98385057953765e-05,5.9286,6.9286
0.015625,0.0006908970536964981,9.227922270542459e-05,0.00033447230845502405,-0.00010009006498054473,5.9286,6.9286
0.01953125,0.0005888391207370108,7.861047712520029e-05,0.0003105214930968185,-0.00011082979365072097,5.9286,6.9286
0.0234375,0.0005356286468711375,7.51932907301442e-05,0.0002700034258411536,-0.00011278247159075301,5.9286,6.9286
0.02734375,0.0006396392577706569,8.593301940032045e-05,0.0002617045445960174,-0.00010545992931563284,5.9286,6.9286
0.03125,0.0006865035283314259,0.00011180600210574503,0.00027976681554131377,-0.0001030190818905928,5.9286,6.9286
0.03515625,0.0006577015287159533,0.00010936515468070498,0.0002753732901762417,-0.00010643626828564887,5.9286,6.9286
0.0390625,0.0005834692564019226,8.935020579537654e-05,0.00025096481592584116,-0.00011961684438086517,5.9286,6.9286
0.04296875,0.0005395340027512017,9.081471425040057e-05,0.0002163047824902724,-0.00013279742047608145,5.9286,6.9286
0.046875,0.000642568274680705,8.983837528038453e-05,0.00021484027403524837,-0.00014011996275120161,5.9286,6.9286
0.05078125,0.0006415919357106889,0.00011082966313572902,0.00021581661300526436,-0.0001611112506065461,5.9286,6.9286
0.0546875,0.0006386629188006408,0.00012889193408102543,0.00020507688433508815,-0.0001821025384618906,5.9286,6.9286
0.05859375,0.0005893272902220187,0.00010790064622568095,0.000198700170437171,-0.00018991325022201875,5.9286,6.9286
0.0625,0.0005356286468711375,9.764908704051272e-05,0.00014841871348134585,-0.00021191138764019225,5.9286,6.9286
0.06640625,0.0005532027483314259,9.520823961547266e-05,0.00013084461202105745,-0.0002548703023208972,5.9286,6.9286
0.0703125,0.0005761467141268025,0.00011864037489585719,0.00015622942524147403,-0.0002973410475165942,5.9286,6.9286
0.07421875,0.0006728347827512017,0.00012938010356603342,0.00014451335760128176,-0.00031491514897688256,5.9286,6.9286
0.078125,0.0005780993920668345,0.00010936515468070498,0.00013914349326619364,-0.00031686782691691464,5.9286,6.9286
0.08203125,0.0004824181730052644,9.862542601052873e-05,0.00012596291717097735,-0.0003266312166170748,5.9286,6.9286
0.0859375,0.0006230414952803845,0.00010545979880064089,7.714596867017625e-05,-0.0003256548776470588,5.9286,6.9286
0.08984375,0.0006386629188006408,0.0001274274256260014,6.393488198214696e-05,-0.0003085689456717784,5.9286,6.9286
0.09375,0.0005932326461020828,0.00013523813738612958,8.202766352025636e-05,-0.00031149796258182646,5.9286,6.9286
0.09765625,0.0005810284089768826,0.00014744237451132981,9.667274807049669e-05,-0.000334960608455024,5.9286,6.9286
0.1015625,0.0006157189530052645,0.00013816715429617763,0.00010985332416571298,-0.0003178441658869306,5.9286,6.9286
0.10546875,0.0006611187151110094,4.880162794689862e-05,6.738257897001604e-05,-0.00030271091185168225,5.9286,6.9286
0.109375,0.0006835745114213778,-4.866504811169587e-06,2.0975967301441994e-05,-0.00032760755558709087,5.9286,6.9286
0.11328125,0.0006235296647653925,1.4141594511329842e-05,4.4896272066834534e-05,-0.0003535110488853284,5.9286,6.9286
0.1171875,0.0004960869185854887,1.1212577601281776e-05,5.417149228198674e-05,-0.0004428460646417944,5.9286,6.9286
0.12109375,0.0005541790873014419,-2.2440606271457983e-05,-5.354674296177598e-06,-0.0005463685060563058,5.9286,6.9286
0.125,0.0006118135971252003,-5.270711434195466e-05,-5.8076978677042786e-05,-0.0006108373886701762,5.9286,6.9286
0.12890625,0.0005727295277317464,-1.3653555541313785e-05,-5.319528382696267e-05,-0.0006308523375555047,5.9286,6.9286
0.1328125,0.0005688241718516823,-2.097609781643395e-05,-5.954148713206682e-05,-0.0006162072530052643,5.9286,6.9286
0.13671875,0.0005424630196612497,-5.514796176699472e-05,-5.6612470222018745e-05,-0.0006069320327901122,5.9286,6.9286
0.140625,0.0005356286468711375,-4.684908052185853e-05,-4.196738567177842e-05,-0.0005946972850720989,5.9286,6.9286
0.14453125,0.0005161018674708171,-6.588769043717095e-05,-4.392006361181047e-05,-0.0005903037597070267,5.9286,6.9286
0.1484375,0.00055222640936141,-6.0029656617074824e-05,-4.1479216186770404e-05,-0.0005737059972167545,5.9286,6.9286
0.15234375,0.0005820047479468986,-3.562118236667428e-05,-4.1479216186770404e-05,-0.0005561318957564659,5.9286,6.9286
0.15625,0.0005463683755413139,-3.65975213366903e-05,-4.440823309681848e-05,-0.0005453921670862897,5.9286,6.9286
0.16015625,0.0005219599012909133,-4.636091103685052e-05,-6.149416507209886e-05,-0.0005263535571709772,5.9286,6.9286
0.1640625,0.0005463683755413139,-7.909877712520026e-05,-0.00011034162416571295,-0.000510732133650721,5.9286,6.9286
0.16796875,0.0006572133592309454,-0.00010936528519569694,-0.00014597799657129775,-0.0005063386082856489,5.9286,6.9286
0.171875,0.0006162071224902723,-0.0001161996579858091,-0.00014207264069123369,-0.0004995042354955367,5.9286,6.9286
0.17578125,0.0005961616630121309,-0.00012742755614099334,-0.00015037152193636986,-0.00048339464249027236,5.9286,6.9286
0.1796875,0.0006728347827512017,-0.0001474425050263218,-0.0001703864708216983,-0.00047119040536507204,5.9286,6.9286
0.18359375,0.000644032783135729,-0.00015769406421149002,-0.0001918659281620508,-0.00046679687999999996,5.9286,6.9286
0.1875,0.0006620950540810254,-0.00016696928442664225,-0.00021679308249027235,-0.00046679687999999996,5.9286,6.9286
0.19140625,0.0006757637996612498,-0.0001742918267017624,-0.00022460379425040053,-0.0004482159289768826,5.9286,6.9286
0.1953125,0.0007177463753719387,-0.00021044687918516823,-0.00027195623429617763,-0.0004325945054566262,5.9286,6.9286
0.19921875,0.0006996841044266423,-0.0002329026754955367,-0.0003212613522819867,-0.0004316181664866102,5.9286,6.9286
0.203125,0.0006337812239505608,-0.00024217789571068894,-0.0003246785386770428,-0.00041160321760128174,5.9286,6.9286
0.20703125,0.0006132781055802242,-0.00024852409901579304,-0.00033740145588006404,-0.0004033043363561455,5.9286,6.9286
0.2109375,0.0006020502074250401,-0.0002197220994003204,-0.0003378896253650721,-0.0004008634889311055,5.9286,6.9286
0.21484375,0.0006699057658411537,-0.00020019531999999999,-0.000290018505241474,-0.00039061192974593727,5.9286,6.9286
0.21875,0.0006977314264866102,-0.0002275328111604486,-0.00027439708172121764,-0.00038573023489585714,5.9286,6.9286
0.22265625,0.0006484263085008011,-0.00023973704828564887,-0.0003046635897917143,-0.0003759668451956969,5.9286,6.9286
0.2265625,0.0006083964107301442,-0.00019333043661707482,-0.00028367230193636984,-0.00035741640476539253,5.9286,6.9286
0.23046875,0.0006611187151110094,-0.00017770901309681846,-0.0002822077934813458,-0.00037303782828564884,5.9286,6.9286
0.234375,0.0007387681738200961,-0.00016843379288166628,-0.00028904216627145796,-0.00043991704773174635,5.9286,6.9286
0.23828125,0.000687479867301442,-0.00013279742047608145,-0.000247059590560769,-0.0004814419645502403,5.9286,6.9286
0.2421875,0.0006596542066559854,-0.00012059318335088118,-0.0002372962008606088,-0.000511708472620737,5.9286,6.9286
0.24609375,0.0006259705121904325,-9.960189549553672e-05,-0.0002270446416754406,-0.0005483211839963377,5.9286,6.9286
0.25,0.0006396392577706569,-3.855019927672234e-05,-0.00017331548773174638,-0.0005761468446417945,5.9286,6.9286
0.25390625,0.0006498908169558251,1.937357386129566e-06,-0.0001342619289311055,-0.00060253850742504,5.9286,6.9286
0.2578125,0.0005815165784618906,-1.937487901121521e-06,-0.00013328558996108947,-0.0005839575564019225,5.9286,6.9286
0.26171875,0.000600097529485008,3.269203494163426e-05,-0.00012205769180590522,-0.0005771231836118105,5.9286,6.9286
0.265625,0.0005414866806912336,6.051769558709088e-05,-8.935033631036849e-05,-0.0005737059972167545,5.9286,6.9286
0.26953125,0.0004902288847653926,8.544484991531244e-05,-6.149416507209886e-05,-0.0005507620314213779,5.9286,6.9286
0.2734375,0.0005824929174319067,0.00010594796828564891,-4.9289927946898583e-05,-0.0005488093534813458,5.9286,6.9286
0.27734375,0.0005878627817669948,0.00010594796828564891,-1.9023419876401904e-05,-0.0005317234215060655,5.9286,6.9286
0.28125,0.0005361168163561456,0.00010985332416571298,-1.7070741936369862e-05,-0.0004995042354955367,5.9286,6.9286
0.28515625,0.0004999922744655527,0.00011082966313572902,-1.2677216571297761e-05,-0.0004741194222751201,5.9286,6.9286
0.2890625,0.0005468565450263218,0.00013572630687113757,3.890035326161609e-06,-0.0004550503017669947,5.9286,6.9286
0.29296875,0.0005951853240421149,0.0001513477303913939,2.488132318150608e-05,-0.00043649986133669025,5.9286,6.9286
0.296875,0.0005785875615518426,0.00014011983223620968,4.050274670176243e-05,-0.0004179494209063859,5.9286,6.9286
0.30078125,0.0004770483086701762,0.00014353701863126575,5.354543781185643e-06,-0.00040428067532616155,5.9286,6.9286
0.3046875,0.00040183969738612956,0.0001415843406912337,-1.560623348134583e-05,-0.0003842657264408331,5.9286,6.9286
0.30859375,0.0005068266472556649,0.0001640401370016022,2.0487797816433986e-05,-0.0003652271165255207,5.9286,6.9286
0.3125,0.0005741940361867704,0.00018503142485694669,6.295854301213094e-05,-0.0003544873878553445,5.9286,6.9286
0.31640625,0.0005234244097459372,0.00017331535721675442,7.47051212451362e-05,-0.00034179498124513617,5.9286,6.9286
0.3203125,0.0004570028491920348,0.00017624437412680247,6.884708742504007e-05,-0.00034081864227512013,5.9286,6.9286
0.32421875,0.00042868901906157014,0.00016745732339665828,3.562105185168232e-05,-0.00033837779485008007,5.9286,6.9286
0.328125,0.00042820084957656215,0.00015232406936140994,2.6345831636530114e-05,-0.0003295602335271229,5.9286,6.9286
0.33203125,0.00044382227309681845,0.00017331535721675442,5.319515331197072e-05,-0.0003212613522819867,5.9286,6.9286
0.3359375,0.0004887643763103684,0.00019235396713206685,8.935020579537654e-05,-0.00030563992876173036,5.9286,6.9286
0.33984375,0.00041697295142137787,0.00017624437412680247,8.78856973403525e-05,-0.00030173457288166627,5.9286,6.9286
0.34375,0.00040135152790112157,0.00014744237451132981,4.977796691691464e-05,-0.0003041754203067063,5.9286,6.9286
0.34765625,0.00044138142567177845,0.00014793054399633786,4.880162794689862e-05,-0.00029099484421149003,5.9286,6.9286
0.3515625,0.00046630858,0.00015232406936140994,7.958681609521631e-05,-0.00027781426811627374,5.9286,6.9286
0.35546875,0.0005204953928358892,0.00015330040833142598,9.911359549553675e-05,-0.0002773260986312657,5.9286,6.9286
0.359375,0.0004042805448111696,0.0001640401370016022,0.00010448345983062488,-0.0002690272173861296,5.9286,6.9286
0.36328125,0.00037596671468070495,0.00016501647597161822,0.0001010662734355688,-0.0002660982004760814,5.9286,6.9286
0.3671875,0.0004960869185854887,0.00016257562854657816,9.569640910048068e-05,-0.00027830243760128173,5.9286,6.9286
0.37109375,0.0005029212913756009,0.00014500152708628978,0.00012108122232089725,-0.0002807432850263218,5.9286,6.9286
0.375,0.00047851281712520024,0.00014256067966124974,0.00014939505245136189,-0.0002817196239963378,5.9286,6.9286
0.37890625,0.00044528678155184254,0.0001367026458411536,0.0001513477303913939,-0.0002826959629663538,5.9286,6.9286
0.3828125,0.0004609082050720989,0.00011619952747081714,0.00012156939180590525,-0.00028904216627145796,5.9286,6.9286
0.38671875,0.00048193000352025634,0.00011864037489585719,0.00012547474768596933,-0.000289530335756466,5.9286,6.9286
0.390625,0.0005063384777706569,0.0001332854594460975,0.00015183589987640195,-0.0002856249798764019,5.9286,6.9286
0.39453125,0.0004902288847653926,0.00014207251017624172,0.00016941000133669033,-0.0002856249798764019,5.9286,6.9286
0.3984375,0.0004140439345113298,0.00013377362893110555,0.0001591584421515221,-0.00027830243760128173,5.9286,6.9286
0.40234375,0.0004736311222751201,0.00012498657820096134,0.0001230339002609293,-0.0002714680648111696,5.9286,6.9286
0.40625,0.0005170782064408331,0.00013084461202105745,0.00012498657820096134,-0.0002690272173861296,5.9286,6.9286
0.41015625,0.0004990159354955367,0.00014939505245136189,0.0001596466116365301,-0.00026072833614099335,5.9286,6.9286
0.4140625,0.00045846735764705883,0.00016062295060654614,0.00017331535721675442,-0.00025291762438086517,5.9286,6.9286
0.41796875,0.00042820084957656215,0.0001596466116365301,0.00015671759472648205,-0.00024315423468070495,5.9286,6.9286
0.421875,0.00045163298485694663,0.00015427674730144199,0.00015183589987640195,-0.00023436718395056076,5.9286,6.9286
0.42578125,0.00043405888339665826,0.00015281223884641796,0.00013767898481116962,-0.00023485535343556875,5.9286,6.9286
0.4296875,0.0004736311222751201,0.0001943066450720989,0.00015378857781643397,-0.00023534352292057677,5.9286,6.9286
0.43359375,0.00045602651022201877,0.0001894249502220188,0.00018014973000686656,-0.00020800603176012816,5.9286,6.9286
0.4375,0.00040525688378118566,0.00014402518811627377,0.00015525308627145802,-0.00018112619949187456,5.9286,6.9286
0.44140625,0.0003544872573403525,0.0001513477303913939,0.00013914349326619364,-0.00017819718258182648,5.9286,6.9286
0.4453125,0.0003539990878553445,0.00016745732339665828,0.00015427674730144199,-0.00017233914876173037,5.9286,6.9286
0.44921875,0.0004330825444266423,0.00018356691640192266,0.00016208745906157016,-0.00017185097927672232,5.9286,6.9286
0.453125,0.0003422830202151522,0.0001864959333119707,0.00016843366236667432,-0.00016892196236667427,5.9286,6.9286
0.45703125,0.00032663108610208284,0.00017868522155184253,0.0001811260689768826,-0.0001664811149416342,5.9286,6.9286
0.4609375,0.00044626312052185857,0.00017819705206683454,0.00016062295060654614,-0.00016306392854657814,5.9286,6.9286
0.46484375,0.0003940289856260014,0.0001640401370016022,0.00013914349326619364,-0.00015476504730144196,5.9286,6.9286
0.46875,0.0003993988499610895,0.00016599281494163425,0.00015818210318150608,-0.00014597799657129775,5.9286,6.9286
0.47265625,0.00043161803597161825,0.00017331535721675442,0.00017819705206683454,-0.00014060813223620966,5.9286,6.9286
0.4765625,0.0004291771885465782,0.0001679454928816663,0.00017429169618677045,-0.00013963179326619362,5.9286,6.9286
0.48046875,0.0004037923753261616,0.0001410961712062257,0.00016208745906157016,-0.00012742755614099334,5.9286,6.9286
0.484375,0.00039646983305104144,0.0001415843406912337,0.00013963166275120166,-0.00012303403077592126,5.9286,6.9286
0.48828125,0.00038524193489585716,0.00014451335760128176,0.00014256067966124974,-0.00012742755614099334,5.9286,6.9286
0.4921875,0.0003349604779400321,0.00014256067966124974,0.0001679454928816663,-0.00011766416644083312,5.9286,6.9286
0.49609375,0.00042429549369649806,0.00014744237451132981,0.00014011983223620968,-0.00011571148850080108,5.9286,6.9286
0.5,0.00045163298485694663,0.0001230339002609293,8.983837528038453e-05,-0.00012059318335088118,5.9286,6.9286
0.50390625,0.00040232786687113755,0.00011229417159075305,9.862542601052873e-05,-0.0001079007767406729,5.9286,6.9286
0.5078125,0.00042039013781643397,0.00012938010356603342,0.00011864037489585719,-9.42320311604486e-05,5.9286,6.9286
0.51171875,0.0004428459341268025,0.00014939505245136189,0.00016257562854657816,-8.056328558022428e-05,5.9286,6.9286
0.515625,0.0005019449524055848,0.00015818210318150608,0.00017331535721675442,-8.300413300526435e-05,5.9286,6.9286
0.51953125,0.00045163298485694663,0.00015769393369649808,0.0001367026458411536,-9.081484476539251e-05,5.9286,6.9286
0.5234375,0.0004404050867017624,0.00015427674730144199,0.00011375868004577707,-7.861060764019224e-05,5.9286,6.9286
0.52734375,0.0004628608830121309,0.00016208745906157016,0.00012449840871595332,-7.616976021515219e-05,5.9286,6.9286
0.53125,0.0005009686134355688,0.00018356691640192266,0.00014402518811627377,-8.007511609521628e-05,5.9286,6.9286
0.53515625,0.0004887643763103684,0.00017429169618677045,0.00013426179841611355,-8.349230249027235e-05,5.9286,6.9286
0.5390625,0.00047070210536507206,0.00015769393369649808,0.00014402518811627377,-8.056328558022428e-05,5.9286,6.9286
0.54296875,0.0005151255285008011,0.00014939505245136189,0.00013377362893110555,-7.665792970016021e-05,5.9286,6.9286
0.546875,0.00043552339185168234,0.00013914349326619364,0.00011180600210574503,-7.812243815518424e-05,5.9286,6.9286
0.55078125,0.0004262481716365301,0.00014500152708628978,0.00012596291717097735,-7.470525176012816e-05,5.9286,6.9286
0.5546875,0.0005439275281162737,0.00015378857781643397,0.00014988322193636988,-6.738270948500799e-05,5.9286,6.9286
0.55859375,0.000511220172620737,0.00014890688296635387,0.0001415843406912337,-6.1005995587090846e-05,5.9286,6.9286
0.5625,0.0004721666138200961,0.00014011983223620968,0.00013230912047608147,-5.85651481620508e-05,5.9286,6.9286
0.56640625,0.0004980395965255207,0.00013230912047608147,0.00014646603554131383,-5.221894485694665e-05,5.9286,6.9286
0.5703125,0.0005146373590157931,0.00013767898481116962,0.00015720576421149007,-4.3431894126802455e-05,5.9286,6.9286
0.57421875,0.0005234244097459372,0.00014060800172121767,0.00015427674730144199,-4.196738567177842e-05,5.9286,6.9286
0.578125,0.00046923759691004804,0.00011229417159075305,9.862542601052873e-05,-4.001470773174638e-05,5.9286,6.9286
0.58203125,0.0003935408161409934,7.763413815518427e-05,4.34317636118105e-05,-4.2943724641794444e-05,5.9286,6.9286
0.5859375,0.0003735258672556649,5.66123397070268e-05,3.401865841153599e-06,-4.196738567177842e-05,5.9286,6.9286
0.58984375,0.0005253770876859694,3.8550068761730395e-05,-1.3165386056305774e-05,-3.464484339665826e-05,5.9286,6.9286
0.59375,0.000600097529485008,2.1952306271458016e-05,-5.842843781185608e-06,-3.9526538246738366e-05,5.9286,6.9286
0.59765625,0.0005507619009063859,-1.937487901121521e-06,-7.307352236209642e-06,-3.9038368761730354e-05,5.9286,6.9286
0.6015625,0.0005439275281162737,-5.3683453311970684e-05,-8.251596352025633e-05,-1.7070741936369862e-05,5.9286,6.9286
0.60546875,0.0005595489516365301,-9.764921755550467e-05,-0.00017185097927672232,-2.9138268711375426e-06,5.9286,6.9286
0.609375,0.0006318285460105288,-0.00010399542086060881,-0.00018600789434195466,-3.890165841153565e-06,5.9286,6.9286
0.61328125,0.0006357339018905928,-0.00013670277635614557,-0.00020507701485008008,2.4255268711375773e-06,5.9286,6.9286
0.6171875,0.0005663833244266423,-0.00016599294545662622,-0.00022216294682536047,1.4141594511329842e-05,5.9286,6.9286
0.62109375,0.0005414866806912336,-0.00016306392854657814,-0.00023094999755550466,-2.425657386129532e-06,5.9286,6.9286
0.625,0.0005805402394918745,-0.0001655047759716182,-0.000246571421075761,4.866374296177632e-06,5.9286,6.9286
0.62890625,0.0005610134600915541,-0.0001523241998764019,-0.00021288772661020826,2.439315369649807e-05,5.9286,6.9286
0.6328125,0.0005737058667017624,-0.00014158447120622564,-0.0001918659281620508,8.283560691233709e-06,5.9286,6.9286
0.63671875,0.0006225533257953764,-0.00012889206459601736,-0.00018942508073701073,1.4491879011215552e-06,5.9286,6.9286
0.640625,0.0005004804439505608,-0.00012352220026092925,-0.0001615994200915541,-1.0236369146257707e-05,5.9286,6.9286
0.64453125,0.00046334905249713896,-0.00010692443777065688,-0.0001337737594460975,-2.2440606271457983e-05,5.9286,6.9286
0.6484375,0.0005810284089768826,-5.90533176470588e-05,-0.00011082979365072097,-3.122765700160218e-05,5.9286,6.9286
0.65234375,0.0005785875615518426,-2.4393284211490024e-05,-7.812243815518424e-05,-5.173077537193864e-05,5.9286,6.9286
0.65625,0.0005405103417212177,-2.146426730144196e-05,-5.612430073701074e-05,-5.075443640192262e-05,5.9286,6.9286
0.66015625,0.0004843708509452964,7.307221721217687e-06,-2.634596215152207e-05,-4.440823309681848e-05,5.9286,6.9286
0.6640625,0.0004941342406454566,3.610922133669034e-05,-5.842843781185608e-06,-5.4171622796978696e-05,5.9286,6.9286
0.66796875,0.0005209835623208972,5.612417022201878e-05,1.902328936140995e-05,-5.124260588693063e-05,5.9286,6.9286
0.671875,0.0005038976303456169,0.00010399529034561686,7.42169517601282e-05,-5.173077537193864e-05,5.9286,6.9286
0.67578125,0.0004687494274250401,0.00011619952747081714,0.00011180600210574503,-6.198233455710688e-05,5.9286,6.9286
0.6796875,0.00036717966395056074,0.00011717586644083316,0.00011864037489585719,-6.051782610208284e-05,5.9286,6.9286
0.68359375,0.00043601156133669033,0.00014304884914625773,0.00012254573077592128,-6.198233455710688e-05,5.9286,6.9286
0.6875,0.0005326996299610895,0.00014402518811627377,0.00014060800172121767,-6.689453999999997e-05,5.9286,6.9286
0.69140625,0.0004990159354955367,0.0001454896965712978,0.0001640401370016022,-7.616976021515219e-05,5.9286,6.9286
0.6953125,0.00043698790030670637,0.0001689218318516823,0.00018210240794689863,-7.665792970016021e-05,5.9286,6.9286
0.69921875,0.00039061179923094533,0.00017282718773174643,0.00018698410279697873,-7.470525176012816e-05,5.9286,6.9286
0.703125,0.0004116030870862898,0.00016745732339665828,0.00018307874691691464,-7.665792970016021e-05,5.9286,6.9286
0.70703125,0.00042234281575646604,0.00017380352670176243,0.00017673254361181052,-7.861060764019224e-05,5.9286,6.9286
0.7109375,0.00042478366318150605,0.00019381847558709087,0.0001689218318516823,-8.593314991531242e-05,5.9286,6.9286
0.71484375,0.00036132163013046463,0.00020117152845502406,0.00018063789949187458,-8.593314991531242e-05,5.9286,6.9286
0.71875,0.00034765288455024034,0.00018259057743190662,0.00018405508588693065,-8.349230249027235e-05,5.9286,6.9286
0.72265625,0.0003583926132204166,0.00016257562854657816,0.0001586702726665141,-8.153962455024032e-05,5.9286,6.9286
0.7265625,0.00037938390107576105,0.00016745732339665828,0.0001635519675165942,-7.763426867017622e-05,5.9286,6.9286
0.73046875,0.00041209125657129775,0.00018259057743190662,0.00016599281494163425,-7.812243815518424e-05,5.9286,6.9286
0.734375,0.00031296234052185856,0.00018356691640192266,0.0001669691539116503,-8.007511609521628e-05,5.9286,6.9286
0.73828125,0.0003139386794918746,0.00016550464545662626,0.00018259057743190662,-7.568159073014417e-05,5.9286,6.9286
0.7421875,0.0004140439345113298,0.00015330040833142598,0.00016452830648661023,-7.763426867017622e-05,5.9286,6.9286
0.74609375,0.0003940289856260014,0.00015427674730144199,0.00013230912047608147,-7.812243815518424e-05,5.9286,6.9286
0.75,0.00038865912129091326,0.0001591584421515221,0.00013767898481116962,-7.665792970016021e-05,5.9286,6.9286
0.75390625,0.00040183969738612956,0.00016208745906157016,0.00015720576421149007,-7.665792970016021e-05,5.9286,6.9286
0.7578125,0.00040183969738612956,0.0001508595609063859,0.00016111112009155413,-7.519342124513615e-05,5.9286,6.9286
0.76171875,0.0004364997308216983,0.00014793054399633786,0.00015232406936140994,-7.519342124513615e-05,5.9286,6.9286
0.765625,0.0004589555271320668,0.0001367026458411536,0.00014011983223620968,-6.491135146715494e-05,5.9286,6.9286
0.76953125,0.00038719461283588923,0.00013377362893110555,0.00013474996790112154,-6.539952095216295e-05,5.9286,6.9286
0.7734375,0.00032174939125200277,0.00014793054399633786,0.00015818210318150608,-6.982355691004805e-05,5.9286,6.9286
0.77734375,0.0004072095617212177,0.00013767898481116962,0.0001679454928816663,-6.7870878970016e-05,5.9286,6.9286
0.78125,0.00045456200176699474,0.00012352206974593728,0.0001279155951110094,-7.079989588006407e-05,5.9286,6.9286
0.78515625,0.00042429549369649806,0.00012449840871595332,0.00011375868004577707,-6.051782610208284e-05,5.9286,6.9286
0.7890625,0.00043405888339665826,0.00013084461202105745,0.0001191285443808652,-5.85651481620508e-05,5.9286,6.9286
0.79296875,0.00047997732558022427,0.00014793054399633786,0.0001191285443808652,-6.29586735271229e-05,5.9286,6.9286
0.796875,0.000511708342105745,0.0001415843406912337,0.00011327051056076907,-6.198233455710688e-05,5.9286,6.9286
0.80078125,0.000467773088455024,0.00012059305283588923,0.00010008993446555277,-6.442318198214692e-05,5.9286,6.9286
0.8046875,0.0004912052237354085,0.00012938010356603342,0.0001010662734355688,-6.539952095216295e-05,5.9286,6.9286
0.80859375,0.0004863235288853285,0.00014060800172121767,9.71609175555047e-05,-7.177623485008008e-05,5.9286,6.9286
0.8125,0.00048729986785534446,0.00015378857781643397,0.0001191285443808652,-6.835904845502402e-05,5.9286,6.9286
0.81640625,0.0004755838002151522,0.0001586702726665141,0.00012059305283588923,-5.8076978677042786e-05,5.9286,6.9286
0.8203125,0.00047167844433508815,0.0001459778660563058,7.714596867017625e-05,-5.8076978677042786e-05,5.9286,6.9286
0.82421875,0.0005175663759258411,0.00014890688296635387,4.050274670176243e-05,-6.051782610208284e-05,5.9286,6.9286
0.828125,0.00043259437494163423,0.00014207251017624172,3.4156543396658294e-05,-6.539952095216295e-05,5.9286,6.9286
0.83203125,0.0004135557650263218,0.00012938010356603342,4.831345846189061e-05,-6.982355691004805e-05,5.9286,6.9286
0.8359375,0.0005341641384161136,0.00013621447635614556,4.7825288976882595e-05,-7.128806536507208e-05,5.9286,6.9286
0.83984375,0.0005678478328816663,0.00013230912047608147,3.269203494163426e-05,-7.031172639505606e-05,5.9286,6.9286
0.84375,0.0006494026474708171,0.00012938010356603342,4.866374296177632e-06,-7.421708227512015e-05,5.9286,6.9286
0.84765625,0.0007495079024902724,0.0001230339002609293,1.6094272451361885e-05,-7.177623485008008e-05,5.9286,6.9286
0.8515625,0.000862275053527123,0.00011082966313572902,4.538444155184254e-05,-6.689453999999997e-05,5.9286,6.9286
0.85546875,0.0009452943765712978,0.00011131783262073704,5.514783125200276e-05,-7.079989588006407e-05,5.9286,6.9286
0.859375,0.00095456959678645,0.00012156939180590525,3.610922133669034e-05,-6.34468430121309e-05,5.9286,6.9286
0.86328125,0.0009033118008606088,9.569640910048068e-05,1.7070611421377907e-05,-5.221894485694665e-05,5.9286,6.9286
0.8671875,0.0008847613604303044,8.446851094529643e-05,1.7070611421377907e-05,-5.124260588693063e-05,5.9286,6.9286
0.87109375,0.0009643329864866102,0.00010497162931563287,1.1212577601281776e-05,-5.710063970702676e-05,5.9286,6.9286
0.875,-0.0009941114555870908,0.00011668769695582514,2.5857662151522106e-05,-5.758880919203477e-05,5.9286,6.9286
0.87890625,0.0009906941386770428,0.0001191285443808652,4.196725515678646e-05,-5.4171622796978696e-05,5.9286,6.9286
0.8828125,0.0009145396990157931,0.00011131783262073704,2.7322170606546137e-05,-5.221894485694665e-05,5.9286,6.9286
0.88671875,0.0008749979707301441,0.00010936515468070498,1.3165255541313818e-05,-5.075443640192262e-05,5.9286,6.9286
0.890625,0.0008862258688853285,0.00011229417159075305,1.5117933481345863e-05,-4.880175846189058e-05,5.9286,6.9286
0.89453125,0.0008549525112520027,0.00012254573077592128,3.5132882366674316e-05,-4.880175846189058e-05,5.9286,6.9286
0.8984375,0.0008422601046417944,0.00011180600210574503,1.8535119876401938e-05,-5.124260588693063e-05,5.9286,6.9286
0.90234375,0.000779774410560769,0.00010350712086060884,-2.536962318150605e-05,-4.7825419491874556e-05,5.9286,6.9286
0.90625,0.0007675701734355687,0.0001010662734355688,-3.318033494163422e-05,-4.3431894126802455e-05,5.9286,6.9286
0.91015625,0.0008071119017212177,0.00010692430725566493,5.842713266193654e-06,-4.392006361181047e-05,5.9286,6.9286
0.9140625,0.0007983248509910735,0.00010790064622568095,3.0251187516594204e-05,-4.489640258182648e-05,5.9286,6.9286
0.91796875,0.0007890496307759213,0.00010936515468070498,3.8550068761730395e-05,-3.708569082169831e-05,5.9286,6.9286
0.921875,0.0007167700364019226,0.00012547474768596933,4.5872611036850557e-05,-3.366850442664224e-05,5.9286,6.9286
0.92578125,0.0007270215955870909,8.153949403524835e-05,-9.260030176241686e-06,-3.65975213366903e-05,5.9286,6.9286
0.9296875,0.0008637395619821469,4.831345846189061e-05,-3.366850442664224e-05,-3.806202979171434e-05,5.9286,6.9286
0.93359375,0.0008320085454566262,8.690935837033648e-05,8.77173017624172e-06,-4.3431894126802455e-05,5.9286,6.9286
0.9375,0.0007685465124055848,8.886203631036852e-05,4.378204811169621e-06,-4.733725000686654e-05,5.9286,6.9286
0.94140625,0.0007279979345571068,7.079976536507211e-05,-6.819182751201631e-06,-3.464484339665826e-05,5.9286,6.9286
0.9453125,0.0007446262076401923,8.105132455024035e-05,-4.72979446097488e-07,-3.757386030670632e-05,5.9286,6.9286
0.94921875,0.0007490197330052643,8.153949403524835e-05,6.330882751201665e-06,-4.636091103685052e-05,5.9286,6.9286
0.953125,0.0007157936974319065,8.690935837033648e-05,2.7810340091554148e-05,-3.806202979171434e-05,5.9286,6.9286
0.95703125,0.00069040888421149,8.251583300526438e-05,3.5132882366674316e-05,-3.9038368761730354e-05,5.9286,6.9286
0.9609375,0.0006035147158800641,7.958681609521631e-05,3.4156543396658294e-05,-3.464484339665826e-05,5.9286,6.9286
0.96484375,0.0006528198338658732,9.032654476539255e-05,1.1212577601281776e-05,-3.464484339665826e-05,5.9286,6.9286
0.96875,0.0007514605804303044,9.472007013046466e-05,3.401865841153599e-06,-3.806202979171434e-05,5.9286,6.9286
0.97265625,0.0007279979345571068,9.667274807049669e-05,3.1227526486610226e-05,-3.464484339665826e-05,5.9286,6.9286
0.9765625,0.0006655122404760815,9.325556167544062e-05,4.538444155184254e-05,-3.366850442664224e-05,5.9286,6.9286
0.98046875,0.0006093727497001603,8.202766352025636e-05,4.0990916186770444e-05,-3.464484339665826e-05,5.9286,6.9286
0.984375,0.0006132781055802242,7.90986466102083e-05,3.90382382467384e-05,-3.415667391165024e-05,5.9286,6.9286
0.98828125,0.0006020502074250401,9.862542601052873e-05,3.0739357001602215e-05,-3.9526538246738366e-05,5.9286,6.9286
0.9921875,0.0006074200717601281,0.00010838881571068896,4.245542464179448e-05,-4.2455555156786426e-05,5.9286,6.9286
0.99609375,0.000553690917816434,8.593301940032045e-05,5.075430588693066e-05,-4.2455555156786426e-05,5.9286,6.9286
1.0,0.0005175663759258411,7.324061279011216e-05,3.0739357001602215e-05,-4.1479216186770404e-05,5.9286,6.9286
1.00390625,0.0004999922744655527,6.5887559922179e-05,3.269203494163426e-05,-3.2692165456626215e-05,5.9286,6.9286
1.0078125,0.0004990159354955367,7.079976536507211e-05,4.977796691691464e-05,-3.122765700160218e-05,5.9286,6.9286
1.01171875,0.0005414866806912336,8.056315506523234e-05,6.491122095216298e-05,-3.122765700160218e-05,5.9286,6.9286
1.015625,0.00047948915609521633,0.0001010662734355688,7.51932907301442e-05,-2.3905114726482013e-05,5.9286,6.9286
1.01953125,0.0004457749510368505,9.325556167544062e-05,5.417149228198674e-05,-2.0487928331425938e-05,5.9286,6.9286
1.0234375,0.00046826125794003205,6.295854301213094e-05,3.318020442664227e-05,-2.4393284211490024e-05,5.9286,6.9286
1.02734375,0.00045163298485694663,6.884708742504007e-05,3.562105185168232e-05,-2.732230112153809e-05,5.9286,6.9286
1.03125,0.00045944369661707487,8.349217197528039e-05,4.5872611036850557e-05,-3.366850442664224e-05,5.9286,6.9286
1.03515625,0.00038036024004577704,8.251583300526438e-05,5.71005091920348e-05,-3.5133012881666264e-05,5.9286,6.9286
1.0390625,0.00032907193352712296,6.491122095216298e-05,3.8550068761730395e-05,-3.806202979171434e-05,5.9286,6.9286
1.04296875,0.0003842655959258412,4.0990916186770444e-05,8.77173017624172e-06,-4.001470773174638e-05,5.9286,6.9286
1.046875,0.0003642506470405127,5.319515331197072e-05,3.220386545662624e-05,-1.999975884641793e-05,5.9286,6.9286
1.05078125,0.0003276074250720989,6.982342639505609e-05,7.324061279011216e-05,-1.170087760128174e-05,5.9286,6.9286
1.0546875,0.00030759247618677044,5.1730644856946685e-05,6.149403455710691e-05,-2.3416945241474e-05,5.9286,6.9286
1.05859375,0.00034765288455024034,2.829850957656216e-05,3.610922133669034e-05,-3.122765700160218e-05,5.9286,6.9286
1.0625,0.00031345051000686655,-1.5320553902477717e-08,8.77173017624172e-06,-2.7810470606546103e-05,5.9286,6.9286
1.06640625,0.0002924592221515221,-3.025131803158616e-05,-2.4393284211490024e-05,-1.170087760128174e-05,5.9286,6.9286
1.0703125,0.00026463356150606545,-4.733725000686654e-05,-3.415667391165024e-05,1.0724408116273763e-05,5.9286,6.9286
1.07421875,0.00021435210455024033,-7.568159073014417e-05,-4.684908052185853e-05,1.0236238631265752e-05,5.9286,6.9286
1.078125,0.00027390878172121766,-0.00013963179326619362,-0.00010985345468070495,1.937357386129566e-06,5.9286,6.9286
1.08203125,0.0003276074250720989,-0.00020849420124513616,-0.0001962594535271229,2.6345831636530114e-05,5.9286,6.9286
1.0859375,0.0003808484095307851,-0.00025291762438086517,-0.00025340579386587316,4.050274670176243e-05,5.9286,6.9286
1.08984375,0.0004140439345113298,-0.0002768379291462577,-0.0002787906070862897,2.878667906157017e-05,5.9286,6.9286
1.09375,0.00032907193352712296,-0.0003129624710368505,-0.0003075926067017624,3.7573729791714366e-05,5.9286,6.9286
1.09765625,0.00012254573077592128,-0.000334472438970016,-0.0003202850133119707,5.612417022201878e-05,5.9286,6.9286
1.1015625,-1.44931841611351e-06,-0.0003618099301304646,-0.0003476530150652323,5.417149228198674e-05,5.9286,6.9286
1.10546875,4.684895000686658e-05,-0.000378895862105745,-0.0003642507775555047,4.684895000686658e-05,5.9286,6.9286
1.109375,-6.3310132661936195e-06,-0.00034277132021515215,-0.00033691328639505604,4.977796691691464e-05,5.9286,6.9286
1.11328125,-1.999975884641793e-05,-0.00031589148794689855,-0.0003046635897917143,5.8076848162050824e-05,5.9286,6.9286
1.1171875,5.612417022201878e-05,-0.00030954528464179445,-0.00028367230193636984,5.612417022201878e-05,5.9286,6.9286
1.12109375,1.8535119876401938e-05,-0.00030563992876173036,-0.0002587756582009613,6.0029526102082876e-05,5.9286,6.9286
1.125,2.1464136786450005e-05,-0.0002939238611215381,-0.00025194128541084914,4.440810258182652e-05,5.9286,6.9286
1.12890625,2.439315369649807e-05,-0.00026658636996108946,-0.00024022521777065687,3.7573729791714366e-05,5.9286,6.9286
1.1328125,3.1227526486610226e-05,-0.00022460379425040053,-0.00020361250639505606,4.5872611036850557e-05,5.9286,6.9286
1.13671875,-3.5133012881666264e-05,-0.00020458884536507207,-0.00018844874176699472,6.344671249713895e-05,5.9286,6.9286
1.140625,-8.739765837033644e-05,-0.000201659828455024,-0.00017087464030670634,6.738257897001604e-05,5.9286,6.9286
1.14453125,-0.00016208758957656213,-0.00016794562339665823,-0.00013719094584115356,5.905318713206685e-05,5.9286,6.9286
1.1484375,-0.00026072833614099335,-0.00012791572562600135,-9.520837013046461e-05,6.295854301213094e-05,5.9286,6.9286
1.15234375,-0.00019772396198214693,-8.837399734035246e-05,-5.710063970702676e-05,2.878667906157017e-05,5.9286,6.9286
1.15625,-0.00018307887743190658,-3.855019927672234e-05,-3.890165841153565e-06,4.866374296177632e-06,5.9286,6.9286
1.16015625,-0.00029245935266651406,-2.2928775756465994e-05,3.7085560306706354e-05,9.259899661249731e-06,5.9286,6.9286
1.1640625,-0.0003935409466559853,-9.260030176241686e-06,4.5872611036850557e-05,-4.72979446097488e-07,5.9286,6.9286
1.16796875,-0.0003842657264408331,3.952640773174641e-05,7.177610433508813e-05,-1.4141725026321795e-05,5.9286,6.9286
1.171875,-0.0003398423033051041,5.954135661707486e-05,9.179105322041659e-05,-2.7810470606546103e-05,5.9286,6.9286
1.17578125,-0.00041062687863126576,7.42169517601282e-05,0.00010204261240558482,-3.1715826486610186e-05,5.9286,6.9286
1.1796875,-0.0004394288782467383,0.00010887698519569697,0.00013182095099107348,-2.9274979061570133e-05,5.9286,6.9286
1.18359375,-0.0004653018609521629,0.00011180600210574503,0.00014207251017624172,-2.9763148546578148e-05,5.9286,6.9286
1.1875,-0.0004277128106065461,0.00012986827305104144,0.00015037139142137792,-3.415667391165024e-05,5.9286,6.9286
1.19140625,-0.00041062687863126576,0.00017136267927672237,0.00018454325537193867,-3.562118236667428e-05,5.9286,6.9286
1.1953125,-0.0004335708444266422,0.0001816142384618906,0.0002221628163103685,-3.610935185168229e-05,5.9286,6.9286
1.19921875,-0.00036473894704051266,0.00017282718773174643,0.00022558000270542458,-4.392006361181047e-05,5.9286,6.9286
1.203125,-0.00043015365803158616,0.0001596466116365301,0.00020947040970016023,-4.7825419491874556e-05,5.9286,6.9286
1.20703125,-0.0004179494209063859,0.00017966156052185857,0.00021142308764019228,-4.9289927946898583e-05,5.9286,6.9286
1.2109375,-0.0002646336920210574,0.00021776929094529643,0.00023339071446555276,-5.465979228198671e-05,5.9286,6.9286
1.21484375,-0.0003075926067017624,0.00022558000270542458,0.0002524293243808652,-5.954148713206682e-05,5.9286,6.9286
1.21875,-0.0003500938624902724,0.00021776929094529643,0.00026463356150606545,-5.758880919203477e-05,5.9286,6.9286
1.22265625,-0.00034618850661020825,0.00021923379940032045,0.00026072820562600136,-5.514796176699472e-05,5.9286,6.9286
1.2265625,-0.0003202850133119707,0.00022167464682536052,0.00024217776519569695,-5.465979228198671e-05,5.9286,6.9286
1.23046875,-0.00030563992876173036,0.00022753268064545665,0.0002519411548958572,-5.465979228198671e-05,5.9286,6.9286
1.234375,-0.00032077318279697867,0.0002392487482856489,0.0002836721714213779,-4.733725000686654e-05,5.9286,6.9286
1.23828125,-0.0003637626080704967,0.00022753268064545665,0.0002787904765712978,-4.684908052185853e-05,5.9286,6.9286
1.2421875,-0.0004111150481162737,0.0002084940707301442,0.0002612163751110094,-4.880175846189058e-05,5.9286,6.9286
1.24609375,-0.0003178441658869306,0.0002221628163103685,0.0002695152563561456,-4.2943724641794444e-05,5.9286,6.9286
1.25,-0.00026072833614099335,0.00024998847695582513,0.0002826958324513619,-4.392006361181047e-05,5.9286,6.9286
1.25390625,-0.0002753734206912337,0.00024998847695582513,0.0002968527475165942,-4.636091103685052e-05,5.9286,6.9286
1.2578125,-0.0003662034554955367,0.00022899718910048068,0.0002973409170016022,-3.855019927672234e-05,5.9286,6.9286
1.26171875,-0.0005668716244266423,0.00021093491815518426,0.0002631690530510414,-4.001470773174638e-05,5.9286,6.9286
1.265625,-0.0006567253202609293,0.00021874562991531246,0.0002651217309910735,-4.733725000686654e-05,5.9286,6.9286
1.26953125,-0.0007211636922819868,0.00023583156189059282,0.0002836721714213779,-4.684908052185853e-05,5.9286,6.9286
1.2734375,-0.000736815626395056,0.0002343670534355688,0.00026414539202105746,-4.97780974319066e-05,5.9286,6.9286
1.27734375,-0.0007622004396154726,0.00021874562991531246,0.00025926369717097734,-4.97780974319066e-05,5.9286,6.9286
1.28125,-0.0007949077951110093,0.00021044674867017627,0.0002485239685008011,-3.9526538246738366e-05,5.9286,6.9286
1.28515625,-0.0008115055576012818,0.00020019518948500802,0.00024168959571068896,-3.708569082169831e-05,5.9286,6.9286
1.2890625,-0.0007582950837354084,0.00018796044176699477,0.0002480357990157931,-4.050287721675439e-05,5.9286,6.9286
1.29296875,-0.0006742994217212176,0.0002045887148500801,0.0002651217309910735,-4.1479216186770404e-05,5.9286,6.9286
1.296875,-0.0007617122701304645,0.00021776929094529643,0.00027390878172121766,-4.1479216186770404e-05,5.9286,6.9286
1.30078125,-0.0007299507430121309,0.00020068335897001601,0.00024510678210574506,-4.196738567177842e-05,5.9286,6.9286
1.3046875,-0.0005790758615518425,0.0001894249502220188,0.0002397369177706569,-3.708569082169831e-05,5.9286,6.9286
1.30859375,-0.0005878629122819867,0.00018747227228198672,0.00026219271408102544,-3.2692165456626215e-05,5.9286,6.9286
1.3125,-0.0005473448450263218,0.000198700170437171,0.0002836721714213779,-2.8298640091554114e-05,5.9286,6.9286
1.31640625,-0.0005161019979858092,0.00020654139279011218,0.0002826958324513619,-2.2440606271457983e-05,5.9286,6.9286
1.3203125,-0.0004872999983703364,0.00018991311970702678,0.0002485239685008011,-2.536962318150605e-05,5.9286,6.9286
1.32421875,-0.0004882763373403525,0.00017282718773174643,0.00022655634167544062,-3.1715826486610186e-05,5.9286,6.9286
1.328125,-0.0004853473204303044,0.00017233901824673838,0.0002309498670405127,-2.634596215152207e-05,5.9286,6.9286
1.33203125,-0.00044919226794689856,0.0001913776281620508,0.00025535834129091325,-2.097609781643395e-05,5.9286,6.9286
1.3359375,-0.0004277128106065461,0.00018454325537193867,0.0002700034258411536,-2.7810470606546103e-05,5.9286,6.9286
1.33984375,-0.00034521216764019227,0.00016599281494163425,0.00024022508725566493,-3.464484339665826e-05,5.9286,6.9286
1.34375,-0.0003295602335271229,0.00017624437412680247,0.0002123994266102083,-2.3905114726482013e-05,5.9286,6.9286
1.34765625,-0.0003217495217669947,0.00018698410279697873,0.00021532844352025636,-1.7070741936369862e-05,5.9286,6.9286
1.3515625,-0.0003071044372167544,0.00017868522155184253,0.00024413044313572902,-1.8535250391393893e-05,5.9286,6.9286
1.35546875,-0.000335448777940032,0.00016159928957656217,0.00025584651077592124,-1.755891142137787e-05,5.9286,6.9286
1.359375,-0.00024364240416571296,0.0001513477303913939,0.00023778423983062487,-2.097609781643395e-05,5.9286,6.9286
1.36328125,-0.00021728125197528037,0.00014988322193636988,0.00021337576558022432,-1.755891142137787e-05,5.9286,6.9286
1.3671875,-0.00022899731961547261,0.0001591584421515221,0.00019333030610208288,-1.4141725026321795e-05,5.9286,6.9286
1.37109375,-0.0001845433858869306,0.0001718508487617304,0.0001943066450720989,-2.097609781643395e-05,5.9286,6.9286
1.375,-0.00013523826790112152,0.00017477986567177844,0.000199188339922179,-2.0487928331425938e-05,5.9286,6.9286
1.37890625,-0.0001655047759716182,0.00015281223884641796,0.00018991311970702678,-1.951158936140992e-05,5.9286,6.9286
1.3828125,-0.00018942508073701073,0.00013767898481116962,0.0001718508487617304,-1.951158936140992e-05,5.9286,6.9286
1.38671875,-0.00011327064107576103,0.0001371908153261616,0.0001855195943419547,-1.999975884641793e-05,5.9286,6.9286
1.390625,-0.00016745745391165024,0.0001332854594460975,0.00019186579764705886,-2.2440606271457983e-05,5.9286,6.9286
1.39453125,-0.00018063803000686654,0.00014451335760128176,0.00020702956227512017,-2.146426730144196e-05,5.9286,6.9286
1.3984375,-6.149416507209886e-05,0.0001635519675165942,0.0002485239685008011,-2.146426730144196e-05,5.9286,6.9286
1.40234375,-5.90533176470588e-05,0.0001240102392309453,0.000198700170437171,-1.755891142137787e-05,5.9286,6.9286
1.40625,-6.29586735271229e-05,7.958681609521631e-05,0.00014011983223620968,-1.9023419876401904e-05,5.9286,6.9286
1.41015625,-6.1005995587090846e-05,8.251583300526438e-05,0.00014451335760128176,-1.8535250391393893e-05,5.9286,6.9286
1.4140625,-2.8786809576562122e-05,0.00011180600210574503,0.00016062295060654614,-2.195243678644997e-05,5.9286,6.9286
1.41796875,-1.2189047086289752e-05,9.032654476539255e-05,0.00013279728996108952,-3.025131803158616e-05,5.9286,6.9286
1.421875,-2.732230112153809e-05,5.2218814341954696e-05,0.00010448345983062488,-2.9763148546578148e-05,5.9286,6.9286
1.42578125,-3.5133012881666264e-05,4.831345846189061e-05,9.520823961547266e-05,-2.8786809576562122e-05,5.9286,6.9286
1.4296875,1.365342502632183e-05,4.391993309681851e-05,8.73975278553445e-05,-3.2692165456626215e-05,5.9286,6.9286
1.43359375,0.00010057810395056078,4.7337119491874584e-05,0.0001191285443808652,-3.318033494163422e-05,5.9286,6.9286
1.4375,8.349217197528039e-05,5.465966176699475e-05,0.0001313327815060655,-3.318033494163422e-05,5.9286,6.9286
1.44140625,4.7337119491874584e-05,3.8550068761730395e-05,6.247037352712293e-05,-3.366850442664224e-05,5.9286,6.9286
1.4453125,2.292864524147404e-05,4.684895000686658e-05,5.1730644856946685e-05,-3.366850442664224e-05,5.9286,6.9286
1.44921875,-9.61148931105499e-07,6.442305146715498e-05,9.862542601052873e-05,-3.415667391165024e-05,5.9286,6.9286
1.453125,8.73975278553445e-05,7.226427382009615e-05,0.00012498657820096134,-2.8298640091554114e-05,5.9286,6.9286
1.45703125,0.00012498657820096134,8.83738668253605e-05,0.00014646603554131383,-2.2440606271457983e-05,5.9286,6.9286
1.4609375,8.105132455024035e-05,8.593301940032045e-05,0.00013474996790112154,-2.195243678644997e-05,5.9286,6.9286
1.46484375,2.3904984211490058e-05,8.886203631036852e-05,0.00013230912047608147,-1.5118063996337817e-05,5.9286,6.9286
1.46875,5.026613640192266e-05,0.00010350712086060884,0.00014011983223620968,-1.3165386056305774e-05,5.9286,6.9286
1.47265625,6.149403455710691e-05,0.00010985332416571298,0.0001635519675165942,-1.170087760128174e-05,5.9286,6.9286
1.4765625,7.324061279011216e-05,0.00011424684953078509,0.00017380352670176243,-9.260030176241686e-06,5.9286,6.9286
1.48046875,0.00011278234107576106,0.00011424684953078509,0.0001591584421515221,-1.0236369146257707e-05,5.9286,6.9286
1.484375,1.4629763996337851e-05,0.00010301895137560084,0.0001640401370016022,-3.401996356145554e-06,5.9286,6.9286
1.48828125,3.5132882366674316e-05,0.0001010662734355688,0.00016257562854657816,-6.819182751201631e-06,5.9286,6.9286
1.4921875,0.0001371908153261616,0.00011619952747081714,0.00017868522155184253,-1.2677216571297761e-05,5.9286,6.9286
1.49609375,0.00012449840871595332,0.00011571135798580912,0.0001811260689768826,-9.260030176241686e-06,5.9286,6.9286
1.5,6.835891794003205e-05,9.960176498054477e-05,0.00014451335760128176,-5.354674296177598e-06,5.9286,6.9286
1.50390625,-1.44931841611351e-06,9.325556167544062e-05,0.00014939505245136189,-1.5320553902477717e-08,5.9286,6.9286
1.5078125,-1.3653555541313785e-05,0.000110341493650721,0.00017136267927672237,2.4255268711375773e-06,5.9286,6.9286
1.51171875,-3.366850442664224e-05,0.0001274274256260014,0.0001669691539116503,-1.5320553902477717e-08,5.9286,6.9286
1.515625,-3.318033494163422e-05,0.00011766403592584118,0.00016941000133669033,-3.401996356145554e-06,5.9286,6.9286
1.51953125,-7.421708227512015e-05,9.472007013046466e-05,0.0001630637980315862,-3.401996356145554e-06,5.9286,6.9286
1.5234375,-0.0001254748782009613,7.90986466102083e-05,0.00014451335760128176,-5.842843781185608e-06,5.9286,6.9286
1.52734375,-3.9038368761730354e-05,8.83738668253605e-05,0.0001367026458411536,-1.3653555541313785e-05,5.9286,6.9286
1.53125,1.4629763996337851e-05,0.00010594796828564891,0.00014011983223620968,-1.3165386056305774e-05,5.9286,6.9286
1.53515625,-2.3416945241474e-05,0.00011082966313572902,0.00015183589987640195,-9.748199661249696e-06,5.9286,6.9286
1.5390625,-7.909877712520026e-05,9.423190064545664e-05,0.00014744237451132981,-8.283691206225664e-06,5.9286,6.9286
1.54296875,-9.91137260105287e-05,7.079976536507211e-05,0.00013279728996108952,-1.072453863126572e-05,5.9286,6.9286
1.546875,-7.372891279011213e-05,6.835891794003205e-05,0.00013182095099107348,-7.795521721217652e-06,5.9286,6.9286
1.55078125,-5.612430073701074e-05,8.935020579537654e-05,0.00013182095099107348,-2.425657386129532e-06,5.9286,6.9286
1.5546875,-4.684908052185853e-05,8.983837528038453e-05,0.00013474996790112154,-2.9138268711375426e-06,5.9286,6.9286
1.55859375,-9.813738704051269e-05,7.861047712520029e-05,0.00012547474768596933,1.4491879011215552e-06,5.9286,6.9286
1.5625,-7.763426867017622e-05,7.42169517601282e-05,9.423190064545664e-05,7.795391206225697e-06,5.9286,6.9286
1.56640625,-4.733725000686654e-05,7.763413815518427e-05,0.00010350712086060884,1.2188916571297797e-05,5.9286,6.9286
1.5703125,-2.488145369649804e-05,0.00011131783262073704,0.0001630637980315862,8.283560691233709e-06,5.9286,6.9286
1.57421875,1.9999628331425975e-05,9.569640910048068e-05,0.0001454896965712978,-4.72979446097488e-07,5.9286,6.9286
1.578125,-6.247050404211488e-05,4.391993309681851e-05,7.324061279011216e-05,-3.890165841153565e-06,5.9286,6.9286
1.58203125,-6.29586735271229e-05,3.171569597161824e-05,4.7825288976882595e-05,-9.748199661249696e-06,5.9286,6.9286
1.5859375,5.71005091920348e-05,5.417149228198674e-05,5.612417022201878e-05,-1.3165386056305774e-05,5.9286,6.9286
1.58984375,5.465966176699475e-05,5.856501764705884e-05,6.393488198214696e-05,-6.3310132661936195e-06,5.9286,6.9286
1.59375,4.7825288976882595e-05,6.149403455710691e-05,6.5887559922179e-05,-1.9023419876401904e-05,5.9286,6.9286
1.59765625,3.1227526486610226e-05,5.1730644856946685e-05,4.880162794689862e-05,-2.2928775756465994e-05,5.9286,6.9286
1.6015625,5.954135661707486e-05,3.0739357001602215e-05,3.171569597161824e-05,-2.097609781643395e-05,5.9286,6.9286
1.60546875,7.42169517601282e-05,3.171569597161824e-05,4.440810258182652e-05,-2.3905114726482013e-05,5.9286,6.9286
1.609375,7.812230764019227e-05,6.10058650720989e-05,6.247037352712293e-05,-1.999975884641793e-05,5.9286,6.9286
1.61328125,6.933525691004809e-05,6.051769558709088e-05,6.051769558709088e-05,-1.9023419876401904e-05,5.9286,6.9286
1.6171875,1.8535119876401938e-05,6.295854301213094e-05,4.34317636118105e-05,-1.804708090638588e-05,5.9286,6.9286
1.62109375,7.763413815518427e-05,7.177610433508813e-05,3.46447128816663e-05,-1.8535250391393893e-05,5.9286,6.9286
1.625,0.0001459778660563058,6.884708742504007e-05,3.8550068761730395e-05,-1.609440296635384e-05,5.9286,6.9286
1.62890625,0.00012449840871595332,7.812230764019227e-05,5.124247537193867e-05,-8.283691206225664e-06,5.9286,6.9286
1.6328125,9.325556167544062e-05,7.90986466102083e-05,5.319515331197072e-05,-2.9138268711375426e-06,5.9286,6.9286
1.63671875,9.032654476539255e-05,7.812230764019227e-05,5.270698382696271e-05,-8.283691206225664e-06,5.9286,6.9286
1.640625,9.374373116044863e-05,6.491122095216298e-05,3.269203494163426e-05,-1.170087760128174e-05,5.9286,6.9286
1.64453125,8.642118888532846e-05,6.689440948500802e-05,3.1227526486610226e-05,-1.3653555541313785e-05,5.9286,6.9286
1.6484375,0.00013914349326619364,7.51932907301442e-05,3.610922133669034e-05,-1.7070741936369862e-05,5.9286,6.9286
1.65234375,0.00011473501901579311,8.202766352025636e-05,4.34317636118105e-05,-1.560623348134583e-05,5.9286,6.9286
1.65625,9.61845785854887e-05,8.202766352025636e-05,5.368332279697873e-05,-1.4629894511329806e-05,5.9286,6.9286
1.66015625,0.00010008993446555277,6.884708742504007e-05,4.245542464179448e-05,-1.3165386056305774e-05,5.9286,6.9286
1.6640625,7.958681609521631e-05,6.491122095216298e-05,2.878667906157017e-05,-1.2677216571297761e-05,5.9286,6.9286
1.66796875,0.0001459778660563058,6.491122095216298e-05,2.9274848546578178e-05,-1.072453863126572e-05,5.9286,6.9286
1.671875,0.00011473501901579311,7.42169517601282e-05,3.8550068761730395e-05,-1.0236369146257707e-05,5.9286,6.9286
1.67578125,9.960176498054477e-05,7.90986466102083e-05,3.3668373911650276e-05,-1.5118063996337817e-05,5.9286,6.9286
1.6796875,0.00018405508588693065,6.640624000000002e-05,2.976301803158619e-05,-1.658257245136185e-05,5.9286,6.9286
1.68359375,0.00014939505245136189,5.465966176699475e-05,2.0487797816433986e-05,-6.3310132661936195e-06,5.9286,6.9286
1.6875,0.0001332854594460975,6.10058650720989e-05,2.7810340091554148e-05,-5.842843781185608e-06,5.9286,6.9286
1.69140625,0.00012010488335088121,7.47051212451362e-05,4.538444155184254e-05,-1.2677216571297761e-05,5.9286,6.9286
1.6953125,0.0001313327815060655,7.861047712520029e-05,6.393488198214696e-05,-2.9138268711375426e-06,5.9286,6.9286
1.69921875,0.00012986827305104144,6.640624000000002e-05,5.8076848162050824e-05,3.890035326161609e-06,5.9286,6.9286
1.703125,0.00010204261240558482,4.7337119491874584e-05,4.0990916186770444e-05,4.866374296177632e-06,5.9286,6.9286
1.70703125,0.00011229417159075305,5.319515331197072e-05,6.640624000000002e-05,9.259899661249731e-06,5.9286,6.9286
1.7109375,7.958681609521631e-05,5.905318713206685e-05,7.324061279011216e-05,6.819052236209676e-06,5.9286,6.9286
1.71484375,0.00014207251017624172,5.417149228198674e-05,6.10058650720989e-05,4.378204811169621e-06,5.9286,6.9286
1.71875,0.00019821200095216298,6.835891794003205e-05,6.295854301213094e-05,5.354543781185643e-06,5.9286,6.9286
1.72265625,0.00015183589987640195,6.247037352712293e-05,4.1479085671778456e-05,2.4255268711375773e-06,5.9286,6.9286
1.7265625,0.00014793054399633786,4.977796691691464e-05,1.7070611421377907e-05,9.610184161135442e-07,5.9286,6.9286
1.73046875,0.00017477986567177844,6.491122095216298e-05,3.269203494163426e-05,2.4255268711375773e-06,5.9286,6.9286
1.734375,0.00021581661300526436,7.665779918516825e-05,6.0029526102082876e-05,9.610184161135442e-07,5.9286,6.9286
1.73828125,0.00016989817082169834,6.689440948500802e-05,6.5887559922179e-05,6.819052236209676e-06,5.9286,6.9286
1.7421875,0.00013767898481116962,5.368332279697873e-05,6.10058650720989e-05,1.2677086056305808e-05,5.9286,6.9286
1.74609375,0.00012205756129091327,5.856501764705884e-05,4.538444155184254e-05,1.5606102966353874e-05,5.9286,6.9286
1.75,0.00013474996790112154,6.738257897001604e-05,4.636078052185856e-05,1.3165255541313818e-05,5.9286,6.9286
1.75390625,0.00014256067966124974,8.398034146028841e-05,8.056315506523234e-05,1.4491879011215552e-06,5.9286,6.9286
1.7578125,0.00015232406936140994,6.738257897001604e-05,8.398034146028841e-05,-1.937487901121521e-06,5.9286,6.9286
1.76171875,0.000199188339922179,2.7322170606546137e-05,1.9999628331425975e-05,4.7284893110553325e-07,5.9286,6.9286
1.765625,0.00012498657820096134,3.0251187516594204e-05,8.283560691233709e-06,2.4255268711375773e-06,5.9286,6.9286
1.76953125,0.0001508595609063859,2.976301803158619e-05,1.902328936140995e-05,3.401865841153599e-06,5.9286,6.9286
1.7734375,0.00027342061223620967,4.7825288976882595e-05,1.3165255541313818e-05,-3.890165841153565e-06,5.9286,6.9286
1.77734375,0.00022850901961547266,3.952640773174641e-05,4.866374296177632e-06,-6.3310132661936195e-06,5.9286,6.9286
1.78125,0.00019577115352712292,4.5872611036850557e-05,8.77173017624172e-06,-1.0236369146257707e-05,5.9286,6.9286
1.78515625,0.00020507688433508815,4.391993309681851e-05,-4.866504811169587e-06,-1.8535250391393893e-05,5.9286,6.9286
1.7890625,0.00023631973137560084,2.829850957656216e-05,-3.890165841153565e-06,-2.634596215152207e-05,5.9286,6.9286
1.79296875,0.0002485239685008011,4.9289797431906635e-05,2.292864524147404e-05,-2.195243678644997e-05,5.9286,6.9286
1.796875,0.00022411549425040055,5.905318713206685e-05,2.3904984211490058e-05,-1.170087760128174e-05,5.9286,6.9286
1.80078125,0.00018259057743190662,5.66123397070268e-05,1.4629763996337851e-05,-7.795521721217652e-06,5.9286,6.9286
1.8046875,0.0001230339002609293,4.4896272066834534e-05,-6.819182751201631e-06,-5.354674296177598e-06,5.9286,6.9286
1.80859375,0.00020507688433508815,4.196725515678646e-05,9.610184161135442e-07,-4.866504811169587e-06,5.9286,6.9286
1.8125,0.0002924592221515221,5.5636000737010774e-05,2.5857662151522106e-05,-3.401996356145554e-06,5.9286,6.9286
1.81640625,0.0002465712905607691,5.417149228198674e-05,2.878667906157017e-05,-4.72979446097488e-07,5.9286,6.9286
1.8203125,0.00018405508588693065,3.3668373911650276e-05,3.318020442664227e-05,2.913696356145588e-06,5.9286,6.9286
1.82421875,0.00017526803515678646,3.562105185168232e-05,1.2677086056305808e-05,4.7284893110553325e-07,5.9286,6.9286
1.828125,0.00020751773176012819,5.368332279697873e-05,-1.2189047086289752e-05,-4.3783353261615755e-06,5.9286,6.9286
1.83203125,0.0002221628163103685,6.0029526102082876e-05,-8.283691206225664e-06,-2.9138268711375426e-06,5.9286,6.9286
1.8359375,0.00024559495159075305,5.368332279697873e-05,5.842713266193654e-06,2.913696356145588e-06,5.9286,6.9286
1.83984375,0.00022167464682536052,4.4896272066834534e-05,1.365342502632183e-05,1.937357386129566e-06,5.9286,6.9286
1.84375,0.00021337576558022432,3.3668373911650276e-05,2.4255268711375773e-06,-1.937487901121521e-06,5.9286,6.9286
1.84765625,0.0002119112571252003,3.318020442664227e-05,-3.401996356145554e-06,-4.72979446097488e-07,5.9286,6.9286
1.8515625,0.00022167464682536052,4.538444155184254e-05,8.283560691233709e-06,4.378204811169621e-06,5.9286,6.9286
1.85546875,0.0002709797648111696,5.270698382696271e-05,1.5117933481345863e-05,9.748069146257742e-06,5.9286,6.9286
1.859375,0.00020702956227512017,4.684895000686658e-05,1.5117933481345863e-05,8.77173017624172e-06,5.9286,6.9286
1.86328125,0.0002084940707301442,2.829850957656216e-05,-7.307352236209642e-06,7.795391206225697e-06,5.9286,6.9286
1.8671875,0.00031296234052185856,3.1227526486610226e-05,-7.795521721217652e-06,6.819052236209676e-06,5.9286,6.9286
1.87109375,0.00030173444236667433,4.440810258182652e-05,1.3165255541313818e-05,2.913696356145588e-06,5.9286,6.9286
1.875,0.00027488512069123375,4.391993309681851e-05,1.3165255541313818e-05,4.7284893110553325e-07,5.9286,6.9286
1.87890625,0.00026024003614099337,3.562105185168232e-05,9.748069146257742e-06,2.4255268711375773e-06,5.9286,6.9286
1.8828125,0.00027244427326619363,1.755878090638592e-05,-1.7070741936369862e-05,-9.61148931105499e-07,5.9286,6.9286
1.88671875,0.0002597518666559854,2.3416814726482047e-05,-2.732230112153809e-05,-4.866504811169587e-06,5.9286,6.9286
1.890625,0.00026072820562600136,3.46447128816663e-05,-1.4141725026321795e-05,-3.401996356145554e-06,5.9286,6.9286
1.89453125,0.00024315410416571298,3.269203494163426e-05,-1.5320553902477717e-08,1.937357386129566e-06,5.9286,6.9286
1.8984375,0.0001947948145571069,3.1227526486610226e-05,-4.72979446097488e-07,1.0724408116273763e-05,5.9286,6.9286
1.90234375,0.00023729607034561685,1.4141594511329842e-05,-2.8298640091554114e-05,1.2677086056305808e-05,5.9286,6.9286
1.90625,0.000289530205241474,6.330882751201665e-06,-4.3431894126802455e-05,7.307221721217687e-06,5.9286,6.9286
1.91015625,0.0003061279677317464,4.866374296177632e-06,-3.5133012881666264e-05,6.819052236209676e-06,5.9286,6.9286
1.9140625,0.00026414539202105746,-1.3653555541313785e-05,-6.198233455710688e-05,-3.401996356145554e-06,5.9286,6.9286
1.91796875,0.00025487017180590525,-4.196738567177842e-05,-0.00010155457343556876,-6.819182751201631e-06,5.9286,6.9286
1.921875,0.00031882037434195466,-6.1005995587090846e-05,-0.00013523826790112152,-2.0487928331425938e-05,5.9286,6.9286
1.92578125,0.00030319895082169836,-4.636091103685052e-05,-0.00013133291202105743,-1.9023419876401904e-05,5.9286,6.9286
1.9296875,0.000332000950437171,-6.539952095216295e-05,-0.00013182108150606544,1.1212577601281776e-05,5.9286,6.9286
1.93359375,0.0003349604779400321,-0.0001391436237811856,-0.00018259070794689858,2.292864524147404e-05,5.9286,6.9286
1.9375,0.00031100966258182654,-0.00019430677558709083,-0.00023436718395056076,1.6582441936369896e-05,5.9286,6.9286
1.94140625,0.0003012462728816663,-0.00021581674352025632,-0.0002602401666559853,2.829850957656216e-05,5.9286,6.9286
1.9453125,0.000330536441982147,-0.0002538939633508812,-0.0003031990813366903,3.952640773174641e-05,5.9286,6.9286
1.94921875,0.00038963546026092924,-0.00026121650562600134,-0.0003232140302220188,4.34317636118105e-05,5.9286,6.9286
1.953125,0.0003139386794918746,-0.0002714680648111696,-0.0003222376912520027,6.640624000000002e-05,5.9286,6.9286
1.95703125,0.00025828735820096135,-0.0002929475221515221,-0.0003212613522819867,6.491122095216298e-05,5.9286,6.9286
1.9609375,0.0003178440353719387,-0.0002768379291462577,-0.0003110097930968185,7.51932907301442e-05,5.9286,6.9286
1.96484375,0.00028074315451132986,-0.0002856249798764019,-0.00033297741992217893,7.812230764019227e-05,5.9286,6.9286
1.96875,0.00023290254498054477,-0.0002558466412909132,-0.00028025511554131375,7.42169517601282e-05,5.9286,6.9286
1.97265625,0.00023143803652552074,-0.00023631986189059278,-0.00024754776004577705,9.862542601052873e-05,5.9286,6.9286
1.9765625,0.0002211864773403525,-0.0002319263365255207,-0.000245106912620737,9.374373116044863e-05,5.9286,6.9286
1.98046875,0.00016013478112153812,-0.0001879605722819867,-0.00018844874176699472,9.569640910048068e-05,5.9286,6.9286
1.984375,0.00011717586644083316,-0.00017673267412680245,-0.0001738036572167544,0.00010643613777065691,5.9286,6.9286
1.98828125,0.00011327051056076907,-0.00013279742047608145,-0.00012742755614099334,9.71609175555047e-05,5.9286,6.9286
1.9921875,8.83738668253605e-05,-7.812243815518424e-05,-6.689453999999997e-05,9.667274807049669e-05,5.9286,6.9286
1.99609375,0.00013035644253604946,-6.539952095216295e-05,-6.1005995587090846e-05,9.667274807049669e-05,5.9286,6.9286
2.0,0.0001332854594460975,-4.440823309681848e-05,-5.270711434195466e-05,8.73975278553445e-05,5.9286,6.9286
2.00390625,9.569640910048068e-05,-3.366850442664224e-05,-3.610935185168229e-05,8.593301940032045e-05,5.9286,6.9286
2.0078125,8.83738668253605e-05,-2.5857792666514058e-05,-3.22039959716182e-05,8.446851094529643e-05,5.9286,6.9286
2.01171875,7.812230764019227e-05,1.937357386129566e-06,-1.121270811627373e-05,7.324061279011216e-05,5.9286,6.9286
2.015625,0.00011082966313572902,2.5369492666514095e-05,2.292864524147404e-05,6.539939043717099e-05,5.9286,6.9286
2.01953125,8.73975278553445e-05,2.0975967301441994e-05,9.748069146257742e-06,6.539939043717099e-05,5.9286,6.9286
2.0234375,7.51932907301442e-05,1.5117933481345863e-05,-1.2677216571297761e-05,6.640624000000002e-05,5.9286,6.9286
2.02734375,7.616962970016024e-05,1.7070611421377907e-05,-1.072453863126572e-05,6.051769558709088e-05,5.9286,6.9286
2.03125,9.130288373540858e-05,3.5132882366674316e-05,6.819052236209676e-06,5.368332279697873e-05,5.9286,6.9286
2.03515625,7.958681609521631e-05,4.4896272066834534e-05,3.806189927672238e-05,5.417149228198674e-05,5.9286,6.9286
2.0390625,8.78856973403525e-05,2.3416814726482047e-05,3.220386545662624e-05,4.831345846189061e-05,5.9286,6.9286
2.04296875,0.00011619952747081714,2.5857662151522106e-05,5.354543781185643e-06,4.636078052185856e-05,5.9286,6.9286
2.046875,8.83738668253605e-05,4.391993309681851e-05,4.378204811169621e-06,4.636078052185856e-05,5.9286,6.9286
2.05078125,0.00011864037489585719,5.954135661707486e-05,2.878667906157017e-05,3.952640773174641e-05,5.9286,6.9286
2.0546875,0.00012693925614099338,6.247037352712293e-05,5.417149228198674e-05,3.806189927672238e-05,5.9286,6.9286
2.05859375,6.10058650720989e-05,4.7337119491874584e-05,3.1227526486610226e-05,3.806189927672238e-05,5.9286,6.9286
2.0625,9.227922270542459e-05,3.659739082169834e-05,-1.44931841611351e-06,2.878667906157017e-05,5.9286,6.9286
2.06640625,5.368332279697873e-05,4.050274670176243e-05,-4.72979446097488e-07,2.3416814726482047e-05,5.9286,6.9286
2.0703125,6.198220404211491e-05,5.905318713206685e-05,3.7573729791714366e-05,2.2440475756466028e-05,5.9286,6.9286
2.07421875,0.0001689218318516823,8.251583300526438e-05,4.5872611036850557e-05,2.0975967301441994e-05,5.9286,6.9286
2.078125,0.00011717586644083316,7.812230764019227e-05,1.9999628331425975e-05,2.0975967301441994e-05,5.9286,6.9286
2.08203125,4.391993309681851e-05,6.198220404211491e-05,9.259899661249731e-06,1.8046950391393927e-05,5.9286,6.9286
2.0859375,3.7085560306706354e-05,5.905318713206685e-05,1.937357386129566e-06,1.6094272451361885e-05,5.9286,6.9286
2.08984375,0.00011717586644083316,6.738257897001604e-05,9.748069146257742e-06,1.5606102966353874e-05,5.9286,6.9286
2.09375,0.00017575620464179448,7.616962970016024e-05,3.3668373911650276e-05,1.2188916571297797e-05,5.9286,6.9286
2.09765625,0.00014988322193636988,7.324061279011216e-05,4.880162794689862e-05,9.748069146257742e-06,5.9286,6.9286
2.1015625,0.00010301895137560084,6.884708742504007e-05,4.34317636118105e-05,1.1212577601281776e-05,5.9286,6.9286
2.10546875,0.00010790064622568095,6.835891794003205e-05,4.050274670176243e-05,1.6094272451361885e-05,5.9286,6.9286
2.109375,0.00017429169618677045,6.787074845502406e-05,3.1227526486610226e-05,1.0236238631265752e-05,5.9286,6.9286
2.11328125,0.00017624437412680247,8.007498558022432e-05,2.1952306271458016e-05,1.3165255541313818e-05,5.9286,6.9286
2.1171875,0.00013523813738612958,7.324061279011216e-05,3.3668373911650276e-05,2.3416814726482047e-05,5.9286,6.9286
2.12109375,0.00011229417159075305,6.149403455710691e-05,3.562105185168232e-05,2.292864524147404e-05,5.9286,6.9286
2.125,0.0001279155951110094,5.368332279697873e-05,1.755878090638592e-05,1.8535119876401938e-05,5.9286,6.9286
2.12890625,0.0001313327815060655,5.856501764705884e-05,9.259899661249731e-06,1.951145884641796e-05,5.9286,6.9286
2.1328125,0.00014646603554131383,7.763413815518427e-05,2.3904984211490058e-05,1.365342502632183e-05,5.9286,6.9286
2.13671875,0.00018991311970702678,7.128793485008013e-05,3.1227526486610226e-05,3.401865841153599e-06,5.9286,6.9286
2.140625,7.372878227512018e-05,5.905318713206685e-05,1.6582441936369896e-05,1.3165255541313818e-05,5.9286,6.9286
2.14453125,4.5872611036850557e-05,4.34317636118105e-05,-8.771860691233675e-06,1.1700747086289786e-05,5.9286,6.9286
2.1484375,0.00015476491678645,4.001457721675442e-05,6.330882751201665e-06,4.378204811169621e-06,5.9286,6.9286
2.15234375,0.00013084461202105745,5.514783125200276e-05,1.6094272451361885e-05,1.5606102966353874e-05,5.9286,6.9286
2.15625,0.0001410961712062257,5.8076848162050824e-05,2.3416814726482047e-05,1.902328936140995e-05,5.9286,6.9286
2.16015625,0.00012010488335088121,3.8550068761730395e-05,3.1227526486610226e-05,1.6094272451361885e-05,5.9286,6.9286
2.1640625,8.251583300526438e-05,2.1952306271458016e-05,-1.937487901121521e-06,2.2440475756466028e-05,5.9286,6.9286
2.16796875,0.00011180600210574503,3.171569597161824e-05,5.354543781185643e-06,2.1464136786450005e-05,5.9286,6.9286
2.171875,0.00013279728996108952,5.368332279697873e-05,2.976301803158619e-05,1.7070611421377907e-05,5.9286,6.9286
2.17578125,9.813725652552073e-05,4.977796691691464e-05,3.8550068761730395e-05,1.8046950391393927e-05,5.9286,6.9286
2.1796875,5.71005091920348e-05,3.269203494163426e-05,4.001457721675442e-05,2.1464136786450005e-05,5.9286,6.9286
2.18359375,0.00011864037489585719,2.9274848546578178e-05,2.5369492666514095e-05,1.9999628331425975e-05,5.9286,6.9286
2.1875,0.00018063789949187458,3.220386545662624e-05,1.4629763996337851e-05,2.1464136786450005e-05,5.9286,6.9286
2.19140625,0.00015525308627145802,4.001457721675442e-05,2.1952306271458016e-05,2.6345831636530114e-05,5.9286,6.9286
2.1953125,0.00011131783262073704,4.4896272066834534e-05,3.8550068761730395e-05,2.7322170606546137e-05,5.9286,6.9286
2.19921875,9.472007013046466e-05,4.001457721675442e-05,2.3416814726482047e-05,2.7322170606546137e-05,5.9286,6.9286
2.203125,0.00012547474768596933,4.7825288976882595e-05,1.1212577601281776e-05,2.3904984211490058e-05,5.9286,6.9286
2.20703125,0.00013523813738612958,4.7337119491874584e-05,3.171569597161824e-05,2.488132318150608e-05,5.9286,6.9286
2.2109375,0.00014646603554131383,4.880162794689862e-05,5.026613640192266e-05,2.3904984211490058e-05,5.9286,6.9286
2.21484375,0.00010936515468070498,6.0029526102082876e-05,5.5636000737010774e-05,2.0487797816433986e-05,5.9286,6.9286
2.21875,0.00010497162931563287,4.7337119491874584e-05,3.8550068761730395e-05,1.7070611421377907e-05,5.9286,6.9286
2.22265625,9.374373116044863e-05,5.270698382696271e-05,2.6345831636530114e-05,1.8046950391393927e-05,5.9286,6.9286
2.2265625,9.764908704051272e-05,4.5872611036850557e-05,4.294359412680248e-05,2.3416814726482047e-05,5.9286,6.9286
2.23046875,0.00013621447635614556,4.831345846189061e-05,5.417149228198674e-05,2.7810340091554148e-05,5.9286,6.9286
2.234375,7.958681609521631e-05,6.051769558709088e-05,5.905318713206685e-05,3.1227526486610226e-05,5.9286,6.9286
2.23828125,8.642118888532846e-05,6.247037352712293e-05,6.933525691004809e-05,3.4156543396658294e-05,5.9286,6.9286
2.2421875,0.00013474996790112154,8.544484991531244e-05,8.495668043030443e-05,2.7322170606546137e-05,5.9286,6.9286
2.24609375,0.00011229417159075305,6.442305146715498e-05,6.491122095216298e-05,1.9999628331425975e-05,5.9286,6.9286
2.25,0.00012010488335088121,1.6582441936369896e-05,2.1464136786450005e-05,2.6834001121538125e-05,5.9286,6.9286
2.25390625,0.00012352206974593728,3.269203494163426e-05,4.001457721675442e-05,2.6345831636530114e-05,5.9286,6.9286
2.2578125,0.00012596291717097735,2.2440475756466028e-05,3.610922133669034e-05,1.9999628331425975e-05,5.9286,6.9286
2.26171875,0.00011229417159075305,-7.795521721217652e-06,-4.72979446097488e-07,1.365342502632183e-05,5.9286,6.9286
2.265625,9.569640910048068e-05,3.890035326161609e-06,-8.771860691233675e-06,5.842713266193654e-06,5.9286,6.9286
2.26953125,8.251583300526438e-05,1.9999628331425975e-05,4.866374296177632e-06,2.913696356145588e-06,5.9286,6.9286
2.2734375,5.417149228198674e-05,1.2188916571297797e-05,4.4896272066834534e-05,2.4255268711375773e-06,5.9286,6.9286
2.27734375,0.00010692430725566493,1.7070611421377907e-05,1.5606102966353874e-05,1.4491879011215552e-06,5.9286,6.9286
2.28125,0.00015183589987640195,2.3904984211490058e-05,-1.8535250391393893e-05,5.354543781185643e-06,5.9286,6.9286
2.28515625,0.0001371908153261616,1.2188916571297797e-05,-5.842843781185608e-06,1.365342502632183e-05,5.9286,6.9286
2.2890625,0.00010301895137560084,2.439315369649807e-05,8.283560691233709e-06,1.8535119876401938e-05,5.9286,6.9286
2.29296875,8.593301940032045e-05,3.952640773174641e-05,3.1227526486610226e-05,1.9999628331425975e-05,5.9286,6.9286
2.296875,0.00010692430725566493,3.806189927672238e-05,4.0990916186770444e-05,1.8046950391393927e-05,5.9286,6.9286
2.30078125,8.251583300526438e-05,2.878667906157017e-05,2.2440475756466028e-05,1.5117933481345863e-05,5.9286,6.9286
2.3046875,9.520823961547266e-05,2.0975967301441994e-05,9.259899661249731e-06,1.7070611421377907e-05,5.9286,6.9286
2.30859375,8.886203631036852e-05,3.8550068761730395e-05,2.7810340091554148e-05,1.8535119876401938e-05,5.9286,6.9286
2.3125,8.153949403524835e-05,5.514783125200276e-05,3.171569597161824e-05,1.4629763996337851e-05,5.9286,6.9286
2.31640625,7.616962970016024e-05,5.417149228198674e-05,2.6834001121538125e-05,8.77173017624172e-06,5.9286,6.9286
2.3203125,0.00010790064622568095,4.7337119491874584e-05,3.659739082169834e-05,2.4255268711375773e-06,5.9286,6.9286
2.32421875,0.000110341493650721,5.1730644856946685e-05,1.8535119876401938e-05,1.4491879011215552e-06,5.9286,6.9286
2.328125,6.10058650720989e-05,5.856501764705884e-05,4.866374296177632e-06,3.890035326161609e-06,5.9286,6.9286
2.33203125,0.00010301895137560084,5.270698382696271e-05,2.976301803158619e-05,5.842713266193654e-06,5.9286,6.9286
2.3359375,0.00012352206974593728,4.9289797431906635e-05,3.952640773174641e-05,5.354543781185643e-06,5.9286,6.9286
2.33984375,8.007498558022432e-05,4.977796691691464e-05,3.46447128816663e-05,2.913696356145588e-06,5.9286,6.9286
2.34375,6.835891794003205e-05,2.5857662151522106e-05,1.6094272451361885e-05,1.937357386129566e-06,5.9286,6.9286
2.34765625,8.105132455024035e-05,2.3904984211490058e-05,2.6834001121538125e-05,3.890035326161609e-06,5.9286,6.9286
2.3515625,0.00011229417159075305,3.5132882366674316e-05,4.831345846189061e-05,4.866374296177632e-06,5.9286,6.9286
2.35546875,0.00012547474768596933,3.0739357001602215e-05,3.7085560306706354e-05,6.330882751201665e-06,5.9286,6.9286
2.359375,0.00010350712086060884,2.829850957656216e-05,4.7825288976882595e-05,6.330882751201665e-06,5.9286,6.9286
2.36328125,5.124247537193867e-05,2.2440475756466028e-05,3.0739357001602215e-05,7.795391206225697e-06,5.9286,6.9286
2.3671875,5.354543781185643e-06,4.196725515678646e-05,8.283560691233709e-06,1.8535119876401938e-05,5.9286,6.9286
2.37109375,7.079976536507211e-05,6.0029526102082876e-05,2.1952306271458016e-05,1.9999628331425975e-05,5.9286,6.9286
2.375,0.00013621447635614556,6.539939043717099e-05,4.001457721675442e-05,1.6582441936369896e-05,5.9286,6.9286
2.37890625,8.83738668253605e-05,6.10058650720989e-05,4.0990916186770444e-05,1.5117933481345863e-05,5.9286,6.9286
2.3828125,6.295854301213094e-05,4.0990916186770444e-05,2.878667906157017e-05,1.5606102966353874e-05,5.9286,6.9286
2.38671875,6.344671249713895e-05,3.0251187516594204e-05,1.8046950391393927e-05,2.292864524147404e-05,5.9286,6.9286
2.390625,0.00012059305283588923,3.269203494163426e-05,3.1227526486610226e-05,2.3904984211490058e-05,5.9286,6.9286
2.39453125,0.00010692430725566493,3.610922133669034e-05,6.10058650720989e-05,1.4629763996337851e-05,5.9286,6.9286
2.3984375,7.665779918516825e-05,4.245542464179448e-05,5.612417022201878e-05,1.3165255541313818e-05,5.9286,6.9286
2.40234375,3.7085560306706354e-05,2.976301803158619e-05,3.659739082169834e-05,1.8046950391393927e-05,5.9286,6.9286
2.40625,3.3668373911650276e-05,3.0739357001602215e-05,3.0251187516594204e-05,1.5606102966353874e-05,5.9286,6.9286
2.41015625,8.202766352025636e-05,5.368332279697873e-05,3.269203494163426e-05,9.748069146257742e-06,5.9286,6.9286
2.4140625,7.568146021515222e-05,5.514783125200276e-05,4.636078052185856e-05,1.4141594511329842e-05,5.9286,6.9286
2.41796875,0.0001015544429205768,5.026613640192266e-05,4.001457721675442e-05,2.2440475756466028e-05,5.9286,6.9286
2.421875,8.983837528038453e-05,4.050274670176243e-05,2.0487797816433986e-05,2.7810340091554148e-05,5.9286,6.9286
2.42578125,6.149403455710691e-05,3.4156543396658294e-05,2.5857662151522106e-05,2.7810340091554148e-05,5.9286,6.9286
2.4296875,9.227922270542459e-05,4.391993309681851e-05,5.1730644856946685e-05,2.5369492666514095e-05,5.9286,6.9286
2.43359375,0.00010399529034561686,4.831345846189061e-05,6.5887559922179e-05,3.0739357001602215e-05,5.9286,6.9286
2.4375,0.00011180600210574503,4.684895000686658e-05,6.738257897001604e-05,3.90382382467384e-05,5.9286,6.9286
2.44140625,2.6834001121538125e-05,3.3668373911650276e-05,4.391993309681851e-05,4.0990916186770444e-05,5.9286,6.9286
2.4453125,5.417149228198674e-05,2.9274848546578178e-05,2.1464136786450005e-05,3.269203494163426e-05,5.9286,6.9286
2.44921875,0.00015476491678645,5.026613640192266e-05,4.538444155184254e-05,2.829850957656216e-05,5.9286,6.9286
2.453125,0.00010594796828564891,5.905318713206685e-05,6.344671249713895e-05,2.7322170606546137e-05,5.9286,6.9286
2.45703125,6.5887559922179e-05,4.294359412680248e-05,4.831345846189061e-05,1.902328936140995e-05,5.9286,6.9286
2.4609375,-1.0236369146257707e-05,3.171569597161824e-05,3.952640773174641e-05,2.3416814726482047e-05,5.9286,6.9286
2.46484375,5.270698382696271e-05,3.4156543396658294e-05,2.878667906157017e-05,2.9274848546578178e-05,5.9286,6.9286
2.46875,0.00012254573077592128,3.3668373911650276e-05,3.171569597161824e-05,3.269203494163426e-05,5.9286,6.9286
2.47265625,0.00011180600210574503,3.7085560306706354e-05,4.5872611036850557e-05,3.46447128816663e-05,5.9286,6.9286
2.4765625,7.90986466102083e-05,5.124247537193867e-05,6.0029526102082876e-05,4.391993309681851e-05,5.9286,6.9286
2.48046875,4.538444155184254e-05,4.196725515678646e-05,5.758867867704282e-05,4.050274670176243e-05,5.9286,6.9286
2.484375,5.417149228198674e-05,3.46447128816663e-05,4.196725515678646e-05,2.7322170606546137e-05,5.9286,6.9286
2.48828125,5.612417022201878e-05,4.7825288976882595e-05,3.7085560306706354e-05,3.3668373911650276e-05,5.9286,6.9286
2.4921875,7.226427382009615e-05,6.10058650720989e-05,5.71005091920348e-05,3.171569597161824e-05,5.9286,6.9286
2.49609375,5.026613640192266e-05,5.417149228198674e-05,5.954135661707486e-05,2.7322170606546137e-05,5.9286,6.9286
2.5,3.659739082169834e-05,4.977796691691464e-05,2.7322170606546137e-05,2.5857662151522106e-05,5.9286,6.9286
2.50390625,4.196725515678646e-05,4.196725515678646e-05,1.5606102966353874e-05,2.878667906157017e-05,5.9286,6.9286
2.5078125,7.861047712520029e-05,3.220386545662624e-05,2.0975967301441994e-05,3.1227526486610226e-05,5.9286,6.9286
2.51171875,0.00013182095099107348,4.440810258182652e-05,2.6834001121538125e-05,2.976301803158619e-05,5.9286,6.9286
2.515625,5.856501764705884e-05,4.684895000686658e-05,3.610922133669034e-05,3.269203494163426e-05,5.9286,6.9286
2.51953125,2.0487797816433986e-05,3.318020442664227e-05,2.1952306271458016e-05,2.976301803158619e-05,5.9286,6.9286
2.5234375,9.179105322041659e-05,2.488132318150608e-05,1.9999628331425975e-05,2.829850957656216e-05,5.9286,6.9286
2.52734375,8.105132455024035e-05,4.684895000686658e-05,3.5132882366674316e-05,2.9274848546578178e-05,5.9286,6.9286
2.53125,7.665779918516825e-05,6.835891794003205e-05,4.245542464179448e-05,3.5132882366674316e-05,5.9286,6.9286
2.53515625,7.324061279011216e-05,6.149403455710691e-05,5.612417022201878e-05,3.7573729791714366e-05,5.9286,6.9286
2.5390625,8.593301940032045e-05,5.270698382696271e-05,4.5872611036850557e-05,3.1227526486610226e-05,5.9286,6.9286
2.54296875,9.472007013046466e-05,4.684895000686658e-05,2.9274848546578178e-05,3.0251187516594204e-05,5.9286,6.9286
2.546875,8.349217197528039e-05,4.001457721675442e-05,2.7810340091554148e-05,2.9274848546578178e-05,5.9286,6.9286
2.55078125,6.835891794003205e-05,4.4896272066834534e-05,3.610922133669034e-05,3.0251187516594204e-05,5.9286,6.9286
2.5546875,3.269203494163426e-05,4.4896272066834534e-05,3.562105185168232e-05,3.610922133669034e-05,5.9286,6.9286
2.55859375,6.10058650720989e-05,3.3668373911650276e-05,1.8535119876401938e-05,3.318020442664227e-05,5.9286,6.9286
2.5625,0.00010399529034561686,2.9274848546578178e-05,9.748069146257742e-06,2.1952306271458016e-05,5.9286,6.9286
2.56640625,7.763413815518427e-05,2.0975967301441994e-05,5.354543781185643e-06,2.878667906157017e-05,5.9286,6.9286
2.5703125,6.5887559922179e-05,4.5872611036850557e-05,3.562105185168232e-05,3.806189927672238e-05,5.9286,6.9286
2.57421875,6.738257897001604e-05,6.539939043717099e-05,5.026613640192266e-05,2.829850957656216e-05,5.9286,6.9286
2.578125,9.032654476539255e-05,5.270698382696271e-05,2.7322170606546137e-05,3.0739357001602215e-05,5.9286,6.9286
2.58203125,9.227922270542459e-05,4.294359412680248e-05,1.7070611421377907e-05,3.46447128816663e-05,5.9286,6.9286
2.5859375,9.911359549553675e-05,5.319515331197072e-05,2.6345831636530114e-05,2.7322170606546137e-05,5.9286,6.9286
2.58984375,8.78856973403525e-05,5.66123397070268e-05,3.7573729791714366e-05,2.7322170606546137e-05,5.9286,6.9286
2.59375,9.61845785854887e-05,4.34317636118105e-05,3.8550068761730395e-05,3.0251187516594204e-05,5.9286,6.9286
2.59765625,7.958681609521631e-05,3.952640773174641e-05,5.124247537193867e-05,2.7810340091554148e-05,5.9286,6.9286
2.6015625,6.198220404211491e-05,4.050274670176243e-05,4.7337119491874584e-05,2.6834001121538125e-05,5.9286,6.9286
2.60546875,0.00011522318850080111,5.514783125200276e-05,1.5606102966353874e-05,3.1227526486610226e-05,5.9286,6.9286
2.609375,4.831345846189061e-05,6.295854301213094e-05,1.6094272451361885e-05,2.829850957656216e-05,5.9286,6.9286
2.61328125,3.46447128816663e-05,4.9289797431906635e-05,3.1227526486610226e-05,2.7810340091554148e-05,5.9286,6.9286
2.6171875,0.00013963166275120166,3.4156543396658294e-05,2.7322170606546137e-05,3.5132882366674316e-05,5.9286,6.9286
2.62109375,0.0001240102392309453,3.4156543396658294e-05,2.3416814726482047e-05,2.878667906157017e-05,5.9286,6.9286
2.625,9.179105322041659e-05,1.8535119876401938e-05,9.259899661249731e-06,1.8046950391393927e-05,5.9286,6.9286
2.62890625,9.764908704051272e-05,1.8046950391393927e-05,1.2188916571297797e-05,2.292864524147404e-05,5.9286,6.9286
2.6328125,0.00011375868004577707,4.5872611036850557e-05,3.952640773174641e-05,2.7810340091554148e-05,5.9286,6.9286
2.63671875,8.349217197528039e-05,4.880162794689862e-05,5.514783125200276e-05,2.5857662151522106e-05,5.9286,6.9286
2.640625,8.495668043030443e-05,3.1227526486610226e-05,4.7337119491874584e-05,2.292864524147404e-05,5.9286,6.9286
2.64453125,4.977796691691464e-05,1.8535119876401938e-05,1.2677086056305808e-05,2.5369492666514095e-05,5.9286,6.9286
2.6484375,6.330882751201665e-06,2.6345831636530114e-05,1.1700747086289786e-05,2.439315369649807e-05,5.9286,6.9286
2.65234375,0.00010057810395056078,4.1479085671778456e-05,3.659739082169834e-05,1.2188916571297797e-05,5.9286,6.9286
2.65625,0.00014353701863126575,4.538444155184254e-05,4.5872611036850557e-05,9.259899661249731e-06,5.9286,6.9286
2.66015625,0.00010838881571068896,2.6345831636530114e-05,4.294359412680248e-05,1.6094272451361885e-05,5.9286,6.9286
2.6640625,8.495668043030443e-05,1.9999628331425975e-05,4.294359412680248e-05,1.6582441936369896e-05,5.9286,6.9286
2.66796875,7.47051212451362e-05,3.1227526486610226e-05,4.538444155184254e-05,1.755878090638592e-05,5.9286,6.9286
2.671875,9.61845785854887e-05,4.196725515678646e-05,5.417149228198674e-05,2.6834001121538125e-05,5.9286,6.9286
2.67578125,9.032654476539255e-05,4.636078052185856e-05,5.270698382696271e-05,2.878667906157017e-05,5.9286,6.9286
2.6796875,8.105132455024035e-05,3.90382382467384e-05,3.7573729791714366e-05,2.5857662151522106e-05,5.9286,6.9286
2.68359375,5.612417022201878e-05,3.3668373911650276e-05,2.7810340091554148e-05,2.829850957656216e-05,5.9286,6.9286
2.6875,7.275244330510416e-05,4.1479085671778456e-05,3.952640773174641e-05,2.5857662151522106e-05,5.9286,6.9286
2.69140625,8.398034146028841e-05,4.7337119491874584e-05,6.149403455710691e-05,2.0975967301441994e-05,5.9286,6.9286
2.6953125,4.9289797431906635e-05,4.4896272066834534e-05,5.124247537193867e-05,2.0975967301441994e-05,5.9286,6.9286
2.69921875,6.5887559922179e-05,4.7825288976882595e-05,3.562105185168232e-05,2.2440475756466028e-05,5.9286,6.9286
2.703125,3.318020442664227e-05,3.806189927672238e-05,3.1227526486610226e-05,2.3904984211490058e-05,5.9286,6.9286
2.70703125,3.7085560306706354e-05,3.952640773174641e-05,2.292864524147404e-05,2.2440475756466028e-05,5.9286,6.9286
2.7109375,0.00013084461202105745,4.9289797431906635e-05,2.878667906157017e-05,2.292864524147404e-05,5.9286,6.9286
2.71484375,0.00011327051056076907,3.46447128816663e-05,4.880162794689862e-05,2.488132318150608e-05,5.9286,6.9286
2.71875,6.933525691004809e-05,4.196725515678646e-05,5.1730644856946685e-05,2.439315369649807e-05,5.9286,6.9286
2.72265625,6.051769558709088e-05,4.196725515678646e-05,6.0029526102082876e-05,2.5369492666514095e-05,5.9286,6.9286
2.7265625,0.00010545979880064089,2.878667906157017e-05,3.806189927672238e-05,2.5369492666514095e-05,5.9286,6.9286
2.73046875,0.00011473501901579311,4.4896272066834534e-05,2.439315369649807e-05,2.976301803158619e-05,5.9286,6.9286
2.734375,8.446851094529643e-05,5.5636000737010774e-05,4.538444155184254e-05,3.0251187516594204e-05,5.9286,6.9286
2.73828125,6.0029526102082876e-05,3.659739082169834e-05,4.0990916186770444e-05,2.6345831636530114e-05,5.9286,6.9286
2.7421875,1.9999628331425975e-05,2.6345831636530114e-05,1.7070611421377907e-05,2.5369492666514095e-05,5.9286,6.9286
2.74609375,8.642118888532846e-05,3.659739082169834e-05,8.283560691233709e-06,2.5857662151522106e-05,5.9286,6.9286
2.75,0.00012889193408102543,4.7337119491874584e-05,2.0487797816433986e-05,2.6834001121538125e-05,5.9286,6.9286
2.75390625,0.00011229417159075305,4.880162794689862e-05,4.636078052185856e-05,2.488132318150608e-05,5.9286,6.9286
2.7578125,9.569640910048068e-05,2.3904984211490058e-05,5.368332279697873e-05,2.6834001121538125e-05,5.9286,6.9286
2.76171875,4.7825288976882595e-05,2.1952306271458016e-05,4.391993309681851e-05,3.0739357001602215e-05,5.9286,6.9286
2.765625,8.73975278553445e-05,2.3904984211490058e-05,2.878667906157017e-05,3.1227526486610226e-05,5.9286,6.9286
2.76953125,8.83738668253605e-05,2.976301803158619e-05,3.4156543396658294e-05,3.46447128816663e-05,5.9286,6.9286
2.7734375,8.202766352025636e-05,3.952640773174641e-05,5.758867867704282e-05,3.659739082169834e-05,5.9286,6.9286
2.77734375,3.46447128816663e-05,3.1227526486610226e-05,3.562105185168232e-05,3.610922133669034e-05,5.9286,6.9286
2.78125,3.806189927672238e-05,3.3668373911650276e-05,2.0487797816433986e-05,4.001457721675442e-05,5.9286,6.9286
2.78515625,7.861047712520029e-05,2.9274848546578178e-05,2.6834001121538125e-05,3.8550068761730395e-05,5.9286,6.9286
2.7890625,6.787074845502406e-05,2.878667906157017e-05,2.488132318150608e-05,2.878667906157017e-05,5.9286,6.9286
2.79296875,0.00011619952747081714,3.4156543396658294e-05,2.976301803158619e-05,2.488132318150608e-05,5.9286,6.9286
2.796875,7.324061279011216e-05,2.5857662151522106e-05,3.7573729791714366e-05,2.7322170606546137e-05,5.9286,6.9286
2.80078125,4.4896272066834534e-05,1.4629763996337851e-05,2.1464136786450005e-05,2.976301803158619e-05,5.9286,6.9286
2.8046875,0.00013279728996108952,1.4141594511329842e-05,-5.842843781185608e-06,2.6345831636530114e-05,5.9286,6.9286
2.80859375,0.0001274274256260014,1.5117933481345863e-05,4.866374296177632e-06,3.1227526486610226e-05,5.9286,6.9286
2.8125,0.00012645108665598537,2.878667906157017e-05,3.610922133669034e-05,3.318020442664227e-05,5.9286,6.9286
2.81640625,0.00010643613777065691,3.562105185168232e-05,4.34317636118105e-05,3.610922133669034e-05,5.9286,6.9286
2.8203125,8.105132455024035e-05,3.0739357001602215e-05,3.659739082169834e-05,3.806189927672238e-05,5.9286,6.9286
2.82421875,9.61845785854887e-05,3.220386545662624e-05,1.5117933481345863e-05,2.9274848546578178e-05,5.9286,6.9286
2.828125,0.00011327051056076907,4.001457721675442e-05,2.3416814726482047e-05,2.976301803158619e-05,5.9286,6.9286
2.83203125,9.911359549553675e-05,4.636078052185856e-05,4.0990916186770444e-05,3.1227526486610226e-05,5.9286,6.9286
2.8359375,5.270698382696271e-05,4.0990916186770444e-05,3.562105185168232e-05,3.1227526486610226e-05,5.9286,6.9286
2.83984375,8.202766352025636e-05,3.46447128816663e-05,2.829850957656216e-05,2.9274848546578178e-05,5.9286,6.9286
2.84375,0.00012986827305104144,3.0251187516594204e-05,1.5606102966353874e-05,2.6345831636530114e-05,5.9286,6.9286
2.84765625,0.00012693925614099338,3.0739357001602215e-05,1.8046950391393927e-05,2.6834001121538125e-05,5.9286,6.9286
2.8515625,0.00010741247674067293,3.4156543396658294e-05,3.8550068761730395e-05,2.9274848546578178e-05,5.9286,6.9286
2.85546875,7.324061279011216e-05,2.5857662151522106e-05,3.46447128816663e-05,4.4896272066834534e-05,5.9286,6.9286
2.859375,0.00012254573077592128,2.1952306271458016e-05,1.5117933481345863e-05,4.050274670176243e-05,5.9286,6.9286
2.86328125,9.423190064545664e-05,1.9999628331425975e-05,7.307221721217687e-06,2.976301803158619e-05,5.9286,6.9286
2.8671875,6.247037352712293e-05,2.0975967301441994e-05,1.4141594511329842e-05,2.6345831636530114e-05,5.9286,6.9286
2.87109375,8.983837528038453e-05,3.7085560306706354e-05,3.0251187516594204e-05,2.0975967301441994e-05,5.9286,6.9286
2.875,9.667274807049669e-05,4.538444155184254e-05,2.7322170606546137e-05,2.829850957656216e-05,5.9286,6.9286
2.87890625,7.03115958800641e-05,3.0251187516594204e-05,1.365342502632183e-05,2.7810340091554148e-05,5.9286,6.9286
2.8828125,7.616962970016024e-05,1.4629763996337851e-05,-2.9138268711375426e-06,1.6582441936369896e-05,5.9286,6.9286
2.88671875,0.00013572630687113757,2.439315369649807e-05,1.937357386129566e-06,2.3416814726482047e-05,5.9286,6.9286
2.890625,6.198220404211491e-05,2.7322170606546137e-05,3.0739357001602215e-05,3.7085560306706354e-05,5.9286,6.9286
2.89453125,5.514783125200276e-05,3.3668373911650276e-05,3.7085560306706354e-05,3.5132882366674316e-05,5.9286,6.9286
2.8984375,0.00013865532378118563,3.610922133669034e-05,2.0487797816433986e-05,3.4156543396658294e-05,5.9286,6.9286
2.90234375,8.78856973403525e-05,1.2677086056305808e-05,7.307221721217687e-06,3.318020442664227e-05,5.9286,6.9286
2.90625,5.758867867704282e-05,2.2440475756466028e-05,3.0251187516594204e-05,4.196725515678646e-05,5.9286,6.9286
2.91015625,9.569640910048068e-05,5.514783125200276e-05,3.952640773174641e-05,4.294359412680248e-05,5.9286,6.9286
2.9140625,0.00010741247674067293,5.66123397070268e-05,3.8550068761730395e-05,3.90382382467384e-05,5.9286,6.9286
2.91796875,6.5887559922179e-05,4.001457721675442e-05,5.319515331197072e-05,3.7573729791714366e-05,5.9286,6.9286
2.921875,2.3904984211490058e-05,4.050274670176243e-05,3.610922133669034e-05,4.1479085671778456e-05,5.9286,6.9286
2.92578125,4.245542464179448e-05,4.831345846189061e-05,1.755878090638592e-05,4.9289797431906635e-05,5.9286,6.9286
2.9296875,3.318020442664227e-05,5.465966176699475e-05,2.1464136786450005e-05,3.3668373911650276e-05,5.9286,6.9286
2.93359375,8.202766352025636e-05,6.344671249713895e-05,3.806189927672238e-05,2.1952306271458016e-05,5.9286,6.9286
2.9375,0.0001313327815060655,5.758867867704282e-05,4.294359412680248e-05,2.829850957656216e-05,5.9286,6.9286
2.94140625,8.544484991531244e-05,5.1730644856946685e-05,2.5857662151522106e-05,3.0739357001602215e-05,5.9286,6.9286
2.9453125,5.465966176699475e-05,4.5872611036850557e-05,2.6345831636530114e-05,3.318020442664227e-05,5.9286,6.9286
2.94921875,6.0029526102082876e-05,4.7337119491874584e-05,2.6345831636530114e-05,3.952640773174641e-05,5.9286,6.9286
2.953125,0.00012352206974593728,6.884708742504007e-05,3.4156543396658294e-05,3.952640773174641e-05,5.9286,6.9286
2.95703125,0.00010741247674067293,6.344671249713895e-05,3.4156543396658294e-05,3.8550068761730395e-05,5.9286,6.9286
2.9609375,5.8076848162050824e-05,6.491122095216298e-05,2.439315369649807e-05,3.7085560306706354e-05,5.9286,6.9286
2.96484375,3.318020442664227e-05,6.295854301213094e-05,1.6582441936369896e-05,2.976301803158619e-05,5.9286,6.9286
2.96875,6.295854301213094e-05,3.220386545662624e-05,9.259899661249731e-06,2.1464136786450005e-05,5.9286,6.9286
2.97265625,7.568146021515222e-05,3.0739357001602215e-05,2.3904984211490058e-05,2.3416814726482047e-05,5.9286,6.9286
2.9765625,7.177610433508813e-05,4.1479085671778456e-05,2.3904984211490058e-05,1.951145884641796e-05,5.9286,6.9286
2.98046875,8.642118888532846e-05,2.488132318150608e-05,3.401865841153599e-06,1.5117933481345863e-05,5.9286,6.9286
2.984375,1.7070611421377907e-05,3.3668373911650276e-05,8.77173017624172e-06,2.5369492666514095e-05,5.9286,6.9286
2.98828125,4.636078052185856e-05,4.7337119491874584e-05,1.3165255541313818e-05,2.5857662151522106e-05,5.9286,6.9286
2.9921875,0.00014451335760128176,4.977796691691464e-05,2.7322170606546137e-05,2.439315369649807e-05,5.9286,6.9286
2.99609375,0.0001191285443808652,5.5636000737010774e-05,4.050274670176243e-05,2.3904984211490058e-05,5.9286,6.9286
3.0,0.00010008993446555277,5.758867867704282e-05,4.7825288976882595e-05,2.3416814726482047e-05,5.9286,6.9286
3.00390625,0.00010301895137560084,6.198220404211491e-05,4.9289797431906635e-05,2.3416814726482047e-05,5.9286,6.9286
3.0078125,0.00012254573077592128,3.8550068761730395e-05,1.1700747086289786e-05,2.3904984211490058e-05,5.9286,6.9286
3.01171875,0.00011180600210574503,3.5132882366674316e-05,7.307221721217687e-06,1.8046950391393927e-05,5.9286,6.9286
3.015625,0.00010301895137560084,3.90382382467384e-05,1.902328936140995e-05,1.4629763996337851e-05,5.9286,6.9286
3.01953125,6.738257897001604e-05,1.2188916571297797e-05,-1.937487901121521e-06,2.1952306271458016e-05,5.9286,6.9286
3.0234375,2.829850957656216e-05,2.488132318150608e-05,1.1212577601281776e-05,2.7322170606546137e-05,5.9286,6.9286
3.02734375,8.690935837033648e-05,5.124247537193867e-05,2.7810340091554148e-05,2.7810340091554148e-05,5.9286,6.9286
3.03125,0.00013816715429617763,4.245542464179448e-05,1.7070611421377907e-05,3.0251187516594204e-05,5.9286,6.9286
3.03515625,0.00011961671386587322,5.270698382696271e-05,2.9274848546578178e-05,2.5857662151522106e-05,5.9286,6.9286
3.0390625,7.861047712520029e-05,4.34317636118105e-05,2.976301803158619e-05,1.9999628331425975e-05,5.9286,6.9286
3.04296875,8.690935837033648e-05,3.4156543396658294e-05,1.3165255541313818e-05,2.7322170606546137e-05,5.9286,6.9286
3.046875,0.00014500152708628978,5.124247537193867e-05,8.77173017624172e-06,3.171569597161824e-05,5.9286,6.9286
3.05078125,0.00013767898481116962,6.393488198214696e-05,3.318020442664227e-05,3.0251187516594204e-05,5.9286,6.9286
3.0546875,0.00011229417159075305,5.905318713206685e-05,4.684895000686658e-05,3.659739082169834e-05,5.9286,6.9286
3.05859375,7.51932907301442e-05,4.294359412680248e-05,3.562105185168232e-05,3.90382382467384e-05,5.9286,6.9286
3.0625,7.665779918516825e-05,3.8550068761730395e-05,2.2440475756466028e-05,3.0739357001602215e-05,5.9286,6.9286
3.06640625,8.446851094529643e-05,4.294359412680248e-05,2.5369492666514095e-05,2.3904984211490058e-05,5.9286,6.9286
3.0703125,0.00010545979880064089,4.7825288976882595e-05,4.538444155184254e-05,2.488132318150608e-05,5.9286,6.9286
3.07421875,0.00012156939180590525,5.1730644856946685e-05,4.7825288976882595e-05,2.488132318150608e-05,5.9286,6.9286
3.078125,3.806189927672238e-05,3.3668373911650276e-05,4.4896272066834534e-05,2.6345831636530114e-05,5.9286,6.9286
3.08203125,3.0739357001602215e-05,2.976301803158619e-05,3.610922133669034e-05,3.269203494163426e-05,5.9286,6.9286
3.0859375,0.00012108122232089725,6.10058650720989e-05,2.6834001121538125e-05,3.659739082169834e-05,5.9286,6.9286
3.08984375,0.00014890688296635387,6.491122095216298e-05,4.7825288976882595e-05,4.4896272066834534e-05,5.9286,6.9286
3.09375,0.00013816715429617763,6.10058650720989e-05,5.026613640192266e-05,3.46447128816663e-05,5.9286,6.9286
3.09765625,0.00010985332416571298,5.8076848162050824e-05,3.8550068761730395e-05,2.3416814726482047e-05,5.9286,6.9286
3.1015625,0.0001284037645960174,4.196725515678646e-05,1.9999628331425975e-05,3.3668373911650276e-05,5.9286,6.9286
3.10546875,0.0001367026458411536,3.3668373911650276e-05,1.2677086056305808e-05,3.0251187516594204e-05,5.9286,6.9286
3.109375,0.00011619952747081714,4.245542464179448e-05,1.951145884641796e-05,2.829850957656216e-05,5.9286,6.9286
3.11328125,0.00010057810395056078,4.7825288976882595e-05,2.878667906157017e-05,3.171569597161824e-05,5.9286,6.9286
3.1171875,4.636078052185856e-05,4.538444155184254e-05,4.0990916186770444e-05,3.318020442664227e-05,5.9286,6.9286
3.12109375,8.349217197528039e-05,4.001457721675442e-05,3.171569597161824e-05,2.7810340091554148e-05,5.9286,6.9286
3.125,0.00014353701863126575,3.318020442664227e-05,1.951145884641796e-05,2.0975967301441994e-05,5.9286,6.9286
3.12890625,0.00013279728996108952,3.952640773174641e-05,1.3165255541313818e-05,2.3416814726482047e-05,5.9286,6.9286
3.1328125,0.00013182095099107348,5.124247537193867e-05,2.2440475756466028e-05,2.292864524147404e-05,5.9286,6.9286
3.13671875,0.00012156939180590525,4.538444155184254e-05,4.001457721675442e-05,2.1464136786450005e-05,5.9286,6.9286
3.140625,0.0001332854594460975,3.318020442664227e-05,3.806189927672238e-05,2.2440475756466028e-05,5.9286,6.9286
3.14453125,0.00010741247674067293,3.7573729791714366e-05,2.5369492666514095e-05,2.6834001121538125e-05,5.9286,6.9286
3.1484375,0.00012449840871595332,5.075430588693066e-05,3.318020442664227e-05,3.8550068761730395e-05,5.9286,6.9286
3.15234375,9.374373116044863e-05,5.026613640192266e-05,5.270698382696271e-05,3.659739082169834e-05,5.9286,6.9286
3.15625,7.177610433508813e-05,4.0990916186770444e-05,5.026613640192266e-05,3.0739357001602215e-05,5.9286,6.9286
3.16015625,8.202766352025636e-05,2.878667906157017e-05,2.1952306271458016e-05,3.269203494163426e-05,5.9286,6.9286
3.1640625,6.442305146715498e-05,2.0487797816433986e-05,1.1212577601281776e-05,2.2440475756466028e-05,5.9286,6.9286
3.16796875,9.325556167544062e-05,3.806189927672238e-05,2.6834001121538125e-05,2.0975967301441994e-05,5.9286,6.9286
3.171875,8.935020579537654e-05,5.075430588693066e-05,3.7573729791714366e-05,3.0251187516594204e-05,5.9286,6.9286
3.17578125,8.593301940032045e-05,5.465966176699475e-05,4.391993309681851e-05,3.0739357001602215e-05,5.9286,6.9286
3.1796875,0.0001279155951110094,6.10058650720989e-05,5.1730644856946685e-05,2.6834001121538125e-05,5.9286,6.9286
3.18359375,0.00011278234107576106,5.026613640192266e-05,4.440810258182652e-05,2.5857662151522106e-05,5.9286,6.9286
3.1875,0.00011571135798580912,5.856501764705884e-05,3.7573729791714366e-05,2.5857662151522106e-05,5.9286,6.9286
3.19140625,7.616962970016024e-05,7.47051212451362e-05,5.465966176699475e-05,2.5857662151522106e-05,5.9286,6.9286
3.1953125,7.812230764019227e-05,6.295854301213094e-05,6.0029526102082876e-05,2.976301803158619e-05,5.9286,6.9286
3.19921875,0.00017917339103685055,5.2218814341954696e-05,6.344671249713895e-05,3.3668373911650276e-05,5.9286,6.9286
3.203125,0.00015232406936140994,4.831345846189061e-05,5.66123397070268e-05,3.610922133669034e-05,5.9286,6.9286
3.20703125,0.00010008993446555277,5.954135661707486e-05,6.640624000000002e-05,3.3668373911650276e-05,5.9286,6.9286
3.2109375,7.665779918516825e-05,7.03115958800641e-05,9.081471425040057e-05,3.659739082169834e-05,5.9286,6.9286
3.21484375,0.0001459778660563058,6.738257897001604e-05,8.056315506523234e-05,3.8550068761730395e-05,5.9286,6.9286
3.21875,0.00017233901824673838,5.954135661707486e-05,5.1730644856946685e-05,3.0739357001602215e-05,5.9286,6.9286
3.22265625,0.00011180600210574503,5.465966176699475e-05,3.806189927672238e-05,3.171569597161824e-05,5.9286,6.9286
3.2265625,0.00011229417159075305,7.177610433508813e-05,6.10058650720989e-05,2.976301803158619e-05,5.9286,6.9286
3.23046875,0.00013035644253604946,8.007498558022432e-05,8.690935837033648e-05,2.1952306271458016e-05,5.9286,6.9286
3.234375,0.00014451335760128176,5.026613640192266e-05,6.344671249713895e-05,2.0975967301441994e-05,5.9286,6.9286
3.23828125,0.00013377362893110555,3.659739082169834e-05,4.245542464179448e-05,1.9999628331425975e-05,5.9286,6.9286
3.2421875,0.0001230339002609293,5.124247537193867e-05,4.391993309681851e-05,2.0487797816433986e-05,5.9286,6.9286
3.24609375,8.398034146028841e-05,4.9289797431906635e-05,4.9289797431906635e-05,3.0739357001602215e-05,5.9286,6.9286
3.25,8.495668043030443e-05,4.880162794689862e-05,5.1730644856946685e-05,3.0739357001602215e-05,5.9286,6.9286
3.25390625,0.00011717586644083316,5.5636000737010774e-05,6.247037352712293e-05,2.3904984211490058e-05,5.9286,6.9286
3.2578125,0.00010838881571068896,6.393488198214696e-05,6.640624000000002e-05,2.6834001121538125e-05,5.9286,6.9286
3.26171875,0.00013035644253604946,4.538444155184254e-05,2.6834001121538125e-05,2.3904984211490058e-05,5.9286,6.9286
3.265625,6.982342639505609e-05,3.562105185168232e-05,2.3416814726482047e-05,2.0975967301441994e-05,5.9286,6.9286
3.26953125,5.954135661707486e-05,5.2218814341954696e-05,3.0739357001602215e-05,2.292864524147404e-05,5.9286,6.9286
3.2734375,0.00015378857781643397,5.612417022201878e-05,3.3668373911650276e-05,2.3416814726482047e-05,5.9286,6.9286
3.27734375,0.0001284037645960174,4.636078052185856e-05,4.684895000686658e-05,2.6834001121538125e-05,5.9286,6.9286
3.28125,9.764908704051272e-05,5.1730644856946685e-05,3.610922133669034e-05,3.5132882366674316e-05,5.9286,6.9286
3.28515625,9.960176498054477e-05,6.149403455710691e-05,9.748069146257742e-06,3.4156543396658294e-05,5.9286,6.9286
3.2890625,0.0001279155951110094,5.758867867704282e-05,4.7284893110553325e-07,2.3904984211490058e-05,5.9286,6.9286
3.29296875,0.00012938010356603342,6.198220404211491e-05,1.365342502632183e-05,2.439315369649807e-05,5.9286,6.9286
3.296875,9.472007013046466e-05,4.001457721675442e-05,7.795391206225697e-06,2.878667906157017e-05,5.9286,6.9286
3.30078125,4.9289797431906635e-05,2.439315369649807e-05,4.378204811169621e-06,3.220386545662624e-05,5.9286,6.9286
3.3046875,2.1952306271458016e-05,3.610922133669034e-05,4.866374296177632e-06,3.5132882366674316e-05,5.9286,6.9286
3.30859375,9.081471425040057e-05,4.294359412680248e-05,1.365342502632183e-05,3.5132882366674316e-05,5.9286,6.9286
3.3125,0.00016452830648661023,4.684895000686658e-05,2.0487797816433986e-05,3.3668373911650276e-05,5.9286,6.9286
3.31640625,0.00012059305283588923,3.7085560306706354e-05,2.4255268711375773e-06,2.829850957656216e-05,5.9286,6.9286
3.3203125,6.640624000000002e-05,2.1952306271458016e-05,1.937357386129566e-06,2.7322170606546137e-05,5.9286,6.9286
3.32421875,7.763413815518427e-05,3.3668373911650276e-05,-2.425657386129532e-06,3.0251187516594204e-05,5.9286,6.9286
3.328125,0.00010887698519569697,2.3904984211490058e-05,-1.5118063996337817e-05,2.5857662151522106e-05,5.9286,6.9286
3.33203125,0.00011375868004577707,4.440810258182652e-05,1.4491879011215552e-06,3.3668373911650276e-05,5.9286,6.9286
3.3359375,0.00013035644253604946,6.982342639505609e-05,1.8046950391393927e-05,3.659739082169834e-05,5.9286,6.9286
3.33984375,0.00010399529034561686,4.001457721675442e-05,-7.307352236209642e-06,2.976301803158619e-05,5.9286,6.9286
3.34375,0.00010838881571068896,2.1464136786450005e-05,-3.5133012881666264e-05,2.7322170606546137e-05,5.9286,6.9286
3.34765625,0.00011131783262073704,2.6345831636530114e-05,-1.999975884641793e-05,2.6834001121538125e-05,5.9286,6.9286
3.3515625,0.00011766403592584118,3.90382382467384e-05,-4.3783353261615755e-06,2.9274848546578178e-05,5.9286,6.9286
3.35546875,0.00014841871348134585,4.684895000686658e-05,-8.283691206225664e-06,3.0251187516594204e-05,5.9286,6.9286
3.359375,6.198220404211491e-05,3.0251187516594204e-05,-1.8535250391393893e-05,3.269203494163426e-05,5.9286,6.9286
3.36328125,4.196725515678646e-05,1.8535119876401938e-05,-3.562118236667428e-05,3.562105185168232e-05,5.9286,6.9286
3.3671875,0.00012938010356603342,3.952640773174641e-05,-3.318033494163422e-05,3.562105185168232e-05,5.9286,6.9286
3.37109375,0.0001332854594460975,4.7337119491874584e-05,-1.5320553902477717e-08,3.5132882366674316e-05,5.9286,6.9286
3.375,0.00011229417159075305,4.831345846189061e-05,8.283560691233709e-06,3.8550068761730395e-05,5.9286,6.9286
3.37890625,0.00010692430725566493,3.1227526486610226e-05,-1.937487901121521e-06,3.659739082169834e-05,5.9286,6.9286
3.3828125,8.202766352025636e-05,2.7322170606546137e-05,-6.819182751201631e-06,3.659739082169834e-05,5.9286,6.9286
3.38671875,9.423190064545664e-05,4.391993309681851e-05,-1.2189047086289752e-05,3.7573729791714366e-05,5.9286,6.9286
3.390625,0.00014060800172121767,5.124247537193867e-05,9.748069146257742e-06,3.562105185168232e-05,5.9286,6.9286
3.39453125,9.764908704051272e-05,5.758867867704282e-05,2.7810340091554148e-05,3.4156543396658294e-05,5.9286,6.9286
3.3984375,4.9289797431906635e-05,4.538444155184254e-05,-7.795521721217652e-06,3.4156543396658294e-05,5.9286,6.9286
3.40234375,0.00011180600210574503,3.952640773174641e-05,-2.732230112153809e-05,3.8550068761730395e-05,5.9286,6.9286
3.40625,0.00015378857781643397,4.34317636118105e-05,-1.0236369146257707e-05,4.196725515678646e-05,5.9286,6.9286
3.41015625,0.0001274274256260014,4.34317636118105e-05,2.4255268711375773e-06,4.245542464179448e-05,5.9286,6.9286
3.4140625,0.00011229417159075305,6.051769558709088e-05,2.5857662151522106e-05,4.050274670176243e-05,5.9286,6.9286
3.41796875,9.032654476539255e-05,4.977796691691464e-05,1.902328936140995e-05,3.610922133669034e-05,5.9286,6.9286
3.421875,0.00011766403592584118,3.220386545662624e-05,-3.401996356145554e-06,3.7085560306706354e-05,5.9286,6.9286
3.42578125,0.00012156939180590525,3.0251187516594204e-05,7.795391206225697e-06,4.001457721675442e-05,5.9286,6.9286
3.4296875,0.00012352206974593728,4.7337119491874584e-05,2.976301803158619e-05,3.952640773174641e-05,5.9286,6.9286
3.43359375,9.813725652552073e-05,4.684895000686658e-05,2.976301803158619e-05,3.46447128816663e-05,5.9286,6.9286
3.4375,8.105132455024035e-05,5.905318713206685e-05,1.5117933481345863e-05,3.8550068761730395e-05,5.9286,6.9286
3.44140625,8.153949403524835e-05,6.689440948500802e-05,6.330882751201665e-06,4.196725515678646e-05,5.9286,6.9286
3.4453125,6.884708742504007e-05,4.5872611036850557e-05,3.401865841153599e-06,3.8550068761730395e-05,5.9286,6.9286
3.44921875,0.00013474996790112154,4.4896272066834534e-05,8.283560691233709e-06,3.269203494163426e-05,5.9286,6.9286
3.453125,0.00010350712086060884,4.196725515678646e-05,2.488132318150608e-05,3.4156543396658294e-05,5.9286,6.9286
3.45703125,7.616962970016024e-05,4.0990916186770444e-05,2.1464136786450005e-05,3.7085560306706354e-05,5.9286,6.9286
3.4609375,0.0001371908153261616,3.806189927672238e-05,-9.61148931105499e-07,3.269203494163426e-05,5.9286,6.9286
3.46484375,0.00013230912047608147,3.7085560306706354e-05,5.354543781185643e-06,3.269203494163426e-05,5.9286,6.9286
3.46875,0.00012645108665598537,5.368332279697873e-05,2.7810340091554148e-05,3.4156543396658294e-05,5.9286,6.9286
3.47265625,0.00014890688296635387,4.294359412680248e-05,2.5369492666514095e-05,2.6345831636530114e-05,5.9286,6.9286
3.4765625,0.00013767898481116962,3.90382382467384e-05,2.6345831636530114e-05,2.9274848546578178e-05,5.9286,6.9286
3.48046875,8.495668043030443e-05,4.245542464179448e-05,2.3416814726482047e-05,3.5132882366674316e-05,5.9286,6.9286
3.484375,5.905318713206685e-05,4.245542464179448e-05,1.4629763996337851e-05,3.318020442664227e-05,5.9286,6.9286
3.48828125,7.90986466102083e-05,6.344671249713895e-05,2.1464136786450005e-05,3.4156543396658294e-05,5.9286,6.9286
3.4921875,7.861047712520029e-05,5.8076848162050824e-05,1.7070611421377907e-05,2.6834001121538125e-05,5.9286,6.9286
3.49609375,0.00010838881571068896,2.9274848546578178e-05,5.354543781185643e-06,2.1464136786450005e-05,5.9286,6.9286
3.5,0.00011766403592584118,2.5857662151522106e-05,-3.890165841153565e-06,2.2440475756466028e-05,5.9286,6.9286
3.50390625,0.00010643613777065691,2.488132318150608e-05,-1.937487901121521e-06,2.6834001121538125e-05,5.9286,6.9286
3.5078125,9.227922270542459e-05,2.1952306271458016e-05,-3.890165841153565e-06,3.318020442664227e-05,5.9286,6.9286
3.51171875,0.0001015544429205768,-5.354674296177598e-06,3.401865841153599e-06,2.488132318150608e-05,5.9286,6.9286
3.515625,0.00014353701863126575,2.488132318150608e-05,1.951145884641796e-05,2.439315369649807e-05,5.9286,6.9286
3.51953125,0.0001010662734355688,4.391993309681851e-05,1.755878090638592e-05,3.0251187516594204e-05,5.9286,6.9286
3.5234375,9.472007013046466e-05,2.1952306271458016e-05,-9.61148931105499e-07,3.220386545662624e-05,5.9286,6.9286
3.52734375,7.763413815518427e-05,4.5872611036850557e-05,1.6094272451361885e-05,3.1227526486610226e-05,5.9286,6.9286
3.53125,8.78856973403525e-05,5.2218814341954696e-05,3.562105185168232e-05,2.6834001121538125e-05,5.9286,6.9286
3.53515625,0.00010790064622568095,4.4896272066834534e-05,3.46447128816663e-05,2.878667906157017e-05,5.9286,6.9286
3.5390625,0.00011327051056076907,2.829850957656216e-05,3.0739357001602215e-05,3.7573729791714366e-05,5.9286,6.9286
3.54296875,0.00012889193408102543,2.6834001121538125e-05,2.3416814726482047e-05,4.4896272066834534e-05,5.9286,6.9286
3.546875,6.295854301213094e-05,2.1464136786450005e-05,3.1227526486610226e-05,4.636078052185856e-05,5.9286,6.9286
3.55078125,8.056315506523234e-05,1.755878090638592e-05,2.829850957656216e-05,4.0990916186770444e-05,5.9286,6.9286
3.5546875,0.00017966156052185857,4.7825288976882595e-05,4.1479085671778456e-05,4.001457721675442e-05,5.9286,6.9286
3.55859375,0.00012693925614099338,3.220386545662624e-05,5.026613640192266e-05,4.7337119491874584e-05,5.9286,6.9286
3.5625,9.374373116044863e-05,-6.3310132661936195e-06,2.976301803158619e-05,4.5872611036850557e-05,5.9286,6.9286
3.56640625,0.00010741247674067293,1.1212577601281776e-05,2.9274848546578178e-05,4.245542464179448e-05,5.9286,6.9286
3.5703125,0.00016452830648661023,2.6834001121538125e-05,3.562105185168232e-05,3.46447128816663e-05,5.9286,6.9286
3.57421875,0.0001371908153261616,7.47051212451362e-05,6.884708742504007e-05,3.806189927672238e-05,5.9286,6.9286
3.578125,6.442305146715498e-05,7.51932907301442e-05,6.640624000000002e-05,4.391993309681851e-05,5.9286,6.9286
3.58203125,4.880162794689862e-05,1.1700747086289786e-05,1.365342502632183e-05,3.659739082169834e-05,5.9286,6.9286
3.5859375,1.6094272451361885e-05,2.292864524147404e-05,2.5857662151522106e-05,3.46447128816663e-05,5.9286,6.9286
3.58984375,7.616962970016024e-05,4.1479085671778456e-05,3.269203494163426e-05,3.46447128816663e-05,5.9286,6.9286
3.59375,0.0001591584421515221,6.051769558709088e-05,2.6345831636530114e-05,3.1227526486610226e-05,5.9286,6.9286
3.59765625,0.00011278234107576106,6.5887559922179e-05,3.46447128816663e-05,3.220386545662624e-05,5.9286,6.9286
3.6015625,7.42169517601282e-05,4.866374296177632e-06,2.1464136786450005e-05,3.3668373911650276e-05,5.9286,6.9286
3.60546875,7.372878227512018e-05,2.2440475756466028e-05,1.2188916571297797e-05,3.8550068761730395e-05,5.9286,6.9286
3.609375,0.00012986827305104144,6.198220404211491e-05,2.829850957656216e-05,3.46447128816663e-05,5.9286,6.9286
3.61328125,0.0001454896965712978,9.259899661249731e-06,2.878667906157017e-05,2.292864524147404e-05,5.9286,6.9286
3.6171875,0.00011424684953078509,2.3416814726482047e-05,3.562105185168232e-05,3.7085560306706354e-05,5.9286,6.9286
3.62109375,6.787074845502406e-05,6.884708742504007e-05,3.8550068761730395e-05,4.636078052185856e-05,5.9286,6.9286
3.625,9.520823961547266e-05,3.4156543396658294e-05,3.401865841153599e-06,3.7085560306706354e-05,5.9286,6.9286
3.62890625,0.00010790064622568095,1.6094272451361885e-05,2.4255268711375773e-06,3.3668373911650276e-05,5.9286,6.9286
3.6328125,0.00011180600210574503,7.51932907301442e-05,2.829850957656216e-05,3.8550068761730395e-05,5.9286,6.9286
3.63671875,0.00015622942524147403,0.0001279155951110094,5.319515331197072e-05,4.245542464179448e-05,5.9286,6.9286
3.640625,9.911359549553675e-05,2.4255268711375773e-06,2.7322170606546137e-05,3.0739357001602215e-05,5.9286,6.9286
3.64453125,8.202766352025636e-05,4.866374296177632e-06,-6.3310132661936195e-06,3.1227526486610226e-05,5.9286,6.9286
3.6484375,0.00016257562854657816,9.569640910048068e-05,3.890035326161609e-06,3.952640773174641e-05,5.9286,6.9286
3.65234375,0.00016599281494163425,1.755878090638592e-05,5.354543781185643e-06,3.1227526486610226e-05,5.9286,6.9286
3.65625,0.00014207251017624172,2.6834001121538125e-05,3.318020442664227e-05,3.318020442664227e-05,5.9286,6.9286
3.66015625,9.61845785854887e-05,7.861047712520029e-05,3.171569597161824e-05,4.7825288976882595e-05,5.9286,6.9286
3.6640625,0.00011571135798580912,1.902328936140995e-05,-1.2677216571297761e-05,4.1479085671778456e-05,5.9286,6.9286
3.66796875,0.0001586702726665141,5.354543781185643e-06,-2.9138268711375426e-06,3.8550068761730395e-05,5.9286,6.9286
3.671875,7.665779918516825e-05,9.569640910048068e-05,3.806189927672238e-05,5.417149228198674e-05,5.9286,6.9286
3.67578125,6.149403455710691e-05,0.00013914349326619364,4.538444155184254e-05,4.831345846189061e-05,5.9286,6.9286
3.6796875,7.568146021515222e-05,7.958681609521631e-05,2.439315369649807e-05,3.269203494163426e-05,5.9286,6.9286
3.68359375,8.642118888532846e-05,-1.7070741936369862e-05,-8.771860691233675e-06,2.6834001121538125e-05,5.9286,6.9286
3.6875,0.00013572630687113757,2.439315369649807e-05,-2.9138268711375426e-06,3.7085560306706354e-05,5.9286,6.9286
3.69140625,0.00012938010356603342,7.90986466102083e-05,4.7825288976882595e-05,4.5872611036850557e-05,5.9286,6.9286
3.6953125,7.616962970016024e-05,2.5369492666514095e-05,4.7337119491874584e-05,4.684895000686658e-05,5.9286,6.9286
3.69921875,4.245542464179448e-05,6.051769558709088e-05,3.7085560306706354e-05,5.8076848162050824e-05,5.9286,6.9286
3.703125,7.03115958800641e-05,0.00012547474768596933,4.538444155184254e-05,5.905318713206685e-05,5.9286,6.9286
3.70703125,8.398034146028841e-05,8.935020579537654e-05,3.7573729791714366e-05,4.0990916186770444e-05,5.9286,6.9286
3.7109375,0.00013084461202105745,2.913696356145588e-06,1.4629763996337851e-05,2.5857662151522106e-05,5.9286,6.9286
3.71484375,0.00013865532378118563,3.890035326161609e-06,6.330882751201665e-06,3.1227526486610226e-05,5.9286,6.9286
3.71875,5.124247537193867e-05,9.960176498054477e-05,2.3416814726482047e-05,4.294359412680248e-05,5.9286,6.9286
3.72265625,4.050274670176243e-05,9.472007013046466e-05,3.46447128816663e-05,4.636078052185856e-05,5.9286,6.9286
3.7265625,7.616962970016024e-05,3.220386545662624e-05,3.610922133669034e-05,5.1730644856946685e-05,5.9286,6.9286
3.73046875,9.960176498054477e-05,8.78856973403525e-05,4.245542464179448e-05,4.831345846189061e-05,5.9286,6.9286
3.734375,5.8076848162050824e-05,0.00012693925614099338,5.1730644856946685e-05,4.4896272066834534e-05,5.9286,6.9286
3.73828125,1.6094272451361885e-05,2.5857662151522106e-05,4.001457721675442e-05,4.245542464179448e-05,5.9286,6.9286
3.7421875,0.00010741247674067293,-2.732230112153809e-05,2.1464136786450005e-05,3.562105185168232e-05,5.9286,6.9286
3.74609375,0.00010301895137560084,0.00012059305283588923,3.46447128816663e-05,4.7337119491874584e-05,5.9286,6.9286
3.75,9.71609175555047e-05,0.00014646603554131383,2.878667906157017e-05,4.196725515678646e-05,5.9286,6.9286
3.75390625,0.0001240102392309453,3.171569597161824e-05,6.819052236209676e-06,2.2440475756466028e-05,5.9286,6.9286
3.7578125,6.344671249713895e-05,1.0236238631265752e-05,2.1464136786450005e-05,3.3668373911650276e-05,5.9286,6.9286
3.76171875,8.544484991531244e-05,3.220386545662624e-05,1.6094272451361885e-05,4.245542464179448e-05,5.9286,6.9286
3.765625,0.00014841871348134585,6.738257897001604e-05,2.913696356145588e-06,3.46447128816663e-05,5.9286,6.9286
3.76953125,0.00010253078189059284,6.738257897001604e-05,2.6345831636530114e-05,3.3668373911650276e-05,5.9286,6.9286
3.7734375,6.738257897001604e-05,1.6094272451361885e-05,3.562105185168232e-05,3.952640773174641e-05,5.9286,6.9286
3.77734375,7.714596867017625e-05,6.689440948500802e-05,3.1227526486610226e-05,4.1479085671778456e-05,5.9286,6.9286
3.78125,0.00013621447635614556,6.982342639505609e-05,1.9999628331425975e-05,2.5857662151522106e-05,5.9286,6.9286
3.78515625,0.00012449840871595332,4.866374296177632e-06,1.0236238631265752e-05,2.3904984211490058e-05,5.9286,6.9286
3.7890625,6.295854301213094e-05,5.2218814341954696e-05,2.0487797816433986e-05,4.245542464179448e-05,5.9286,6.9286
3.79296875,9.911359549553675e-05,7.42169517601282e-05,2.1952306271458016e-05,3.610922133669034e-05,5.9286,6.9286
3.796875,0.00011668769695582514,1.755878090638592e-05,1.8046950391393927e-05,2.488132318150608e-05,5.9286,6.9286
3.80078125,6.982342639505609e-05,6.933525691004809e-05,2.439315369649807e-05,3.220386545662624e-05,5.9286,6.9286
3.8046875,0.00013182095099107348,0.00012693925614099338,5.354543781185643e-06,2.6834001121538125e-05,5.9286,6.9286
3.80859375,0.00016501647597161822,-2.425657386129532e-06,1.2677086056305808e-05,2.3904984211490058e-05,5.9286,6.9286
3.8125,0.00012889193408102543,2.1952306271458016e-05,4.9289797431906635e-05,2.5857662151522106e-05,5.9286,6.9286
3.81640625,9.764908704051272e-05,2.3904984211490058e-05,4.196725515678646e-05,3.1227526486610226e-05,5.9286,6.9286
3.8203125,7.861047712520029e-05,4.538444155184254e-05,2.6834001121538125e-05,4.34317636118105e-05,5.9286,6.9286
3.82421875,9.520823961547266e-05,5.905318713206685e-05,-4.72979446097488e-07,4.1479085671778456e-05,5.9286,6.9286
3.828125,6.442305146715498e-05,7.812230764019227e-05,-8.283691206225664e-06,3.3668373911650276e-05,5.9286,6.9286
3.83203125,9.130288373540858e-05,6.442305146715498e-05,2.5369492666514095e-05,2.3904984211490058e-05,5.9286,6.9286
3.8359375,0.00015330040833142598,3.46447128816663e-05,4.4896272066834534e-05,3.0739357001602215e-05,5.9286,6.9286
3.83984375,0.00011668769695582514,9.71609175555047e-05,3.0251187516594204e-05,4.636078052185856e-05,5.9286,6.9286
3.84375,6.933525691004809e-05,4.440810258182652e-05,1.6094272451361885e-05,5.124247537193867e-05,5.9286,6.9286
3.84765625,8.202766352025636e-05,6.933525691004809e-05,7.307221721217687e-06,4.0990916186770444e-05,5.9286,6.9286
3.8515625,0.0001284037645960174,2.878667906157017e-05,8.77173017624172e-06,3.610922133669034e-05,5.9286,6.9286
3.85546875,0.00014500152708628978,4.440810258182652e-05,2.2440475756466028e-05,3.7085560306706354e-05,5.9286,6.9286
3.859375,0.000110341493650721,8.153949403524835e-05,2.7810340091554148e-05,4.050274670176243e-05,5.9286,6.9286
3.86328125,8.690935837033648e-05,4.0990916186770444e-05,-1.4141725026321795e-05,3.8550068761730395e-05,5.9286,6.9286
3.8671875,0.00010936515468070498,3.220386545662624e-05,-3.415667391165024e-05,3.1227526486610226e-05,5.9286,6.9286
3.87109375,0.00015769393369649808,1.8535119876401938e-05,-1.2189047086289752e-05,2.976301803158619e-05,5.9286,6.9286
3.875,0.00014060800172121767,4.378204811169621e-06,-1.5320553902477717e-08,3.952640773174641e-05,5.9286,6.9286
3.87890625,9.179105322041659e-05,5.8076848162050824e-05,3.890035326161609e-06,4.440810258182652e-05,5.9286,6.9286
3.8828125,8.73975278553445e-05,9.520823961547266e-05,-1.9023419876401904e-05,3.610922133669034e-05,5.9286,6.9286
3.88671875,5.954135661707486e-05,-3.9526538246738366e-05,-1.3653555541313785e-05,3.269203494163426e-05,5.9286,6.9286
3.890625,7.861047712520029e-05,3.90382382467384e-05,3.401865841153599e-06,3.562105185168232e-05,5.9286,6.9286
3.89453125,0.00011522318850080111,0.0001284037645960174,9.610184161135442e-07,2.976301803158619e-05,5.9286,6.9286
3.8984375,0.00014402518811627377,5.026613640192266e-05,2.913696356145588e-06,2.292864524147404e-05,5.9286,6.9286
3.90234375,4.001457721675442e-05,2.976301803158619e-05,8.77173017624172e-06,3.7085560306706354e-05,5.9286,6.9286
3.90625,3.0251187516594204e-05,5.8076848162050824e-05,2.4255268711375773e-06,2.9274848546578178e-05,5.9286,6.9286
3.91015625,9.71609175555047e-05,8.398034146028841e-05,1.8046950391393927e-05,2.3904984211490058e-05,5.9286,6.9286
3.9140625,8.007498558022432e-05,-1.5320553902477717e-08,1.4629763996337851e-05,2.7810340091554148e-05,5.9286,6.9286
3.91796875,8.495668043030443e-05,-1.999975884641793e-05,-3.890165841153565e-06,2.5857662151522106e-05,5.9286,6.9286
3.921875,1.951145884641796e-05,2.5369492666514095e-05,-2.195243678644997e-05,2.976301803158619e-05,5.9286,6.9286
3.92578125,9.610184161135442e-07,3.890035326161609e-06,-3.366850442664224e-05,3.3668373911650276e-05,5.9286,6.9286
3.9296875,8.983837528038453e-05,3.952640773174641e-05,-1.4629894511329806e-05,3.8550068761730395e-05,5.9286,6.9286
3.93359375,0.0001010662734355688,4.7337119491874584e-05,9.259899661249731e-06,3.46447128816663e-05,5.9286,6.9286
3.9375,0.00011180600210574503,2.3904984211490058e-05,4.866374296177632e-06,2.878667906157017e-05,5.9286,6.9286
3.94140625,9.813725652552073e-05,-1.8535250391393893e-05,-2.536962318150605e-05,3.610922133669034e-05,5.9286,6.9286
3.9453125,8.251583300526438e-05,-8.283691206225664e-06,-2.536962318150605e-05,4.7337119491874584e-05,5.9286,6.9286
3.94921875,9.71609175555047e-05,7.03115958800641e-05,8.283560691233709e-06,4.880162794689862e-05,5.9286,6.9286
3.953125,0.00014060800172121767,2.6834001121538125e-05,8.283560691233709e-06,3.610922133669034e-05,5.9286,6.9286
3.95703125,8.251583300526438e-05,-2.7810470606546103e-05,-2.0487928331425938e-05,3.806189927672238e-05,5.9286,6.9286
3.9609375,3.318020442664227e-05,3.90382382467384e-05,-1.9023419876401904e-05,4.880162794689862e-05,5.9286,6.9286
3.96484375,0.00010741247674067293,0.00011278234107576106,-1.4141725026321795e-05,4.001457721675442e-05,5.9286,6.9286
3.96875,0.00012986827305104144,8.251583300526438e-05,-1.7070741936369862e-05,3.5132882366674316e-05,5.9286,6.9286
3.97265625,0.00010301895137560084,-1.9023419876401904e-05,8.283560691233709e-06,3.610922133669034e-05,5.9286,6.9286
3.9765625,0.00010008993446555277,-4.050287721675439e-05,2.9274848546578178e-05,3.806189927672238e-05,5.9286,6.9286
3.98046875,2.1952306271458016e-05,4.880162794689862e-05,2.1952306271458016e-05,4.684895000686658e-05,5.9286,6.9286
3.984375,4.196725515678646e-05,5.758867867704282e-05,1.2188916571297797e-05,4.001457721675442e-05,5.9286,6.9286
3.98828125,0.0001191285443808652,-2.2928775756465994e-05,-4.3783353261615755e-06,2.3904984211490058e-05,5.9286,6.9286
3.9921875,0.00012938010356603342,4.831345846189061e-05,-8.283691206225664e-06,2.292864524147404e-05,5.9286,6.9286
3.99609375,4.1479085671778456e-05,6.835891794003205e-05,4.7284893110553325e-07,3.659739082169834e-05,5.9286,6.9286
4.0,1.6094272451361885e-05,3.890035326161609e-06,-1.951158936140992e-05,3.171569597161824e-05,5.9286,6.9286
4.00390625,9.032654476539255e-05,-4.392006361181047e-05,-4.440823309681848e-05,1.9999628331425975e-05,5.9286,6.9286
4.0078125,6.738257897001604e-05,-2.0487928331425938e-05,-3.025131803158616e-05,3.1227526486610226e-05,5.9286,6.9286
4.01171875,8.642118888532846e-05,7.275244330510416e-05,1.5117933481345863e-05,3.90382382467384e-05,5.9286,6.9286
4.015625,2.2440475756466028e-05,0.00012059305283588923,5.124247537193867e-05,4.34317636118105e-05,5.9286,6.9286
4.01953125,1.6094272451361885e-05,2.0975967301441994e-05,9.748069146257742e-06,2.488132318150608e-05,5.9286,6.9286
4.0234375,0.00012596291717097735,-2.8786809576562122e-05,-2.097609781643395e-05,1.755878090638592e-05,5.9286,6.9286
4.02734375,5.2218814341954696e-05,5.465966176699475e-05,1.365342502632183e-05,4.4896272066834534e-05,5.9286,6.9286
4.03125,2.439315369649807e-05,4.5872611036850557e-05,1.4629763996337851e-05,4.538444155184254e-05,5.9286,6.9286
4.03515625,7.42169517601282e-05,1.6094272451361885e-05,-3.890165841153565e-06,3.0251187516594204e-05,5.9286,6.9286
4.0390625,5.514783125200276e-05,3.8550068761730395e-05,-1.937487901121521e-06,4.0990916186770444e-05,5.9286,6.9286
4.04296875,2.3416814726482047e-05,5.2218814341954696e-05,-1.121270811627373e-05,4.440810258182652e-05,5.9286,6.9286
4.046875,6.247037352712293e-05,3.220386545662624e-05,-2.8786809576562122e-05,3.269203494163426e-05,5.9286,6.9286
4.05078125,8.007498558022432e-05,3.7573729791714366e-05,-1.4629894511329806e-05,3.4156543396658294e-05,5.9286,6.9286
4.0546875,1.1700747086289786e-05,1.6094272451361885e-05,-1.44931841611351e-06,3.4156543396658294e-05,5.9286,6.9286
4.05859375,3.1227526486610226e-05,-1.755891142137787e-05,9.610184161135442e-07,2.6834001121538125e-05,5.9286,6.9286
4.0625,9.71609175555047e-05,1.6582441936369896e-05,-1.121270811627373e-05,2.3416814726482047e-05,5.9286,6.9286
4.06640625,6.149403455710691e-05,3.220386545662624e-05,-4.3783353261615755e-06,4.001457721675442e-05,5.9286,6.9286
4.0703125,7.226427382009615e-05,7.51932907301442e-05,1.7070611421377907e-05,3.659739082169834e-05,5.9286,6.9286
4.07421875,9.227922270542459e-05,4.9289797431906635e-05,2.5369492666514095e-05,2.1952306271458016e-05,5.9286,6.9286
4.078125,6.539939043717099e-05,4.977796691691464e-05,3.318020442664227e-05,3.220386545662624e-05,5.9286,6.9286
4.08203125,6.051769558709088e-05,6.933525691004809e-05,1.2677086056305808e-05,3.46447128816663e-05,5.9286,6.9286
4.0859375,6.835891794003205e-05,6.198220404211491e-05,-6.819182751201631e-06,3.5132882366674316e-05,5.9286,6.9286
4.08984375,6.198220404211491e-05,6.5887559922179e-05,-9.260030176241686e-06,2.976301803158619e-05,5.9286,6.9286
