timestamp,TP9,AF7,AF8,TP10,Valence,Arousal
0.0,-4.004305125673303e-05,-1.7579270299992372e-05,-1.4652514270237303e-06,-4.443596842160677e-05,3.25,2.75
0.00390625,-3.955384002700846e-05,-1.6116628562142368e-05,-7.81501351079575e-06,-5.4689436440527955e-05,3.25,2.75
0.0078125,-4.150569299458304e-05,-1.0745288937819481e-05,-1.1718719445944912e-05,-4.785545507835507e-05,3.25,2.75
0.01171875,-4.199490422430762e-05,-8.7934359702449e-06,-1.2207930675669487e-05,-4.3457545962157625e-05,3.25,2.75
0.015625,-3.808620633783474e-05,-2.0020334497291514e-05,-9.277655248645757e-06,-4.589861015945677e-05,3.25,2.75
0.01953125,-3.7601987059433884e-05,-2.832194954863813e-05,-1.2207930675669487e-05,-4.443596842160677e-05,3.25,2.75
0.0234375,-4.2973326683756764e-05,-1.562741733241779e-05,-8.7934359702449e-06,-4.589861015945677e-05,3.25,2.75
0.02734375,-3.857541756755931e-05,-1.5138206102693217e-05,-8.7934359702449e-06,-5.175916101350422e-05,3.25,2.75
0.03125,-3.125222497566186e-05,-2.4902462891889824e-05,1.1718492018921196e-05,-4.73662438486305e-05,3.25,2.75
0.03515625,-3.3693289172961005e-05,-3.125222497566186e-05,2.734329966216525e-05,-4.492517965133135e-05,3.25,2.75
0.0390625,-3.7601987059433884e-05,-2.6370096581063547e-05,2.0504326348668655e-05,-4.492517965133135e-05,3.25,2.75
0.04296875,-4.492517965133135e-05,-6.3523717729457445e-06,-4.199490422430762e-05,-4.785545507835507e-05,3.25,2.75
0.046875,-4.3457545962157625e-05,-1.4648994872968642e-05,-0.00010058543691081101,-5.8598134327000834e-05,3.25,2.75
0.05078125,-3.662356459998474e-05,-2.4902462891889824e-05,-6.396947395132371e-05,-4.9318096816205075e-05,3.25,2.75
0.0546875,-3.564514214053559e-05,-2.53916741216144e-05,-5.713050063782711e-05,-4.248411545403219e-05,3.25,2.75
0.05859375,-3.564514214053559e-05,-2.6859307810788124e-05,-4.687703261890592e-05,-4.833967435675593e-05,3.25,2.75
0.0625,-3.613435337026016e-05,-2.8811160778362702e-05,-3.223064743511101e-05,-3.955384002700846e-05,3.25,2.75
0.06640625,-3.027380251621271e-05,-2.4902462891889824e-05,-4.004305125673303e-05,-2.6859307810788124e-05,3.25,2.75
0.0703125,-2.832194954863813e-05,-2.2950609924315245e-05,-4.101648176485847e-05,-2.6859307810788124e-05,3.25,2.75
0.07421875,-3.418250040268558e-05,-3.3693289172961005e-05,-3.223064743511101e-05,-3.223064743511101e-05,3.25,2.75
0.078125,-3.467171163241016e-05,-1.953112326756694e-05,-1.8068481529716946e-05,-3.467171163241016e-05,3.25,2.75
0.08203125,-3.1741436205386434e-05,-1.660583979186694e-05,-1.3675564364843211e-05,-4.199490422430762e-05,3.25,2.75
0.0859375,-3.3693289172961005e-05,-2.4418243613488966e-05,-1.3675564364843211e-05,-5.029651927565422e-05,3.25,2.75
0.08984375,-3.271486671351186e-05,-2.8811160778362702e-05,-2.0020334497291514e-05,-5.713050063782711e-05,3.25,2.75
0.09375,-2.930037200808728e-05,-3.076301374593729e-05,-1.0256077708094906e-05,-4.3457545962157625e-05,3.25,2.75
0.09765625,-2.2950609924315245e-05,-2.8811160778362702e-05,-2.0509545727016087e-05,-2.7343527089188982e-05,3.25,2.75
0.1015625,-2.832194954863813e-05,-3.418250040268558e-05,-4.3946757191882195e-05,-2.9789583237811853e-05,3.25,2.75
0.10546875,-2.930037200808728e-05,-2.7343527089188982e-05,-3.7601987059433884e-05,-3.418250040268558e-05,3.25,2.75
0.109375,-3.223064743511101e-05,-2.0998756956740664e-05,-3.418250040268558e-05,-3.418250040268558e-05,3.25,2.75
0.11328125,-3.7601987059433884e-05,-2.246139869459067e-05,-4.199490422430762e-05,-3.3693289172961005e-05,3.25,2.75
0.1171875,-3.3204077943236435e-05,-1.7579270299992372e-05,-2.6370096581063547e-05,-3.857541756755931e-05,3.25,2.75
0.12109375,-3.613435337026016e-05,-1.953112326756694e-05,-1.2697141905394062e-05,-5.1269949783779646e-05,3.25,2.75
0.125,-3.7112775829709314e-05,-3.9064628797283885e-05,-2.6859307810788124e-05,-5.07857305053788e-05,3.25,2.75
0.12890625,-3.613435337026016e-05,-4.638782138918134e-05,-4.638782138918134e-05,-4.248411545403219e-05,3.25,2.75
0.1328125,-3.955384002700846e-05,-3.9064628797283885e-05,-4.2973326683756764e-05,-3.9064628797283885e-05,3.25,2.75
0.13671875,-3.857541756755931e-05,-4.541439088105592e-05,-4.150569299458304e-05,-3.613435337026016e-05,3.25,2.75
0.140625,-3.076301374593729e-05,-4.687703261890592e-05,-5.273758347295337e-05,-4.004305125673303e-05,3.25,2.75
0.14453125,-3.3693289172961005e-05,-3.857541756755931e-05,-5.175916101350422e-05,-4.004305125673303e-05,3.25,2.75
0.1484375,-3.808620633783474e-05,-2.7832738318913555e-05,-4.687703261890592e-05,-3.418250040268558e-05,3.25,2.75
0.15234375,-3.467171163241016e-05,-4.004305125673303e-05,-4.589861015945677e-05,-4.199490422430762e-05,3.25,2.75
0.15625,-3.1741436205386434e-05,-3.7112775829709314e-05,-4.980730804592965e-05,-3.564514214053559e-05,3.25,2.75
0.16015625,-2.9789583237811853e-05,-2.4902462891889824e-05,-4.687703261890592e-05,-2.8811160778362702e-05,3.25,2.75
0.1640625,-3.076301374593729e-05,-3.9064628797283885e-05,-3.662356459998474e-05,-4.052727053513389e-05,3.25,2.75
0.16796875,-2.7832738318913555e-05,-4.73662438486305e-05,-3.1741436205386434e-05,-3.076301374593729e-05,3.25,2.75
0.171875,-3.3204077943236435e-05,-3.857541756755931e-05,-2.1487968186465237e-05,-2.2950609924315245e-05,3.25,2.75
0.17578125,-3.076301374593729e-05,-3.564514214053559e-05,-2.0998756956740664e-05,-3.223064743511101e-05,3.25,2.75
0.1796875,-1.9046903989166096e-05,-4.785545507835507e-05,-5.761971186755169e-05,-4.248411545403219e-05,3.25,2.75
0.18359375,-1.7579270299992372e-05,-6.836239111619745e-05,-9.375145554863811e-05,-3.564514214053559e-05,3.25,2.75
0.1875,-2.2950609924315245e-05,-8.935853838376439e-05,-0.00010497835407568473,-2.6859307810788124e-05,3.25,2.75
0.19140625,-2.0998756956740664e-05,-0.00010155886741893644,-0.00012646371257297626,-3.125222497566186e-05,3.25,2.75
0.1953125,-1.4164775594567784e-05,-0.00011474261086488135,-0.0001538046299729915,-2.5880885351338974e-05,3.25,2.75
0.19921875,-4.3955268540474464e-06,-0.00013671718059189746,-0.00016015439205676354,-1.3186353135118636e-05,3.25,2.75
0.203125,-2.6096891737239503e-09,-0.00015234198823514152,-0.00016064360328648815,-7.81501351079575e-06,3.25,2.75
0.20703125,2.927665737850006e-06,-0.00017480077724055847,-0.0001894521543756771,-1.1234500167544054e-05,3.25,2.75
0.2109375,1.9530895840543224e-05,-0.00018652187894865337,-0.00021777149423514151,-4.884738083772021e-06,3.25,2.75
0.21484375,3.026858313786526e-05,-0.00018993637365407795,-0.00022802496225406268,4.390307475700013e-06,3.25,2.75
0.21875,2.6854088432440675e-05,-0.00020849145672434575,-0.00022899839276218812,1.2691922527046614e-05,3.25,2.75
0.22265625,2.831673017029068e-05,-0.00020800224549462118,-0.00021728228300541694,5.3687299351491615e-06,3.25,2.75
0.2265625,3.6618345221637295e-05,-0.00020751802621622032,-0.00020946987918379488,-1.4648994872968642e-05,3.25,2.75
0.23046875,3.8085978910811005e-05,-0.00020751802621622032,-0.00021337358511894404,-1.70900590702678e-05,3.25,2.75
0.234375,3.2225428056763576e-05,-0.00019774877747569998,-0.00023876764150270846,-1.1234500167544054e-05,3.25,2.75
0.23828125,2.9784363859464404e-05,-0.00017528998847028305,-0.00023681079658381015,9.75812770275425e-07,3.25,2.75
0.2421875,2.099353757839323e-05,-0.00016161703379461356,-0.00019140400734325168,-2.932885116197454e-06,3.25,2.75
0.24609375,3.906088197299155e-06,-0.0001826131810621805,-0.00017187050181353476,-2.4436738864728794e-06,3.25,2.75
0.25,-1.954462656748305e-06,-0.000168940226386511,-0.00019774877747569998,2.4384545081254314e-06,3.25,2.75
0.25390625,-2.932885116197454e-06,-0.0001220658034567788,-0.00018359160352162966,-1.3186353135118636e-05,3.25,2.75
0.2578125,-2.0020334497291514e-05,-0.00010937127124055846,-0.00013476033567299915,-1.2207930675669487e-05,3.25,2.75
0.26171875,-3.1741436205386434e-05,-8.544984049729152e-05,-9.813938076218814e-05,-1.4648994872968642e-05,3.25,2.75
0.265625,-3.613435337026016e-05,-7.22660970513466e-05,-7.324451951079576e-05,-2.7343527089188982e-05,3.25,2.75
0.26953125,-4.101648176485847e-05,-7.08034553134966e-05,-6.0549987294575405e-05,-2.832194954863813e-05,3.25,2.75
0.2734375,-4.638782138918134e-05,-3.7112775829709314e-05,-1.660583979186694e-05,-2.6370096581063547e-05,3.25,2.75
0.27734375,-5.761971186755169e-05,-2.6370096581063547e-05,-1.3186353135118636e-05,-1.3186353135118636e-05,3.25,2.75
0.28125,-5.957156483512626e-05,-2.5880885351338974e-05,-4.980730804592965e-05,-1.953112326756694e-05,3.25,2.75
0.28515625,-6.299105149187456e-05,-7.81501351079575e-06,-3.076301374593729e-05,-5.22483722432288e-05,3.25,2.75
0.2890625,-7.470716124864574e-05,-6.3523717729457445e-06,-1.954462656748305e-06,-4.101648176485847e-05,3.25,2.75
0.29296875,-8.349798752971694e-05,-1.562741733241779e-05,3.4168769675745804e-06,-2.0509545727016087e-05,3.25,2.75
0.296875,-8.59390517270161e-05,9.75812770275425e-07,1.2691922527046614e-05,-2.53916741216144e-05,3.25,2.75
0.30078125,-8.789090469459067e-05,1.2202711297322038e-05,2.927665737850006e-06,-1.9046903989166096e-05,3.25,2.75
0.3046875,-8.447640998916608e-05,-9.81032148622873e-07,-1.4648994872968642e-05,-2.246139869459067e-05,3.25,2.75
0.30859375,-7.324451951079576e-05,1.1718492018921196e-05,-4.3955268540474464e-06,-3.613435337026016e-05,3.25,2.75
0.3125,-6.982503285404745e-05,4.443074904325934e-05,2.1482748808117802e-05,-3.7112775829709314e-05,3.25,2.75
0.31640625,-6.396947395132371e-05,2.294539054596781e-05,2.929515262973983e-05,-4.73662438486305e-05,3.25,2.75
0.3203125,-6.0549987294575405e-05,1.0740069559472047e-05,3.466649225406272e-05,-4.199490422430762e-05,3.25,2.75
0.32421875,-6.787317988647287e-05,2.9784363859464404e-05,4.8339446929732215e-05,-5.029651927565422e-05,3.25,2.75
0.328125,-7.129266654322116e-05,3.4177281024338127e-05,3.9059409418936436e-05,-5.22483722432288e-05,3.25,2.75
0.33203125,-6.689475742702372e-05,2.929515262973983e-05,3.124700559731441e-05,-4.248411545403219e-05,3.25,2.75
0.3359375,-6.152341780270084e-05,2.4413024235141534e-05,2.197196003784238e-05,-4.73662438486305e-05,3.25,2.75
0.33984375,-6.299105149187456e-05,2.538645474326695e-05,1.5132986724345768e-05,-3.3204077943236435e-05,3.25,2.75
0.34375,-6.348026272159914e-05,2.9784363859464404e-05,3.124700559731441e-05,-3.808620633783474e-05,3.25,2.75
0.34765625,-6.0060776064850835e-05,2.099353757839323e-05,3.612913399191271e-05,-4.443596842160677e-05,3.25,2.75
0.3515625,-6.299105149187456e-05,7.809794132448317e-06,3.075779436758984e-05,-2.4418243613488966e-05,3.25,2.75
0.35546875,-5.761971186755169e-05,2.9784363859464404e-05,5.566263952162967e-05,-4.150569299458304e-05,3.25,2.75
0.359375,-4.9318096816205075e-05,5.517342829190508e-05,6.689453e-05,-6.982503285404745e-05,3.25,2.75
0.36328125,-4.833967435675593e-05,3.612913399191271e-05,5.419500583245593e-05,-5.37110139810788e-05,3.25,2.75
0.3671875,-4.3946757191882195e-05,2.4413024235141534e-05,3.759676768108645e-05,-5.175916101350422e-05,3.25,2.75
0.37109375,-4.638782138918134e-05,3.1736216827038985e-05,4.003783187838559e-05,-5.615207817837796e-05,3.25,2.75
0.375,-5.322679470267795e-05,2.4902235464866107e-05,4.0527043108110174e-05,-5.37110139810788e-05,3.25,2.75
0.37890625,-5.07857305053788e-05,2.4384545081254314e-06,-2.932885116197454e-06,-4.492517965133135e-05,3.25,2.75
0.3828125,-4.88288855864805e-05,-2.6096891737239503e-09,-1.3186353135118636e-05,-4.833967435675593e-05,3.25,2.75
0.38671875,-5.273758347295337e-05,-5.373949313496595e-06,-4.3955268540474464e-06,-4.3946757191882195e-05,3.25,2.75
0.390625,-5.029651927565422e-05,-1.3186353135118636e-05,-9.277655248645757e-06,-3.955384002700846e-05,3.25,2.75
0.39453125,-4.687703261890592e-05,8.29900536217289e-06,-1.4652514270237303e-06,-4.052727053513389e-05,3.25,2.75
0.3984375,-4.73662438486305e-05,2.0015115118944082e-05,9.277427821622041e-06,-3.076301374593729e-05,3.25,2.75
0.40234375,-4.492517965133135e-05,1.9041684610818647e-05,1.611140918379492e-05,-4.052727053513389e-05,3.25,2.75
0.40625,-4.2973326683756764e-05,-6.3523717729457445e-06,8.29900536217289e-06,-4.638782138918134e-05,3.25,2.75
0.41015625,-4.492517965133135e-05,-5.373949313496595e-06,1.9530895840543224e-05,-5.420022521080338e-05,3.25,2.75
0.4140625,-4.687703261890592e-05,1.8552473381094074e-05,1.0740069559472047e-05,-5.1269949783779646e-05,3.25,2.75
0.41796875,-4.589861015945677e-05,-6.3523717729457445e-06,-1.1718719445944912e-05,-5.5178647670252525e-05,3.25,2.75
0.421875,-4.3946757191882195e-05,-1.0745288937819481e-05,7.809794132448317e-06,-5.615207817837796e-05,3.25,2.75
0.42578125,-4.3946757191882195e-05,1.0740069559472047e-05,2.927665737850006e-06,-4.541439088105592e-05,3.25,2.75
0.4296875,-4.150569299458304e-05,-1.1234500167544054e-05,-5.373949313496595e-06,-4.443596842160677e-05,3.25,2.75
0.43359375,-4.004305125673303e-05,-7.81501351079575e-06,7.320582902723742e-06,-4.248411545403219e-05,3.25,2.75
0.4375,-4.638782138918134e-05,-5.373949313496595e-06,-3.271486671351186e-05,-2.8811160778362702e-05,3.25,2.75
0.44140625,-3.613435337026016e-05,-1.7579270299992372e-05,-1.1718719445944912e-05,-4.052727053513389e-05,3.25,2.75
0.4453125,-2.6370096581063547e-05,-8.304224740520326e-06,3.2225428056763576e-05,-5.37110139810788e-05,3.25,2.75
0.44921875,-3.613435337026016e-05,-1.3186353135118636e-05,8.29900536217289e-06,-4.150569299458304e-05,3.25,2.75
0.453125,-3.857541756755931e-05,-1.8557692759441523e-05,-1.1234500167544054e-05,-3.467171163241016e-05,3.25,2.75
0.45703125,-3.662356459998474e-05,-4.918209188982984e-07,-1.4652514270237303e-06,-3.662356459998474e-05,3.25,2.75
0.4609375,-3.662356459998474e-05,-1.2697141905394062e-05,-7.3258022810711765e-06,-4.2973326683756764e-05,3.25,2.75
0.46484375,-2.9789583237811853e-05,-3.4220963459220284e-06,-1.3675564364843211e-05,-4.638782138918134e-05,3.25,2.75
0.46875,-2.4418243613488966e-05,1.0250858329747459e-05,-4.3955268540474464e-06,-3.613435337026016e-05,3.25,2.75
0.47265625,-3.223064743511101e-05,-2.9789583237811853e-05,-1.9046903989166096e-05,-2.7343527089188982e-05,3.25,2.75
0.4765625,-3.223064743511101e-05,-1.6116628562142368e-05,-1.0256077708094906e-05,-4.980730804592965e-05,3.25,2.75
0.48046875,-3.3693289172961005e-05,4.866015405508505e-07,-2.6096891737239503e-09,-4.3946757191882195e-05,3.25,2.75
0.484375,-3.7112775829709314e-05,-7.3258022810711765e-06,-1.1234500167544054e-05,-3.125222497566186e-05,3.25,2.75
0.48828125,-3.857541756755931e-05,-1.6116628562142368e-05,-1.2697141905394062e-05,-3.516092286213473e-05,3.25,2.75
0.4921875,-4.052727053513389e-05,-2.832194954863813e-05,-2.1487968186465237e-05,-3.955384002700846e-05,3.25,2.75
0.49609375,-3.516092286213473e-05,-2.9789583237811853e-05,-1.5138206102693217e-05,-3.808620633783474e-05,3.25,2.75
0.5,-4.150569299458304e-05,-6.0549987294575405e-05,-3.4220963459220284e-06,-1.660583979186694e-05,3.25,2.75
0.50390625,-3.808620633783474e-05,-2.3929032383764392e-05,3.4168769675745804e-06,-3.076301374593729e-05,3.25,2.75
0.5078125,-2.7343527089188982e-05,-9.766866478370332e-06,-1.9046903989166096e-05,-3.662356459998474e-05,3.25,2.75
0.51171875,-2.8811160778362702e-05,-7.031424408377202e-05,-6.543211568917371e-05,-1.70900590702678e-05,3.25,2.75
0.515625,-2.5880885351338974e-05,-7.812664790539407e-05,-8.154613456214235e-05,-3.271486671351186e-05,3.25,2.75
0.51953125,-2.2950609924315245e-05,-6.885160234592201e-05,-0.0001137641884054322,-2.6859307810788124e-05,3.25,2.75
0.5234375,-1.8557692759441523e-05,-7.714822544594491e-05,-0.00010986048247028304,-3.467171163241016e-05,3.25,2.75
0.52734375,-1.3675564364843211e-05,-0.00014111009775677117,-0.00012939398799999998,-1.954462656748305e-06,3.25,2.75
0.53125,-7.81501351079575e-06,-0.0001528311994648661,-0.00014599222615136948,8.29900536217289e-06,3.25,2.75
0.53515625,-5.863160543221169e-06,-0.00010106965618921186,-0.00011962473925947966,-3.027380251621271e-05,3.25,2.75
0.5390625,-5.373949313496595e-06,-0.00011962473925947966,-0.00015331541874326693,-1.2207930675669487e-05,3.25,2.75
0.54296875,-3.4220963459220284e-06,-0.0001879845206865034,-0.00018115053932433051,1.4650239999999996e-06,3.25,2.75
0.546875,9.75812770275425e-07,-0.00022704653979461353,-0.00018115053932433051,8.788216591897466e-06,3.25,2.75
0.55078125,1.0740069559472047e-05,-0.00018017211686488133,-0.00015429384120271608,1.4643775494621195e-05,3.25,2.75
0.5546875,5.857941164873736e-06,-0.00019091479611352713,-0.00015819754713786524,1.611140918379492e-05,3.25,2.75
0.55859375,6.831371672999168e-06,-0.00022362705313786523,-0.0001826131810621805,1.1718492018921196e-05,3.25,2.75
0.5625,2.197196003784238e-05,-0.00019091479611352713,-0.00022655732856488898,-1.4652514270237303e-06,3.25,2.75
0.56640625,2.099353757839323e-05,-0.0001870060982270542,-0.0002568335133432517,-7.81501351079575e-06,3.25,2.75
0.5703125,5.857941164873736e-06,-0.00019091479611352713,-0.00026025299999999995,1.3181133756771189e-05,3.25,2.75
0.57421875,1.2202711297322038e-05,-0.00017089707130540932,-0.0001997056223945983,-9.277655248645757e-06,3.25,2.75
0.578125,9.761647100022883e-06,-0.00014892250157839322,-0.00016015439205676354,-3.564514214053559e-05,3.25,2.75
0.58203125,-9.277655248645757e-06,-0.0001254852901135271,-0.00018408081475135423,-2.53916741216144e-05,3.25,2.75
0.5859375,-1.0256077708094906e-05,-0.00012694793185137712,-0.00015819754713786524,-3.125222497566186e-05,3.25,2.75
0.58984375,-3.125222497566186e-05,-0.00013085662973785,-0.00016015439205676354,-2.932885116197454e-06,3.25,2.75
0.59375,-3.516092286213473e-05,-9.521908923781184e-05,-0.00013769061110002284,-1.4164775594567784e-05,3.25,2.75
0.59765625,-2.4902462891889824e-05,-4.73662438486305e-05,-4.88288855864805e-05,-5.175916101350422e-05,3.25,2.75
0.6015625,-3.076301374593729e-05,-4.541439088105592e-05,-3.223064743511101e-05,-3.467171163241016e-05,3.25,2.75
0.60546875,-4.2973326683756764e-05,-7.178187777294574e-05,-4.833967435675593e-05,-2.2950609924315245e-05,3.25,2.75
0.609375,-5.664128940810253e-05,-5.029651927565422e-05,-5.175916101350422e-05,-1.70900590702678e-05,3.25,2.75
0.61328125,-5.664128940810253e-05,1.0740069559472047e-05,-1.0745288937819481e-05,-3.808620633783474e-05,3.25,2.75
0.6171875,-5.615207817837796e-05,-3.4220963459220284e-06,1.9041684610818647e-05,-5.273758347295337e-05,3.25,2.75
0.62109375,-6.689475742702372e-05,-2.2950609924315245e-05,-8.304224740520326e-06,-3.1741436205386434e-05,3.25,2.75
0.625,-6.982503285404745e-05,9.75812770275425e-07,-1.6116628562142368e-05,-3.076301374593729e-05,3.25,2.75
0.62890625,-7.178187777294574e-05,9.761647100022883e-06,1.6600620413519492e-05,-2.4902462891889824e-05,3.25,2.75
0.6328125,-7.129266654322116e-05,1.2691922527046614e-05,3.124700559731441e-05,-3.7112775829709314e-05,3.25,2.75
0.63671875,-6.738396865674829e-05,2.392381300541696e-05,4.638260201083389e-05,-4.687703261890592e-05,3.25,2.75
0.640625,-7.275530828107118e-05,3.319885856488898e-05,6.200740965407797e-05,-4.052727053513389e-05,3.25,2.75
0.64453125,-7.617479493781947e-05,2.927665737850006e-06,3.319885856488898e-05,-4.199490422430762e-05,3.25,2.75
0.6484375,-6.445369322972456e-05,1.3670344986495762e-05,4.736102447028307e-05,-4.638782138918134e-05,3.25,2.75
0.65234375,-6.592132691889828e-05,3.319885856488898e-05,5.273236409460594e-05,-4.3457545962157625e-05,3.25,2.75
0.65625,-7.568558370809491e-05,2.392381300541696e-05,3.026858313786526e-05,-4.9318096816205075e-05,3.25,2.75
0.66015625,-6.348026272159914e-05,4.8339446929732215e-05,4.8339446929732215e-05,-6.689475742702372e-05,3.25,2.75
0.6640625,-5.8598134327000834e-05,2.2456179316243237e-05,5.273236409460594e-05,-6.543211568917371e-05,3.25,2.75
0.66796875,-5.8598134327000834e-05,1.5622197954070345e-05,2.0504326348668655e-05,-6.103919852429998e-05,3.25,2.75
0.671875,-5.761971186755169e-05,4.3941537813534746e-05,3.954862064866103e-05,-6.933582162432287e-05,3.25,2.75
0.67578125,-5.664128940810253e-05,2.734329966216525e-05,5.078051112703136e-05,-5.175916101350422e-05,3.25,2.75
0.6796875,-5.908235360540168e-05,2.9784363859464404e-05,2.197196003784238e-05,-4.3457545962157625e-05,3.25,2.75
0.68359375,-5.713050063782711e-05,3.1736216827038985e-05,6.831371672999168e-06,-5.37110139810788e-05,3.25,2.75
0.6875,-5.1269949783779646e-05,4.1500473616235605e-05,3.466649225406272e-05,-6.494290445944914e-05,3.25,2.75
0.69140625,-4.833967435675593e-05,2.6364877202716102e-05,4.589838273243305e-05,-6.933582162432287e-05,3.25,2.75
0.6953125,-5.175916101350422e-05,5.3687299351491615e-06,3.8085978910811005e-05,-5.4689436440527955e-05,3.25,2.75
0.69921875,-5.8598134327000834e-05,2.392381300541696e-05,8.788216591897466e-06,-3.125222497566186e-05,3.25,2.75
0.703125,-4.687703261890592e-05,1.2691922527046614e-05,1.0740069559472047e-05,-5.322679470267795e-05,3.25,2.75
0.70703125,-3.613435337026016e-05,2.734329966216525e-05,4.1500473616235605e-05,-6.738396865674829e-05,3.25,2.75
0.7109375,-3.418250040268558e-05,2.4413024235141534e-05,4.345232658381019e-05,-5.664128940810253e-05,3.25,2.75
0.71484375,-4.052727053513389e-05,7.809794132448317e-06,3.5155703483787273e-05,-5.4689436440527955e-05,3.25,2.75
0.71875,-4.638782138918134e-05,8.29900536217289e-06,3.906088197299155e-06,-4.980730804592965e-05,3.25,2.75
0.72265625,-4.785545507835507e-05,1.4159556216220337e-05,4.879518705424587e-06,-5.957156483512626e-05,3.25,2.75
0.7265625,-4.3457545962157625e-05,1.4159556216220337e-05,1.9530895840543224e-05,-5.957156483512626e-05,3.25,2.75
0.73046875,-3.808620633783474e-05,4.390307475700013e-06,1.5132986724345768e-05,-5.37110139810788e-05,3.25,2.75
0.734375,-4.199490422430762e-05,1.9530895840543224e-05,2.1482748808117802e-05,-4.73662438486305e-05,3.25,2.75
0.73828125,-4.541439088105592e-05,1.949243278400857e-06,1.5132986724345768e-05,-5.420022521080338e-05,3.25,2.75
0.7421875,-4.052727053513389e-05,-6.3523717729457445e-06,-8.7934359702449e-06,-6.494290445944914e-05,3.25,2.75
0.74609375,-3.418250040268558e-05,-3.906315624322871e-06,-1.7579270299992372e-05,-4.3457545962157625e-05,3.25,2.75
0.75,-2.6370096581063547e-05,-2.0509545727016087e-05,9.75812770275425e-07,-4.443596842160677e-05,3.25,2.75
0.75390625,-2.6859307810788124e-05,2.0504326348668655e-05,3.319885856488898e-05,-5.8598134327000834e-05,3.25,2.75
0.7578125,-3.7601987059433884e-05,1.5622197954070345e-05,2.4384545081254314e-06,-3.125222497566186e-05,3.25,2.75
0.76171875,-3.3693289172961005e-05,-1.954462656748305e-06,1.4650239999999996e-06,-3.467171163241016e-05,3.25,2.75
0.765625,-3.125222497566186e-05,-5.373949313496595e-06,2.3434601775692384e-05,-6.0549987294575405e-05,3.25,2.75
0.76953125,-3.808620633783474e-05,-1.2697141905394062e-05,5.3687299351491615e-06,-4.541439088105592e-05,3.25,2.75
0.7734375,-3.271486671351186e-05,1.122928078919662e-05,4.390307475700013e-06,-3.662356459998474e-05,3.25,2.75
0.77734375,-2.832194954863813e-05,4.866015405508505e-07,-2.0998756956740664e-05,-4.980730804592965e-05,3.25,2.75
0.78125,-3.027380251621271e-05,-1.1234500167544054e-05,-4.150569299458304e-05,-5.957156483512626e-05,3.25,2.75
0.78515625,-3.516092286213473e-05,-1.70900590702678e-05,-6.20126290324254e-05,-4.589861015945677e-05,3.25,2.75
0.7890625,-3.3204077943236435e-05,-1.660583979186694e-05,-7.275530828107118e-05,-4.443596842160677e-05,3.25,2.75
0.79296875,-3.3693289172961005e-05,-9.277655248645757e-06,-3.955384002700846e-05,-5.175916101350422e-05,3.25,2.75
0.796875,-3.564514214053559e-05,-9.277655248645757e-06,-2.7343527089188982e-05,-5.07857305053788e-05,3.25,2.75
0.80078125,-4.052727053513389e-05,-3.027380251621271e-05,-3.467171163241016e-05,-5.22483722432288e-05,3.25,2.75
0.8046875,-4.199490422430762e-05,-3.613435337026016e-05,-1.8557692759441523e-05,-5.322679470267795e-05,3.25,2.75
0.80859375,-4.541439088105592e-05,-2.4902462891889824e-05,-6.836591051346601e-06,-4.541439088105592e-05,3.25,2.75
0.8125,-3.7601987059433884e-05,-1.3675564364843211e-05,-3.418250040268558e-05,-4.980730804592965e-05,3.25,2.75
0.81640625,-2.6859307810788124e-05,-1.562741733241779e-05,-2.343982115403982e-05,-5.420022521080338e-05,3.25,2.75
0.8203125,-3.3204077943236435e-05,-1.9046903989166096e-05,-1.0745288937819481e-05,-4.833967435675593e-05,3.25,2.75
0.82421875,-3.613435337026016e-05,-2.2950609924315245e-05,-5.029651927565422e-05,-3.613435337026016e-05,3.25,2.75
0.828125,-3.662356459998474e-05,-2.2950609924315245e-05,-4.88288855864805e-05,-5.029651927565422e-05,3.25,2.75
0.83203125,-3.613435337026016e-05,-2.0020334497291514e-05,-1.1718719445944912e-05,-5.22483722432288e-05,3.25,2.75
0.8359375,-4.101648176485847e-05,-4.199490422430762e-05,-4.785545507835507e-05,-2.3929032383764392e-05,3.25,2.75
0.83984375,-4.73662438486305e-05,-4.004305125673303e-05,-7.861585913511862e-05,-2.832194954863813e-05,3.25,2.75
0.84375,-3.3204077943236435e-05,-8.304224740520326e-06,-2.246139869459067e-05,-5.908235360540168e-05,3.25,2.75
0.84765625,-3.3204077943236435e-05,-2.7343527089188982e-05,2.4384545081254314e-06,-5.5178647670252525e-05,3.25,2.75
0.8515625,-4.199490422430762e-05,-4.492517965133135e-05,-2.343982115403982e-05,-4.980730804592965e-05,3.25,2.75
0.85546875,-3.7112775829709314e-05,-2.9789583237811853e-05,-2.0509545727016087e-05,-4.150569299458304e-05,3.25,2.75
0.859375,-2.832194954863813e-05,-1.0256077708094906e-05,-2.4902462891889824e-05,-3.418250040268558e-05,3.25,2.75
0.86328125,-3.3204077943236435e-05,-1.8557692759441523e-05,-5.029651927565422e-05,-3.467171163241016e-05,3.25,2.75
0.8671875,-4.3457545962157625e-05,-4.150569299458304e-05,-6.885160234592201e-05,-1.562741733241779e-05,3.25,2.75
0.87109375,-3.125222497566186e-05,-1.4648994872968642e-05,-3.564514214053559e-05,-3.027380251621271e-05,3.25,2.75
0.875,-3.418250040268558e-05,-2.832194954863813e-05,-1.953112326756694e-05,-4.833967435675593e-05,3.25,2.75
0.87890625,-3.613435337026016e-05,-4.73662438486305e-05,-5.029651927565422e-05,-4.785545507835507e-05,3.25,2.75
0.8828125,-1.8557692759441523e-05,-1.954462656748305e-06,-1.1718719445944912e-05,-5.4689436440527955e-05,3.25,2.75
0.88671875,-3.271486671351186e-05,-1.660583979186694e-05,-1.2697141905394062e-05,-3.613435337026016e-05,3.25,2.75
0.890625,-3.7601987059433884e-05,-4.833967435675593e-05,-4.052727053513389e-05,-2.0509545727016087e-05,3.25,2.75
0.89453125,-2.7343527089188982e-05,-4.101648176485847e-05,1.4650239999999996e-06,-3.027380251621271e-05,3.25,2.75
0.8984375,-3.125222497566186e-05,-1.1718719445944912e-05,3.1736216827038985e-05,-4.9318096816205075e-05,3.25,2.75
0.90234375,-3.467171163241016e-05,-1.70900590702678e-05,9.75812770275425e-07,-4.638782138918134e-05,3.25,2.75
0.90625,-3.027380251621271e-05,-1.4648994872968642e-05,-1.5138206102693217e-05,-4.492517965133135e-05,3.25,2.75
0.91015625,-2.6859307810788124e-05,-8.304224740520326e-06,-8.304224740520326e-06,-4.492517965133135e-05,3.25,2.75
0.9140625,-3.076301374593729e-05,-3.3693289172961005e-05,-1.953112326756694e-05,-2.7343527089188982e-05,3.25,2.75
0.91796875,-3.223064743511101e-05,-1.2697141905394062e-05,-3.271486671351186e-05,-2.3929032383764392e-05,3.25,2.75
0.921875,-2.930037200808728e-05,-1.954462656748305e-06,-2.4418243613488966e-05,-4.248411545403219e-05,3.25,2.75
0.92578125,-3.125222497566186e-05,-2.1487968186465237e-05,-1.2697141905394062e-05,-4.004305125673303e-05,3.25,2.75
0.9296875,-3.418250040268558e-05,-1.2207930675669487e-05,-1.4164775594567784e-05,-1.9046903989166096e-05,3.25,2.75
0.93359375,-2.930037200808728e-05,-5.664128940810253e-05,-6.20126290324254e-05,-2.197717941618981e-05,3.25,2.75
0.9375,-2.3929032383764392e-05,-4.443596842160677e-05,-4.638782138918134e-05,-4.833967435675593e-05,3.25,2.75
0.94140625,-3.125222497566186e-05,7.320582902723742e-06,-4.3955268540474464e-06,-4.88288855864805e-05,3.25,2.75
0.9453125,-3.516092286213473e-05,-1.4652514270237303e-06,-2.53916741216144e-05,-4.2973326683756764e-05,3.25,2.75
0.94921875,-3.1741436205386434e-05,-4.687703261890592e-05,-3.418250040268558e-05,-5.4689436440527955e-05,3.25,2.75
0.953125,-3.857541756755931e-05,-7.129266654322116e-05,-4.541439088105592e-05,-3.223064743511101e-05,3.25,2.75
0.95703125,-3.1741436205386434e-05,-2.832194954863813e-05,-2.343982115403982e-05,-2.53916741216144e-05,3.25,2.75
0.9609375,-2.6859307810788124e-05,-4.004305125673303e-05,9.75812770275425e-07,-3.3204077943236435e-05,3.25,2.75
0.96484375,-2.53916741216144e-05,-1.1718719445944912e-05,1.6600620413519492e-05,-3.857541756755931e-05,3.25,2.75
0.96875,-2.8811160778362702e-05,5.857941164873736e-06,-1.4648994872968642e-05,-1.3675564364843211e-05,3.25,2.75
0.97265625,-3.9064628797283885e-05,-2.7343527089188982e-05,-5.713050063782711e-05,-1.3186353135118636e-05,3.25,2.75
0.9765625,-3.7601987059433884e-05,-2.5880885351338974e-05,-5.07857305053788e-05,-4.101648176485847e-05,3.25,2.75
0.98046875,-3.613435337026016e-05,-2.2950609924315245e-05,-3.1741436205386434e-05,-4.3946757191882195e-05,3.25,2.75
0.984375,-2.9789583237811853e-05,-2.4418243613488966e-05,-2.6370096581063547e-05,-6.348026272159914e-05,3.25,2.75
0.98828125,-3.467171163241016e-05,-3.7601987059433884e-05,-4.052727053513389e-05,-5.56678588999771e-05,3.25,2.75
0.9921875,-4.73662438486305e-05,-4.833967435675593e-05,-3.1741436205386434e-05,-3.3693289172961005e-05,3.25,2.75
0.99609375,-3.9064628797283885e-05,-2.1487968186465237e-05,-2.832194954863813e-05,-4.980730804592965e-05,3.25,2.75
1.0,-3.857541756755931e-05,-3.3693289172961005e-05,-3.662356459998474e-05,-2.1487968186465237e-05,3.25,2.75
1.00390625,-4.589861015945677e-05,-3.955384002700846e-05,-2.8811160778362702e-05,2.4384545081254314e-06,3.25,2.75
1.0078125,-4.150569299458304e-05,-4.785545507835507e-05,-2.53916741216144e-05,-1.2207930675669487e-05,3.25,2.75
1.01171875,-4.101648176485847e-05,-6.20126290324254e-05,-2.9789583237811853e-05,-2.7832738318913555e-05,3.25,2.75
1.015625,-3.027380251621271e-05,-7.3258022810711765e-06,1.3181133756771189e-05,-4.73662438486305e-05,3.25,2.75
1.01953125,-3.1741436205386434e-05,-9.766866478370332e-06,-1.8068481529716946e-05,-2.7832738318913555e-05,3.25,2.75
1.0234375,-3.3693289172961005e-05,-1.3186353135118636e-05,-1.660583979186694e-05,-5.322679470267795e-05,3.25,2.75
1.02734375,-3.613435337026016e-05,-2.9789583237811853e-05,-1.562741733241779e-05,-4.443596842160677e-05,3.25,2.75
1.03125,-3.9064628797283885e-05,-5.22483722432288e-05,-4.833967435675593e-05,-2.7343527089188982e-05,3.25,2.75
1.03515625,-3.7601987059433884e-05,-4.73662438486305e-05,-3.564514214053559e-05,-2.7832738318913555e-05,3.25,2.75
1.0390625,-4.3946757191882195e-05,-5.1269949783779646e-05,-3.418250040268558e-05,-3.076301374593729e-05,3.25,2.75
1.04296875,-3.955384002700846e-05,-2.246139869459067e-05,-3.467171163241016e-05,-4.687703261890592e-05,3.25,2.75
1.046875,-4.3946757191882195e-05,-4.101648176485847e-05,-4.2973326683756764e-05,-1.8557692759441523e-05,3.25,2.75
1.05078125,-5.5178647670252525e-05,-6.738396865674829e-05,-6.885160234592201e-05,-1.562741733241779e-05,3.25,2.75
1.0546875,-4.443596842160677e-05,-4.443596842160677e-05,-6.982503285404745e-05,-4.785545507835507e-05,3.25,2.75
1.05859375,-3.467171163241016e-05,-2.832194954863813e-05,-5.713050063782711e-05,-5.615207817837796e-05,3.25,2.75
1.0625,-3.1741436205386434e-05,-2.7343527089188982e-05,-1.5138206102693217e-05,-4.589861015945677e-05,3.25,2.75
1.06640625,-3.955384002700846e-05,-5.322679470267795e-05,-2.8811160778362702e-05,-2.5880885351338974e-05,3.25,2.75
1.0703125,-4.3457545962157625e-05,-4.785545507835507e-05,-5.761971186755169e-05,-3.467171163241016e-05,3.25,2.75
1.07421875,-3.857541756755931e-05,-3.076301374593729e-05,-4.2973326683756764e-05,-4.687703261890592e-05,3.25,2.75
1.078125,-2.6096891737239503e-09,-2.6096891737239503e-09,-2.6096891737239503e-09,-2.6096891737239503e-09,3.25,2.75
1.08203125,-2.6096891737239503e-09,-2.6096891737239503e-09,-2.6096891737239503e-09,-4.918209188982984e-07,3.25,2.75
1.0859375,-1.954462656748305e-06,-1.4652514270237303e-06,-1.954462656748305e-06,-4.918209188982984e-07,3.25,2.75
1.08984375,2.927665737850006e-06,3.4168769675745804e-06,3.4168769675745804e-06,-9.81032148622873e-07,3.25,2.75
1.09375,-1.660583979186694e-05,-1.8068481529716946e-05,-2.0509545727016087e-05,-9.81032148622873e-07,3.25,2.75
1.09765625,-4.492517965133135e-05,-4.199490422430762e-05,-5.273758347295337e-05,-2.0998756956740664e-05,3.25,2.75
1.1015625,-3.7112775829709314e-05,-3.613435337026016e-05,-4.589861015945677e-05,-3.857541756755931e-05,3.25,2.75
1.10546875,-3.418250040268558e-05,-3.662356459998474e-05,-3.467171163241016e-05,-3.3693289172961005e-05,3.25,2.75
1.109375,-3.125222497566186e-05,-3.7601987059433884e-05,-4.004305125673303e-05,-3.613435337026016e-05,3.25,2.75
1.11328125,-3.027380251621271e-05,-3.516092286213473e-05,-4.73662438486305e-05,-3.3693289172961005e-05,3.25,2.75
1.1171875,-3.516092286213473e-05,-3.3204077943236435e-05,-4.101648176485847e-05,-2.5880885351338974e-05,3.25,2.75
1.12109375,-3.418250040268558e-05,-3.467171163241016e-05,-3.3693289172961005e-05,-2.2950609924315245e-05,3.25,2.75
1.125,-3.027380251621271e-05,-3.564514214053559e-05,-3.564514214053559e-05,-1.9046903989166096e-05,3.25,2.75
1.12890625,-2.5880885351338974e-05,-4.150569299458304e-05,-4.004305125673303e-05,-2.197717941618981e-05,3.25,2.75
1.1328125,-2.6859307810788124e-05,-4.3946757191882195e-05,-4.248411545403219e-05,-3.125222497566186e-05,3.25,2.75
1.13671875,-2.8811160778362702e-05,-4.248411545403219e-05,-4.2973326683756764e-05,-3.467171163241016e-05,3.25,2.75
1.140625,-3.1741436205386434e-05,-4.3946757191882195e-05,-4.785545507835507e-05,-2.8811160778362702e-05,3.25,2.75
1.14453125,-3.564514214053559e-05,-4.785545507835507e-05,-4.785545507835507e-05,-3.662356459998474e-05,3.25,2.75
1.1484375,-2.832194954863813e-05,-4.492517965133135e-05,-4.2973326683756764e-05,-3.3693289172961005e-05,3.25,2.75
1.15234375,-2.0998756956740664e-05,-4.199490422430762e-05,-3.027380251621271e-05,-2.53916741216144e-05,3.25,2.75
1.15625,-3.467171163241016e-05,-4.443596842160677e-05,-2.3929032383764392e-05,-3.7601987059433884e-05,3.25,2.75
1.16015625,-4.199490422430762e-05,-4.2973326683756764e-05,-3.3204077943236435e-05,-3.7112775829709314e-05,3.25,2.75
1.1640625,-4.004305125673303e-05,-3.3693289172961005e-05,-3.271486671351186e-05,-2.8811160778362702e-05,3.25,2.75
1.16796875,-4.004305125673303e-05,-2.9789583237811853e-05,-3.3204077943236435e-05,-2.8811160778362702e-05,3.25,2.75
1.171875,-4.004305125673303e-05,-3.3204077943236435e-05,-4.687703261890592e-05,-4.101648176485847e-05,3.25,2.75
1.17578125,-4.004305125673303e-05,-3.564514214053559e-05,-4.73662438486305e-05,-3.955384002700846e-05,3.25,2.75
1.1796875,-4.004305125673303e-05,-4.199490422430762e-05,-4.248411545403219e-05,-3.271486671351186e-05,3.25,2.75
1.18359375,-3.467171163241016e-05,-3.955384002700846e-05,-4.9318096816205075e-05,-2.7832738318913555e-05,3.25,2.75
1.1875,-2.8811160778362702e-05,-3.467171163241016e-05,-5.07857305053788e-05,-2.6859307810788124e-05,3.25,2.75
1.19140625,-3.076301374593729e-05,-4.150569299458304e-05,-4.492517965133135e-05,-3.1741436205386434e-05,3.25,2.75
1.1953125,-3.125222497566186e-05,-3.418250040268558e-05,-3.662356459998474e-05,-2.8811160778362702e-05,3.25,2.75
1.19921875,-3.223064743511101e-05,-3.662356459998474e-05,-2.930037200808728e-05,-3.418250040268558e-05,3.25,2.75
1.203125,-3.564514214053559e-05,-4.3457545962157625e-05,-3.955384002700846e-05,-3.7112775829709314e-05,3.25,2.75
1.20703125,-3.564514214053559e-05,-4.150569299458304e-05,-4.101648176485847e-05,-3.125222497566186e-05,3.25,2.75
1.2109375,-3.418250040268558e-05,-4.589861015945677e-05,-3.467171163241016e-05,-3.271486671351186e-05,3.25,2.75
1.21484375,-3.516092286213473e-05,-3.7601987059433884e-05,-3.613435337026016e-05,-3.7112775829709314e-05,3.25,2.75
1.21875,-3.1741436205386434e-05,-3.271486671351186e-05,-2.9789583237811853e-05,-3.418250040268558e-05,3.25,2.75
1.22265625,-3.271486671351186e-05,-3.808620633783474e-05,-3.418250040268558e-05,-3.808620633783474e-05,3.25,2.75
1.2265625,-3.418250040268558e-05,-4.589861015945677e-05,-3.955384002700846e-05,-4.101648176485847e-05,3.25,2.75
1.23046875,-3.271486671351186e-05,-4.199490422430762e-05,-3.1741436205386434e-05,-3.223064743511101e-05,3.25,2.75
1.234375,-3.955384002700846e-05,-3.9064628797283885e-05,-4.150569299458304e-05,-4.004305125673303e-05,3.25,2.75
1.23828125,-4.443596842160677e-05,-4.541439088105592e-05,-4.589861015945677e-05,-4.2973326683756764e-05,3.25,2.75
1.2421875,-4.2973326683756764e-05,-4.443596842160677e-05,-3.7601987059433884e-05,-3.662356459998474e-05,3.25,2.75
1.24609375,-4.052727053513389e-05,-3.955384002700846e-05,-3.564514214053559e-05,-3.662356459998474e-05,3.25,2.75
1.25,-3.7112775829709314e-05,-3.467171163241016e-05,-3.955384002700846e-05,-3.3693289172961005e-05,3.25,2.75
1.25390625,-3.1741436205386434e-05,-3.613435337026016e-05,-4.199490422430762e-05,-4.199490422430762e-05,3.25,2.75
1.2578125,-2.9789583237811853e-05,-4.101648176485847e-05,-4.052727053513389e-05,-4.2973326683756764e-05,3.25,2.75
1.26171875,-3.467171163241016e-05,-3.808620633783474e-05,-3.857541756755931e-05,-3.9064628797283885e-05,3.25,2.75
1.265625,-3.662356459998474e-05,-3.613435337026016e-05,-2.8811160778362702e-05,-3.662356459998474e-05,3.25,2.75
1.26953125,-3.564514214053559e-05,-3.7601987059433884e-05,-3.076301374593729e-05,-3.808620633783474e-05,3.25,2.75
1.2734375,-3.3693289172961005e-05,-3.1741436205386434e-05,-3.271486671351186e-05,-3.467171163241016e-05,3.25,2.75
1.27734375,-3.3693289172961005e-05,-3.3693289172961005e-05,-3.564514214053559e-05,-3.271486671351186e-05,3.25,2.75
1.28125,-3.516092286213473e-05,-3.418250040268558e-05,-3.7112775829709314e-05,-2.930037200808728e-05,3.25,2.75
1.28515625,-3.3204077943236435e-05,-2.6370096581063547e-05,-2.5880885351338974e-05,-1.9046903989166096e-05,3.25,2.75
1.2890625,-3.516092286213473e-05,-2.0998756956740664e-05,-1.660583979186694e-05,-2.197717941618981e-05,3.25,2.75
1.29296875,-3.3693289172961005e-05,-3.467171163241016e-05,-3.223064743511101e-05,-3.467171163241016e-05,3.25,2.75
1.296875,-2.7343527089188982e-05,-4.3946757191882195e-05,-4.3457545962157625e-05,-4.687703261890592e-05,3.25,2.75
1.30078125,-2.6370096581063547e-05,-4.052727053513389e-05,-3.7112775829709314e-05,-4.541439088105592e-05,3.25,2.75
1.3046875,-2.6859307810788124e-05,-4.3457545962157625e-05,-3.3693289172961005e-05,-3.857541756755931e-05,3.25,2.75
1.30859375,-2.930037200808728e-05,-4.004305125673303e-05,-2.6370096581063547e-05,-3.467171163241016e-05,3.25,2.75
1.3125,-2.3929032383764392e-05,-3.808620633783474e-05,-3.7601987059433884e-05,-3.857541756755931e-05,3.25,2.75
1.31640625,-2.8811160778362702e-05,-4.199490422430762e-05,-5.37110139810788e-05,-3.808620633783474e-05,3.25,2.75
1.3203125,-4.004305125673303e-05,-4.248411545403219e-05,-4.88288855864805e-05,-3.516092286213473e-05,3.25,2.75
1.32421875,-3.662356459998474e-05,-3.7601987059433884e-05,-3.662356459998474e-05,-3.7601987059433884e-05,3.25,2.75
1.328125,-3.808620633783474e-05,-4.004305125673303e-05,-3.418250040268558e-05,-3.857541756755931e-05,3.25,2.75
1.33203125,-3.564514214053559e-05,-3.613435337026016e-05,-2.6370096581063547e-05,-4.589861015945677e-05,3.25,2.75
1.3359375,-3.7112775829709314e-05,-3.857541756755931e-05,-1.562741733241779e-05,-5.615207817837796e-05,3.25,2.75
1.33984375,-3.564514214053559e-05,-3.7601987059433884e-05,-2.6370096581063547e-05,-5.664128940810253e-05,3.25,2.75
1.34375,-3.027380251621271e-05,-3.467171163241016e-05,-4.492517965133135e-05,-5.175916101350422e-05,3.25,2.75
1.34765625,-3.1741436205386434e-05,-3.7601987059433884e-05,-4.687703261890592e-05,-5.029651927565422e-05,3.25,2.75
1.3515625,-2.930037200808728e-05,-3.3693289172961005e-05,-4.443596842160677e-05,-4.199490422430762e-05,3.25,2.75
1.35546875,-2.53916741216144e-05,-3.076301374593729e-05,-4.150569299458304e-05,-2.8811160778362702e-05,3.25,2.75
1.359375,-2.8811160778362702e-05,-2.9789583237811853e-05,-3.076301374593729e-05,-2.3929032383764392e-05,3.25,2.75
1.36328125,-2.6859307810788124e-05,-3.1741436205386434e-05,-1.562741733241779e-05,-2.53916741216144e-05,3.25,2.75
1.3671875,-2.4902462891889824e-05,-3.418250040268558e-05,-2.4418243613488966e-05,-3.3693289172961005e-05,3.25,2.75
1.37109375,-3.125222497566186e-05,-3.3204077943236435e-05,-4.785545507835507e-05,-4.248411545403219e-05,3.25,2.75
1.375,-3.3693289172961005e-05,-3.516092286213473e-05,-5.664128940810253e-05,-4.2973326683756764e-05,3.25,2.75
1.37890625,-2.9789583237811853e-05,-3.467171163241016e-05,-3.7601987059433884e-05,-4.052727053513389e-05,3.25,2.75
1.3828125,-3.027380251621271e-05,-3.223064743511101e-05,-2.5880885351338974e-05,-3.467171163241016e-05,3.25,2.75
1.38671875,-2.930037200808728e-05,-3.1741436205386434e-05,-2.6859307810788124e-05,-3.516092286213473e-05,3.25,2.75
1.390625,-2.0509545727016087e-05,-2.7832738318913555e-05,-3.7601987059433884e-05,-3.564514214053559e-05,3.25,2.75
1.39453125,-2.343982115403982e-05,-2.2950609924315245e-05,-3.564514214053559e-05,-3.076301374593729e-05,3.25,2.75
1.3984375,-2.8811160778362702e-05,-2.7832738318913555e-05,-2.832194954863813e-05,-3.7112775829709314e-05,3.25,2.75
1.40234375,-3.1741436205386434e-05,-3.613435337026016e-05,-4.199490422430762e-05,-3.7601987059433884e-05,3.25,2.75
1.40625,-3.662356459998474e-05,-3.271486671351186e-05,-4.9318096816205075e-05,-2.9789583237811853e-05,3.25,2.75
1.41015625,-3.516092286213473e-05,-2.7832738318913555e-05,-4.443596842160677e-05,-2.9789583237811853e-05,3.25,2.75
1.4140625,-3.467171163241016e-05,-3.223064743511101e-05,-4.199490422430762e-05,-3.418250040268558e-05,3.25,2.75
1.41796875,-3.516092286213473e-05,-3.564514214053559e-05,-5.07857305053788e-05,-3.857541756755931e-05,3.25,2.75
1.421875,-2.832194954863813e-05,-3.3204077943236435e-05,-4.492517965133135e-05,-3.9064628797283885e-05,3.25,2.75
1.42578125,-2.9789583237811853e-05,-3.223064743511101e-05,-2.832194954863813e-05,-3.7601987059433884e-05,3.25,2.75
1.4296875,-3.9064628797283885e-05,-3.857541756755931e-05,-2.7832738318913555e-05,-3.9064628797283885e-05,3.25,2.75
1.43359375,-3.7112775829709314e-05,-3.857541756755931e-05,-3.516092286213473e-05,-3.271486671351186e-05,3.25,2.75
1.4375,-3.613435337026016e-05,-3.9064628797283885e-05,-3.467171163241016e-05,-2.9789583237811853e-05,3.25,2.75
1.44140625,-3.7112775829709314e-05,-4.004305125673303e-05,-4.101648176485847e-05,-3.9064628797283885e-05,3.25,2.75
1.4453125,-2.8811160778362702e-05,-3.1741436205386434e-05,-5.1269949783779646e-05,-3.3693289172961005e-05,3.25,2.75
1.44921875,-3.7112775829709314e-05,-3.564514214053559e-05,-5.5178647670252525e-05,-2.9789583237811853e-05,3.25,2.75
1.453125,-4.150569299458304e-05,-4.248411545403219e-05,-4.248411545403219e-05,-3.808620633783474e-05,3.25,2.75
1.45703125,-3.516092286213473e-05,-3.857541756755931e-05,-2.3929032383764392e-05,-4.052727053513389e-05,3.25,2.75
1.4609375,-3.3204077943236435e-05,-3.7601987059433884e-05,-3.027380251621271e-05,-3.808620633783474e-05,3.25,2.75
1.46484375,-3.3693289172961005e-05,-3.955384002700846e-05,-4.199490422430762e-05,-3.516092286213473e-05,3.25,2.75
1.46875,-3.418250040268558e-05,-3.516092286213473e-05,-3.564514214053559e-05,-3.7112775829709314e-05,3.25,2.75
1.47265625,-3.516092286213473e-05,-3.516092286213473e-05,-3.9064628797283885e-05,-3.7601987059433884e-05,3.25,2.75
1.4765625,-3.564514214053559e-05,-4.052727053513389e-05,-4.9318096816205075e-05,-4.150569299458304e-05,3.25,2.75
1.48046875,-3.613435337026016e-05,-3.955384002700846e-05,-4.101648176485847e-05,-4.004305125673303e-05,3.25,2.75
1.484375,-3.613435337026016e-05,-3.808620633783474e-05,-3.418250040268558e-05,-3.857541756755931e-05,3.25,2.75
1.48828125,-3.662356459998474e-05,-3.613435337026016e-05,-2.0998756956740664e-05,-3.516092286213473e-05,3.25,2.75
1.4921875,-4.150569299458304e-05,-4.004305125673303e-05,-2.6859307810788124e-05,-3.125222497566186e-05,3.25,2.75
1.49609375,-4.052727053513389e-05,-4.443596842160677e-05,-4.3946757191882195e-05,-2.930037200808728e-05,3.25,2.75
1.5,-4.052727053513389e-05,-4.248411545403219e-05,-3.7601987059433884e-05,-3.418250040268558e-05,3.25,2.75
1.50390625,-4.150569299458304e-05,-4.541439088105592e-05,-3.076301374593729e-05,-3.467171163241016e-05,3.25,2.75
1.5078125,-3.564514214053559e-05,-4.589861015945677e-05,-2.4902462891889824e-05,-2.832194954863813e-05,3.25,2.75
1.51171875,-3.027380251621271e-05,-3.9064628797283885e-05,-2.6859307810788124e-05,-2.7343527089188982e-05,3.25,2.75
1.515625,-3.418250040268558e-05,-3.7601987059433884e-05,-3.7601987059433884e-05,-2.6370096581063547e-05,3.25,2.75
1.51953125,-3.7601987059433884e-05,-4.199490422430762e-05,-4.785545507835507e-05,-2.7343527089188982e-05,3.25,2.75
1.5234375,-4.052727053513389e-05,-4.785545507835507e-05,-5.1269949783779646e-05,-3.1741436205386434e-05,3.25,2.75
1.52734375,-3.3693289172961005e-05,-3.9064628797283885e-05,-4.589861015945677e-05,-3.223064743511101e-05,3.25,2.75
1.53125,-3.3693289172961005e-05,-3.7112775829709314e-05,-3.7601987059433884e-05,-2.6370096581063547e-05,3.25,2.75
1.53515625,-3.613435337026016e-05,-4.589861015945677e-05,-4.73662438486305e-05,-3.223064743511101e-05,3.25,2.75
1.5390625,-3.3693289172961005e-05,-4.785545507835507e-05,-6.152341780270084e-05,-4.248411545403219e-05,3.25,2.75
1.54296875,-3.467171163241016e-05,-4.492517965133135e-05,-5.761971186755169e-05,-3.955384002700846e-05,3.25,2.75
1.546875,-3.223064743511101e-05,-4.492517965133135e-05,-5.5178647670252525e-05,-3.3693289172961005e-05,3.25,2.75
1.55078125,-3.027380251621271e-05,-4.73662438486305e-05,-5.029651927565422e-05,-3.7112775829709314e-05,3.25,2.75
1.5546875,-3.271486671351186e-05,-4.248411545403219e-05,-4.492517965133135e-05,-3.857541756755931e-05,3.25,2.75
1.55859375,-3.662356459998474e-05,-4.101648176485847e-05,-5.22483722432288e-05,-3.125222497566186e-05,3.25,2.75
1.5625,-3.955384002700846e-05,-4.687703261890592e-05,-5.810892309727626e-05,-2.832194954863813e-05,3.25,2.75
1.56640625,-3.955384002700846e-05,-4.73662438486305e-05,-5.22483722432288e-05,-3.027380251621271e-05,3.25,2.75
1.5703125,-3.467171163241016e-05,-4.199490422430762e-05,-5.957156483512626e-05,-2.832194954863813e-05,3.25,2.75
1.57421875,-3.467171163241016e-05,-4.248411545403219e-05,-5.420022521080338e-05,-3.467171163241016e-05,3.25,2.75
1.578125,-3.857541756755931e-05,-4.687703261890592e-05,-3.3204077943236435e-05,-4.150569299458304e-05,3.25,2.75
1.58203125,-3.808620633783474e-05,-4.833967435675593e-05,-3.7601987059433884e-05,-3.418250040268558e-05,3.25,2.75
1.5859375,-3.7601987059433884e-05,-4.589861015945677e-05,-4.443596842160677e-05,-3.662356459998474e-05,3.25,2.75
1.58984375,-4.3457545962157625e-05,-4.199490422430762e-05,-4.3946757191882195e-05,-3.9064628797283885e-05,3.25,2.75
1.59375,-4.199490422430762e-05,-4.052727053513389e-05,-4.833967435675593e-05,-3.027380251621271e-05,3.25,2.75
1.59765625,-4.150569299458304e-05,-3.9064628797283885e-05,-4.150569299458304e-05,-2.9789583237811853e-05,3.25,2.75
1.6015625,-4.150569299458304e-05,-3.955384002700846e-05,-3.271486671351186e-05,-3.613435337026016e-05,3.25,2.75
1.60546875,-4.004305125673303e-05,-4.687703261890592e-05,-3.516092286213473e-05,-3.7112775829709314e-05,3.25,2.75
1.609375,-4.004305125673303e-05,-4.9318096816205075e-05,-3.9064628797283885e-05,-3.223064743511101e-05,3.25,2.75
1.61328125,-3.808620633783474e-05,-4.638782138918134e-05,-5.420022521080338e-05,-2.1487968186465237e-05,3.25,2.75
1.6171875,-3.808620633783474e-05,-4.248411545403219e-05,-6.0060776064850835e-05,-2.53916741216144e-05,3.25,2.75
1.62109375,-3.955384002700846e-05,-4.443596842160677e-05,-4.150569299458304e-05,-4.150569299458304e-05,3.25,2.75
1.625,-3.662356459998474e-05,-4.248411545403219e-05,-3.857541756755931e-05,-4.199490422430762e-05,3.25,2.75
1.62890625,-3.1741436205386434e-05,-3.808620633783474e-05,-4.2973326683756764e-05,-4.101648176485847e-05,3.25,2.75
1.6328125,-3.125222497566186e-05,-4.052727053513389e-05,-3.662356459998474e-05,-4.150569299458304e-05,3.25,2.75
1.63671875,-3.271486671351186e-05,-4.541439088105592e-05,-2.6859307810788124e-05,-3.857541756755931e-05,3.25,2.75
1.640625,-3.418250040268558e-05,-4.3946757191882195e-05,-2.5880885351338974e-05,-3.1741436205386434e-05,3.25,2.75
1.64453125,-3.662356459998474e-05,-3.955384002700846e-05,-4.3946757191882195e-05,-3.516092286213473e-05,3.25,2.75
1.6484375,-3.857541756755931e-05,-4.101648176485847e-05,-4.687703261890592e-05,-3.808620633783474e-05,3.25,2.75
1.65234375,-3.418250040268558e-05,-3.857541756755931e-05,-3.418250040268558e-05,-3.467171163241016e-05,3.25,2.75
1.65625,-2.9789583237811853e-05,-3.3693289172961005e-05,-3.076301374593729e-05,-3.418250040268558e-05,3.25,2.75
1.66015625,-3.223064743511101e-05,-3.7112775829709314e-05,-3.613435337026016e-05,-3.808620633783474e-05,3.25,2.75
1.6640625,-3.1741436205386434e-05,-3.7601987059433884e-05,-3.808620633783474e-05,-4.3946757191882195e-05,3.25,2.75
1.66796875,-2.7832738318913555e-05,-3.3204077943236435e-05,-2.7343527089188982e-05,-3.3693289172961005e-05,3.25,2.75
1.671875,-2.7343527089188982e-05,-3.613435337026016e-05,-2.343982115403982e-05,-2.7343527089188982e-05,3.25,2.75
1.67578125,-3.516092286213473e-05,-4.150569299458304e-05,-4.101648176485847e-05,-3.564514214053559e-05,3.25,2.75
1.6796875,-3.613435337026016e-05,-4.199490422430762e-05,-5.420022521080338e-05,-3.857541756755931e-05,3.25,2.75
1.68359375,-3.027380251621271e-05,-3.857541756755931e-05,-4.980730804592965e-05,-3.3693289172961005e-05,3.25,2.75
1.6875,-3.467171163241016e-05,-3.662356459998474e-05,-4.541439088105592e-05,-3.125222497566186e-05,3.25,2.75
1.69140625,-3.857541756755931e-05,-3.808620633783474e-05,-4.73662438486305e-05,-3.223064743511101e-05,3.25,2.75
1.6953125,-4.004305125673303e-05,-4.443596842160677e-05,-4.492517965133135e-05,-3.125222497566186e-05,3.25,2.75
1.69921875,-4.004305125673303e-05,-4.3457545962157625e-05,-4.052727053513389e-05,-3.271486671351186e-05,3.25,2.75
1.703125,-3.808620633783474e-05,-4.199490422430762e-05,-3.418250040268558e-05,-3.3693289172961005e-05,3.25,2.75
1.70703125,-4.150569299458304e-05,-4.638782138918134e-05,-3.613435337026016e-05,-3.027380251621271e-05,3.25,2.75
1.7109375,-4.589861015945677e-05,-4.980730804592965e-05,-3.564514214053559e-05,-3.7601987059433884e-05,3.25,2.75
1.71484375,-4.833967435675593e-05,-5.029651927565422e-05,-4.687703261890592e-05,-4.785545507835507e-05,3.25,2.75
1.71875,-4.3457545962157625e-05,-4.88288855864805e-05,-5.810892309727626e-05,-4.2973326683756764e-05,3.25,2.75
1.72265625,-4.150569299458304e-05,-4.3946757191882195e-05,-5.175916101350422e-05,-3.3693289172961005e-05,3.25,2.75
1.7265625,-4.492517965133135e-05,-4.9318096816205075e-05,-4.9318096816205075e-05,-3.857541756755931e-05,3.25,2.75
1.73046875,-3.662356459998474e-05,-4.73662438486305e-05,-4.492517965133135e-05,-3.857541756755931e-05,3.25,2.75
1.734375,-4.199490422430762e-05,-5.175916101350422e-05,-5.8598134327000834e-05,-4.150569299458304e-05,3.25,2.75
1.73828125,-4.443596842160677e-05,-5.420022521080338e-05,-5.615207817837796e-05,-4.2973326683756764e-05,3.25,2.75
1.7421875,-3.076301374593729e-05,-4.2973326683756764e-05,-4.150569299458304e-05,-3.613435337026016e-05,3.25,2.75
1.74609375,-3.3693289172961005e-05,-4.541439088105592e-05,-4.248411545403219e-05,-3.7112775829709314e-05,3.25,2.75
1.75,-3.7601987059433884e-05,-4.492517965133135e-05,-4.004305125673303e-05,-4.2973326683756764e-05,3.25,2.75
1.75390625,-3.9064628797283885e-05,-4.443596842160677e-05,-4.443596842160677e-05,-5.175916101350422e-05,3.25,2.75
1.7578125,-3.857541756755931e-05,-4.3457545962157625e-05,-4.638782138918134e-05,-4.248411545403219e-05,3.25,2.75
1.76171875,-3.808620633783474e-05,-3.9064628797283885e-05,-3.516092286213473e-05,-3.125222497566186e-05,3.25,2.75
1.765625,-4.150569299458304e-05,-4.492517965133135e-05,-4.101648176485847e-05,-3.808620633783474e-05,3.25,2.75
1.76953125,-4.541439088105592e-05,-4.638782138918134e-05,-4.199490422430762e-05,-3.808620633783474e-05,3.25,2.75
1.7734375,-4.443596842160677e-05,-4.638782138918134e-05,-2.9789583237811853e-05,-3.418250040268558e-05,3.25,2.75
1.77734375,-3.9064628797283885e-05,-4.541439088105592e-05,-3.613435337026016e-05,-3.564514214053559e-05,3.25,2.75
1.78125,-4.199490422430762e-05,-4.492517965133135e-05,-4.492517965133135e-05,-3.662356459998474e-05,3.25,2.75
1.78515625,-4.492517965133135e-05,-4.248411545403219e-05,-4.248411545403219e-05,-3.418250040268558e-05,3.25,2.75
1.7890625,-4.3946757191882195e-05,-4.2973326683756764e-05,-4.052727053513389e-05,-3.418250040268558e-05,3.25,2.75
1.79296875,-4.199490422430762e-05,-4.443596842160677e-05,-4.248411545403219e-05,-4.052727053513389e-05,3.25,2.75
1.796875,-4.3946757191882195e-05,-4.3946757191882195e-05,-4.492517965133135e-05,-3.7112775829709314e-05,3.25,2.75
1.80078125,-4.004305125673303e-05,-4.687703261890592e-05,-4.980730804592965e-05,-3.271486671351186e-05,3.25,2.75
1.8046875,-3.662356459998474e-05,-4.2973326683756764e-05,-4.443596842160677e-05,-3.857541756755931e-05,3.25,2.75
1.80859375,-4.004305125673303e-05,-4.052727053513389e-05,-3.3693289172961005e-05,-4.004305125673303e-05,3.25,2.75
1.8125,-3.7112775829709314e-05,-4.248411545403219e-05,-3.467171163241016e-05,-3.613435337026016e-05,3.25,2.75
1.81640625,-3.418250040268558e-05,-3.955384002700846e-05,-2.6370096581063547e-05,-2.7832738318913555e-05,3.25,2.75
1.8203125,-3.7112775829709314e-05,-4.052727053513389e-05,-3.418250040268558e-05,-2.8811160778362702e-05,3.25,2.75
1.82421875,-3.516092286213473e-05,-4.248411545403219e-05,-5.22483722432288e-05,-3.662356459998474e-05,3.25,2.75
1.828125,-3.223064743511101e-05,-3.7601987059433884e-05,-3.662356459998474e-05,-3.027380251621271e-05,3.25,2.75
1.83203125,-3.125222497566186e-05,-3.613435337026016e-05,-1.953112326756694e-05,-2.4418243613488966e-05,3.25,2.75
1.8359375,-3.808620633783474e-05,-4.004305125673303e-05,-2.5880885351338974e-05,-3.418250040268558e-05,3.25,2.75
1.83984375,-4.150569299458304e-05,-4.3946757191882195e-05,-4.541439088105592e-05,-4.3457545962157625e-05,3.25,2.75
1.84375,-3.857541756755931e-05,-4.3457545962157625e-05,-4.833967435675593e-05,-4.3457545962157625e-05,3.25,2.75
1.84765625,-4.101648176485847e-05,-4.443596842160677e-05,-4.004305125673303e-05,-4.004305125673303e-05,3.25,2.75
1.8515625,-3.9064628797283885e-05,-4.199490422430762e-05,-3.076301374593729e-05,-3.808620633783474e-05,3.25,2.75
1.85546875,-4.052727053513389e-05,-4.004305125673303e-05,-3.516092286213473e-05,-3.857541756755931e-05,3.25,2.75
1.859375,-4.248411545403219e-05,-4.101648176485847e-05,-4.248411545403219e-05,-4.150569299458304e-05,3.25,2.75
1.86328125,-3.516092286213473e-05,-3.662356459998474e-05,-3.223064743511101e-05,-4.2973326683756764e-05,3.25,2.75
1.8671875,-3.516092286213473e-05,-3.857541756755931e-05,-3.7112775829709314e-05,-3.808620633783474e-05,3.25,2.75
1.87109375,-3.3693289172961005e-05,-4.150569299458304e-05,-4.199490422430762e-05,-3.3204077943236435e-05,3.25,2.75
1.875,-3.467171163241016e-05,-4.3946757191882195e-05,-4.541439088105592e-05,-4.199490422430762e-05,3.25,2.75
1.87890625,-3.7601987059433884e-05,-4.541439088105592e-05,-4.785545507835507e-05,-4.638782138918134e-05,3.25,2.75
1.8828125,-3.3204077943236435e-05,-3.9064628797283885e-05,-4.3946757191882195e-05,-3.808620633783474e-05,3.25,2.75
1.88671875,-3.3204077943236435e-05,-3.7112775829709314e-05,-4.638782138918134e-05,-3.418250040268558e-05,3.25,2.75
1.890625,-3.223064743511101e-05,-3.418250040268558e-05,-3.3204077943236435e-05,-3.1741436205386434e-05,3.25,2.75
1.89453125,-3.3693289172961005e-05,-3.467171163241016e-05,-1.7579270299992372e-05,-3.3693289172961005e-05,3.25,2.75
1.8984375,-3.516092286213473e-05,-4.2973326683756764e-05,-2.0509545727016087e-05,-3.7601987059433884e-05,3.25,2.75
1.90234375,-3.7112775829709314e-05,-4.248411545403219e-05,-3.7112775829709314e-05,-3.808620633783474e-05,3.25,2.75
1.90625,-3.808620633783474e-05,-3.662356459998474e-05,-4.3457545962157625e-05,-3.564514214053559e-05,3.25,2.75
1.91015625,-3.662356459998474e-05,-3.857541756755931e-05,-2.930037200808728e-05,-3.467171163241016e-05,3.25,2.75
1.9140625,-3.271486671351186e-05,-3.223064743511101e-05,-2.197717941618981e-05,-3.467171163241016e-05,3.25,2.75
1.91796875,-4.004305125673303e-05,-3.418250040268558e-05,-3.564514214053559e-05,-4.101648176485847e-05,3.25,2.75
1.921875,-4.004305125673303e-05,-4.199490422430762e-05,-3.027380251621271e-05,-3.955384002700846e-05,3.25,2.75
1.92578125,-2.9789583237811853e-05,-3.418250040268558e-05,-3.9064628797283885e-05,-3.223064743511101e-05,3.25,2.75
1.9296875,-3.418250040268558e-05,-3.125222497566186e-05,-5.957156483512626e-05,-3.955384002700846e-05,3.25,2.75
1.93359375,-3.955384002700846e-05,-3.662356459998474e-05,-5.4689436440527955e-05,-3.857541756755931e-05,3.25,2.75
1.9375,-3.467171163241016e-05,-3.9064628797283885e-05,-3.027380251621271e-05,-3.125222497566186e-05,3.25,2.75
1.94140625,-3.613435337026016e-05,-3.9064628797283885e-05,-3.271486671351186e-05,-3.027380251621271e-05,3.25,2.75
1.9453125,-4.052727053513389e-05,-3.955384002700846e-05,-6.103919852429998e-05,-2.7832738318913555e-05,3.25,2.75
1.94921875,-3.7601987059433884e-05,-4.101648176485847e-05,-5.37110139810788e-05,-3.223064743511101e-05,3.25,2.75
1.953125,-3.418250040268558e-05,-4.2973326683756764e-05,-2.5880885351338974e-05,-3.613435337026016e-05,3.25,2.75
1.95703125,-3.3204077943236435e-05,-4.150569299458304e-05,-2.0020334497291514e-05,-3.271486671351186e-05,3.25,2.75
1.9609375,-3.027380251621271e-05,-4.150569299458304e-05,-4.101648176485847e-05,-3.9064628797283885e-05,3.25,2.75
1.96484375,-2.9789583237811853e-05,-4.492517965133135e-05,-5.07857305053788e-05,-4.3946757191882195e-05,3.25,2.75
1.96875,-3.125222497566186e-05,-4.101648176485847e-05,-4.3457545962157625e-05,-3.271486671351186e-05,3.25,2.75
1.97265625,-2.5880885351338974e-05,-3.808620633783474e-05,-3.223064743511101e-05,-2.8811160778362702e-05,3.25,2.75
1.9765625,-2.53916741216144e-05,-4.3457545962157625e-05,-4.004305125673303e-05,-3.076301374593729e-05,3.25,2.75
1.98046875,-3.271486671351186e-05,-4.248411545403219e-05,-3.808620633783474e-05,-3.467171163241016e-05,3.25,2.75
1.984375,-3.3204077943236435e-05,-3.613435337026016e-05,-4.687703261890592e-05,-3.564514214053559e-05,3.25,2.75
1.98828125,-2.930037200808728e-05,-3.3693289172961005e-05,-6.836239111619745e-05,-3.125222497566186e-05,3.25,2.75
1.9921875,-3.125222497566186e-05,-3.3204077943236435e-05,-5.56678588999771e-05,-3.076301374593729e-05,3.25,2.75
1.99609375,-3.3204077943236435e-05,-3.467171163241016e-05,-3.271486671351186e-05,-3.662356459998474e-05,3.25,2.75
2.0,-3.3204077943236435e-05,-3.418250040268558e-05,-2.343982115403982e-05,-3.467171163241016e-05,3.25,2.75
2.00390625,-3.3204077943236435e-05,-3.613435337026016e-05,-3.808620633783474e-05,-3.271486671351186e-05,3.25,2.75
2.0078125,-2.7343527089188982e-05,-3.564514214053559e-05,-3.516092286213473e-05,-3.7601987059433884e-05,3.25,2.75
2.01171875,-3.1741436205386434e-05,-3.467171163241016e-05,-3.076301374593729e-05,-3.3693289172961005e-05,3.25,2.75
2.015625,-4.2973326683756764e-05,-3.9064628797283885e-05,-2.4418243613488966e-05,-2.9789583237811853e-05,3.25,2.75
2.01953125,-4.150569299458304e-05,-4.052727053513389e-05,-2.0020334497291514e-05,-2.7343527089188982e-05,3.25,2.75
2.0234375,-3.662356459998474e-05,-3.857541756755931e-05,-2.930037200808728e-05,-3.223064743511101e-05,3.25,2.75
2.02734375,-3.7112775829709314e-05,-3.613435337026016e-05,-3.076301374593729e-05,-4.199490422430762e-05,3.25,2.75
2.03125,-3.613435337026016e-05,-3.467171163241016e-05,-2.6859307810788124e-05,-3.467171163241016e-05,3.25,2.75
2.03515625,-3.516092286213473e-05,-3.3693289172961005e-05,-2.3929032383764392e-05,-2.4902462891889824e-05,3.25,2.75
2.0390625,-3.613435337026016e-05,-3.7601987059433884e-05,-1.953112326756694e-05,-3.516092286213473e-05,3.25,2.75
2.04296875,-3.613435337026016e-05,-3.808620633783474e-05,-1.4648994872968642e-05,-3.662356459998474e-05,3.25,2.75
2.046875,-4.248411545403219e-05,-4.004305125673303e-05,-2.6370096581063547e-05,-3.467171163241016e-05,3.25,2.75
2.05078125,-4.3457545962157625e-05,-3.7112775829709314e-05,-3.955384002700846e-05,-4.3946757191882195e-05,3.25,2.75
2.0546875,-4.150569299458304e-05,-3.076301374593729e-05,-3.271486671351186e-05,-4.443596842160677e-05,3.25,2.75
2.05859375,-4.052727053513389e-05,-2.6370096581063547e-05,-2.4418243613488966e-05,-3.662356459998474e-05,3.25,2.75
2.0625,-3.3204077943236435e-05,-2.0998756956740664e-05,-3.9064628797283885e-05,-3.027380251621271e-05,3.25,2.75
2.06640625,-3.808620633783474e-05,-2.7343527089188982e-05,-6.933582162432287e-05,-3.662356459998474e-05,3.25,2.75
2.0703125,-3.7112775829709314e-05,-2.7832738318913555e-05,-6.933582162432287e-05,-4.199490422430762e-05,3.25,2.75
2.07421875,-3.3204077943236435e-05,-2.53916741216144e-05,-4.785545507835507e-05,-4.052727053513389e-05,3.25,2.75
2.078125,-3.467171163241016e-05,-3.3204077943236435e-05,-3.418250040268558e-05,-3.613435337026016e-05,3.25,2.75
2.08203125,-2.832194954863813e-05,-3.3204077943236435e-05,-2.4418243613488966e-05,-2.7832738318913555e-05,3.25,2.75
2.0859375,-3.125222497566186e-05,-3.516092286213473e-05,-6.836591051346601e-06,-2.930037200808728e-05,3.25,2.75
2.08984375,-3.516092286213473e-05,-3.955384002700846e-05,-4.3955268540474464e-06,-3.223064743511101e-05,3.25,2.75
2.09375,-3.467171163241016e-05,-3.7601987059433884e-05,-2.930037200808728e-05,-2.8811160778362702e-05,3.25,2.75
2.09765625,-3.662356459998474e-05,-3.7112775829709314e-05,-4.638782138918134e-05,-3.662356459998474e-05,3.25,2.75
2.1015625,-3.1741436205386434e-05,-3.7601987059433884e-05,-4.150569299458304e-05,-3.564514214053559e-05,3.25,2.75
2.10546875,-3.418250040268558e-05,-4.3457545962157625e-05,-4.004305125673303e-05,-3.3204077943236435e-05,3.25,2.75
2.109375,-3.662356459998474e-05,-4.541439088105592e-05,-4.3946757191882195e-05,-3.955384002700846e-05,3.25,2.75
2.11328125,-3.564514214053559e-05,-4.052727053513389e-05,-3.7601987059433884e-05,-3.467171163241016e-05,3.25,2.75
2.1171875,-4.248411545403219e-05,-4.589861015945677e-05,-3.857541756755931e-05,-3.271486671351186e-05,3.25,2.75
2.12109375,-4.199490422430762e-05,-5.273758347295337e-05,-3.808620633783474e-05,-3.1741436205386434e-05,3.25,2.75
2.125,-3.418250040268558e-05,-4.541439088105592e-05,-3.955384002700846e-05,-3.3693289172961005e-05,3.25,2.75
2.12890625,-2.5880885351338974e-05,-3.7112775829709314e-05,-4.3457545962157625e-05,-2.832194954863813e-05,3.25,2.75
2.1328125,-2.930037200808728e-05,-4.101648176485847e-05,-3.125222497566186e-05,-2.9789583237811853e-05,3.25,2.75
2.13671875,-3.3693289172961005e-05,-4.73662438486305e-05,-2.7343527089188982e-05,-3.027380251621271e-05,3.25,2.75
2.140625,-3.223064743511101e-05,-5.07857305053788e-05,-2.5880885351338974e-05,-2.9789583237811853e-05,3.25,2.75
2.14453125,-3.223064743511101e-05,-5.322679470267795e-05,-4.2973326683756764e-05,-3.7112775829709314e-05,3.25,2.75
2.1484375,-3.3693289172961005e-05,-4.88288855864805e-05,-7.861585913511862e-05,-4.150569299458304e-05,3.25,2.75
2.15234375,-3.564514214053559e-05,-4.443596842160677e-05,-7.129266654322116e-05,-4.101648176485847e-05,3.25,2.75
2.15625,-3.808620633783474e-05,-4.833967435675593e-05,-4.980730804592965e-05,-4.052727053513389e-05,3.25,2.75
2.16015625,-3.808620633783474e-05,-5.029651927565422e-05,-4.3457545962157625e-05,-3.613435337026016e-05,3.25,2.75
2.1640625,-3.418250040268558e-05,-4.248411545403219e-05,-4.248411545403219e-05,-3.3693289172961005e-05,3.25,2.75
2.16796875,-3.3693289172961005e-05,-3.9064628797283885e-05,-3.467171163241016e-05,-3.467171163241016e-05,3.25,2.75
2.171875,-3.3693289172961005e-05,-4.101648176485847e-05,-3.027380251621271e-05,-3.9064628797283885e-05,3.25,2.75
2.17578125,-3.3693289172961005e-05,-3.662356459998474e-05,-2.7343527089188982e-05,-3.857541756755931e-05,3.25,2.75
2.1796875,-3.857541756755931e-05,-4.101648176485847e-05,-3.271486671351186e-05,-3.3693289172961005e-05,3.25,2.75
2.18359375,-3.9064628797283885e-05,-4.101648176485847e-05,-3.125222497566186e-05,-3.516092286213473e-05,3.25,2.75
2.1875,-4.004305125673303e-05,-4.150569299458304e-05,-2.4418243613488966e-05,-4.199490422430762e-05,3.25,2.75
2.19140625,-3.613435337026016e-05,-3.808620633783474e-05,-3.223064743511101e-05,-4.443596842160677e-05,3.25,2.75
2.1953125,-3.125222497566186e-05,-3.1741436205386434e-05,-4.833967435675593e-05,-3.9064628797283885e-05,3.25,2.75
2.19921875,-3.027380251621271e-05,-3.564514214053559e-05,-4.589861015945677e-05,-4.004305125673303e-05,3.25,2.75
2.203125,-2.6859307810788124e-05,-3.418250040268558e-05,-3.271486671351186e-05,-3.467171163241016e-05,3.25,2.75
2.20703125,-3.564514214053559e-05,-3.7112775829709314e-05,-3.027380251621271e-05,-2.7343527089188982e-05,3.25,2.75
2.2109375,-4.101648176485847e-05,-4.052727053513389e-05,-3.7601987059433884e-05,-3.418250040268558e-05,3.25,2.75
2.21484375,-3.808620633783474e-05,-3.9064628797283885e-05,-4.3457545962157625e-05,-3.955384002700846e-05,3.25,2.75
2.21875,-3.7112775829709314e-05,-3.808620633783474e-05,-3.418250040268558e-05,-3.613435337026016e-05,3.25,2.75
2.22265625,-3.662356459998474e-05,-4.052727053513389e-05,-2.1487968186465237e-05,-3.1741436205386434e-05,3.25,2.75
2.2265625,-3.3693289172961005e-05,-3.9064628797283885e-05,-2.5880885351338974e-05,-2.9789583237811853e-05,3.25,2.75
2.23046875,-3.3204077943236435e-05,-3.271486671351186e-05,-3.516092286213473e-05,-3.076301374593729e-05,3.25,2.75
2.234375,-3.7112775829709314e-05,-3.3204077943236435e-05,-4.3457545962157625e-05,-3.076301374593729e-05,3.25,2.75
2.23828125,-3.076301374593729e-05,-3.808620633783474e-05,-4.687703261890592e-05,-3.467171163241016e-05,3.25,2.75
2.2421875,-2.53916741216144e-05,-3.857541756755931e-05,-3.808620633783474e-05,-4.052727053513389e-05,3.25,2.75
2.24609375,-3.1741436205386434e-05,-3.3693289172961005e-05,-3.076301374593729e-05,-4.443596842160677e-05,3.25,2.75
2.25,-3.7112775829709314e-05,-3.125222497566186e-05,-4.3457545962157625e-05,-4.88288855864805e-05,3.25,2.75
2.25390625,-3.418250040268558e-05,-2.7832738318913555e-05,-5.713050063782711e-05,-4.3946757191882195e-05,3.25,2.75
2.2578125,-3.467171163241016e-05,-2.5880885351338974e-05,-4.589861015945677e-05,-3.662356459998474e-05,3.25,2.75
2.26171875,-3.857541756755931e-05,-3.1741436205386434e-05,-3.7601987059433884e-05,-3.516092286213473e-05,3.25,2.75
2.265625,-3.9064628797283885e-05,-3.564514214053559e-05,-2.930037200808728e-05,-3.467171163241016e-05,3.25,2.75
2.26953125,-4.004305125673303e-05,-3.662356459998474e-05,-2.8811160778362702e-05,-3.955384002700846e-05,3.25,2.75
2.2734375,-3.955384002700846e-05,-3.418250040268558e-05,-3.7601987059433884e-05,-4.492517965133135e-05,3.25,2.75
2.27734375,-3.418250040268558e-05,-3.3204077943236435e-05,-4.638782138918134e-05,-4.052727053513389e-05,3.25,2.75
2.28125,-3.662356459998474e-05,-3.516092286213473e-05,-4.199490422430762e-05,-3.223064743511101e-05,3.25,2.75
2.28515625,-3.7601987059433884e-05,-3.662356459998474e-05,-2.5880885351338974e-05,-2.9789583237811853e-05,3.25,2.75
2.2890625,-3.3693289172961005e-05,-2.6859307810788124e-05,-2.0020334497291514e-05,-3.516092286213473e-05,3.25,2.75
2.29296875,-3.613435337026016e-05,-2.0020334497291514e-05,-1.8068481529716946e-05,-3.223064743511101e-05,3.25,2.75
2.296875,-4.2973326683756764e-05,-3.223064743511101e-05,-4.248411545403219e-05,-3.027380251621271e-05,3.25,2.75
2.30078125,-3.9064628797283885e-05,-3.955384002700846e-05,-5.664128940810253e-05,-3.564514214053559e-05,3.25,2.75
2.3046875,-3.516092286213473e-05,-3.467171163241016e-05,-4.004305125673303e-05,-3.808620633783474e-05,3.25,2.75
2.30859375,-4.052727053513389e-05,-3.564514214053559e-05,-3.1741436205386434e-05,-4.248411545403219e-05,3.25,2.75
2.3125,-4.3457545962157625e-05,-4.150569299458304e-05,-3.613435337026016e-05,-3.7112775829709314e-05,3.25,2.75
2.31640625,-3.955384002700846e-05,-3.808620633783474e-05,-3.467171163241016e-05,-3.1741436205386434e-05,3.25,2.75
2.3203125,-3.7112775829709314e-05,-3.613435337026016e-05,-3.955384002700846e-05,-2.930037200808728e-05,3.25,2.75
2.32421875,-4.248411545403219e-05,-3.7112775829709314e-05,-3.955384002700846e-05,-3.1741436205386434e-05,3.25,2.75
2.328125,-4.248411545403219e-05,-3.076301374593729e-05,-2.9789583237811853e-05,-3.613435337026016e-05,3.25,2.75
2.33203125,-4.101648176485847e-05,-2.930037200808728e-05,-3.125222497566186e-05,-3.1741436205386434e-05,3.25,2.75
2.3359375,-4.3457545962157625e-05,-3.027380251621271e-05,-4.150569299458304e-05,-3.271486671351186e-05,3.25,2.75
2.33984375,-4.443596842160677e-05,-3.3204077943236435e-05,-4.589861015945677e-05,-2.7832738318913555e-05,3.25,2.75
2.34375,-4.004305125673303e-05,-3.613435337026016e-05,-3.223064743511101e-05,-2.7343527089188982e-05,3.25,2.75
2.34765625,-2.8811160778362702e-05,-2.5880885351338974e-05,-1.562741733241779e-05,-2.6370096581063547e-05,3.25,2.75
2.3515625,-2.8811160778362702e-05,-3.076301374593729e-05,-2.197717941618981e-05,-2.8811160778362702e-05,3.25,2.75
2.35546875,-4.052727053513389e-05,-4.248411545403219e-05,-3.271486671351186e-05,-3.467171163241016e-05,3.25,2.75
2.359375,-4.541439088105592e-05,-4.2973326683756764e-05,-3.027380251621271e-05,-3.3693289172961005e-05,3.25,2.75
2.36328125,-4.248411545403219e-05,-4.492517965133135e-05,-2.197717941618981e-05,-3.516092286213473e-05,3.25,2.75
2.3671875,-3.7601987059433884e-05,-4.687703261890592e-05,-2.832194954863813e-05,-3.7112775829709314e-05,3.25,2.75
2.37109375,-3.3204077943236435e-05,-4.638782138918134e-05,-3.564514214053559e-05,-3.3693289172961005e-05,3.25,2.75
2.375,-3.076301374593729e-05,-4.541439088105592e-05,-3.857541756755931e-05,-3.467171163241016e-05,3.25,2.75
2.37890625,-3.564514214053559e-05,-5.1269949783779646e-05,-3.223064743511101e-05,-3.1741436205386434e-05,3.25,2.75
2.3828125,-3.808620633783474e-05,-5.07857305053788e-05,-3.076301374593729e-05,-2.930037200808728e-05,3.25,2.75
2.38671875,-3.564514214053559e-05,-4.2973326683756764e-05,-4.101648176485847e-05,-2.9789583237811853e-05,3.25,2.75
2.390625,-3.808620633783474e-05,-4.73662438486305e-05,-4.492517965133135e-05,-3.271486671351186e-05,3.25,2.75
2.39453125,-3.418250040268558e-05,-4.589861015945677e-05,-4.88288855864805e-05,-3.564514214053559e-05,3.25,2.75
2.3984375,-3.223064743511101e-05,-4.687703261890592e-05,-3.9064628797283885e-05,-3.076301374593729e-05,3.25,2.75
2.40234375,-3.7601987059433884e-05,-4.73662438486305e-05,-3.271486671351186e-05,-3.9064628797283885e-05,3.25,2.75
2.40625,-3.662356459998474e-05,-4.150569299458304e-05,-2.7343527089188982e-05,-3.857541756755931e-05,3.25,2.75
2.41015625,-2.930037200808728e-05,-3.7112775829709314e-05,-2.5880885351338974e-05,-3.027380251621271e-05,3.25,2.75
2.4140625,-3.1741436205386434e-05,-3.564514214053559e-05,-2.9789583237811853e-05,-2.6859307810788124e-05,3.25,2.75
2.41796875,-4.199490422430762e-05,-4.589861015945677e-05,-3.516092286213473e-05,-3.467171163241016e-05,3.25,2.75
2.421875,-4.101648176485847e-05,-4.3946757191882195e-05,-3.9064628797283885e-05,-3.808620633783474e-05,3.25,2.75
2.42578125,-3.564514214053559e-05,-3.613435337026016e-05,-4.150569299458304e-05,-2.930037200808728e-05,3.25,2.75
2.4296875,-3.7112775829709314e-05,-3.662356459998474e-05,-3.7601987059433884e-05,-2.930037200808728e-05,3.25,2.75
2.43359375,-3.662356459998474e-05,-3.125222497566186e-05,-2.6859307810788124e-05,-3.223064743511101e-05,3.25,2.75
2.4375,-3.223064743511101e-05,-2.7343527089188982e-05,-3.857541756755931e-05,-3.271486671351186e-05,3.25,2.75
2.44140625,-3.3204077943236435e-05,-2.930037200808728e-05,-3.662356459998474e-05,-3.271486671351186e-05,3.25,2.75
2.4453125,-3.662356459998474e-05,-3.076301374593729e-05,-2.6859307810788124e-05,-3.808620633783474e-05,3.25,2.75
2.44921875,-3.418250040268558e-05,-3.076301374593729e-05,-3.516092286213473e-05,-3.3693289172961005e-05,3.25,2.75
2.453125,-3.223064743511101e-05,-3.125222497566186e-05,-4.687703261890592e-05,-3.027380251621271e-05,3.25,2.75
2.45703125,-3.418250040268558e-05,-2.53916741216144e-05,-4.785545507835507e-05,-4.3946757191882195e-05,3.25,2.75
2.4609375,-3.467171163241016e-05,-1.562741733241779e-05,-2.9789583237811853e-05,-4.3946757191882195e-05,3.25,2.75
2.46484375,-3.613435337026016e-05,-2.2950609924315245e-05,-1.6116628562142368e-05,-3.271486671351186e-05,3.25,2.75
2.46875,-3.564514214053559e-05,-4.248411545403219e-05,-2.197717941618981e-05,-3.027380251621271e-05,3.25,2.75
2.47265625,-3.125222497566186e-05,-4.833967435675593e-05,-3.3693289172961005e-05,-2.5880885351338974e-05,3.25,2.75
2.4765625,-2.8811160778362702e-05,-3.662356459998474e-05,-3.7112775829709314e-05,-2.2950609924315245e-05,3.25,2.75
2.48046875,-3.955384002700846e-05,-4.687703261890592e-05,-3.418250040268558e-05,-3.223064743511101e-05,3.25,2.75
2.484375,-4.589861015945677e-05,-6.348026272159914e-05,-4.687703261890592e-05,-3.7601987059433884e-05,3.25,2.75
2.48828125,-4.052727053513389e-05,-5.273758347295337e-05,-4.687703261890592e-05,-3.223064743511101e-05,3.25,2.75
2.4921875,-4.248411545403219e-05,-4.980730804592965e-05,-4.2973326683756764e-05,-3.955384002700846e-05,3.25,2.75
2.49609375,-4.101648176485847e-05,-5.07857305053788e-05,-5.175916101350422e-05,-4.443596842160677e-05,3.25,2.75
2.5,-3.564514214053559e-05,-4.3946757191882195e-05,-4.150569299458304e-05,-2.9789583237811853e-05,3.25,2.75
2.50390625,-3.808620633783474e-05,-4.2973326683756764e-05,-2.2950609924315245e-05,-3.467171163241016e-05,3.25,2.75
2.5078125,-3.9064628797283885e-05,-4.199490422430762e-05,-2.6370096581063547e-05,-3.7601987059433884e-05,3.25,2.75
2.51171875,-3.662356459998474e-05,-3.7601987059433884e-05,-3.955384002700846e-05,-2.7832738318913555e-05,3.25,2.75
2.515625,-3.467171163241016e-05,-3.418250040268558e-05,-3.955384002700846e-05,-2.6859307810788124e-05,3.25,2.75
2.51953125,-3.271486671351186e-05,-3.418250040268558e-05,-2.0509545727016087e-05,-2.6859307810788124e-05,3.25,2.75
2.5234375,-2.7343527089188982e-05,-3.516092286213473e-05,-8.7934359702449e-06,-2.4418243613488966e-05,3.25,2.75
2.52734375,-3.3693289172961005e-05,-3.9064628797283885e-05,-2.6859307810788124e-05,-2.5880885351338974e-05,3.25,2.75
2.53125,-4.150569299458304e-05,-4.3946757191882195e-05,-3.857541756755931e-05,-3.1741436205386434e-05,3.25,2.75
2.53515625,-3.857541756755931e-05,-4.150569299458304e-05,-3.9064628797283885e-05,-3.3204077943236435e-05,3.25,2.75
2.5390625,-4.2973326683756764e-05,-3.9064628797283885e-05,-4.73662438486305e-05,-3.223064743511101e-05,3.25,2.75
2.54296875,-4.833967435675593e-05,-4.3946757191882195e-05,-4.980730804592965e-05,-3.418250040268558e-05,3.25,2.75
2.546875,-4.589861015945677e-05,-4.492517965133135e-05,-4.150569299458304e-05,-3.3693289172961005e-05,3.25,2.75
2.55078125,-3.564514214053559e-05,-3.955384002700846e-05,-2.0020334497291514e-05,-2.4418243613488966e-05,3.25,2.75
2.5546875,-3.7601987059433884e-05,-3.955384002700846e-05,-6.3523717729457445e-06,-2.343982115403982e-05,3.25,2.75
2.55859375,-3.9064628797283885e-05,-4.150569299458304e-05,-1.4648994872968642e-05,-2.832194954863813e-05,3.25,2.75
2.5625,-3.662356459998474e-05,-4.052727053513389e-05,-3.516092286213473e-05,-2.4902462891889824e-05,3.25,2.75
2.56640625,-3.955384002700846e-05,-3.613435337026016e-05,-4.052727053513389e-05,-2.1487968186465237e-05,3.25,2.75
2.5703125,-4.2973326683756764e-05,-4.052727053513389e-05,-4.052727053513389e-05,-3.1741436205386434e-05,3.25,2.75
2.57421875,-4.443596842160677e-05,-4.9318096816205075e-05,-4.492517965133135e-05,-3.9064628797283885e-05,3.25,2.75
2.578125,-3.564514214053559e-05,-4.73662438486305e-05,-4.248411545403219e-05,-3.3693289172961005e-05,3.25,2.75
2.58203125,-3.7112775829709314e-05,-4.150569299458304e-05,-3.9064628797283885e-05,-2.53916741216144e-05,3.25,2.75
2.5859375,-4.492517965133135e-05,-4.3946757191882195e-05,-4.101648176485847e-05,-3.467171163241016e-05,3.25,2.75
2.58984375,-4.052727053513389e-05,-4.638782138918134e-05,-4.248411545403219e-05,-4.3457545962157625e-05,3.25,2.75
2.59375,-3.857541756755931e-05,-4.150569299458304e-05,-4.052727053513389e-05,-3.564514214053559e-05,3.25,2.75
2.59765625,-3.564514214053559e-05,-3.9064628797283885e-05,-3.955384002700846e-05,-3.076301374593729e-05,3.25,2.75
2.6015625,-3.076301374593729e-05,-3.808620633783474e-05,-2.7343527089188982e-05,-2.343982115403982e-05,3.25,2.75
2.60546875,-3.467171163241016e-05,-3.7601987059433884e-05,-2.246139869459067e-05,-2.1487968186465237e-05,3.25,2.75
2.609375,-3.7601987059433884e-05,-4.150569299458304e-05,-2.8811160778362702e-05,-3.418250040268558e-05,3.25,2.75
2.61328125,-3.613435337026016e-05,-4.3946757191882195e-05,-2.930037200808728e-05,-4.004305125673303e-05,3.25,2.75
2.6171875,-3.467171163241016e-05,-4.3946757191882195e-05,-3.271486671351186e-05,-3.564514214053559e-05,3.25,2.75
2.62109375,-3.613435337026016e-05,-4.2973326683756764e-05,-3.7601987059433884e-05,-3.516092286213473e-05,3.25,2.75
2.625,-3.467171163241016e-05,-3.564514214053559e-05,-3.662356459998474e-05,-2.5880885351338974e-05,3.25,2.75
2.62890625,-3.3204077943236435e-05,-3.7112775829709314e-05,-4.248411545403219e-05,-2.6859307810788124e-05,3.25,2.75
2.6328125,-4.150569299458304e-05,-4.443596842160677e-05,-5.56678588999771e-05,-3.7112775829709314e-05,3.25,2.75
2.63671875,-4.687703261890592e-05,-4.150569299458304e-05,-5.37110139810788e-05,-3.857541756755931e-05,3.25,2.75
2.640625,-4.492517965133135e-05,-4.004305125673303e-05,-4.687703261890592e-05,-4.541439088105592e-05,3.25,2.75
2.64453125,-4.199490422430762e-05,-4.101648176485847e-05,-4.101648176485847e-05,-4.150569299458304e-05,3.25,2.75
2.6484375,-3.516092286213473e-05,-3.564514214053559e-05,-4.73662438486305e-05,-3.223064743511101e-05,3.25,2.75
2.65234375,-3.662356459998474e-05,-4.004305125673303e-05,-4.687703261890592e-05,-3.3204077943236435e-05,3.25,2.75
2.65625,-4.199490422430762e-05,-4.9318096816205075e-05,-3.516092286213473e-05,-4.150569299458304e-05,3.25,2.75
2.66015625,-3.9064628797283885e-05,-4.73662438486305e-05,-3.516092286213473e-05,-3.516092286213473e-05,3.25,2.75
2.6640625,-4.052727053513389e-05,-4.638782138918134e-05,-3.564514214053559e-05,-3.125222497566186e-05,3.25,2.75
2.66796875,-4.3457545962157625e-05,-4.541439088105592e-05,-4.199490422430762e-05,-4.3457545962157625e-05,3.25,2.75
2.671875,-3.955384002700846e-05,-4.3457545962157625e-05,-3.418250040268558e-05,-4.052727053513389e-05,3.25,2.75
2.67578125,-4.248411545403219e-05,-4.785545507835507e-05,-3.3204077943236435e-05,-2.7343527089188982e-05,3.25,2.75
2.6796875,-4.150569299458304e-05,-4.833967435675593e-05,-3.467171163241016e-05,-3.613435337026016e-05,3.25,2.75
2.68359375,-3.516092286213473e-05,-4.052727053513389e-05,-3.125222497566186e-05,-4.150569299458304e-05,3.25,2.75
2.6875,-3.3693289172961005e-05,-3.3204077943236435e-05,-2.0998756956740664e-05,-3.564514214053559e-05,3.25,2.75
2.69140625,-3.1741436205386434e-05,-3.271486671351186e-05,-2.246139869459067e-05,-3.564514214053559e-05,3.25,2.75
2.6953125,-3.027380251621271e-05,-3.223064743511101e-05,-4.052727053513389e-05,-2.9789583237811853e-05,3.25,2.75
2.69921875,-2.930037200808728e-05,-3.076301374593729e-05,-3.7112775829709314e-05,-2.0509545727016087e-05,3.25,2.75
2.703125,-3.9064628797283885e-05,-3.613435337026016e-05,-3.1741436205386434e-05,-2.3929032383764392e-05,3.25,2.75
2.70703125,-4.492517965133135e-05,-4.004305125673303e-05,-4.004305125673303e-05,-4.2973326683756764e-05,3.25,2.75
2.7109375,-3.955384002700846e-05,-4.150569299458304e-05,-5.029651927565422e-05,-4.199490422430762e-05,3.25,2.75
2.71484375,-4.004305125673303e-05,-4.199490422430762e-05,-4.199490422430762e-05,-3.516092286213473e-05,3.25,2.75
2.71875,-4.052727053513389e-05,-4.248411545403219e-05,-2.7343527089188982e-05,-4.101648176485847e-05,3.25,2.75
2.72265625,-4.150569299458304e-05,-4.833967435675593e-05,-3.564514214053559e-05,-3.808620633783474e-05,3.25,2.75
2.7265625,-3.7112775829709314e-05,-4.638782138918134e-05,-4.443596842160677e-05,-3.125222497566186e-05,3.25,2.75
2.73046875,-3.564514214053559e-05,-4.88288855864805e-05,-4.101648176485847e-05,-3.271486671351186e-05,3.25,2.75
2.734375,-3.1741436205386434e-05,-4.3946757191882195e-05,-4.3946757191882195e-05,-2.930037200808728e-05,3.25,2.75
2.73828125,-3.3204077943236435e-05,-4.101648176485847e-05,-4.785545507835507e-05,-3.223064743511101e-05,3.25,2.75
2.7421875,-3.9064628797283885e-05,-4.3457545962157625e-05,-4.589861015945677e-05,-3.7112775829709314e-05,3.25,2.75
2.74609375,-3.857541756755931e-05,-4.248411545403219e-05,-3.3204077943236435e-05,-4.004305125673303e-05,3.25,2.75
2.75,-3.7601987059433884e-05,-4.004305125673303e-05,-3.564514214053559e-05,-4.3946757191882195e-05,3.25,2.75
2.75390625,-3.662356459998474e-05,-3.564514214053559e-05,-4.638782138918134e-05,-4.052727053513389e-05,3.25,2.75
2.7578125,-3.7601987059433884e-05,-3.662356459998474e-05,-4.785545507835507e-05,-3.662356459998474e-05,3.25,2.75
2.76171875,-4.3946757191882195e-05,-3.9064628797283885e-05,-4.150569299458304e-05,-3.9064628797283885e-05,3.25,2.75
2.765625,-4.443596842160677e-05,-3.857541756755931e-05,-3.808620633783474e-05,-4.248411545403219e-05,3.25,2.75
2.76953125,-4.199490422430762e-05,-4.052727053513389e-05,-4.541439088105592e-05,-4.492517965133135e-05,3.25,2.75
2.7734375,-3.613435337026016e-05,-4.150569299458304e-05,-4.687703261890592e-05,-3.662356459998474e-05,3.25,2.75
2.77734375,-3.808620633783474e-05,-4.052727053513389e-05,-4.833967435675593e-05,-3.271486671351186e-05,3.25,2.75
2.78125,-4.3457545962157625e-05,-4.004305125673303e-05,-4.150569299458304e-05,-3.3693289172961005e-05,3.25,2.75
2.78515625,-3.9064628797283885e-05,-4.443596842160677e-05,-3.271486671351186e-05,-3.467171163241016e-05,3.25,2.75
2.7890625,-4.052727053513389e-05,-4.541439088105592e-05,-2.9789583237811853e-05,-3.662356459998474e-05,3.25,2.75
2.79296875,-4.3946757191882195e-05,-4.2973326683756764e-05,-2.1487968186465237e-05,-4.150569299458304e-05,3.25,2.75
2.796875,-4.541439088105592e-05,-4.101648176485847e-05,-2.6859307810788124e-05,-4.2973326683756764e-05,3.25,2.75
2.80078125,-4.3946757191882195e-05,-3.662356459998474e-05,-3.3204077943236435e-05,-3.662356459998474e-05,3.25,2.75
2.8046875,-4.052727053513389e-05,-3.3693289172961005e-05,-2.8811160778362702e-05,-3.467171163241016e-05,3.25,2.75
2.80859375,-3.7112775829709314e-05,-3.223064743511101e-05,-2.930037200808728e-05,-3.3204077943236435e-05,3.25,2.75
2.8125,-3.223064743511101e-05,-2.53916741216144e-05,-2.53916741216144e-05,-2.6370096581063547e-05,3.25,2.75
2.81640625,-3.3693289172961005e-05,-2.0998756956740664e-05,-2.6859307810788124e-05,-2.7832738318913555e-05,3.25,2.75
2.8203125,-3.418250040268558e-05,-2.7343527089188982e-05,-3.3204077943236435e-05,-3.662356459998474e-05,3.25,2.75
2.82421875,-3.564514214053559e-05,-3.418250040268558e-05,-4.541439088105592e-05,-3.662356459998474e-05,3.25,2.75
2.828125,-3.9064628797283885e-05,-3.564514214053559e-05,-4.785545507835507e-05,-4.052727053513389e-05,3.25,2.75
2.83203125,-3.516092286213473e-05,-3.516092286213473e-05,-3.7601987059433884e-05,-4.004305125673303e-05,3.25,2.75
2.8359375,-3.125222497566186e-05,-3.3204077943236435e-05,-3.076301374593729e-05,-3.271486671351186e-05,3.25,2.75
2.83984375,-3.662356459998474e-05,-3.516092286213473e-05,-3.223064743511101e-05,-3.7112775829709314e-05,3.25,2.75
2.84375,-3.9064628797283885e-05,-3.7112775829709314e-05,-3.857541756755931e-05,-3.467171163241016e-05,3.25,2.75
2.84765625,-3.076301374593729e-05,-2.8811160778362702e-05,-3.076301374593729e-05,-2.930037200808728e-05,3.25,2.75
2.8515625,-3.3693289172961005e-05,-3.271486671351186e-05,-2.3929032383764392e-05,-3.662356459998474e-05,3.25,2.75
2.85546875,-3.955384002700846e-05,-4.101648176485847e-05,-3.3693289172961005e-05,-4.2973326683756764e-05,3.25,2.75
2.859375,-3.955384002700846e-05,-3.955384002700846e-05,-3.7112775829709314e-05,-3.857541756755931e-05,3.25,2.75
2.86328125,-4.199490422430762e-05,-4.541439088105592e-05,-3.3204077943236435e-05,-3.3693289172961005e-05,3.25,2.75
2.8671875,-4.199490422430762e-05,-4.541439088105592e-05,-3.223064743511101e-05,-3.1741436205386434e-05,3.25,2.75
2.87109375,-3.7112775829709314e-05,-3.857541756755931e-05,-3.3693289172961005e-05,-2.930037200808728e-05,3.25,2.75
2.875,-3.564514214053559e-05,-3.7601987059433884e-05,-3.7601987059433884e-05,-3.7601987059433884e-05,3.25,2.75
2.87890625,-3.7112775829709314e-05,-3.418250040268558e-05,-3.516092286213473e-05,-3.7112775829709314e-05,3.25,2.75
2.8828125,-3.7112775829709314e-05,-3.3693289172961005e-05,-3.076301374593729e-05,-2.6859307810788124e-05,3.25,2.75
2.88671875,-3.3204077943236435e-05,-3.564514214053559e-05,-4.199490422430762e-05,-2.9789583237811853e-05,3.25,2.75
2.890625,-3.223064743511101e-05,-3.564514214053559e-05,-3.857541756755931e-05,-3.662356459998474e-05,3.25,2.75
2.89453125,-3.613435337026016e-05,-3.857541756755931e-05,-2.0020334497291514e-05,-3.516092286213473e-05,3.25,2.75
2.8984375,-3.7112775829709314e-05,-3.662356459998474e-05,-2.5880885351338974e-05,-3.3204077943236435e-05,3.25,2.75
2.90234375,-3.223064743511101e-05,-3.1741436205386434e-05,-3.564514214053559e-05,-4.101648176485847e-05,3.25,2.75
2.90625,-3.516092286213473e-05,-2.6859307810788124e-05,-3.467171163241016e-05,-4.004305125673303e-05,3.25,2.75
2.91015625,-3.3204077943236435e-05,-3.3693289172961005e-05,-3.9064628797283885e-05,-3.1741436205386434e-05,3.25,2.75
2.9140625,-2.2950609924315245e-05,-3.516092286213473e-05,-3.662356459998474e-05,-3.1741436205386434e-05,3.25,2.75
2.91796875,-2.343982115403982e-05,-3.223064743511101e-05,-3.467171163241016e-05,-3.3204077943236435e-05,3.25,2.75
2.921875,-3.076301374593729e-05,-3.271486671351186e-05,-3.076301374593729e-05,-3.808620633783474e-05,3.25,2.75
2.92578125,-3.662356459998474e-05,-3.1741436205386434e-05,-2.930037200808728e-05,-4.3457545962157625e-05,3.25,2.75
2.9296875,-3.418250040268558e-05,-3.3693289172961005e-05,-3.076301374593729e-05,-4.150569299458304e-05,3.25,2.75
2.93359375,-3.271486671351186e-05,-3.3693289172961005e-05,-3.467171163241016e-05,-4.101648176485847e-05,3.25,2.75
2.9375,-2.8811160778362702e-05,-3.027380251621271e-05,-4.052727053513389e-05,-3.955384002700846e-05,3.25,2.75
2.94140625,-2.7343527089188982e-05,-2.4418243613488966e-05,-2.7343527089188982e-05,-2.930037200808728e-05,3.25,2.75
2.9453125,-3.027380251621271e-05,-2.343982115403982e-05,-2.5880885351338974e-05,-3.1741436205386434e-05,3.25,2.75
2.94921875,-2.9789583237811853e-05,-2.6370096581063547e-05,-4.052727053513389e-05,-3.808620633783474e-05,3.25,2.75
2.953125,-3.125222497566186e-05,-2.7832738318913555e-05,-3.516092286213473e-05,-2.8811160778362702e-05,3.25,2.75
2.95703125,-3.564514214053559e-05,-2.7343527089188982e-05,-2.6859307810788124e-05,-2.343982115403982e-05,3.25,2.75
2.9609375,-3.857541756755931e-05,-2.832194954863813e-05,-2.197717941618981e-05,-3.125222497566186e-05,3.25,2.75
2.96484375,-3.662356459998474e-05,-3.1741436205386434e-05,-2.197717941618981e-05,-3.418250040268558e-05,3.25,2.75
2.96875,-3.271486671351186e-05,-3.857541756755931e-05,-3.1741436205386434e-05,-2.2950609924315245e-05,3.25,2.75
2.97265625,-3.271486671351186e-05,-4.248411545403219e-05,-2.8811160778362702e-05,-2.0509545727016087e-05,3.25,2.75
2.9765625,-3.613435337026016e-05,-4.199490422430762e-05,-3.3693289172961005e-05,-3.223064743511101e-05,3.25,2.75
2.98046875,-3.027380251621271e-05,-3.613435337026016e-05,-4.687703261890592e-05,-3.1741436205386434e-05,3.25,2.75
2.984375,-2.832194954863813e-05,-2.9789583237811853e-05,-4.248411545403219e-05,-3.076301374593729e-05,3.25,2.75
2.98828125,-3.3693289172961005e-05,-2.930037200808728e-05,-3.7112775829709314e-05,-3.3693289172961005e-05,3.25,2.75
2.9921875,-3.1741436205386434e-05,-3.3693289172961005e-05,-3.955384002700846e-05,-3.7601987059433884e-05,3.25,2.75
2.99609375,-2.930037200808728e-05,-3.223064743511101e-05,-4.833967435675593e-05,-3.076301374593729e-05,3.25,2.75
3.0,-3.125222497566186e-05,-2.6370096581063547e-05,-5.029651927565422e-05,-3.076301374593729e-05,3.25,2.75
3.00390625,-3.564514214053559e-05,-3.076301374593729e-05,-5.175916101350422e-05,-4.2973326683756764e-05,3.25,2.75
3.0078125,-3.418250040268558e-05,-3.516092286213473e-05,-4.88288855864805e-05,-3.7601987059433884e-05,3.25,2.75
3.01171875,-3.613435337026016e-05,-4.248411545403219e-05,-3.857541756755931e-05,-3.516092286213473e-05,3.25,2.75
3.015625,-3.7601987059433884e-05,-4.73662438486305e-05,-2.3929032383764392e-05,-3.223064743511101e-05,3.25,2.75
3.01953125,-3.076301374593729e-05,-4.589861015945677e-05,-1.660583979186694e-05,-2.6859307810788124e-05,3.25,2.75
3.0234375,-3.076301374593729e-05,-4.3457545962157625e-05,-2.0020334497291514e-05,-2.7832738318913555e-05,3.25,2.75
3.02734375,-2.9789583237811853e-05,-4.150569299458304e-05,-3.955384002700846e-05,-3.027380251621271e-05,3.25,2.75
3.03125,-3.3204077943236435e-05,-3.9064628797283885e-05,-4.638782138918134e-05,-3.516092286213473e-05,3.25,2.75
3.03515625,-3.7112775829709314e-05,-3.9064628797283885e-05,-3.1741436205386434e-05,-3.223064743511101e-05,3.25,2.75
3.0390625,-3.613435337026016e-05,-4.199490422430762e-05,-3.1741436205386434e-05,-3.3204077943236435e-05,3.25,2.75
3.04296875,-3.1741436205386434e-05,-3.7112775829709314e-05,-3.027380251621271e-05,-3.9064628797283885e-05,3.25,2.75
3.046875,-2.6859307810788124e-05,-3.3693289172961005e-05,-1.4164775594567784e-05,-3.125222497566186e-05,3.25,2.75
3.05078125,-2.832194954863813e-05,-4.2973326683756764e-05,-1.2697141905394062e-05,-3.076301374593729e-05,3.25,2.75
3.0546875,-3.467171163241016e-05,-4.492517965133135e-05,-2.8811160778362702e-05,-3.662356459998474e-05,3.25,2.75
3.05859375,-3.662356459998474e-05,-4.052727053513389e-05,-2.832194954863813e-05,-3.7112775829709314e-05,3.25,2.75
3.0625,-3.662356459998474e-05,-4.248411545403219e-05,-3.467171163241016e-05,-3.808620633783474e-05,3.25,2.75
3.06640625,-3.7112775829709314e-05,-4.833967435675593e-05,-3.564514214053559e-05,-3.9064628797283885e-05,3.25,2.75
3.0703125,-3.3204077943236435e-05,-4.3457545962157625e-05,-3.125222497566186e-05,-3.662356459998474e-05,3.25,2.75
3.07421875,-3.516092286213473e-05,-4.443596842160677e-05,-3.7601987059433884e-05,-2.930037200808728e-05,3.25,2.75
3.078125,-3.7601987059433884e-05,-4.443596842160677e-05,-3.271486671351186e-05,-3.027380251621271e-05,3.25,2.75
3.08203125,-3.955384002700846e-05,-4.3946757191882195e-05,-2.6859307810788124e-05,-3.223064743511101e-05,3.25,2.75
3.0859375,-3.662356459998474e-05,-4.3946757191882195e-05,-2.5880885351338974e-05,-3.125222497566186e-05,3.25,2.75
3.08984375,-2.8811160778362702e-05,-4.199490422430762e-05,-2.8811160778362702e-05,-3.613435337026016e-05,3.25,2.75
3.09375,-2.7343527089188982e-05,-4.443596842160677e-05,-3.662356459998474e-05,-3.808620633783474e-05,3.25,2.75
3.09765625,-2.9789583237811853e-05,-4.687703261890592e-05,-3.564514214053559e-05,-4.101648176485847e-05,3.25,2.75
3.1015625,-3.125222497566186e-05,-4.492517965133135e-05,-4.199490422430762e-05,-3.7601987059433884e-05,3.25,2.75
3.10546875,-2.8811160778362702e-05,-3.662356459998474e-05,-3.857541756755931e-05,-2.9789583237811853e-05,3.25,2.75
3.109375,-3.467171163241016e-05,-3.955384002700846e-05,-3.7601987059433884e-05,-3.125222497566186e-05,3.25,2.75
3.11328125,-4.3457545962157625e-05,-5.029651927565422e-05,-4.88288855864805e-05,-3.7112775829709314e-05,3.25,2.75
3.1171875,-4.2973326683756764e-05,-4.541439088105592e-05,-4.980730804592965e-05,-3.955384002700846e-05,3.25,2.75
3.12109375,-3.7601987059433884e-05,-3.808620633783474e-05,-3.516092286213473e-05,-3.3693289172961005e-05,3.25,2.75
3.125,-3.564514214053559e-05,-3.857541756755931e-05,-3.223064743511101e-05,-3.1741436205386434e-05,3.25,2.75
3.12890625,-3.613435337026016e-05,-3.418250040268558e-05,-3.076301374593729e-05,-4.150569299458304e-05,3.25,2.75
3.1328125,-2.9789583237811853e-05,-3.027380251621271e-05,-2.0509545727016087e-05,-3.808620633783474e-05,3.25,2.75
3.13671875,-3.027380251621271e-05,-3.7601987059433884e-05,-3.516092286213473e-05,-4.248411545403219e-05,3.25,2.75
3.140625,-3.3204077943236435e-05,-3.125222497566186e-05,-3.662356459998474e-05,-4.73662438486305e-05,3.25,2.75
3.14453125,-3.027380251621271e-05,-2.53916741216144e-05,-2.53916741216144e-05,-3.7601987059433884e-05,3.25,2.75
3.1484375,-3.076301374593729e-05,-3.125222497566186e-05,-3.125222497566186e-05,-2.930037200808728e-05,3.25,2.75
3.15234375,-3.271486671351186e-05,-3.7601987059433884e-05,-4.687703261890592e-05,-2.53916741216144e-05,3.25,2.75
3.15625,-3.613435337026016e-05,-4.150569299458304e-05,-5.1269949783779646e-05,-2.4902462891889824e-05,3.25,2.75
3.16015625,-4.052727053513389e-05,-3.9064628797283885e-05,-4.199490422430762e-05,-2.2950609924315245e-05,3.25,2.75
3.1640625,-4.150569299458304e-05,-4.004305125673303e-05,-3.076301374593729e-05,-1.9046903989166096e-05,3.25,2.75
3.16796875,-3.955384002700846e-05,-4.492517965133135e-05,-7.81501351079575e-06,-2.0998756956740664e-05,3.25,2.75
3.171875,-3.7601987059433884e-05,-4.638782138918134e-05,-2.1487968186465237e-05,-2.6859307810788124e-05,3.25,2.75
3.17578125,-3.955384002700846e-05,-3.9064628797283885e-05,-3.516092286213473e-05,-3.076301374593729e-05,3.25,2.75
3.1796875,-4.3457545962157625e-05,-3.662356459998474e-05,-2.9789583237811853e-05,-3.125222497566186e-05,3.25,2.75
3.18359375,-3.3204077943236435e-05,-3.3204077943236435e-05,-2.9789583237811853e-05,-2.4902462891889824e-05,3.25,2.75
3.1875,-2.9789583237811853e-05,-3.1741436205386434e-05,-2.3929032383764392e-05,-2.0509545727016087e-05,3.25,2.75
3.19140625,-3.516092286213473e-05,-3.564514214053559e-05,-2.8811160778362702e-05,-2.4902462891889824e-05,3.25,2.75
3.1953125,-3.662356459998474e-05,-3.3204077943236435e-05,-3.467171163241016e-05,-2.3929032383764392e-05,3.25,2.75
3.19921875,-3.9064628797283885e-05,-3.662356459998474e-05,-4.785545507835507e-05,-3.027380251621271e-05,3.25,2.75
3.203125,-4.004305125673303e-05,-4.2973326683756764e-05,-5.761971186755169e-05,-4.150569299458304e-05,3.25,2.75
3.20703125,-4.199490422430762e-05,-4.004305125673303e-05,-5.420022521080338e-05,-4.2973326683756764e-05,3.25,2.75
3.2109375,-4.004305125673303e-05,-3.7112775829709314e-05,-4.199490422430762e-05,-3.955384002700846e-05,3.25,2.75
3.21484375,-3.662356459998474e-05,-3.223064743511101e-05,-3.223064743511101e-05,-3.125222497566186e-05,3.25,2.75
3.21875,-3.955384002700846e-05,-2.930037200808728e-05,-3.271486671351186e-05,-3.418250040268558e-05,3.25,2.75
3.22265625,-4.199490422430762e-05,-3.1741436205386434e-05,-2.1487968186465237e-05,-4.052727053513389e-05,3.25,2.75
3.2265625,-3.564514214053559e-05,-3.516092286213473e-05,-1.2207930675669487e-05,-3.125222497566186e-05,3.25,2.75
3.23046875,-3.027380251621271e-05,-2.8811160778362702e-05,-1.562741733241779e-05,-2.930037200808728e-05,3.25,2.75
3.234375,-3.3204077943236435e-05,-3.125222497566186e-05,-2.246139869459067e-05,-3.7112775829709314e-05,3.25,2.75
3.23828125,-3.7601987059433884e-05,-3.808620633783474e-05,-2.832194954863813e-05,-3.7601987059433884e-05,3.25,2.75
3.2421875,-3.808620633783474e-05,-3.467171163241016e-05,-2.246139869459067e-05,-3.3204077943236435e-05,3.25,2.75
3.24609375,-3.7112775829709314e-05,-3.418250040268558e-05,-2.5880885351338974e-05,-3.271486671351186e-05,3.25,2.75
3.25,-4.004305125673303e-05,-3.418250040268558e-05,-3.808620633783474e-05,-4.248411545403219e-05,3.25,2.75
3.25390625,-3.9064628797283885e-05,-3.613435337026016e-05,-4.101648176485847e-05,-4.150569299458304e-05,3.25,2.75
3.2578125,-3.418250040268558e-05,-3.613435337026016e-05,-4.101648176485847e-05,-3.271486671351186e-05,3.25,2.75
3.26171875,-3.516092286213473e-05,-3.467171163241016e-05,-3.3693289172961005e-05,-3.516092286213473e-05,3.25,2.75
3.265625,-3.7112775829709314e-05,-3.613435337026016e-05,-2.4902462891889824e-05,-3.662356459998474e-05,3.25,2.75
3.26953125,-4.150569299458304e-05,-3.613435337026016e-05,-3.223064743511101e-05,-3.7601987059433884e-05,3.25,2.75
3.2734375,-5.1269949783779646e-05,-4.3946757191882195e-05,-5.22483722432288e-05,-4.004305125673303e-05,3.25,2.75
3.27734375,-4.687703261890592e-05,-4.492517965133135e-05,-4.589861015945677e-05,-3.027380251621271e-05,3.25,2.75
3.28125,-4.3457545962157625e-05,-4.004305125673303e-05,-2.9789583237811853e-05,-2.3929032383764392e-05,3.25,2.75
3.28515625,-4.88288855864805e-05,-4.492517965133135e-05,-3.662356459998474e-05,-3.955384002700846e-05,3.25,2.75
3.2890625,-4.2973326683756764e-05,-4.88288855864805e-05,-4.3946757191882195e-05,-4.150569299458304e-05,3.25,2.75
3.29296875,-3.7601987059433884e-05,-4.150569299458304e-05,-3.857541756755931e-05,-2.930037200808728e-05,3.25,2.75
3.296875,-4.052727053513389e-05,-4.248411545403219e-05,-3.955384002700846e-05,-3.3693289172961005e-05,3.25,2.75
3.30078125,-4.248411545403219e-05,-4.785545507835507e-05,-4.052727053513389e-05,-4.687703261890592e-05,3.25,2.75
3.3046875,-4.199490422430762e-05,-4.492517965133135e-05,-3.076301374593729e-05,-4.052727053513389e-05,3.25,2.75
3.30859375,-4.589861015945677e-05,-4.3946757191882195e-05,-2.9789583237811853e-05,-3.955384002700846e-05,3.25,2.75
3.3125,-4.541439088105592e-05,-4.004305125673303e-05,-3.3204077943236435e-05,-4.150569299458304e-05,3.25,2.75
3.31640625,-4.443596842160677e-05,-4.687703261890592e-05,-4.73662438486305e-05,-3.7112775829709314e-05,3.25,2.75
3.3203125,-4.638782138918134e-05,-5.029651927565422e-05,-4.88288855864805e-05,-3.467171163241016e-05,3.25,2.75
3.32421875,-4.3946757191882195e-05,-3.955384002700846e-05,-2.9789583237811853e-05,-2.8811160778362702e-05,3.25,2.75
3.328125,-3.613435337026016e-05,-3.125222497566186e-05,-2.4418243613488966e-05,-3.467171163241016e-05,3.25,2.75
3.33203125,-2.9789583237811853e-05,-4.199490422430762e-05,-2.832194954863813e-05,-4.2973326683756764e-05,3.25,2.75
3.3359375,-2.832194954863813e-05,-5.07857305053788e-05,-3.516092286213473e-05,-4.150569299458304e-05,3.25,2.75
3.33984375,-2.6370096581063547e-05,-4.785545507835507e-05,-4.004305125673303e-05,-4.248411545403219e-05,3.25,2.75
3.34375,-3.027380251621271e-05,-4.785545507835507e-05,-4.248411545403219e-05,-4.589861015945677e-05,3.25,2.75
3.34765625,-3.662356459998474e-05,-4.980730804592965e-05,-5.908235360540168e-05,-5.1269949783779646e-05,3.25,2.75
3.3515625,-3.467171163241016e-05,-4.73662438486305e-05,-6.348026272159914e-05,-4.492517965133135e-05,3.25,2.75
3.35546875,-3.467171163241016e-05,-4.73662438486305e-05,-5.322679470267795e-05,-3.857541756755931e-05,3.25,2.75
3.359375,-2.6859307810788124e-05,-4.3946757191882195e-05,-4.687703261890592e-05,-3.7112775829709314e-05,3.25,2.75
3.36328125,-2.5880885351338974e-05,-3.808620633783474e-05,-3.7112775829709314e-05,-3.564514214053559e-05,3.25,2.75
3.3671875,-3.857541756755931e-05,-3.9064628797283885e-05,-3.857541756755931e-05,-4.248411545403219e-05,3.25,2.75
3.37109375,-3.564514214053559e-05,-3.857541756755931e-05,-4.589861015945677e-05,-4.150569299458304e-05,3.25,2.75
3.375,-3.125222497566186e-05,-3.467171163241016e-05,-3.955384002700846e-05,-3.3693289172961005e-05,3.25,2.75
3.37890625,-3.223064743511101e-05,-3.027380251621271e-05,-3.1741436205386434e-05,-2.832194954863813e-05,3.25,2.75
3.3828125,-3.125222497566186e-05,-3.516092286213473e-05,-3.662356459998474e-05,-2.9789583237811853e-05,3.25,2.75
3.38671875,-3.223064743511101e-05,-3.564514214053559e-05,-3.418250040268558e-05,-2.9789583237811853e-05,3.25,2.75
3.390625,-3.516092286213473e-05,-3.3693289172961005e-05,-2.6859307810788124e-05,-2.9789583237811853e-05,3.25,2.75
3.39453125,-3.1741436205386434e-05,-3.564514214053559e-05,-3.3693289172961005e-05,-2.5880885351338974e-05,3.25,2.75
3.3984375,-2.7832738318913555e-05,-3.271486671351186e-05,-3.125222497566186e-05,-2.0998756956740664e-05,3.25,2.75
3.40234375,-3.076301374593729e-05,-3.1741436205386434e-05,-2.4418243613488966e-05,-2.832194954863813e-05,3.25,2.75
3.40625,-2.9789583237811853e-05,-3.027380251621271e-05,-2.4902462891889824e-05,-3.7112775829709314e-05,3.25,2.75
3.41015625,-3.076301374593729e-05,-3.418250040268558e-05,-2.7343527089188982e-05,-3.564514214053559e-05,3.25,2.75
3.4140625,-2.930037200808728e-05,-3.808620633783474e-05,-4.73662438486305e-05,-3.223064743511101e-05,3.25,2.75
3.41796875,-2.6859307810788124e-05,-2.9789583237811853e-05,-5.713050063782711e-05,-3.076301374593729e-05,3.25,2.75
3.421875,-3.271486671351186e-05,-3.027380251621271e-05,-4.199490422430762e-05,-2.9789583237811853e-05,3.25,2.75
3.42578125,-3.223064743511101e-05,-3.223064743511101e-05,-3.027380251621271e-05,-2.832194954863813e-05,3.25,2.75
3.4296875,-3.027380251621271e-05,-3.3693289172961005e-05,-3.418250040268558e-05,-3.857541756755931e-05,3.25,2.75
3.43359375,-3.3693289172961005e-05,-4.004305125673303e-05,-3.9064628797283885e-05,-4.443596842160677e-05,3.25,2.75
3.4375,-3.1741436205386434e-05,-3.955384002700846e-05,-4.638782138918134e-05,-3.662356459998474e-05,3.25,2.75
3.44140625,-2.832194954863813e-05,-3.7601987059433884e-05,-4.2973326683756764e-05,-3.564514214053559e-05,3.25,2.75
3.4453125,-2.6859307810788124e-05,-3.3693289172961005e-05,-3.076301374593729e-05,-3.076301374593729e-05,3.25,2.75
3.44921875,-2.6859307810788124e-05,-2.8811160778362702e-05,-1.953112326756694e-05,-2.2950609924315245e-05,3.25,2.75
3.453125,-3.1741436205386434e-05,-2.53916741216144e-05,-4.884738083772021e-06,-2.3929032383764392e-05,3.25,2.75
3.45703125,-3.564514214053559e-05,-2.4418243613488966e-05,-2.1487968186465237e-05,-2.930037200808728e-05,3.25,2.75
3.4609375,-3.3693289172961005e-05,-2.9789583237811853e-05,-4.443596842160677e-05,-3.516092286213473e-05,3.25,2.75
3.46484375,-2.9789583237811853e-05,-2.9789583237811853e-05,-3.857541756755931e-05,-3.9064628797283885e-05,3.25,2.75
3.46875,-2.832194954863813e-05,-2.8811160778362702e-05,-3.808620633783474e-05,-3.467171163241016e-05,3.25,2.75
3.47265625,-3.027380251621271e-05,-2.8811160778362702e-05,-2.343982115403982e-05,-2.53916741216144e-05,3.25,2.75
3.4765625,-3.1741436205386434e-05,-3.076301374593729e-05,-1.562741733241779e-05,-2.0509545727016087e-05,3.25,2.75
3.48046875,-3.125222497566186e-05,-2.930037200808728e-05,-4.101648176485847e-05,-2.6370096581063547e-05,3.25,2.75
3.484375,-3.418250040268558e-05,-2.832194954863813e-05,-4.541439088105592e-05,-3.662356459998474e-05,3.25,2.75
3.48828125,-3.516092286213473e-05,-3.418250040268558e-05,-3.467171163241016e-05,-3.418250040268558e-05,3.25,2.75
3.4921875,-3.467171163241016e-05,-4.492517965133135e-05,-4.052727053513389e-05,-2.9789583237811853e-05,3.25,2.75
3.49609375,-3.662356459998474e-05,-4.980730804592965e-05,-3.7601987059433884e-05,-3.467171163241016e-05,3.25,2.75
3.5,-4.052727053513389e-05,-4.3946757191882195e-05,-4.101648176485847e-05,-3.516092286213473e-05,3.25,2.75
3.50390625,-3.808620633783474e-05,-4.248411545403219e-05,-4.492517965133135e-05,-3.516092286213473e-05,3.25,2.75
3.5078125,-3.613435337026016e-05,-4.492517965133135e-05,-4.052727053513389e-05,-3.3693289172961005e-05,3.25,2.75
3.51171875,-3.516092286213473e-05,-4.2973326683756764e-05,-3.7601987059433884e-05,-2.6370096581063547e-05,3.25,2.75
3.515625,-3.857541756755931e-05,-4.199490422430762e-05,-2.3929032383764392e-05,-3.271486671351186e-05,3.25,2.75
3.51953125,-3.857541756755931e-05,-4.3946757191882195e-05,-3.467171163241016e-05,-3.662356459998474e-05,3.25,2.75
3.5234375,-3.418250040268558e-05,-4.443596842160677e-05,-5.615207817837796e-05,-4.004305125673303e-05,3.25,2.75
3.52734375,-3.7601987059433884e-05,-4.3946757191882195e-05,-4.687703261890592e-05,-3.7601987059433884e-05,3.25,2.75
3.53125,-3.613435337026016e-05,-4.541439088105592e-05,-3.7601987059433884e-05,-3.467171163241016e-05,3.25,2.75
3.53515625,-3.467171163241016e-05,-4.3457545962157625e-05,-4.004305125673303e-05,-3.7601987059433884e-05,3.25,2.75
3.5390625,-3.467171163241016e-05,-3.808620633783474e-05,-4.785545507835507e-05,-3.7112775829709314e-05,3.25,2.75
3.54296875,-4.052727053513389e-05,-4.052727053513389e-05,-4.199490422430762e-05,-3.7112775829709314e-05,3.25,2.75
3.546875,-4.3457545962157625e-05,-4.73662438486305e-05,-3.857541756755931e-05,-4.3457545962157625e-05,3.25,2.75
3.55078125,-3.7112775829709314e-05,-4.150569299458304e-05,-3.564514214053559e-05,-4.589861015945677e-05,3.25,2.75
3.5546875,-3.3693289172961005e-05,-3.7112775829709314e-05,-3.418250040268558e-05,-3.7601987059433884e-05,3.25,2.75
3.55859375,-2.9789583237811853e-05,-3.564514214053559e-05,-3.564514214053559e-05,-3.076301374593729e-05,3.25,2.75
3.5625,-3.3204077943236435e-05,-4.101648176485847e-05,-3.662356459998474e-05,-4.052727053513389e-05,3.25,2.75
3.56640625,-3.125222497566186e-05,-4.2973326683756764e-05,-3.3693289172961005e-05,-3.955384002700846e-05,3.25,2.75
3.5703125,-2.930037200808728e-05,-3.955384002700846e-05,-2.930037200808728e-05,-3.027380251621271e-05,3.25,2.75
3.57421875,-3.3204077943236435e-05,-4.2973326683756764e-05,-3.125222497566186e-05,-2.53916741216144e-05,3.25,2.75
3.578125,-3.1741436205386434e-05,-4.150569299458304e-05,-3.467171163241016e-05,-2.0509545727016087e-05,3.25,2.75
3.58203125,-3.467171163241016e-05,-4.248411545403219e-05,-3.7601987059433884e-05,-3.125222497566186e-05,3.25,2.75
3.5859375,-4.199490422430762e-05,-4.541439088105592e-05,-2.7832738318913555e-05,-4.004305125673303e-05,3.25,2.75
3.58984375,-4.589861015945677e-05,-4.443596842160677e-05,-2.2950609924315245e-05,-3.271486671351186e-05,3.25,2.75
3.59375,-4.248411545403219e-05,-4.101648176485847e-05,-3.613435337026016e-05,-3.271486671351186e-05,3.25,2.75
3.59765625,-3.7112775829709314e-05,-3.7601987059433884e-05,-3.7601987059433884e-05,-2.9789583237811853e-05,3.25,2.75
3.6015625,-4.052727053513389e-05,-3.857541756755931e-05,-3.662356459998474e-05,-2.6859307810788124e-05,3.25,2.75
3.60546875,-4.3457545962157625e-05,-3.516092286213473e-05,-3.808620633783474e-05,-3.662356459998474e-05,3.25,2.75
3.609375,-4.101648176485847e-05,-3.516092286213473e-05,-4.101648176485847e-05,-4.248411545403219e-05,3.25,2.75
3.61328125,-3.564514214053559e-05,-3.7601987059433884e-05,-4.443596842160677e-05,-2.930037200808728e-05,3.25,2.75
3.6171875,-3.7112775829709314e-05,-3.857541756755931e-05,-3.808620633783474e-05,-2.5880885351338974e-05,3.25,2.75
3.62109375,-4.052727053513389e-05,-4.3457545962157625e-05,-4.2973326683756764e-05,-3.7112775829709314e-05,3.25,2.75
3.625,-4.052727053513389e-05,-4.3946757191882195e-05,-4.638782138918134e-05,-3.9064628797283885e-05,3.25,2.75
3.62890625,-3.955384002700846e-05,-4.052727053513389e-05,-3.564514214053559e-05,-3.516092286213473e-05,3.25,2.75
3.6328125,-3.9064628797283885e-05,-3.662356459998474e-05,-1.9046903989166096e-05,-3.027380251621271e-05,3.25,2.75
3.63671875,-4.88288855864805e-05,-3.3693289172961005e-05,-1.3186353135118636e-05,-3.1741436205386434e-05,3.25,2.75
3.640625,-4.541439088105592e-05,-3.955384002700846e-05,-3.3204077943236435e-05,-3.662356459998474e-05,3.25,2.75
3.64453125,-3.516092286213473e-05,-4.492517965133135e-05,-3.955384002700846e-05,-3.7601987059433884e-05,3.25,2.75
3.6484375,-2.6859307810788124e-05,-4.199490422430762e-05,-3.3204077943236435e-05,-3.467171163241016e-05,3.25,2.75
3.65234375,-1.9046903989166096e-05,-3.857541756755931e-05,-3.3204077943236435e-05,-3.467171163241016e-05,3.25,2.75
3.65625,-2.0998756956740664e-05,-3.271486671351186e-05,-3.7601987059433884e-05,-4.492517965133135e-05,3.25,2.75
3.66015625,-3.027380251621271e-05,-2.6859307810788124e-05,-3.271486671351186e-05,-5.420022521080338e-05,3.25,2.75
3.6640625,-3.3693289172961005e-05,-3.271486671351186e-05,-1.3675564364843211e-05,-4.833967435675593e-05,3.25,2.75
3.66796875,-3.027380251621271e-05,-4.004305125673303e-05,-1.6116628562142368e-05,-4.73662438486305e-05,3.25,2.75
3.671875,-2.9789583237811853e-05,-3.7112775829709314e-05,-3.1741436205386434e-05,-4.052727053513389e-05,3.25,2.75
3.67578125,-3.467171163241016e-05,-3.3204077943236435e-05,-4.150569299458304e-05,-3.467171163241016e-05,3.25,2.75
3.6796875,-3.467171163241016e-05,-3.3204077943236435e-05,-4.248411545403219e-05,-3.9064628797283885e-05,3.25,2.75
3.68359375,-2.930037200808728e-05,-3.516092286213473e-05,-4.687703261890592e-05,-3.418250040268558e-05,3.25,2.75
3.6875,-2.53916741216144e-05,-3.1741436205386434e-05,-4.004305125673303e-05,-1.8557692759441523e-05,3.25,2.75
3.69140625,-2.5880885351338974e-05,-2.9789583237811853e-05,-3.076301374593729e-05,-2.7343527089188982e-05,3.25,2.75
3.6953125,-3.027380251621271e-05,-3.271486671351186e-05,-3.125222497566186e-05,-4.101648176485847e-05,3.25,2.75
3.69921875,-3.7112775829709314e-05,-3.418250040268558e-05,-3.9064628797283885e-05,-4.052727053513389e-05,3.25,2.75
3.703125,-4.248411545403219e-05,-3.125222497566186e-05,-4.980730804592965e-05,-4.052727053513389e-05,3.25,2.75
3.70703125,-3.857541756755931e-05,-3.1741436205386434e-05,-4.73662438486305e-05,-3.7112775829709314e-05,3.25,2.75
3.7109375,-3.3693289172961005e-05,-3.3693289172961005e-05,-3.857541756755931e-05,-3.7112775829709314e-05,3.25,2.75
3.71484375,-3.027380251621271e-05,-3.467171163241016e-05,-4.73662438486305e-05,-3.662356459998474e-05,3.25,2.75
3.71875,-2.4902462891889824e-05,-3.125222497566186e-05,-4.785545507835507e-05,-3.125222497566186e-05,3.25,2.75
3.72265625,-2.3929032383764392e-05,-2.9789583237811853e-05,-3.955384002700846e-05,-3.3204077943236435e-05,3.25,2.75
3.7265625,-2.6370096581063547e-05,-3.223064743511101e-05,-3.808620633783474e-05,-4.150569299458304e-05,3.25,2.75
3.73046875,-2.6859307810788124e-05,-3.271486671351186e-05,-2.9789583237811853e-05,-3.7112775829709314e-05,3.25,2.75
3.734375,-2.6859307810788124e-05,-3.271486671351186e-05,-2.1487968186465237e-05,-3.3693289172961005e-05,3.25,2.75
3.73828125,-3.271486671351186e-05,-3.467171163241016e-05,-2.8811160778362702e-05,-3.808620633783474e-05,3.25,2.75
3.7421875,-3.516092286213473e-05,-3.613435337026016e-05,-2.53916741216144e-05,-3.125222497566186e-05,3.25,2.75
3.74609375,-2.6859307810788124e-05,-3.1741436205386434e-05,-2.0998756956740664e-05,-2.343982115403982e-05,3.25,2.75
3.75,-2.0998756956740664e-05,-2.6370096581063547e-05,-3.1741436205386434e-05,-2.5880885351338974e-05,3.25,2.75
3.75390625,-2.2950609924315245e-05,-2.4418243613488966e-05,-4.3457545962157625e-05,-2.4418243613488966e-05,3.25,2.75
3.7578125,-2.3929032383764392e-05,-2.197717941618981e-05,-4.101648176485847e-05,-1.8557692759441523e-05,3.25,2.75
3.76171875,-2.4418243613488966e-05,-2.6370096581063547e-05,-2.7832738318913555e-05,-2.2950609924315245e-05,3.25,2.75
3.765625,-2.7832738318913555e-05,-2.9789583237811853e-05,-2.832194954863813e-05,-2.9789583237811853e-05,3.25,2.75
3.76953125,-3.564514214053559e-05,-3.027380251621271e-05,-2.9789583237811853e-05,-2.6370096581063547e-05,3.25,2.75
3.7734375,-3.3693289172961005e-05,-3.1741436205386434e-05,-3.076301374593729e-05,-2.2950609924315245e-05,3.25,2.75
3.77734375,-3.857541756755931e-05,-3.516092286213473e-05,-3.027380251621271e-05,-3.271486671351186e-05,3.25,2.75
3.78125,-3.857541756755931e-05,-3.9064628797283885e-05,-1.2207930675669487e-05,-3.9064628797283885e-05,3.25,2.75
3.78515625,-3.564514214053559e-05,-3.955384002700846e-05,-1.4164775594567784e-05,-3.271486671351186e-05,3.25,2.75
3.7890625,-3.7112775829709314e-05,-3.516092286213473e-05,-3.3204077943236435e-05,-2.4418243613488966e-05,3.25,2.75
3.79296875,-2.930037200808728e-05,-2.832194954863813e-05,-3.271486671351186e-05,-2.4418243613488966e-05,3.25,2.75
3.796875,-2.832194954863813e-05,-3.223064743511101e-05,-2.832194954863813e-05,-3.027380251621271e-05,3.25,2.75
3.80078125,-3.223064743511101e-05,-4.2973326683756764e-05,-3.564514214053559e-05,-3.418250040268558e-05,3.25,2.75
3.8046875,-3.125222497566186e-05,-4.3457545962157625e-05,-3.1741436205386434e-05,-3.223064743511101e-05,3.25,2.75
3.80859375,-3.223064743511101e-05,-3.857541756755931e-05,-2.4418243613488966e-05,-3.955384002700846e-05,3.25,2.75
3.8125,-3.223064743511101e-05,-3.223064743511101e-05,-2.9789583237811853e-05,-3.662356459998474e-05,3.25,2.75
3.81640625,-3.3204077943236435e-05,-3.125222497566186e-05,-3.418250040268558e-05,-2.6859307810788124e-05,3.25,2.75
3.8203125,-3.662356459998474e-05,-2.930037200808728e-05,-4.687703261890592e-05,-3.418250040268558e-05,3.25,2.75
3.82421875,-3.9064628797283885e-05,-2.3929032383764392e-05,-4.492517965133135e-05,-3.7601987059433884e-05,3.25,2.75
3.828125,-3.271486671351186e-05,-2.53916741216144e-05,-2.0020334497291514e-05,-2.53916741216144e-05,3.25,2.75
3.83203125,-3.076301374593729e-05,-2.7343527089188982e-05,-2.4418243613488966e-05,-2.6370096581063547e-05,3.25,2.75
3.8359375,-3.857541756755931e-05,-3.3204077943236435e-05,-4.687703261890592e-05,-3.613435337026016e-05,3.25,2.75
3.83984375,-3.9064628797283885e-05,-4.3946757191882195e-05,-4.9318096816205075e-05,-3.808620633783474e-05,3.25,2.75
3.84375,-3.662356459998474e-05,-4.199490422430762e-05,-4.199490422430762e-05,-4.199490422430762e-05,3.25,2.75
3.84765625,-3.857541756755931e-05,-3.955384002700846e-05,-3.7601987059433884e-05,-3.955384002700846e-05,3.25,2.75
3.8515625,-3.3204077943236435e-05,-4.3457545962157625e-05,-3.9064628797283885e-05,-3.564514214053559e-05,3.25,2.75
3.85546875,-2.930037200808728e-05,-4.2973326683756764e-05,-3.564514214053559e-05,-2.8811160778362702e-05,3.25,2.75
3.859375,-3.3693289172961005e-05,-4.101648176485847e-05,-3.1741436205386434e-05,-2.0998756956740664e-05,3.25,2.75
3.86328125,-3.3693289172961005e-05,-4.492517965133135e-05,-3.076301374593729e-05,-2.53916741216144e-05,3.25,2.75
3.8671875,-3.1741436205386434e-05,-4.2973326683756764e-05,-2.53916741216144e-05,-2.7832738318913555e-05,3.25,2.75
3.87109375,-3.3693289172961005e-05,-3.857541756755931e-05,-2.3929032383764392e-05,-2.832194954863813e-05,3.25,2.75
3.875,-3.3693289172961005e-05,-3.564514214053559e-05,-2.6370096581063547e-05,-2.930037200808728e-05,3.25,2.75
3.87890625,-2.930037200808728e-05,-4.004305125673303e-05,-4.248411545403219e-05,-3.467171163241016e-05,3.25,2.75
3.8828125,-3.027380251621271e-05,-4.3946757191882195e-05,-5.273758347295337e-05,-3.7601987059433884e-05,3.25,2.75
3.88671875,-3.223064743511101e-05,-3.7112775829709314e-05,-4.3457545962157625e-05,-2.832194954863813e-05,3.25,2.75
3.890625,-3.418250040268558e-05,-3.662356459998474e-05,-3.516092286213473e-05,-2.9789583237811853e-05,3.25,2.75
3.89453125,-3.125222497566186e-05,-3.662356459998474e-05,-3.223064743511101e-05,-3.027380251621271e-05,3.25,2.75
3.8984375,-2.4902462891889824e-05,-3.223064743511101e-05,-3.027380251621271e-05,-2.53916741216144e-05,3.25,2.75
3.90234375,-2.6859307810788124e-05,-3.076301374593729e-05,-2.197717941618981e-05,-2.343982115403982e-05,3.25,2.75
3.90625,-3.516092286213473e-05,-3.613435337026016e-05,-1.9046903989166096e-05,-2.5880885351338974e-05,3.25,2.75
3.91015625,-3.9064628797283885e-05,-3.7601987059433884e-05,-3.857541756755931e-05,-3.3204077943236435e-05,3.25,2.75
3.9140625,-3.7601987059433884e-05,-3.613435337026016e-05,-4.687703261890592e-05,-3.418250040268558e-05,3.25,2.75
3.91796875,-3.467171163241016e-05,-4.3457545962157625e-05,-3.418250040268558e-05,-3.271486671351186e-05,3.25,2.75
3.921875,-2.9789583237811853e-05,-4.101648176485847e-05,-3.516092286213473e-05,-3.3204077943236435e-05,3.25,2.75
3.92578125,-3.418250040268558e-05,-3.3693289172961005e-05,-3.3693289172961005e-05,-3.613435337026016e-05,3.25,2.75
3.9296875,-3.9064628797283885e-05,-3.564514214053559e-05,-3.3693289172961005e-05,-3.3693289172961005e-05,3.25,2.75
3.93359375,-3.467171163241016e-05,-3.467171163241016e-05,-3.7601987059433884e-05,-3.027380251621271e-05,3.25,2.75
3.9375,-3.516092286213473e-05,-3.076301374593729e-05,-2.930037200808728e-05,-3.271486671351186e-05,3.25,2.75
3.94140625,-3.3204077943236435e-05,-2.4418243613488966e-05,-2.7832738318913555e-05,-2.6370096581063547e-05,3.25,2.75
3.9453125,-3.3204077943236435e-05,-2.1487968186465237e-05,-3.223064743511101e-05,-3.076301374593729e-05,3.25,2.75
3.94921875,-3.125222497566186e-05,-2.5880885351338974e-05,-4.492517965133135e-05,-3.613435337026016e-05,3.25,2.75
3.953125,-2.8811160778362702e-05,-2.4902462891889824e-05,-4.3946757191882195e-05,-3.3693289172961005e-05,3.25,2.75
3.95703125,-3.467171163241016e-05,-2.832194954863813e-05,-3.7112775829709314e-05,-4.101648176485847e-05,3.25,2.75
3.9609375,-3.955384002700846e-05,-3.9064628797283885e-05,-3.3204077943236435e-05,-4.101648176485847e-05,3.25,2.75
3.96484375,-3.9064628797283885e-05,-3.955384002700846e-05,-2.4902462891889824e-05,-4.052727053513389e-05,3.25,2.75
3.96875,-3.808620633783474e-05,-4.2973326683756764e-05,-2.7343527089188982e-05,-4.73662438486305e-05,3.25,2.75
3.97265625,-3.808620633783474e-05,-4.443596842160677e-05,-2.832194954863813e-05,-3.9064628797283885e-05,3.25,2.75
3.9765625,-3.857541756755931e-05,-4.492517965133135e-05,-3.125222497566186e-05,-2.930037200808728e-05,3.25,2.75
3.98046875,-3.418250040268558e-05,-4.443596842160677e-05,-4.052727053513389e-05,-3.125222497566186e-05,3.25,2.75
3.984375,-3.418250040268558e-05,-4.443596842160677e-05,-4.833967435675593e-05,-3.516092286213473e-05,3.25,2.75
3.98828125,-3.564514214053559e-05,-4.2973326683756764e-05,-4.199490422430762e-05,-3.418250040268558e-05,3.25,2.75
3.9921875,-3.223064743511101e-05,-4.3946757191882195e-05,-3.7112775829709314e-05,-2.6370096581063547e-05,3.25,2.75
3.99609375,-2.832194954863813e-05,-4.589861015945677e-05,-3.564514214053559e-05,-2.2950609924315245e-05,3.25,2.75
4.0,-3.125222497566186e-05,-4.199490422430762e-05,-2.7832738318913555e-05,-2.7832738318913555e-05,3.25,2.75
4.00390625,-3.9064628797283885e-05,-4.443596842160677e-05,-2.2950609924315245e-05,-3.076301374593729e-05,3.25,2.75
4.0078125,-3.3204077943236435e-05,-3.808620633783474e-05,-2.2950609924315245e-05,-3.3693289172961005e-05,3.25,2.75
4.01171875,-2.4418243613488966e-05,-3.516092286213473e-05,-2.0509545727016087e-05,-2.8811160778362702e-05,3.25,2.75
4.015625,-3.125222497566186e-05,-4.052727053513389e-05,-2.6370096581063547e-05,-2.197717941618981e-05,3.25,2.75
4.01953125,-3.3693289172961005e-05,-3.9064628797283885e-05,-2.6370096581063547e-05,-2.6859307810788124e-05,3.25,2.75
4.0234375,-3.3693289172961005e-05,-4.199490422430762e-05,-2.197717941618981e-05,-3.418250040268558e-05,3.25,2.75
4.02734375,-3.467171163241016e-05,-3.9064628797283885e-05,-2.3929032383764392e-05,-3.076301374593729e-05,3.25,2.75
4.03125,-2.930037200808728e-05,-3.3693289172961005e-05,-3.125222497566186e-05,-3.3204077943236435e-05,3.25,2.75
4.03515625,-3.076301374593729e-05,-3.7112775829709314e-05,-3.564514214053559e-05,-4.004305125673303e-05,3.25,2.75
4.0390625,-3.3693289172961005e-05,-4.248411545403219e-05,-3.418250040268558e-05,-4.248411545403219e-05,3.25,2.75
4.04296875,-3.418250040268558e-05,-4.248411545403219e-05,-4.687703261890592e-05,-4.004305125673303e-05,3.25,2.75
4.046875,-3.7601987059433884e-05,-3.857541756755931e-05,-4.541439088105592e-05,-4.052727053513389e-05,3.25,2.75
4.05078125,-3.516092286213473e-05,-4.004305125673303e-05,-3.7601987059433884e-05,-4.2973326683756764e-05,3.25,2.75
4.0546875,-2.9789583237811853e-05,-3.808620633783474e-05,-3.564514214053559e-05,-3.662356459998474e-05,3.25,2.75
4.05859375,-2.832194954863813e-05,-3.613435337026016e-05,-4.3946757191882195e-05,-4.004305125673303e-05,3.25,2.75
4.0625,-2.8811160778362702e-05,-3.564514214053559e-05,-3.7112775829709314e-05,-4.004305125673303e-05,3.25,2.75
4.06640625,-3.027380251621271e-05,-3.516092286213473e-05,-2.53916741216144e-05,-3.7601987059433884e-05,3.25,2.75
4.0703125,-3.076301374593729e-05,-3.9064628797283885e-05,-2.5880885351338974e-05,-3.467171163241016e-05,3.25,2.75
4.07421875,-2.7343527089188982e-05,-4.101648176485847e-05,-3.7601987059433884e-05,-3.564514214053559e-05,3.25,2.75
4.078125,-2.3929032383764392e-05,-3.516092286213473e-05,-3.516092286213473e-05,-3.418250040268558e-05,3.25,2.75
4.08203125,-2.6859307810788124e-05,-3.418250040268558e-05,-2.7343527089188982e-05,-3.3204077943236435e-05,3.25,2.75
4.0859375,-3.271486671351186e-05,-3.9064628797283885e-05,-3.3204077943236435e-05,-4.052727053513389e-05,3.25,2.75
4.08984375,-2.7832738318913555e-05,-3.516092286213473e-05,-3.027380251621271e-05,-2.930037200808728e-05,3.25,2.75
4.09375,-2.343982115403982e-05,-2.832194954863813e-05,-3.027380251621271e-05,-2.9789583237811853e-05,3.25,2.75
4.09765625,-2.4418243613488966e-05,-2.6370096581063547e-05,-3.271486671351186e-05,-4.150569299458304e-05,3.25,2.75
4.1015625,-2.930037200808728e-05,-3.027380251621271e-05,-3.3693289172961005e-05,-4.492517965133135e-05,3.25,2.75
4.10546875,-3.418250040268558e-05,-3.516092286213473e-05,-3.857541756755931e-05,-3.662356459998474e-05,3.25,2.75
4.109375,-3.3693289172961005e-05,-3.7112775829709314e-05,-5.175916101350422e-05,-3.125222497566186e-05,3.25,2.75
4.11328125,-3.3693289172961005e-05,-3.662356459998474e-05,-4.980730804592965e-05,-3.662356459998474e-05,3.25,2.75
4.1171875,-3.613435337026016e-05,-4.101648176485847e-05,-4.248411545403219e-05,-3.7112775829709314e-05,3.25,2.75
4.12109375,-3.808620633783474e-05,-4.004305125673303e-05,-4.589861015945677e-05,-3.1741436205386434e-05,3.25,2.75
4.125,-3.7112775829709314e-05,-3.564514214053559e-05,-3.955384002700846e-05,-2.930037200808728e-05,3.25,2.75
4.12890625,-3.9064628797283885e-05,-3.418250040268558e-05,-3.027380251621271e-05,-3.418250040268558e-05,3.25,2.75
4.1328125,-3.467171163241016e-05,-3.516092286213473e-05,-2.3929032383764392e-05,-3.564514214053559e-05,3.25,2.75
4.13671875,-3.516092286213473e-05,-4.004305125673303e-05,-2.246139869459067e-05,-3.3693289172961005e-05,3.25,2.75
