timestamp,TP9,AF7,AF8,TP10,Valence,Arousal
0.0,-4.102632069123372e-05,3.466181881437398e-05,4.003668747997253e-05,-5.273925351338981e-05,6.1333,6.2
0.00390625,-3.6138995422293447e-05,2.831186335545891e-05,4.344949125658044e-05,-5.371434030670636e-05,6.1333,6.2
0.0078125,-3.662653881895173e-05,2.2948885992217866e-05,4.687418633554588e-05,-4.6876841451133004e-05,6.1333,6.2
0.01171875,-3.662653881895173e-05,2.7824319958800628e-05,5.712448896772716e-05,-4.346403767452508e-05,6.1333,6.2
0.015625,-3.467636523231863e-05,2.1474364499885524e-05,4.687418633554588e-05,-5.5176970496681176e-05,6.1333,6.2
0.01953125,-3.51639086289769e-05,1.5136300343327974e-05,4.83368165255207e-05,-6.347709954222936e-05,6.1333,6.2
0.0234375,-3.418882183566036e-05,2.3923972785534432e-05,5.517431538109406e-05,-5.762657878233007e-05,6.1333,6.2
0.02734375,-3.370127843900208e-05,2.7336776562142346e-05,4.344949125658044e-05,-5.90892089723049e-05,6.1333,6.2
0.03125,-4.0538777294575436e-05,1.4636865644312165e-05,4.247440446326388e-05,-6.201446935225455e-05,6.1333,6.2
0.03515625,-4.395158107118335e-05,1.366177885099563e-05,5.22371636987869e-05,-6.1039382558938e-05,6.1333,6.2
0.0390625,-3.8576712405584826e-05,2.2948885992217866e-05,5.077453350881205e-05,-5.127662332341499e-05,6.1333,6.2
0.04296875,-4.0538777294575436e-05,1.7574017326619355e-05,4.687418633554588e-05,-4.003934259555964e-05,6.1333,6.2
0.046875,-4.6876841451133004e-05,7.32371469443808e-06,3.514936221103227e-05,-4.541421126115819e-05,6.1333,6.2
0.05078125,-4.29764942778668e-05,7.811258091096335e-06,3.41742754177157e-05,-5.273925351338981e-05,6.1333,6.2
0.0546875,-4.200140748455025e-05,-3.4260226367590007e-06,2.636168976882581e-05,-5.5176970496681176e-05,6.1333,6.2
0.05859375,-4.7364384847791285e-05,-1.9538737331197097e-05,1.6598930533302792e-05,-5.762657878233007e-05,6.1333,6.2
0.0625,-4.981399313344016e-05,-2.938479240100719e-06,2.4411516182192713e-05,-5.811412217898835e-05,6.1333,6.2
0.06640625,-4.785192824444955e-05,7.811258091096335e-06,3.3199188624399166e-05,-5.8601665575646616e-05,6.1333,6.2
0.0703125,-4.8838906340123614e-05,4.874106408789174e-06,1.806156072327761e-05,-5.566451389333946e-05,6.1333,6.2
0.07421875,-5.322679691004809e-05,9.737592355229765e-07,1.122406186770425e-05,-4.785192824444955e-05,6.1333,6.2
0.078125,-4.785192824444955e-05,-6.8388264133669165e-06,3.661199240100709e-05,-4.003934259555964e-05,6.1333,6.2
0.08203125,-4.6876841451133004e-05,-5.863739620050381e-06,5.126207690547033e-05,-3.8576712405584826e-05,6.1333,6.2
0.0859375,-4.1513864087891985e-05,-1.7101020347905718e-05,8.786344884412897e-06,-4.6389298054474736e-05,6.1333,6.2
0.08984375,-4.0538777294575436e-05,-8.301456603341734e-06,1.94884602883954e-06,-4.395158107118335e-05,6.1333,6.2
0.09375,-4.1513864087891985e-05,9.761431677729432e-06,3.41742754177157e-05,-4.346403767452508e-05,6.1333,6.2
0.09765625,-4.0538777294575436e-05,-1.9633924467841836e-06,2.538660297550925e-05,-4.1513864087891985e-05,6.1333,6.2
0.1015625,-3.662653881895173e-05,-8.800891302357541e-06,2.4411516182192713e-05,-4.541421126115819e-05,6.1333,6.2
0.10546875,-3.370127843900208e-05,-7.326369810025199e-06,2.2948885992217866e-05,-4.0538777294575436e-05,6.1333,6.2
0.109375,-3.0276583360036637e-05,-1.172615168230719e-05,1.5623843739986257e-05,-4.200140748455025e-05,6.1333,6.2
0.11328125,-3.125167015335319e-05,-1.1238608285648908e-05,3.563690560769052e-05,-5.176416672007326e-05,6.1333,6.2
0.1171875,-3.125167015335319e-05,-1.172615168230719e-05,3.076147164110779e-05,-4.6389298054474736e-05,6.1333,6.2
0.12109375,-3.0276583360036637e-05,-9.288434699015824e-06,1.5623843739986257e-05,-4.1513864087891985e-05,6.1333,6.2
0.125,-4.003934259555964e-05,-1.2701238475623739e-05,4.3937034653238696e-05,-4.29764942778668e-05,6.1333,6.2
0.12890625,-3.565145202563518e-05,-1.2701238475623739e-05,5.077453350881205e-05,-4.102632069123372e-05,6.1333,6.2
0.1328125,-3.370127843900208e-05,-1.075106488899064e-05,2.4899059578850964e-05,-4.8838906340123614e-05,6.1333,6.2
0.13671875,-3.760162561226828e-05,-5.3761962233921e-06,1.4149322247653913e-05,-5.176416672007326e-05,6.1333,6.2
0.140625,-3.6138995422293447e-05,1.0736518471045997e-05,2.538660297550925e-05,-4.5901754657816455e-05,6.1333,6.2
0.14453125,-1.075106488899064e-05,-1.5626498855573372e-05,2.0011734309910707e-05,-5.176416672007326e-05,6.1333,6.2
0.1484375,-2.392662790112156e-05,-1.4758490501259017e-06,1.2199148661020813e-05,-4.7364384847791285e-05,6.1333,6.2
0.15234375,-3.173921355001147e-05,1.3174235454337349e-05,9.273888281071151e-06,-3.222675694666974e-05,6.1333,6.2
0.15625,-2.1001367521171913e-05,-4.4011094300755644e-06,2.2449451293202086e-05,-2.6863779583428723e-05,6.1333,6.2
0.16015625,-1.7101020347905718e-05,-1.4163868665598555e-05,3.466181881437398e-05,-4.981399313344016e-05,6.1333,6.2
0.1640625,4.874106408789174e-06,-4.981399313344016e-05,5.361649805447456e-06,-5.225171011673154e-05,6.1333,6.2
0.16796875,-6.347709954222936e-05,4.862158388647231e-07,7.32371469443808e-06,-2.978903996337837e-05,6.1333,6.2
0.171875,-8.936446477454797e-05,3.026203694209198e-05,1.5136300343327974e-05,-4.443912446784164e-05,6.1333,6.2
0.17578125,-3.565145202563518e-05,-1.3275577935587535e-09,6.336736598763991e-06,-4.6876841451133004e-05,6.1333,6.2
0.1796875,-1.3676325268940274e-05,-1.9538737331197097e-05,1.4149322247653913e-05,-2.5888692790112174e-05,6.1333,6.2
0.18359375,-5.762657878233007e-05,-1.9633924467841836e-06,5.361649805447456e-06,-2.735132298008699e-05,6.1333,6.2
0.1875,-6.446407763790343e-05,-1.2701238475623739e-05,-1.2213695078965457e-05,-2.0513824124513632e-05,6.1333,6.2
0.19140625,-4.443912446784164e-05,-1.5138955458915106e-05,2.636168976882581e-05,-3.760162561226828e-05,6.1333,6.2
0.1953125,-3.662653881895173e-05,1.4613026321812582e-06,4.3937034653238696e-05,-4.200140748455025e-05,6.1333,6.2
0.19921875,-4.003934259555964e-05,1.122406186770425e-05,2.3436429388876147e-05,-3.6138995422293447e-05,6.1333,6.2
0.203125,-2.295154110780501e-05,-2.4509358434424652e-06,1.366177885099563e-05,-4.1513864087891985e-05,6.1333,6.2
0.20703125,-4.2488950881208534e-05,5.849193202105738e-06,4.874106408789174e-06,-4.29764942778668e-05,6.1333,6.2
0.2109375,-5.225171011673154e-05,2.3923972785534432e-05,-1.7588563744564e-05,-2.930149656672009e-05,6.1333,6.2
0.21484375,-4.1513864087891985e-05,-1.3275577935587535e-09,-1.7101020347905718e-05,-2.1001367521171913e-05,6.1333,6.2
0.21875,-4.981399313344016e-05,-1.3275577935587535e-09,-1.660158564888992e-05,-3.321373504234381e-05,6.1333,6.2
0.22265625,-4.541421126115819e-05,8.298801487754616e-06,-3.272619164568553e-05,-2.343908450446328e-05,6.1333,6.2
0.2265625,-4.541421126115819e-05,1.94884602883954e-06,-2.735132298008699e-05,-3.7114082215609996e-05,6.1333,6.2
0.23046875,-5.371434030670636e-05,9.737592355229765e-07,-1.3188781872282006e-05,-4.346403767452508e-05,6.1333,6.2
0.234375,-7.0802141794461e-05,6.824279995422273e-06,1.94884602883954e-06,-3.662653881895173e-05,6.1333,6.2
0.23828125,-4.785192824444955e-05,-9.288434699015824e-06,-2.938479240100719e-06,-3.272619164568553e-05,6.1333,6.2
0.2421875,-2.6863779583428723e-05,-2.148891091783018e-05,-1.3676325268940274e-05,-3.0276583360036637e-05,6.1333,6.2
0.24609375,-5.273925351338981e-05,-9.8830565346762e-07,6.824279995422273e-06,-3.8089169008926544e-05,6.1333,6.2
0.25,-5.420188370336464e-05,-5.863739620050381e-06,6.824279995422273e-06,-3.662653881895173e-05,6.1333,6.2
0.25390625,-3.8089169008926544e-05,-1.5626498855573372e-05,3.899019615472639e-06,-2.978903996337837e-05,6.1333,6.2
0.2578125,-4.7364384847791285e-05,8.786344884412897e-06,3.2711645227740885e-05,-3.272619164568553e-05,6.1333,6.2
0.26171875,-5.468942710002291e-05,-9.775978095674076e-06,3.173655843442432e-05,-1.3676325268940274e-05,6.1333,6.2
0.265625,-3.6138995422293447e-05,-3.6138995422293447e-05,1.903664751659417e-05,-1.660158564888992e-05,6.1333,6.2
0.26953125,-2.5401149393453906e-05,-2.930149656672009e-05,3.661199240100709e-05,-2.783886637674527e-05,6.1333,6.2
0.2734375,-4.346403767452508e-05,-9.775978095674076e-06,4.491212144655526e-05,-9.288434699015824e-06,6.1333,6.2
0.27734375,-4.29764942778668e-05,-1.172615168230719e-05,2.2449451293202086e-05,-2.735132298008699e-05,6.1333,6.2
0.28125,-2.295154110780501e-05,-1.2213695078965457e-05,-5.3761962233921e-06,-4.443912446784164e-05,6.1333,6.2
0.28515625,-3.272619164568553e-05,-1.1238608285648908e-05,-3.173921355001147e-05,-2.148891091783018e-05,6.1333,6.2
0.2890625,-4.6876841451133004e-05,-1.075106488899064e-05,-3.9551799198901375e-05,-4.888652826733818e-06,6.1333,6.2
0.29296875,-4.29764942778668e-05,8.298801487754616e-06,-1.7588563744564e-05,-2.832640977340354e-05,6.1333,6.2
0.296875,-4.29764942778668e-05,2.4363894254977934e-06,-2.1976454314488462e-05,-3.0276583360036637e-05,6.1333,6.2
0.30078125,-3.8576712405584826e-05,-6.8388264133669165e-06,-4.4011094300755644e-06,-2.783886637674527e-05,6.1333,6.2
0.3046875,-3.370127843900208e-05,8.298801487754616e-06,2.636168976882581e-05,-1.9051193934538815e-05,6.1333,6.2
0.30859375,-3.0276583360036637e-05,-1.3676325268940274e-05,7.32371469443808e-06,-2.246399771114673e-05,6.1333,6.2
0.3125,-2.4913605996795625e-05,-4.888652826733818e-06,6.824279995422273e-06,-2.930149656672009e-05,6.1333,6.2
0.31640625,-2.978903996337837e-05,8.786344884412897e-06,2.636168976882581e-05,-1.3676325268940274e-05,6.1333,6.2
0.3203125,-3.662653881895173e-05,-1.3188781872282006e-05,1.9524190913252453e-05,-4.4011094300755644e-06,6.1333,6.2
0.32421875,-2.5888692790112174e-05,-8.800891302357541e-06,6.824279995422273e-06,-2.343908450446328e-05,6.1333,6.2
0.328125,-1.3188781872282006e-05,-8.800891302357541e-06,1.1711605264362532e-05,-2.6863779583428723e-05,6.1333,6.2
0.33203125,-4.395158107118335e-05,-1.4651412062256823e-05,2.1474364499885524e-05,-1.8076107141222267e-05,6.1333,6.2
0.3359375,-3.0276583360036637e-05,-2.246399771114673e-05,6.824279995422273e-06,1.3174235454337349e-05,6.1333,6.2
0.33984375,-1.3188781872282006e-05,-2.5888692790112174e-05,1.6598930533302792e-05,-1.8076107141222267e-05,6.1333,6.2
0.34375,-4.1513864087891985e-05,-4.4011094300755644e-06,3.124901503776607e-05,-3.8089169008926544e-05,6.1333,6.2
0.34765625,-4.981399313344016e-05,-7.326369810025199e-06,2.1474364499885524e-05,-1.7101020347905718e-05,6.1333,6.2
0.3515625,-4.2488950881208534e-05,-3.0276583360036637e-05,1.5623843739986257e-05,-2.1976454314488462e-05,6.1333,6.2
0.35546875,-4.2488950881208534e-05,-9.8830565346762e-07,2.098682110322727e-05,-1.2213695078965457e-05,6.1333,6.2
0.359375,-3.9551799198901375e-05,1.7574017326619355e-05,2.538660297550925e-05,-1.4163868665598555e-05,6.1333,6.2
0.36328125,-4.1513864087891985e-05,-1.4163868665598555e-05,2.3436429388876147e-05,-2.6376236186770455e-05,6.1333,6.2
0.3671875,-4.003934259555964e-05,-4.200140748455025e-05,-2.938479240100719e-06,9.737592355229765e-07,6.1333,6.2
0.37109375,-3.272619164568553e-05,-4.541421126115819e-05,-3.125167015335319e-05,-6.351283016708663e-06,6.1333,6.2
0.375,-3.0276583360036637e-05,-3.467636523231863e-05,-8.301456603341734e-06,-4.1513864087891985e-05,6.1333,6.2
0.37890625,-4.102632069123372e-05,-4.981399313344016e-05,3.026203694209198e-05,-3.173921355001147e-05,6.1333,6.2
0.3828125,-4.395158107118335e-05,-3.8576712405584826e-05,-9.8830565346762e-07,-1.4651412062256823e-05,6.1333,6.2
0.38671875,-4.49266678644999e-05,-2.0026280727855364e-05,-4.6876841451133004e-05,-2.5888692790112174e-05,6.1333,6.2
0.390625,-3.662653881895173e-05,-3.760162561226828e-05,-2.4913605996795625e-05,-4.785192824444955e-05,6.1333,6.2
0.39453125,-2.148891091783018e-05,-1.8563650537880548e-05,3.7099535797665335e-05,-6.201446935225455e-05,6.1333,6.2
0.3984375,-1.9051193934538815e-05,2.3923972785534432e-05,2.538660297550925e-05,-5.176416672007326e-05,6.1333,6.2
0.40234375,-3.321373504234381e-05,7.811258091096335e-06,1.7086473929961074e-05,-7.568946706340125e-05,6.1333,6.2
0.40625,-2.881395317006182e-05,7.811258091096335e-06,2.4411516182192713e-05,-9.717705042343788e-05,6.1333,6.2
0.41015625,-1.4163868665598555e-05,4.63866429388876e-05,1.0248975074387715e-05,-8.106433572899979e-05,6.1333,6.2
0.4140625,-1.8076107141222267e-05,6.932496518654153e-05,1.806156072327761e-05,-7.128968519111927e-05,6.1333,6.2
0.41796875,-8.800891302357541e-06,6.981250858319981e-05,3.2711645227740885e-05,-7.373929347676816e-05,6.1333,6.2
0.421875,-1.172615168230719e-05,4.442457804989698e-05,4.1499317669947344e-05,-8.350205271229117e-05,6.1333,6.2
0.42578125,-1.2213695078965457e-05,2.7824319958800628e-05,5.22371636987869e-05,-7.568946706340125e-05,6.1333,6.2
0.4296875,-1.172615168230719e-05,5.02869901121538e-05,3.758707919432362e-05,-6.347709954222936e-05,6.1333,6.2
0.43359375,-1.5138955458915106e-05,4.882435992217898e-05,4.1499317669947344e-05,-7.276420668345161e-05,6.1333,6.2
0.4375,-1.660158564888992e-05,2.3436429388876147e-05,3.2711645227740885e-05,-6.397653424124515e-05,6.1333,6.2
0.44140625,-1.1238608285648908e-05,2.831186335545891e-05,1.2686692057679096e-05,-6.69017946211948e-05,6.1333,6.2
0.4453125,-9.288434699015824e-06,4.003668747997253e-05,2.3436429388876147e-05,-6.982705500114445e-05,6.1333,6.2
0.44921875,-5.863739620050381e-06,4.5887208239871794e-05,3.563690560769052e-05,-5.225171011673154e-05,6.1333,6.2
0.453125,-4.4011094300755644e-06,4.1986861066605625e-05,4.687418633554588e-05,-5.225171011673154e-05,6.1333,6.2
0.45703125,-1.075106488899064e-05,1.4149322247653913e-05,2.3436429388876147e-05,-4.49266678644999e-05,6.1333,6.2
0.4609375,-1.4163868665598555e-05,-1.3275577935587535e-09,5.361649805447456e-06,-3.9064255802243093e-05,6.1333,6.2
0.46484375,-1.2701238475623739e-05,2.0011734309910707e-05,1.0248975074387715e-05,-4.2488950881208534e-05,6.1333,6.2
0.46875,-4.888652826733818e-06,2.587414637216753e-05,2.1961907896543805e-05,-4.200140748455025e-05,6.1333,6.2
0.47265625,-1.0263521492332358e-05,4.874106408789174e-06,8.786344884412897e-06,-3.9064255802243093e-05,6.1333,6.2
0.4765625,-1.6114042252231656e-05,6.336736598763991e-06,1.0248975074387715e-05,-3.272619164568553e-05,6.1333,6.2
0.48046875,-1.6114042252231656e-05,1.6598930533302792e-05,3.466181881437398e-05,-2.978903996337837e-05,6.1333,6.2
0.484375,-1.2701238475623739e-05,1.6598930533302792e-05,1.0248975074387715e-05,-3.7114082215609996e-05,6.1333,6.2
0.48828125,-1.6114042252231656e-05,-9.8830565346762e-07,3.411476218814357e-06,-3.370127843900208e-05,6.1333,6.2
0.4921875,-2.6863779583428723e-05,-2.1976454314488462e-05,1.6598930533302792e-05,-3.8576712405584826e-05,6.1333,6.2
0.49609375,-2.735132298008699e-05,-7.326369810025199e-06,2.3436429388876147e-05,-4.29764942778668e-05,6.1333,6.2
0.5,-2.148891091783018e-05,5.849193202105738e-06,3.076147164110779e-05,-3.370127843900208e-05,6.1333,6.2
0.50390625,-2.295154110780501e-05,-6.351283016708663e-06,2.587414637216753e-05,-2.1976454314488462e-05,6.1333,6.2
0.5078125,-1.8076107141222267e-05,-6.8388264133669165e-06,1.3174235454337349e-05,-2.0513824124513632e-05,6.1333,6.2
0.51171875,-2.1976454314488462e-05,-1.6114042252231656e-05,2.1474364499885524e-05,-1.9051193934538815e-05,6.1333,6.2
0.515625,-2.4414171297779828e-05,-1.075106488899064e-05,6.19999229343099e-05,-1.2213695078965457e-05,6.1333,6.2
0.51953125,-1.8076107141222267e-05,7.32371469443808e-06,8.153733270771343e-05,-9.775978095674076e-06,6.1333,6.2
0.5234375,-2.1001367521171913e-05,5.849193202105738e-06,4.3937034653238696e-05,-1.3676325268940274e-05,6.1333,6.2
0.52734375,-2.4913605996795625e-05,1.1711605264362532e-05,-3.370127843900208e-05,-1.7101020347905718e-05,6.1333,6.2
0.53125,-2.5888692790112174e-05,5.849193202105738e-06,-3.6138995422293447e-05,-1.660158564888992e-05,6.1333,6.2
0.53515625,-2.343908450446328e-05,-2.938479240100719e-06,1.3174235454337349e-05,-1.5626498855573372e-05,6.1333,6.2
0.5390625,-2.832640977340354e-05,-1.3676325268940274e-05,1.6111387136644508e-05,-1.6114042252231656e-05,6.1333,6.2
0.54296875,-3.076412675669492e-05,-1.9538737331197097e-05,1.94884602883954e-06,-1.8563650537880548e-05,6.1333,6.2
0.546875,-2.6376236186770455e-05,-9.8830565346762e-07,-8.301456603341734e-06,-2.1001367521171913e-05,6.1333,6.2
0.55078125,-1.7101020347905718e-05,2.4363894254977934e-06,-5.863739620050381e-06,-2.295154110780501e-05,6.1333,6.2
0.5546875,-1.2213695078965457e-05,-4.4011094300755644e-06,6.824279995422273e-06,-1.7588563744564e-05,6.1333,6.2
0.55859375,-2.0026280727855364e-05,-1.4163868665598555e-05,-1.3188781872282006e-05,-1.9051193934538815e-05,6.1333,6.2
0.5625,-2.783886637674527e-05,-2.148891091783018e-05,-2.246399771114673e-05,-1.660158564888992e-05,6.1333,6.2
0.56640625,-2.783886637674527e-05,-2.0513824124513632e-05,-1.2213695078965457e-05,-1.172615168230719e-05,6.1333,6.2
0.5703125,-2.4414171297779828e-05,-2.0026280727855364e-05,-1.3188781872282006e-05,-1.7101020347905718e-05,6.1333,6.2
0.57421875,-2.930149656672009e-05,-3.370127843900208e-05,-3.913566033417282e-06,-1.5626498855573372e-05,6.1333,6.2
0.578125,-3.467636523231863e-05,-3.662653881895173e-05,5.361649805447456e-06,-1.3188781872282006e-05,6.1333,6.2
0.58203125,-3.662653881895173e-05,-2.1001367521171913e-05,-1.9633924467841836e-06,-1.5626498855573372e-05,6.1333,6.2
0.5859375,-3.418882183566036e-05,-2.0026280727855364e-05,-7.81391320668348e-06,-1.8563650537880548e-05,6.1333,6.2
0.58984375,-2.978903996337837e-05,-2.1976454314488462e-05,-2.4509358434424652e-06,-2.735132298008699e-05,6.1333,6.2
0.59375,-3.467636523231863e-05,-3.370127843900208e-05,1.0736518471045997e-05,-2.6376236186770455e-05,6.1333,6.2
0.59765625,-3.272619164568553e-05,-5.616394859235525e-05,-1.4758490501259017e-06,-1.8076107141222267e-05,6.1333,6.2
0.6015625,-2.832640977340354e-05,-6.298955614557109e-05,-1.7101020347905718e-05,-2.0026280727855364e-05,6.1333,6.2
0.60546875,-2.930149656672009e-05,-5.811412217898835e-05,-2.6376236186770455e-05,-2.5401149393453906e-05,6.1333,6.2
0.609375,-3.0276583360036637e-05,-5.616394859235525e-05,-3.7114082215609996e-05,-2.295154110780501e-05,6.1333,6.2
0.61328125,-2.832640977340354e-05,-5.0301536530098444e-05,-2.6863779583428723e-05,-1.7588563744564e-05,6.1333,6.2
0.6171875,-2.295154110780501e-05,-4.49266678644999e-05,-2.5401149393453906e-05,-2.246399771114673e-05,6.1333,6.2
0.62109375,-2.783886637674527e-05,-4.7364384847791285e-05,-2.1001367521171913e-05,-2.930149656672009e-05,6.1333,6.2
0.625,-3.467636523231863e-05,-5.665149198901352e-05,-1.6114042252231656e-05,-1.8563650537880548e-05,6.1333,6.2
0.62890625,-3.370127843900208e-05,-8.790183458457315e-05,-5.811412217898835e-05,-1.7588563744564e-05,6.1333,6.2
0.6328125,-3.565145202563518e-05,-9.961476740672925e-05,-6.738933801785308e-05,-2.783886637674527e-05,6.1333,6.2
0.63671875,-4.1513864087891985e-05,-9.326481194781417e-05,-6.0064295765621446e-05,-2.5401149393453906e-05,6.1333,6.2
0.640625,-4.443912446784164e-05,-0.00011133959153124286,-8.008924893568324e-05,-1.5626498855573372e-05,6.1333,6.2
0.64453125,-4.7364384847791285e-05,-0.00014745347679102772,-9.326481194781417e-05,-1.6114042252231656e-05,6.1333,6.2
0.6484375,-4.49266678644999e-05,-0.00015869075751888306,-0.00010645226626230261,-9.775978095674076e-06,6.1333,6.2
0.65234375,-4.6876841451133004e-05,-0.00015037873717097734,-0.00011475239530785079,-4.888709544518406e-07,6.1333,6.2
0.65625,-5.0301536530098444e-05,-0.00014891610698100253,-0.0001103526134355688,4.862158388647231e-07,6.1333,6.2
0.66015625,-6.397653424124515e-05,-0.00016551636507209887,-0.00013330282698558024,2.4363894254977934e-06,6.1333,6.2
0.6640625,-6.641425122453653e-05,-0.00015429097564660107,-0.00012745230622568095,-1.3275577935587535e-09,6.1333,6.2
0.66796875,-6.738933801785308e-05,-0.0001396408911421378,-0.00010107739759670406,-3.913566033417282e-06,6.1333,6.2
0.671875,-7.178911989013506e-05,-0.00015037873717097734,-0.00010596472286564434,-1.4758490501259017e-06,6.1333,6.2
0.67578125,-6.1039382558938e-05,-0.00013037756660563062,-9.228972515449763e-05,-2.938479240100719e-06,6.1333,6.2
0.6796875,-5.566451389333946e-05,-0.00010156494099336234,-4.541421126115819e-05,-1.0263521492332358e-05,6.1333,6.2
0.68359375,-5.616394859235525e-05,-0.0001005898542000458,-3.222675694666974e-05,-1.2701238475623739e-05,6.1333,6.2
0.6875,-5.616394859235525e-05,-0.00010352700588235297,-5.0301536530098444e-05,-1.4651412062256823e-05,6.1333,6.2
0.69140625,-5.762657878233007e-05,-9.033955156786453e-05,-5.322679691004809e-05,-1.4651412062256823e-05,6.1333,6.2
0.6953125,-4.7364384847791285e-05,-5.665149198901352e-05,-3.9551799198901375e-05,-2.0513824124513632e-05,6.1333,6.2
0.69921875,-4.49266678644999e-05,-4.6389298054474736e-05,-3.125167015335319e-05,-2.6863779583428723e-05,6.1333,6.2
0.703125,-5.0301536530098444e-05,-6.397653424124515e-05,-2.392662790112156e-05,-2.1001367521171913e-05,6.1333,6.2
0.70703125,-4.5901754657816455e-05,-6.0551839162279714e-05,-3.467636523231863e-05,-2.783886637674527e-05,6.1333,6.2
0.7109375,-4.6389298054474736e-05,-6.0064295765621446e-05,-3.51639086289769e-05,-2.5888692790112174e-05,6.1333,6.2
0.71484375,-4.785192824444955e-05,-5.371434030670636e-05,-3.321373504234381e-05,-2.1976454314488462e-05,6.1333,6.2
0.71875,-4.346403767452508e-05,-4.102632069123372e-05,-1.9538737331197097e-05,-2.6376236186770455e-05,6.1333,6.2
0.72265625,-4.2488950881208534e-05,-5.078907992675671e-05,-2.938479240100719e-06,-2.930149656672009e-05,6.1333,6.2
0.7265625,-4.003934259555964e-05,-3.321373504234381e-05,-1.075106488899064e-05,-3.0276583360036637e-05,6.1333,6.2
0.73046875,-4.0538777294575436e-05,-2.343908450446328e-05,-1.9051193934538815e-05,-2.343908450446328e-05,6.1333,6.2
0.734375,-4.981399313344016e-05,-5.273925351338981e-05,-2.930149656672009e-05,-2.392662790112156e-05,6.1333,6.2
0.73828125,-4.5901754657816455e-05,-4.0538777294575436e-05,-1.8563650537880548e-05,-2.4913605996795625e-05,6.1333,6.2
0.7421875,-4.102632069123372e-05,-3.125167015335319e-05,1.0248975074387715e-05,-1.6114042252231656e-05,6.1333,6.2
0.74609375,-4.443912446784164e-05,-4.2488950881208534e-05,-6.8388264133669165e-06,-1.7101020347905718e-05,6.1333,6.2
0.75,-3.760162561226828e-05,-4.2488950881208534e-05,-2.881395317006182e-05,-2.4913605996795625e-05,6.1333,6.2
0.75390625,-3.076412675669492e-05,-1.7101020347905718e-05,-2.0513824124513632e-05,-2.4913605996795625e-05,6.1333,6.2
0.7578125,-3.51639086289769e-05,-1.4758490501259017e-06,-9.8830565346762e-07,-2.4913605996795625e-05,6.1333,6.2
0.76171875,-3.418882183566036e-05,-2.0513824124513632e-05,-1.9633924467841836e-06,-2.832640977340354e-05,6.1333,6.2
0.765625,-3.173921355001147e-05,-4.6389298054474736e-05,-2.4414171297779828e-05,-2.735132298008699e-05,6.1333,6.2
0.76953125,-3.662653881895173e-05,-3.8576712405584826e-05,-3.370127843900208e-05,-3.467636523231863e-05,6.1333,6.2
0.7734375,-4.102632069123372e-05,-2.148891091783018e-05,-2.1001367521171913e-05,-3.222675694666974e-05,6.1333,6.2
0.77734375,-4.003934259555964e-05,-1.7101020347905718e-05,-6.351283016708663e-06,-2.735132298008699e-05,6.1333,6.2
0.78125,-4.102632069123372e-05,-1.3188781872282006e-05,5.361649805447456e-06,-3.272619164568553e-05,6.1333,6.2
0.78515625,-4.200140748455025e-05,-2.343908450446328e-05,-8.301456603341734e-06,-4.29764942778668e-05,6.1333,6.2
0.7890625,-4.346403767452508e-05,-4.8351362943465346e-05,-3.760162561226828e-05,-3.8576712405584826e-05,6.1333,6.2
0.79296875,-4.346403767452508e-05,-4.49266678644999e-05,-2.978903996337837e-05,-3.076412675669492e-05,6.1333,6.2
0.796875,-4.2488950881208534e-05,-2.1001367521171913e-05,-5.3761962233921e-06,-3.418882183566036e-05,6.1333,6.2
0.80078125,-4.7364384847791285e-05,-3.9064255802243093e-05,-1.075106488899064e-05,-3.321373504234381e-05,6.1333,6.2
0.8046875,-4.443912446784164e-05,-5.176416672007326e-05,-4.346403767452508e-05,-3.125167015335319e-05,6.1333,6.2
0.80859375,-4.5901754657816455e-05,-4.8351362943465346e-05,-4.200140748455025e-05,-3.076412675669492e-05,6.1333,6.2
0.8125,-4.29764942778668e-05,-5.078907992675671e-05,-2.5401149393453906e-05,-2.832640977340354e-05,6.1333,6.2
0.81640625,-3.6138995422293447e-05,-5.468942710002291e-05,-3.467636523231863e-05,-2.930149656672009e-05,6.1333,6.2
0.8203125,-3.662653881895173e-05,-3.7114082215609996e-05,-1.9538737331197097e-05,-2.881395317006182e-05,6.1333,6.2
0.82421875,-3.418882183566036e-05,-3.565145202563518e-05,-2.295154110780501e-05,-2.392662790112156e-05,6.1333,6.2
0.828125,-3.321373504234381e-05,-5.90892089723049e-05,-4.6389298054474736e-05,-3.125167015335319e-05,6.1333,6.2
0.83203125,-3.662653881895173e-05,-5.90892089723049e-05,-4.346403767452508e-05,-3.6138995422293447e-05,6.1333,6.2
0.8359375,-3.9551799198901375e-05,-6.0551839162279714e-05,-4.785192824444955e-05,-2.4414171297779828e-05,6.1333,6.2
0.83984375,-4.200140748455025e-05,-5.8601665575646616e-05,-3.370127843900208e-05,-2.6376236186770455e-05,6.1333,6.2
0.84375,-4.541421126115819e-05,-5.078907992675671e-05,-1.3188781872282006e-05,-3.370127843900208e-05,6.1333,6.2
0.84765625,-3.760162561226828e-05,-4.8351362943465346e-05,-1.7588563744564e-05,-3.076412675669492e-05,6.1333,6.2
0.8515625,-2.881395317006182e-05,-4.346403767452508e-05,-3.51639086289769e-05,-2.881395317006182e-05,6.1333,6.2
0.85546875,-2.978903996337837e-05,-2.881395317006182e-05,-1.9051193934538815e-05,-2.4414171297779828e-05,6.1333,6.2
0.859375,-2.6376236186770455e-05,9.737592355229765e-07,1.122406186770425e-05,-3.125167015335319e-05,6.1333,6.2
0.86328125,-1.7588563744564e-05,1.9524190913252453e-05,1.0248975074387715e-05,-3.8089169008926544e-05,6.1333,6.2
0.8671875,-2.246399771114673e-05,6.824279995422273e-06,3.899019615472639e-06,-3.8576712405584826e-05,6.1333,6.2
0.87109375,-2.343908450446328e-05,2.4899059578850964e-05,1.5136300343327974e-05,-4.6389298054474736e-05,6.1333,6.2
0.875,-1.3188781872282006e-05,4.5887208239871794e-05,2.1474364499885524e-05,-6.0064295765621446e-05,6.1333,6.2
0.87890625,-1.660158564888992e-05,4.9311903318837234e-05,3.076147164110779e-05,-5.811412217898835e-05,6.1333,6.2
0.8828125,-1.172615168230719e-05,6.004974934767679e-05,5.077453350881205e-05,-5.468942710002291e-05,6.1333,6.2
0.88671875,-1.3188781872282006e-05,6.298690102998395e-05,5.272470709544515e-05,-5.616394859235525e-05,6.1333,6.2
0.890625,-1.6114042252231656e-05,5.272470709544515e-05,5.712448896772716e-05,-5.9576752368963165e-05,6.1333,6.2
0.89453125,-1.4163868665598555e-05,4.344949125658044e-05,5.22371636987869e-05,-5.665149198901352e-05,6.1333,6.2
0.8984375,-1.3188781872282006e-05,4.491212144655526e-05,3.514936221103227e-05,-5.71390353856718e-05,6.1333,6.2
0.90234375,-9.775978095674076e-06,4.83368165255207e-05,3.9549144083314246e-05,-6.397653424124515e-05,6.1333,6.2
0.90625,-1.4651412062256823e-05,5.02869901121538e-05,4.247440446326388e-05,-5.468942710002291e-05,6.1333,6.2
0.91015625,-1.1238608285648908e-05,4.9311903318837234e-05,2.831186335545891e-05,-4.7364384847791285e-05,6.1333,6.2
0.9140625,-1.172615168230719e-05,3.8074622590981904e-05,2.587414637216753e-05,-4.981399313344016e-05,6.1333,6.2
0.91796875,-1.660158564888992e-05,2.831186335545891e-05,3.2711645227740885e-05,-4.7364384847791285e-05,6.1333,6.2
0.921875,-1.5138955458915106e-05,2.587414637216753e-05,3.514936221103227e-05,-4.6389298054474736e-05,6.1333,6.2
0.92578125,-1.8076107141222267e-05,2.098682110322727e-05,1.7086473929961074e-05,-4.395158107118335e-05,6.1333,6.2
0.9296875,-1.5626498855573372e-05,1.7574017326619355e-05,1.122406186770425e-05,-4.29764942778668e-05,6.1333,6.2
0.93359375,-1.0263521492332358e-05,2.098682110322727e-05,1.9524190913252453e-05,-4.0538777294575436e-05,6.1333,6.2
0.9375,-7.326369810025199e-06,2.538660297550925e-05,1.6111387136644508e-05,-3.8576712405584826e-05,6.1333,6.2
0.94140625,-8.301456603341734e-06,2.4411516182192713e-05,6.824279995422273e-06,-4.395158107118335e-05,6.1333,6.2
0.9453125,-7.81391320668348e-06,2.1961907896543805e-05,4.874106408789174e-06,-4.443912446784164e-05,6.1333,6.2
0.94921875,-1.3188781872282006e-05,1.122406186770425e-05,2.9239328221560755e-06,-4.003934259555964e-05,6.1333,6.2
0.953125,-1.9051193934538815e-05,4.874106408789174e-06,4.874106408789174e-06,-3.9551799198901375e-05,6.1333,6.2
0.95703125,-1.4163868665598555e-05,1.2199148661020813e-05,2.1961907896543805e-05,-3.173921355001147e-05,6.1333,6.2
0.9609375,-2.1976454314488462e-05,5.361649805447456e-06,1.903664751659417e-05,-2.930149656672009e-05,6.1333,6.2
0.96484375,-3.370127843900208e-05,-5.3761962233921e-06,9.761431677729432e-06,-4.2488950881208534e-05,6.1333,6.2
0.96875,-3.51639086289769e-05,-1.5138955458915106e-05,1.94884602883954e-06,-3.760162561226828e-05,6.1333,6.2
0.97265625,-2.930149656672009e-05,-1.8076107141222267e-05,-4.4011094300755644e-06,-2.930149656672009e-05,6.1333,6.2
0.9765625,-2.295154110780501e-05,-1.5626498855573372e-05,7.32371469443808e-06,-2.832640977340354e-05,6.1333,6.2
0.98046875,-2.1001367521171913e-05,-1.9051193934538815e-05,5.849193202105738e-06,-2.6376236186770455e-05,6.1333,6.2
0.984375,-2.392662790112156e-05,-2.1976454314488462e-05,-1.9633924467841836e-06,-1.7101020347905718e-05,6.1333,6.2
0.98828125,-2.4913605996795625e-05,-2.0026280727855364e-05,-3.913566033417282e-06,-1.5626498855573372e-05,6.1333,6.2
0.9921875,-2.295154110780501e-05,-1.3676325268940274e-05,-7.81391320668348e-06,-1.8563650537880548e-05,6.1333,6.2
0.99609375,-2.4913605996795625e-05,-1.3188781872282006e-05,1.94884602883954e-06,-1.2213695078965457e-05,6.1333,6.2
1.0,-3.0276583360036637e-05,-1.2213695078965457e-05,6.824279995422273e-06,-1.3676325268940274e-05,6.1333,6.2
1.00390625,-2.930149656672009e-05,-9.775978095674076e-06,-3.913566033417282e-06,-2.1976454314488462e-05,6.1333,6.2
1.0078125,-2.735132298008699e-05,-6.351283016708663e-06,-6.8388264133669165e-06,-3.125167015335319e-05,6.1333,6.2
1.01171875,-2.5401149393453906e-05,-9.775978095674076e-06,5.849193202105738e-06,-2.978903996337837e-05,6.1333,6.2
1.015625,-2.978903996337837e-05,-1.4163868665598555e-05,-4.888709544518406e-07,-2.0513824124513632e-05,6.1333,6.2
1.01953125,-3.565145202563518e-05,-2.1976454314488462e-05,-1.0263521492332358e-05,-2.978903996337837e-05,6.1333,6.2
1.0234375,-3.0276583360036637e-05,-2.6376236186770455e-05,-2.1001367521171913e-05,-3.760162561226828e-05,6.1333,6.2
1.02734375,-2.783886637674527e-05,-2.5401149393453906e-05,-2.0513824124513632e-05,-2.5401149393453906e-05,6.1333,6.2
1.03125,-2.6863779583428723e-05,-1.4651412062256823e-05,-1.1238608285648908e-05,-1.9538737331197097e-05,6.1333,6.2
1.03515625,-2.343908450446328e-05,-1.8076107141222267e-05,-4.888652826733818e-06,-2.0026280727855364e-05,6.1333,6.2
1.0390625,-2.832640977340354e-05,-3.272619164568553e-05,4.874106408789174e-06,-2.295154110780501e-05,6.1333,6.2
1.04296875,-2.735132298008699e-05,-3.321373504234381e-05,-2.938479240100719e-06,-3.173921355001147e-05,6.1333,6.2
1.046875,-2.5401149393453906e-05,-3.662653881895173e-05,-1.7101020347905718e-05,-3.222675694666974e-05,6.1333,6.2
1.05078125,-2.5401149393453906e-05,-3.467636523231863e-05,-2.148891091783018e-05,-3.125167015335319e-05,6.1333,6.2
1.0546875,-2.343908450446328e-05,-3.321373504234381e-05,-1.172615168230719e-05,-3.6138995422293447e-05,6.1333,6.2
1.05859375,-2.246399771114673e-05,-3.272619164568553e-05,-1.3275577935587535e-09,-2.5888692790112174e-05,6.1333,6.2
1.0625,-2.832640977340354e-05,-3.370127843900208e-05,-1.4651412062256823e-05,-2.4414171297779828e-05,6.1333,6.2
1.06640625,-3.0276583360036637e-05,-4.2488950881208534e-05,-2.735132298008699e-05,-3.272619164568553e-05,6.1333,6.2
1.0703125,-3.125167015335319e-05,-4.200140748455025e-05,-2.6863779583428723e-05,-3.321373504234381e-05,6.1333,6.2
1.07421875,-3.272619164568553e-05,-4.5901754657816455e-05,-3.8576712405584826e-05,-2.6863779583428723e-05,6.1333,6.2
1.078125,-2.1001367521171913e-05,-2.881395317006182e-05,-3.076412675669492e-05,-2.6863779583428723e-05,6.1333,6.2
1.08203125,-2.1976454314488462e-05,-2.4913605996795625e-05,-2.343908450446328e-05,-3.222675694666974e-05,6.1333,6.2
1.0859375,-2.832640977340354e-05,-3.370127843900208e-05,-2.832640977340354e-05,-3.173921355001147e-05,6.1333,6.2
1.08984375,-2.246399771114673e-05,-2.832640977340354e-05,-2.1976454314488462e-05,-2.5888692790112174e-05,6.1333,6.2
1.09375,-2.1001367521171913e-05,-2.735132298008699e-05,-1.7588563744564e-05,-2.148891091783018e-05,6.1333,6.2
1.09765625,-2.6863779583428723e-05,-2.881395317006182e-05,-1.5626498855573372e-05,-2.978903996337837e-05,6.1333,6.2
1.1015625,-3.222675694666974e-05,-3.418882183566036e-05,-2.0026280727855364e-05,-4.2488950881208534e-05,6.1333,6.2
1.10546875,-3.467636523231863e-05,-3.8089169008926544e-05,-2.832640977340354e-05,-4.003934259555964e-05,6.1333,6.2
1.109375,-3.076412675669492e-05,-3.9064255802243093e-05,-4.003934259555964e-05,-3.760162561226828e-05,6.1333,6.2
1.11328125,-3.076412675669492e-05,-4.6876841451133004e-05,-4.102632069123372e-05,-4.346403767452508e-05,6.1333,6.2
1.1171875,-3.418882183566036e-05,-4.102632069123372e-05,-2.148891091783018e-05,-3.9064255802243093e-05,6.1333,6.2
1.12109375,-2.6376236186770455e-05,-2.881395317006182e-05,-1.075106488899064e-05,-2.832640977340354e-05,6.1333,6.2
1.125,-1.7101020347905718e-05,-4.1513864087891985e-05,-3.076412675669492e-05,-3.51639086289769e-05,6.1333,6.2
1.12890625,-2.1976454314488462e-05,-6.1039382558938e-05,-4.200140748455025e-05,-5.127662332341499e-05,6.1333,6.2
1.1328125,-2.343908450446328e-05,-6.69017946211948e-05,-3.8576712405584826e-05,-5.566451389333946e-05,6.1333,6.2
1.13671875,-1.5626498855573372e-05,-5.665149198901352e-05,-3.565145202563518e-05,-6.250201274891281e-05,6.1333,6.2
1.140625,-9.288434699015824e-06,-6.397653424124515e-05,-5.0301536530098444e-05,-7.031459839780272e-05,6.1333,6.2
1.14453125,-1.4163868665598555e-05,-8.106433572899979e-05,-6.836442481116962e-05,-8.106433572899979e-05,6.1333,6.2
1.1484375,-7.81391320668348e-06,-7.568946706340125e-05,-7.568946706340125e-05,-9.033955156786453e-05,6.1333,6.2
1.15234375,-3.913566033417282e-06,-8.398959610894943e-05,-9.961476740672925e-05,-9.766459382009616e-05,6.1333,6.2
1.15625,-8.800891302357541e-06,-8.64273130922408e-05,-9.66895070267796e-05,-0.00010888998324559397,6.1333,6.2
1.16015625,-9.288434699015824e-06,-8.985200817120624e-05,-9.472744213778898e-05,-0.00012110235076676587,6.1333,6.2
1.1640625,-1.075106488899064e-05,-9.131463836118107e-05,-9.571442023346306e-05,-0.00012207743756008244,6.1333,6.2
1.16796875,-9.288434699015824e-06,-7.812718404669263e-05,-8.593976969558254e-05,-0.00011915217718013278,6.1333,6.2
1.171875,-8.301456603341734e-06,-7.715209725337608e-05,-8.88769213778897e-05,-0.00012305252435339898,6.1333,6.2
1.17578125,-9.288434699015824e-06,-7.178911989013506e-05,-6.49516210345617e-05,-0.0001259777847333486,6.1333,6.2
1.1796875,-8.800891302357541e-06,-5.5176970496681176e-05,-5.176416672007326e-05,-0.00012012726397344932,6.1333,6.2
1.18359375,-9.8830565346762e-07,-4.395158107118335e-05,-5.468942710002291e-05,-0.00011084015683222707,6.1333,6.2
1.1875,9.737592355229765e-07,-3.662653881895173e-05,-3.9064255802243093e-05,-0.00011084015683222707,6.1333,6.2
1.19140625,-2.938479240100719e-06,-3.125167015335319e-05,-2.6863779583428723e-05,-0.00010401454927901124,6.1333,6.2
1.1953125,-1.4163868665598555e-05,-3.565145202563518e-05,-3.9551799198901375e-05,-9.277726855115589e-05,6.1333,6.2
1.19921875,-1.8563650537880548e-05,-2.930149656672009e-05,-3.076412675669492e-05,-8.936446477454797e-05,6.1333,6.2
1.203125,-1.8563650537880548e-05,-2.832640977340354e-05,-1.3676325268940274e-05,-9.766459382009616e-05,6.1333,6.2
1.20703125,-1.5626498855573372e-05,-3.076412675669492e-05,-1.075106488899064e-05,-0.0001005898542000458,6.1333,6.2
1.2109375,-1.2213695078965457e-05,-3.0276583360036637e-05,-1.3676325268940274e-05,-9.131463836118107e-05,6.1333,6.2
1.21484375,-1.7588563744564e-05,-3.51639086289769e-05,-1.7588563744564e-05,-9.180218175783934e-05,6.1333,6.2
1.21875,-1.8076107141222267e-05,-3.222675694666974e-05,-1.0263521492332358e-05,-9.326481194781417e-05,6.1333,6.2
1.22265625,-1.660158564888992e-05,-2.978903996337837e-05,-7.81391320668348e-06,-8.790183458457315e-05,6.1333,6.2
1.2265625,-1.9538737331197097e-05,-3.272619164568553e-05,-2.6376236186770455e-05,-8.740239988555735e-05,6.1333,6.2
1.23046875,-1.8563650537880548e-05,-2.5888692790112174e-05,-2.6376236186770455e-05,-8.936446477454797e-05,6.1333,6.2
1.234375,-1.3676325268940274e-05,-1.4651412062256823e-05,-1.2701238475623739e-05,-8.790183458457315e-05,6.1333,6.2
1.23828125,-1.5626498855573372e-05,-1.5626498855573372e-05,-5.3761962233921e-06,-8.106433572899979e-05,6.1333,6.2
1.2421875,-2.4414171297779828e-05,-2.343908450446328e-05,-1.2213695078965457e-05,-6.933951160448617e-05,6.1333,6.2
1.24609375,-2.5401149393453906e-05,-2.5401149393453906e-05,-9.288434699015824e-06,-6.201446935225455e-05,6.1333,6.2
1.25,-2.295154110780501e-05,-1.2701238475623739e-05,4.874106408789174e-06,-6.982705500114445e-05,6.1333,6.2
1.25390625,-2.392662790112156e-05,-2.148891091783018e-05,-1.075106488899064e-05,-6.201446935225455e-05,6.1333,6.2
1.2578125,-2.978903996337837e-05,-3.467636523231863e-05,-1.8076107141222267e-05,-5.127662332341499e-05,6.1333,6.2
1.26171875,-2.343908450446328e-05,-1.075106488899064e-05,3.411476218814357e-06,-5.665149198901352e-05,6.1333,6.2
1.265625,-1.2213695078965457e-05,-2.0026280727855364e-05,-4.888652826733818e-06,-5.322679691004809e-05,6.1333,6.2
1.26953125,-7.81391320668348e-06,-4.5901754657816455e-05,-2.735132298008699e-05,-6.201446935225455e-05,6.1333,6.2
1.2734375,-1.172615168230719e-05,-5.371434030670636e-05,-3.9551799198901375e-05,-8.496468290226598e-05,6.1333,6.2
1.27734375,-1.2213695078965457e-05,-4.7364384847791285e-05,-3.760162561226828e-05,-9.228972515449763e-05,6.1333,6.2
1.28125,-1.4758490501259017e-06,-5.322679691004809e-05,-4.2488950881208534e-05,-9.66895070267796e-05,6.1333,6.2
1.28515625,1.4613026321812582e-06,-5.90892089723049e-05,-5.9576752368963165e-05,-0.00011670256889448388,6.1333,6.2
1.2890625,-3.913566033417282e-06,-6.397653424124515e-05,-7.031459839780272e-05,-0.00012500269794003208,6.1333,6.2
1.29296875,-4.4011094300755644e-06,-6.1039382558938e-05,-6.201446935225455e-05,-0.00012989002320897233,6.1333,6.2
1.296875,-9.8830565346762e-07,-5.225171011673154e-05,-5.225171011673154e-05,-0.00013672752206454568,6.1333,6.2
1.30078125,-1.9633924467841836e-06,-5.176416672007326e-05,-5.371434030670636e-05,-0.00013379037038223853,6.1333,6.2
1.3046875,9.737592355229765e-07,-3.8089169008926544e-05,-4.200140748455025e-05,-0.00013086511000228885,6.1333,6.2
1.30859375,1.4613026321812582e-06,-3.272619164568553e-05,-4.49266678644999e-05,-0.00013281528358892195,6.1333,6.2
1.3125,-6.8388264133669165e-06,-2.930149656672009e-05,-4.1513864087891985e-05,-0.00012305252435339898,6.1333,6.2
1.31640625,-6.351283016708663e-06,-2.1001367521171913e-05,-3.076412675669492e-05,-0.0001005898542000458,6.1333,6.2
1.3203125,-6.8388264133669165e-06,-1.3676325268940274e-05,-3.6138995422293447e-05,-9.571442023346306e-05,6.1333,6.2
1.32421875,-1.8076107141222267e-05,-4.4011094300755644e-06,-4.0538777294575436e-05,-9.86396806134127e-05,6.1333,6.2
1.328125,-1.9051193934538815e-05,-2.938479240100719e-06,-4.443912446784164e-05,-9.033955156786453e-05,6.1333,6.2
1.33203125,-1.660158564888992e-05,-4.888652826733818e-06,-4.003934259555964e-05,-9.326481194781417e-05,6.1333,6.2
1.3359375,-1.7101020347905718e-05,-1.9633924467841836e-06,-1.5626498855573372e-05,-9.717705042343788e-05,6.1333,6.2
1.33984375,-1.3188781872282006e-05,-3.4260226367590007e-06,3.411476218814357e-06,-9.033955156786453e-05,6.1333,6.2
1.34375,-1.8563650537880548e-05,-2.4414171297779828e-05,-1.3188781872282006e-05,-9.08270949645228e-05,6.1333,6.2
1.34765625,-2.0513824124513632e-05,-3.51639086289769e-05,-2.783886637674527e-05,-8.496468290226598e-05,6.1333,6.2
1.3515625,-2.0026280727855364e-05,-3.8089169008926544e-05,-2.343908450446328e-05,-8.593976969558254e-05,6.1333,6.2
1.35546875,-2.0026280727855364e-05,-3.321373504234381e-05,-6.8388264133669165e-06,-8.203942252231633e-05,6.1333,6.2
1.359375,-2.1976454314488462e-05,-2.881395317006182e-05,-2.938479240100719e-06,-7.568946706340125e-05,6.1333,6.2
1.36328125,-2.246399771114673e-05,-3.565145202563518e-05,-1.4651412062256823e-05,-7.958981423666744e-05,6.1333,6.2
1.3671875,-2.392662790112156e-05,-2.930149656672009e-05,-2.0026280727855364e-05,-8.740239988555735e-05,6.1333,6.2
1.37109375,-2.832640977340354e-05,-2.295154110780501e-05,-2.4913605996795625e-05,-8.44771395056077e-05,6.1333,6.2
1.375,-2.783886637674527e-05,-2.5401149393453906e-05,-2.4913605996795625e-05,-8.252696591897461e-05,6.1333,6.2
1.37890625,-2.246399771114673e-05,-1.7101020347905718e-05,-9.775978095674076e-06,-8.252696591897461e-05,6.1333,6.2
1.3828125,-1.9538737331197097e-05,-1.7588563744564e-05,-9.8830565346762e-07,-8.64273130922408e-05,6.1333,6.2
1.38671875,-2.1976454314488462e-05,-1.9051193934538815e-05,-2.4509358434424652e-06,-8.936446477454797e-05,6.1333,6.2
1.390625,-2.6376236186770455e-05,-2.1976454314488462e-05,-1.7588563744564e-05,-7.666455385671781e-05,6.1333,6.2
1.39453125,-2.832640977340354e-05,-3.0276583360036637e-05,-1.6114042252231656e-05,-7.373929347676816e-05,6.1333,6.2
1.3984375,-3.125167015335319e-05,-3.370127843900208e-05,-3.913566033417282e-06,-7.812718404669263e-05,6.1333,6.2
1.40234375,-3.8576712405584826e-05,-4.2488950881208534e-05,-9.288434699015824e-06,-7.227666328679334e-05,6.1333,6.2
1.40625,-3.8089169008926544e-05,-4.346403767452508e-05,-1.9051193934538815e-05,-6.543916443121998e-05,6.1333,6.2
1.41015625,-3.565145202563518e-05,-4.8838906340123614e-05,-2.0026280727855364e-05,-7.0802141794461e-05,6.1333,6.2
1.4140625,-3.565145202563518e-05,-4.5901754657816455e-05,-1.9633924467841836e-06,-6.885196820782791e-05,6.1333,6.2
1.41796875,-3.9551799198901375e-05,-4.0538777294575436e-05,1.94884602883954e-06,-7.227666328679334e-05,6.1333,6.2
1.421875,-4.0538777294575436e-05,-4.0538777294575436e-05,-1.4163868665598555e-05,-7.958981423666744e-05,6.1333,6.2
1.42578125,-3.662653881895173e-05,-3.125167015335319e-05,-1.075106488899064e-05,-8.593976969558254e-05,6.1333,6.2
1.4296875,-3.125167015335319e-05,-2.783886637674527e-05,-1.1238608285648908e-05,-8.740239988555735e-05,6.1333,6.2
1.43359375,-3.272619164568553e-05,-3.076412675669492e-05,-1.9051193934538815e-05,-8.008924893568324e-05,6.1333,6.2
1.4375,-3.370127843900208e-05,-2.4913605996795625e-05,-2.938479240100719e-06,-7.617701046005953e-05,6.1333,6.2
1.44140625,-3.418882183566036e-05,-2.148891091783018e-05,-2.4509358434424652e-06,-7.178911989013506e-05,6.1333,6.2
1.4453125,-4.346403767452508e-05,-3.370127843900208e-05,-8.800891302357541e-06,-7.325175008010989e-05,6.1333,6.2
1.44921875,-4.6876841451133004e-05,-4.6876841451133004e-05,-2.1001367521171913e-05,-7.666455385671781e-05,6.1333,6.2
1.453125,-4.395158107118335e-05,-4.7364384847791285e-05,-2.881395317006182e-05,-8.398959610894943e-05,6.1333,6.2
1.45703125,-4.395158107118335e-05,-4.9326449736781895e-05,-1.5626498855573372e-05,-8.203942252231633e-05,6.1333,6.2
1.4609375,-4.102632069123372e-05,-4.8838906340123614e-05,-6.8388264133669165e-06,-7.128968519111927e-05,6.1333,6.2
1.46484375,-4.1513864087891985e-05,-4.5901754657816455e-05,-1.9538737331197097e-05,-7.325175008010989e-05,6.1333,6.2
1.46875,-4.0538777294575436e-05,-4.200140748455025e-05,-3.222675694666974e-05,-7.568946706340125e-05,6.1333,6.2
1.47265625,-3.565145202563518e-05,-3.076412675669492e-05,-1.8076107141222267e-05,-7.666455385671781e-05,6.1333,6.2
1.4765625,-3.8089169008926544e-05,-3.076412675669492e-05,-1.3275577935587535e-09,-7.861472744335091e-05,6.1333,6.2
1.48046875,-4.0538777294575436e-05,-3.370127843900208e-05,1.4613026321812582e-06,-7.031459839780272e-05,6.1333,6.2
1.484375,-3.9064255802243093e-05,-3.7114082215609996e-05,3.411476218814357e-06,-6.298955614557109e-05,6.1333,6.2
1.48828125,-4.003934259555964e-05,-3.8089169008926544e-05,2.4899059578850964e-05,-6.250201274891281e-05,6.1333,6.2
1.4921875,-3.565145202563518e-05,-2.783886637674527e-05,2.538660297550925e-05,-6.347709954222936e-05,6.1333,6.2
1.49609375,-3.272619164568553e-05,-2.5888692790112174e-05,3.9061600686655965e-05,-6.1039382558938e-05,6.1333,6.2
1.5,-3.6138995422293447e-05,-2.4913605996795625e-05,3.61244490043488e-05,-5.665149198901352e-05,6.1333,6.2
1.50390625,-3.565145202563518e-05,-2.148891091783018e-05,-2.5401149393453906e-05,-5.5176970496681176e-05,6.1333,6.2
1.5078125,-2.930149656672009e-05,-1.660158564888992e-05,-1.660158564888992e-05,-5.5176970496681176e-05,6.1333,6.2
1.51171875,-4.1513864087891985e-05,-2.1001367521171913e-05,-2.938479240100719e-06,-4.981399313344016e-05,6.1333,6.2
1.515625,-5.420188370336464e-05,-4.5901754657816455e-05,-2.295154110780501e-05,-2.930149656672009e-05,6.1333,6.2
1.51953125,-5.5176970496681176e-05,-6.152692595559626e-05,-3.6138995422293447e-05,-2.392662790112156e-05,6.1333,6.2
1.5234375,-6.0551839162279714e-05,-7.178911989013506e-05,-6.836442481116962e-05,-2.1976454314488462e-05,6.1333,6.2
1.52734375,-6.49516210345617e-05,-8.203942252231633e-05,-8.008924893568324e-05,-1.0263521492332358e-05,6.1333,6.2
1.53125,-7.178911989013506e-05,-8.691485648889909e-05,-6.347709954222936e-05,7.811258091096335e-06,6.1333,6.2
1.53515625,-8.496468290226598e-05,-0.00010450209267566952,-5.225171011673154e-05,1.903664751659417e-05,6.1333,6.2
1.5390625,-9.423989874113071e-05,-0.00012012726397344932,-5.371434030670636e-05,3.466181881437398e-05,6.1333,6.2
1.54296875,-9.912722401007098e-05,-0.00012500269794003208,-5.371434030670636e-05,5.077453350881205e-05,6.1333,6.2
1.546875,-0.00010450209267566952,-0.00013526489187457087,-5.5176970496681176e-05,5.663694557106888e-05,6.1333,6.2
1.55078125,-0.00010937752664225226,-0.00015282834545662626,-5.762657878233007e-05,7.518737724879832e-05,6.1333,6.2
1.5546875,-0.00011572748210116734,-0.00015234080205996797,-5.811412217898835e-05,7.909961572442205e-05,6.1333,6.2
1.55859375,-0.0001206148073701076,-0.00014745347679102772,-4.5901754657816455e-05,8.446259308766307e-05,6.1333,6.2
1.5625,-0.0001264653281300069,-0.0001396408911421378,-2.978903996337837e-05,9.862513419546806e-05,6.1333,6.2
1.56640625,-0.00013623997866788742,-0.00014207860812542918,-3.0276583360036637e-05,0.00010595017644769967,6.1333,6.2
1.5703125,-0.00014452821641107807,-0.00014940365037766082,-3.8576712405584826e-05,0.00011668802247653923,6.1333,6.2
1.57421875,-0.00014696593339436943,-0.00012891493641565576,-2.5401149393453906e-05,0.00012646267301441973,6.1333,6.2
1.578125,-0.00014891610698100253,-0.00010986507003891052,-1.3676325268940274e-05,0.00012255043453879603,6.1333,6.2
1.58203125,-0.0001518532586633097,-9.961476740672925e-05,4.862158388647231e-07,0.00012255043453879603,6.1333,6.2
1.5859375,-0.00014696593339436943,-9.912722401007098e-05,-2.938479240100719e-06,0.00012352552133211258,6.1333,6.2
1.58984375,-0.00014256615152208747,-9.326481194781417e-05,7.32371469443808e-06,0.00012352552133211258,6.1333,6.2
1.59375,-0.00013819015225452052,-7.666455385671781e-05,2.9774493545433726e-05,0.00011767500057221331,6.1333,6.2
1.59765625,-0.0001264653281300069,-6.933951160448617e-05,4.052423087663078e-05,0.00010887543682764933,6.1333,6.2
1.6015625,-0.00012110235076676587,-6.592670782787825e-05,4.687418633554588e-05,0.0001040000028610666,6.1333,6.2
1.60546875,-0.00011231467832455941,-5.90892089723049e-05,4.442457804989698e-05,9.423724362554358e-05,6.1333,6.2
1.609375,-0.0001025400277866789,-4.8838906340123614e-05,4.687418633554588e-05,8.642465797665368e-05,6.1333,6.2
1.61328125,-0.00010498963607232778,-4.541421126115819e-05,5.02869901121538e-05,7.469983385214007e-05,6.1333,6.2
1.6171875,-0.00010156494099336234,-5.078907992675671e-05,5.126207690547033e-05,6.542461801327534e-05,6.1333,6.2
1.62109375,-8.740239988555735e-05,-4.5901754657816455e-05,5.369979388876172e-05,6.1024836140993354e-05,6.1333,6.2
1.625,-7.812718404669263e-05,-4.2488950881208534e-05,4.687418633554588e-05,4.7361729732204137e-05,6.1333,6.2
1.62890625,-7.666455385671781e-05,-4.5901754657816455e-05,2.7824319958800628e-05,5.41992285877775e-05,6.1333,6.2
1.6328125,-7.812718404669263e-05,-4.443912446784164e-05,2.0499277706568988e-05,5.8099575761043694e-05,6.1333,6.2
1.63671875,-7.617701046005953e-05,-4.102632069123372e-05,3.466181881437398e-05,5.321225049210344e-05,6.1333,6.2
1.640625,-7.568946706340125e-05,-4.102632069123372e-05,4.3937034653238696e-05,4.9311903318837234e-05,6.1333,6.2
1.64453125,-7.763964065003434e-05,-4.6876841451133004e-05,3.124901503776607e-05,4.7361729732204137e-05,6.1333,6.2
1.6484375,-7.227666328679334e-05,-4.29764942778668e-05,2.8799406752117163e-05,4.63866429388876e-05,6.1333,6.2
1.65234375,-6.738933801785308e-05,-3.321373504234381e-05,3.173655843442432e-05,3.758707919432362e-05,6.1333,6.2
1.65625,-6.201446935225455e-05,-2.6863779583428723e-05,3.124901503776607e-05,3.124901503776607e-05,6.1333,6.2
1.66015625,-6.0064295765621446e-05,-3.076412675669492e-05,4.052423087663078e-05,3.076147164110779e-05,6.1333,6.2
1.6640625,-6.0064295765621446e-05,-3.321373504234381e-05,3.41742754177157e-05,2.587414637216753e-05,6.1333,6.2
1.66796875,-5.665149198901352e-05,-2.881395317006182e-05,2.2449451293202086e-05,1.4636865644312165e-05,6.1333,6.2
1.671875,-5.273925351338981e-05,-3.125167015335319e-05,2.3436429388876147e-05,1.806156072327761e-05,6.1333,6.2
1.67578125,-5.273925351338981e-05,-3.0276583360036637e-05,2.1961907896543805e-05,2.2948885992217866e-05,6.1333,6.2
1.6796875,-4.8838906340123614e-05,-3.272619164568553e-05,2.3436429388876147e-05,1.7086473929961074e-05,6.1333,6.2
1.68359375,-4.346403767452508e-05,-4.6389298054474736e-05,2.831186335545891e-05,1.122406186770425e-05,6.1333,6.2
1.6875,-4.9326449736781895e-05,-6.298955614557109e-05,1.366177885099563e-05,7.811258091096335e-06,6.1333,6.2
1.69140625,-4.981399313344016e-05,-6.250201274891281e-05,5.361649805447456e-06,1.6598930533302792e-05,6.1333,6.2
1.6953125,-4.785192824444955e-05,-6.0064295765621446e-05,9.273888281071151e-06,2.0499277706568988e-05,6.1333,6.2
1.69921875,-5.225171011673154e-05,-6.250201274891281e-05,2.3436429388876147e-05,1.903664751659417e-05,6.1333,6.2
1.703125,-5.5176970496681176e-05,-5.665149198901352e-05,1.7086473929961074e-05,1.366177885099563e-05,6.1333,6.2
1.70703125,-4.8351362943465346e-05,-4.6389298054474736e-05,6.824279995422273e-06,3.899019615472639e-06,6.1333,6.2
1.7109375,-5.127662332341499e-05,-4.102632069123372e-05,7.32371469443808e-06,2.4363894254977934e-06,6.1333,6.2
1.71484375,-4.981399313344016e-05,-3.8576712405584826e-05,1.366177885099563e-05,-9.8830565346762e-07,6.1333,6.2
1.71875,-4.102632069123372e-05,-3.8089169008926544e-05,1.806156072327761e-05,9.737592355229765e-07,6.1333,6.2
1.72265625,-3.9064255802243093e-05,-3.565145202563518e-05,1.122406186770425e-05,6.336736598763991e-06,6.1333,6.2
1.7265625,-3.418882183566036e-05,-3.0276583360036637e-05,1.4613026321812582e-06,4.862158388647231e-07,6.1333,6.2
1.73046875,-3.6138995422293447e-05,-3.8576712405584826e-05,4.862158388647231e-07,-8.800891302357541e-06,6.1333,6.2
1.734375,-3.760162561226828e-05,-3.662653881895173e-05,-6.8388264133669165e-06,-2.4509358434424652e-06,6.1333,6.2
1.73828125,-3.9551799198901375e-05,-3.222675694666974e-05,9.737592355229765e-07,-9.8830565346762e-07,6.1333,6.2
1.7421875,-3.662653881895173e-05,-3.418882183566036e-05,9.273888281071151e-06,-4.4011094300755644e-06,6.1333,6.2
1.74609375,-3.7114082215609996e-05,-3.7114082215609996e-05,5.361649805447456e-06,-5.863739620050381e-06,6.1333,6.2
1.75,-3.6138995422293447e-05,-3.565145202563518e-05,8.298801487754616e-06,-5.3761962233921e-06,6.1333,6.2
1.75390625,-3.321373504234381e-05,-3.272619164568553e-05,1.0248975074387715e-05,2.4363894254977934e-06,6.1333,6.2
1.7578125,-4.0538777294575436e-05,-3.8576712405584826e-05,2.3923972785534432e-05,5.361649805447456e-06,6.1333,6.2
1.76171875,-3.370127843900208e-05,-3.467636523231863e-05,4.3937034653238696e-05,1.122406186770425e-05,6.1333,6.2
1.765625,-2.4913605996795625e-05,-3.370127843900208e-05,3.2224101831082603e-05,3.514936221103227e-05,6.1333,6.2
1.76953125,-3.6138995422293447e-05,-6.49516210345617e-05,-2.392662790112156e-05,2.0011734309910707e-05,6.1333,6.2
1.7734375,-4.8351362943465346e-05,-0.0001005898542000458,-5.9576752368963165e-05,-5.863739620050381e-06,6.1333,6.2
1.77734375,-3.321373504234381e-05,-0.00010791489645227742,-6.1039382558938e-05,2.1474364499885524e-05,6.1333,6.2
1.78125,-7.326369810025199e-06,-0.00011719011229114215,-8.106433572899979e-05,5.6149402174410596e-05,6.1333,6.2
1.78515625,-1.1238608285648908e-05,-0.00016502882167544064,-0.0001240276111467155,4.3937034653238696e-05,6.1333,6.2
1.7890625,-1.9538737331197097e-05,-0.00020360420652323186,-0.00016210356129549096,2.4899059578850964e-05,6.1333,6.2
1.79296875,-5.863739620050381e-06,-0.0002192293778210117,-0.00018895412201876862,4.247440446326388e-05,6.1333,6.2
1.796875,1.0736518471045997e-05,-0.00025780476266880294,-0.00021435394385442894,6.737479159990843e-05,6.1333,6.2
1.80078125,2.2449451293202086e-05,-0.0002871049316777295,-0.00023582963591210805,7.226211686884868e-05,6.1333,6.2
1.8046875,2.2449451293202086e-05,-0.00031200531881437406,-0.00025926739285877777,6.786233499656671e-05,6.1333,6.2
1.80859375,2.1961907896543805e-05,-0.0003481429866788739,-0.00029784277770656905,8.348750629434653e-05,6.1333,6.2
1.8125,2.3923972785534432e-05,-0.00035106824705882355,-0.00031933036106660564,9.76500474021515e-05,6.1333,6.2
1.81640625,1.4149322247653913e-05,-0.0003476554432822156,-0.0003237301429388876,0.00010741280663767451,6.1333,6.2
1.8203125,-4.888652826733818e-06,-0.0003676685051499199,-0.00033300535877775234,0.00010692526324101624,6.1333,6.2
1.82421875,-1.2213695078965457e-05,-0.0003676685051499199,-0.0003168926440833143,0.00011034995831998168,6.1333,6.2
1.828125,-1.6114042252231656e-05,-0.00037548109079880987,-0.00032714294671549554,0.00011767500057221331,6.1333,6.2
1.83203125,-2.832640977340354e-05,-0.00037255583041886014,-0.00033251781538109413,0.00011425030549324787,6.1333,6.2
1.8359375,-3.9551799198901375e-05,-0.0003554680289311055,-0.00029735523430991074,0.00012401306472877087,6.1333,6.2
1.83984375,-4.395158107118335e-05,-0.0003539935074387732,-0.0002997929512932021,0.00012450060812542915,6.1333,6.2
1.84375,-4.6389298054474736e-05,-0.0003247052297322042,-0.00026904204339665827,0.00011668802247653923,6.1333,6.2
1.84765625,-4.346403767452508e-05,-0.00028759247507438774,-0.00022362915969329367,0.00011913763076218811,6.1333,6.2
1.8515625,-3.662653881895173e-05,-0.00027001713018997485,-0.00020067894614328224,0.00010448754625772485,6.1333,6.2
1.85546875,-3.8089169008926544e-05,-0.00024071696118104833,-0.000157703779423209,9.813759079880978e-05,6.1333,6.2
1.859375,-4.395158107118335e-05,-0.00021971692121766997,-0.0001323277401922637,9.276272213321124e-05,6.1333,6.2
1.86328125,-5.468942710002291e-05,-0.00018895412201876862,-0.00010596472286564434,7.226211686884868e-05,6.1333,6.2
1.8671875,-5.8601665575646616e-05,-0.0001674784299610895,-8.44771395056077e-05,6.981250858319981e-05,6.1333,6.2
1.87109375,-5.762657878233007e-05,-0.00015624114923323417,-7.861472744335091e-05,6.444953121995877e-05,6.1333,6.2
1.875,-5.8601665575646616e-05,-0.00011280222172121769,-5.078907992675671e-05,5.22371636987869e-05,6.1333,6.2
1.87890625,-5.811412217898835e-05,-8.398959610894943e-05,-2.930149656672009e-05,4.784927312886242e-05,6.1333,6.2
1.8828125,-6.397653424124515e-05,-6.152692595559626e-05,-2.5888692790112174e-05,3.41742754177157e-05,6.1333,6.2
1.88671875,-6.250201274891281e-05,-3.760162561226828e-05,-7.81391320668348e-06,3.124901503776607e-05,6.1333,6.2
1.890625,-5.176416672007326e-05,-2.881395317006182e-05,2.098682110322727e-05,2.7336776562142346e-05,6.1333,6.2
1.89453125,-5.468942710002291e-05,-7.81391320668348e-06,5.369979388876172e-05,1.806156072327761e-05,6.1333,6.2
1.8984375,-7.227666328679334e-05,-9.8830565346762e-07,6.19999229343099e-05,6.824279995422273e-06,6.1333,6.2
1.90234375,-7.373929347676816e-05,4.874106408789174e-06,5.956220595101851e-05,1.94884602883954e-06,6.1333,6.2
1.90625,-6.446407763790343e-05,2.3436429388876147e-05,7.812452893110548e-05,5.361649805447456e-06,6.1333,6.2
1.91015625,-5.811412217898835e-05,4.003668747997253e-05,0.00010302491606775004,-9.8830565346762e-07,6.1333,6.2
1.9140625,-5.811412217898835e-05,4.1499317669947344e-05,9.96002209887846e-05,-7.326369810025199e-06,6.1333,6.2
1.91796875,-5.616394859235525e-05,4.784927312886242e-05,0.00010595017644769967,-6.8388264133669165e-06,6.1333,6.2
1.921875,-5.322679691004809e-05,5.6149402174410596e-05,0.00011962517415884638,-1.6114042252231656e-05,6.1333,6.2
1.92578125,-5.322679691004809e-05,6.542461801327534e-05,0.00010643771984435795,-2.295154110780501e-05,6.1333,6.2
1.9296875,-5.616394859235525e-05,6.737479159990843e-05,9.521233041886014e-05,-2.392662790112156e-05,6.1333,6.2
1.93359375,-5.0301536530098444e-05,6.444953121995877e-05,9.96002209887846e-05,-2.6863779583428723e-05,6.1333,6.2
1.9375,-4.6876841451133004e-05,7.226211686884868e-05,9.911267759212631e-05,-3.662653881895173e-05,6.1333,6.2
1.94140625,-4.981399313344016e-05,7.031194328221559e-05,9.56998738155184e-05,-4.8351362943465346e-05,6.1333,6.2
1.9453125,-4.7364384847791285e-05,6.004974934767679e-05,8.251241950102997e-05,-5.127662332341499e-05,6.1333,6.2
1.94921875,-4.785192824444955e-05,6.004974934767679e-05,7.274966026550697e-05,-5.371434030670636e-05,6.1333,6.2
1.953125,-4.8838906340123614e-05,6.688724820325015e-05,8.348750629434653e-05,-6.836442481116962e-05,6.1333,6.2
1.95703125,-4.981399313344016e-05,6.493707461661705e-05,9.521233041886014e-05,-7.178911989013506e-05,6.1333,6.2
1.9609375,-4.8351362943465346e-05,6.786233499656671e-05,8.691220137331194e-05,-5.8601665575646616e-05,6.1333,6.2
1.96484375,-4.200140748455025e-05,6.981250858319981e-05,8.104978931105514e-05,-6.201446935225455e-05,6.1333,6.2
1.96875,-5.127662332341499e-05,6.542461801327534e-05,7.909961572442205e-05,-6.69017946211948e-05,6.1333,6.2
1.97265625,-5.90892089723049e-05,6.688724820325015e-05,7.76250942320897e-05,-6.738933801785308e-05,6.1333,6.2
1.9765625,-5.0301536530098444e-05,6.542461801327534e-05,8.251241950102997e-05,-6.201446935225455e-05,6.1333,6.2
1.98046875,-4.5901754657816455e-05,5.8587119157701975e-05,9.130009194323641e-05,-6.543916443121998e-05,6.1333,6.2
1.984375,-4.395158107118335e-05,5.22371636987869e-05,9.130009194323641e-05,-7.227666328679334e-05,6.1333,6.2
1.98828125,-4.395158107118335e-05,5.22371636987869e-05,8.495013648432134e-05,-6.885196820782791e-05,6.1333,6.2
1.9921875,-4.395158107118335e-05,5.6149402174410596e-05,8.886237495994504e-05,-6.446407763790343e-05,6.1333,6.2
1.99609375,-3.8089169008926544e-05,5.712448896772716e-05,0.00010448754625772485,-5.9576752368963165e-05,6.1333,6.2
2.0,-3.222675694666974e-05,6.053729274433507e-05,0.0001157129356832227,-5.71390353856718e-05,6.1333,6.2
2.00390625,-3.662653881895173e-05,5.41992285877775e-05,9.667496060883497e-05,-5.762657878233007e-05,6.1333,6.2
2.0078125,-4.346403767452508e-05,4.83368165255207e-05,0.00010643771984435795,-6.0551839162279714e-05,6.1333,6.2
2.01171875,-4.102632069123372e-05,5.1749620302128614e-05,0.00014647573488212406,-6.1039382558938e-05,6.1333,6.2
2.015625,-4.003934259555964e-05,4.7361729732204137e-05,0.0001430629311055161,-6.201446935225455e-05,6.1333,6.2
2.01953125,-3.662653881895173e-05,4.491212144655526e-05,8.495013648432134e-05,-6.836442481116962e-05,6.1333,6.2
2.0234375,-3.125167015335319e-05,4.882435992217898e-05,3.9061600686655965e-05,-7.0802141794461e-05,6.1333,6.2
2.02734375,-2.930149656672009e-05,4.784927312886242e-05,1.94884602883954e-06,-7.227666328679334e-05,6.1333,6.2
2.03125,-2.930149656672009e-05,4.442457804989698e-05,-3.222675694666974e-05,-7.227666328679334e-05,6.1333,6.2
2.03515625,-3.370127843900208e-05,4.101177427328906e-05,-2.881395317006182e-05,-7.471438027008471e-05,6.1333,6.2
2.0390625,-3.7114082215609996e-05,3.026203694209198e-05,-9.8830565346762e-07,-7.861472744335091e-05,6.1333,6.2
2.04296875,-3.7114082215609996e-05,2.7336776562142346e-05,1.1711605264362532e-05,-8.252696591897461e-05,6.1333,6.2
2.046875,-4.003934259555964e-05,2.3923972785534432e-05,1.1711605264362532e-05,-8.593976969558254e-05,6.1333,6.2
2.05078125,-4.102632069123372e-05,1.1711605264362532e-05,2.9239328221560755e-06,-7.861472744335091e-05,6.1333,6.2
2.0546875,-3.7114082215609996e-05,1.4636865644312165e-05,1.122406186770425e-05,-7.617701046005953e-05,6.1333,6.2
2.05859375,-3.125167015335319e-05,1.806156072327761e-05,3.368673202105742e-05,-6.885196820782791e-05,6.1333,6.2
2.0625,-2.6376236186770455e-05,1.6598930533302792e-05,3.61244490043488e-05,-6.592670782787825e-05,6.1333,6.2
2.06640625,-2.295154110780501e-05,2.098682110322727e-05,3.2711645227740885e-05,-6.836442481116962e-05,6.1333,6.2
2.0703125,-2.295154110780501e-05,1.7086473929961074e-05,3.41742754177157e-05,-7.325175008010989e-05,6.1333,6.2
2.07421875,-3.0276583360036637e-05,1.5623843739986257e-05,3.2711645227740885e-05,-8.252696591897461e-05,6.1333,6.2
2.078125,-3.760162561226828e-05,1.5136300343327974e-05,3.758707919432362e-05,-8.985200817120624e-05,6.1333,6.2
2.08203125,-3.9551799198901375e-05,8.786344884412897e-06,3.8074622590981904e-05,-9.180218175783934e-05,6.1333,6.2
2.0859375,-3.662653881895173e-05,4.3865630121308926e-06,3.173655843442432e-05,-9.326481194781417e-05,6.1333,6.2
2.08984375,-3.418882183566036e-05,4.862158388647231e-07,3.9549144083314246e-05,-0.00010156494099336234,6.1333,6.2
2.09375,-3.321373504234381e-05,-4.4011094300755644e-06,3.758707919432362e-05,-9.766459382009616e-05,6.1333,6.2
2.09765625,-2.978903996337837e-05,-4.4011094300755644e-06,3.3199188624399166e-05,-9.033955156786453e-05,6.1333,6.2
2.1015625,-2.783886637674527e-05,-6.8388264133669165e-06,2.831186335545891e-05,-9.571442023346306e-05,6.1333,6.2
2.10546875,-2.930149656672009e-05,-7.326369810025199e-06,1.1711605264362532e-05,-0.00010107739759670406,6.1333,6.2
2.109375,-3.076412675669492e-05,-5.863739620050381e-06,1.5136300343327974e-05,-8.936446477454797e-05,6.1333,6.2
2.11328125,-3.7114082215609996e-05,-1.0263521492332358e-05,2.2449451293202086e-05,-8.593976969558254e-05,6.1333,6.2
2.1171875,-4.0538777294575436e-05,4.874106408789174e-06,4.784927312886242e-05,-9.571442023346306e-05,6.1333,6.2
2.12109375,-2.392662790112156e-05,1.366177885099563e-05,4.63866429388876e-05,-0.00010010231080338751,6.1333,6.2
2.125,-2.148891091783018e-05,-9.775978095674076e-06,-5.863739620050381e-06,-0.0001103526134355688,6.1333,6.2
2.12890625,-2.1001367521171913e-05,-7.81391320668348e-06,-6.351283016708663e-06,-0.00011915217718013278,6.1333,6.2
2.1328125,-1.4163868665598555e-05,-5.3761962233921e-06,-2.938479240100719e-06,-0.0001259777847333486,6.1333,6.2
2.13671875,-2.148891091783018e-05,-1.172615168230719e-05,-2.4509358434424652e-06,-0.00014207860812542918,6.1333,6.2
2.140625,-1.2701238475623739e-05,-1.7588563744564e-05,-1.2213695078965457e-05,-0.000147941020187686,6.1333,6.2
2.14453125,-1.075106488899064e-05,-3.321373504234381e-05,-2.0026280727855364e-05,-0.00015624114923323417,6.1333,6.2
2.1484375,-1.3188781872282006e-05,-2.783886637674527e-05,-3.662653881895173e-05,-0.00017235386392767225,6.1333,6.2
2.15234375,-1.075106488899064e-05,-2.1976454314488462e-05,-6.885196820782791e-05,-0.00017480347221332114,6.1333,6.2
2.15625,-1.172615168230719e-05,-1.9538737331197097e-05,-4.0538777294575436e-05,-0.00016454127827878235,6.1333,6.2
2.16015625,-1.7101020347905718e-05,-1.8076107141222267e-05,-7.81391320668348e-06,-0.00015721623602655071,6.1333,6.2
2.1640625,-1.7588563744564e-05,-1.7588563744564e-05,-4.4011094300755644e-06,-0.00015234080205996797,6.1333,6.2
2.16796875,-1.6114042252231656e-05,-9.775978095674076e-06,-2.881395317006182e-05,-0.00015282834545662626,6.1333,6.2
2.171875,-1.1238608285648908e-05,-3.4260226367590007e-06,-5.8601665575646616e-05,-0.0001518532586633097,6.1333,6.2
2.17578125,-1.3676325268940274e-05,-9.775978095674076e-06,-4.981399313344016e-05,-0.00014940365037766082,6.1333,6.2
2.1796875,-2.0513824124513632e-05,-8.800891302357541e-06,-1.3676325268940274e-05,-0.00014891610698100253,6.1333,6.2
2.18359375,-2.1001367521171913e-05,-5.3761962233921e-06,9.737592355229765e-07,-0.00013526489187457087,6.1333,6.2
2.1875,-1.660158564888992e-05,-4.888652826733818e-06,-1.3275577935587535e-09,-0.00013086511000228885,6.1333,6.2
2.19140625,-1.172615168230719e-05,4.862158388647231e-07,9.761431677729432e-06,-0.00013184019679560543,6.1333,6.2
2.1953125,-1.075106488899064e-05,1.0248975074387715e-05,2.1474364499885524e-05,-0.0001245151545433738,6.1333,6.2
2.19921875,-1.5138955458915106e-05,8.298801487754616e-06,1.6111387136644508e-05,-0.00012354006775005725,6.1333,6.2
2.203125,-1.7101020347905718e-05,4.3865630121308926e-06,8.298801487754616e-06,-0.00012500269794003208,6.1333,6.2
2.20703125,-1.5626498855573372e-05,2.4363894254977934e-06,1.2199148661020813e-05,-0.00012207743756008244,6.1333,6.2
2.2109375,-1.8563650537880548e-05,-1.9633924467841836e-06,1.7086473929961074e-05,-0.00011426485191119251,6.1333,6.2
2.21484375,-2.295154110780501e-05,-8.301456603341734e-06,1.4149322247653913e-05,-0.00011084015683222707,6.1333,6.2
2.21875,-1.7588563744564e-05,-1.3676325268940274e-05,1.2686692057679096e-05,-0.00011523993870450906,6.1333,6.2
2.22265625,-2.1001367521171913e-05,-1.3676325268940274e-05,8.786344884412897e-06,-0.00011719011229114215,6.1333,6.2
2.2265625,-3.076412675669492e-05,-2.295154110780501e-05,3.899019615472639e-06,-0.00011377730851453424,6.1333,6.2
2.23046875,-2.735132298008699e-05,-3.467636523231863e-05,5.361649805447456e-06,-0.00010498963607232778,6.1333,6.2
2.234375,-1.8563650537880548e-05,-3.222675694666974e-05,6.336736598763991e-06,-9.961476740672925e-05,6.1333,6.2
2.23828125,-1.8076107141222267e-05,-2.246399771114673e-05,1.4636865644312165e-05,-0.00010205248439002063,6.1333,6.2
2.2421875,-1.7588563744564e-05,-1.9051193934538815e-05,2.3923972785534432e-05,-0.00010107739759670406,6.1333,6.2
2.24609375,-2.148891091783018e-05,-2.832640977340354e-05,2.4899059578850964e-05,-9.277726855115589e-05,6.1333,6.2
2.25,-2.978903996337837e-05,-2.832640977340354e-05,2.1474364499885524e-05,-9.571442023346306e-05,6.1333,6.2
2.25390625,-2.6376236186770455e-05,-1.172615168230719e-05,3.124901503776607e-05,-0.0001025400277866789,6.1333,6.2
2.2578125,-1.8563650537880548e-05,-1.9633924467841836e-06,5.566185877775234e-05,-9.423989874113071e-05,6.1333,6.2
2.26171875,-2.0026280727855364e-05,-9.288434699015824e-06,6.347444442664224e-05,-9.131463836118107e-05,6.1333,6.2
2.265625,-2.4913605996795625e-05,-1.2213695078965457e-05,4.003668747997253e-05,-9.08270949645228e-05,6.1333,6.2
2.26953125,-2.978903996337837e-05,-1.2213695078965457e-05,7.811258091096335e-06,-0.0001005898542000458,6.1333,6.2
2.2734375,-2.832640977340354e-05,-9.775978095674076e-06,4.874106408789174e-06,-9.66895070267796e-05,6.1333,6.2
2.27734375,-3.0276583360036637e-05,-8.800891302357541e-06,1.366177885099563e-05,-8.740239988555735e-05,6.1333,6.2
2.28125,-3.0276583360036637e-05,-1.2213695078965457e-05,7.811258091096335e-06,-9.423989874113071e-05,6.1333,6.2
2.28515625,-2.978903996337837e-05,-2.246399771114673e-05,1.2199148661020813e-05,-9.571442023346306e-05,6.1333,6.2
2.2890625,-2.5888692790112174e-05,-2.4913605996795625e-05,-1.3188781872282006e-05,-8.790183458457315e-05,6.1333,6.2
2.29296875,-2.295154110780501e-05,-2.1976454314488462e-05,-2.930149656672009e-05,-8.203942252231633e-05,6.1333,6.2
2.296875,-2.392662790112156e-05,-2.735132298008699e-05,-2.938479240100719e-06,-8.008924893568324e-05,6.1333,6.2
2.30078125,-2.5888692790112174e-05,-3.173921355001147e-05,1.2199148661020813e-05,-8.593976969558254e-05,6.1333,6.2
2.3046875,-2.832640977340354e-05,-2.978903996337837e-05,2.9239328221560755e-06,-8.88769213778897e-05,6.1333,6.2
2.30859375,-3.125167015335319e-05,-3.370127843900208e-05,-9.775978095674076e-06,-8.203942252231633e-05,6.1333,6.2
2.3125,-3.7114082215609996e-05,-3.9551799198901375e-05,-3.4260226367590007e-06,-8.496468290226598e-05,6.1333,6.2
2.31640625,-4.003934259555964e-05,-3.51639086289769e-05,8.298801487754616e-06,-8.740239988555735e-05,6.1333,6.2
2.3203125,-4.1513864087891985e-05,-3.760162561226828e-05,1.4636865644312165e-05,-8.593976969558254e-05,6.1333,6.2
2.32421875,-3.8089169008926544e-05,-4.346403767452508e-05,1.806156072327761e-05,-8.44771395056077e-05,6.1333,6.2
2.328125,-3.467636523231863e-05,-4.102632069123372e-05,1.6598930533302792e-05,-7.958981423666744e-05,6.1333,6.2
2.33203125,-4.1513864087891985e-05,-4.003934259555964e-05,1.5136300343327974e-05,-7.520192366674299e-05,6.1333,6.2
2.3359375,-3.760162561226828e-05,-3.467636523231863e-05,1.4636865644312165e-05,-7.422683687342644e-05,6.1333,6.2
2.33984375,-3.370127843900208e-05,-4.2488950881208534e-05,1.366177885099563e-05,-7.520192366674299e-05,6.1333,6.2
2.34375,-3.418882183566036e-05,-4.443912446784164e-05,1.7086473929961074e-05,-8.593976969558254e-05,6.1333,6.2
2.34765625,-3.321373504234381e-05,-3.8576712405584826e-05,2.636168976882581e-05,-7.910227084000918e-05,6.1333,6.2
2.3515625,-3.272619164568553e-05,-4.443912446784164e-05,2.1474364499885524e-05,-6.787688141451135e-05,6.1333,6.2
2.35546875,-3.418882183566036e-05,-4.200140748455025e-05,3.411476218814357e-06,-7.422683687342644e-05,6.1333,6.2
2.359375,-3.9551799198901375e-05,-2.4414171297779828e-05,-2.938479240100719e-06,-8.301450931563288e-05,6.1333,6.2
2.36328125,-3.8089169008926544e-05,-2.832640977340354e-05,-2.978903996337837e-05,-8.496468290226598e-05,6.1333,6.2
2.3671875,-3.272619164568553e-05,-3.418882183566036e-05,-4.2488950881208534e-05,-8.545222629892427e-05,6.1333,6.2
2.37109375,-3.7114082215609996e-05,-2.6376236186770455e-05,-1.4163868665598555e-05,-8.496468290226598e-05,6.1333,6.2
2.375,-4.346403767452508e-05,-1.1238608285648908e-05,1.1711605264362532e-05,-8.691485648889909e-05,6.1333,6.2
2.37890625,-2.5401149393453906e-05,-1.075106488899064e-05,-3.4260226367590007e-06,-8.44771395056077e-05,6.1333,6.2
2.3828125,-9.288434699015824e-06,-2.4414171297779828e-05,-2.1001367521171913e-05,-8.545222629892427e-05,6.1333,6.2
2.38671875,-1.4651412062256823e-05,-1.9051193934538815e-05,-1.5626498855573372e-05,-9.717705042343788e-05,6.1333,6.2
2.390625,-1.7588563744564e-05,-4.888652826733818e-06,-1.9633924467841836e-06,-0.00010645226626230261,6.1333,6.2
2.39453125,-1.4651412062256823e-05,3.899019615472639e-06,1.2686692057679096e-05,-0.00011377730851453424,6.1333,6.2
2.3984375,-1.2213695078965457e-05,1.366177885099563e-05,2.1961907896543805e-05,-0.00011572748210116734,6.1333,6.2
2.40234375,-1.1238608285648908e-05,3.3199188624399166e-05,3.61244490043488e-05,-0.00012158989416342415,6.1333,6.2
2.40625,-1.075106488899064e-05,3.3199188624399166e-05,5.272470709544515e-05,-0.00013086511000228885,6.1333,6.2
2.41015625,-1.4651412062256823e-05,2.831186335545891e-05,5.761203236438541e-05,-0.00013379037038223853,6.1333,6.2
2.4140625,-6.351283016708663e-06,3.9549144083314246e-05,4.784927312886242e-05,-0.00013037756660563062,6.1333,6.2
2.41796875,-2.4509358434424652e-06,4.687418633554588e-05,4.83368165255207e-05,-0.0001264653281300069,6.1333,6.2
2.421875,-9.288434699015824e-06,4.1499317669947344e-05,6.542461801327534e-05,-0.00012110235076676587,6.1333,6.2
2.42578125,-8.301456603341734e-06,3.563690560769052e-05,6.004974934767679e-05,-0.00010986507003891052,6.1333,6.2
2.4296875,-1.0263521492332358e-05,3.2224101831082603e-05,6.004974934767679e-05,-0.00010547717946898607,6.1333,6.2
2.43359375,-1.2701238475623739e-05,2.831186335545891e-05,7.128703007553212e-05,-0.00010693980965896088,6.1333,6.2
2.4375,-8.800891302357541e-06,2.831186335545891e-05,8.593711457999541e-05,-0.00010010231080338751,6.1333,6.2
2.44140625,-9.288434699015824e-06,2.3923972785534432e-05,9.227517873655295e-05,-9.326481194781417e-05,6.1333,6.2
2.4453125,-1.075106488899064e-05,2.2948885992217866e-05,7.079948667887388e-05,-9.277726855115589e-05,6.1333,6.2
2.44921875,-7.326369810025199e-06,2.1961907896543805e-05,4.003668747997253e-05,-8.790183458457315e-05,6.1333,6.2
2.453125,-1.2701238475623739e-05,2.2449451293202086e-05,4.7361729732204137e-05,-8.593976969558254e-05,6.1333,6.2
2.45703125,-2.0513824124513632e-05,1.7574017326619355e-05,6.347444442664224e-05,-8.88769213778897e-05,6.1333,6.2
2.4609375,-1.3676325268940274e-05,1.3174235454337349e-05,4.9311903318837234e-05,-8.398959610894943e-05,6.1333,6.2
2.46484375,-1.3188781872282006e-05,1.4149322247653913e-05,5.02869901121538e-05,-8.398959610894943e-05,6.1333,6.2
2.46875,-2.148891091783018e-05,-3.913566033417282e-06,5.566185877775234e-05,-7.763964065003434e-05,6.1333,6.2
2.47265625,-1.8076107141222267e-05,-1.4651412062256823e-05,4.003668747997253e-05,-7.227666328679334e-05,6.1333,6.2
2.4765625,-2.1001367521171913e-05,-9.775978095674076e-06,4.1986861066605625e-05,-7.958981423666744e-05,6.1333,6.2
2.48046875,-2.4913605996795625e-05,-1.0263521492332358e-05,5.1749620302128614e-05,-8.203942252231633e-05,6.1333,6.2
2.484375,-2.1976454314488462e-05,-1.1238608285648908e-05,5.369979388876172e-05,-7.373929347676816e-05,6.1333,6.2
2.48828125,-2.246399771114673e-05,-5.863739620050381e-06,5.126207690547033e-05,-6.1039382558938e-05,6.1333,6.2
2.4921875,-2.392662790112156e-05,-1.2701238475623739e-05,5.126207690547033e-05,-6.592670782787825e-05,6.1333,6.2
2.49609375,-2.4414171297779828e-05,-1.3188781872282006e-05,5.1749620302128614e-05,-6.836442481116962e-05,6.1333,6.2
2.5,-2.295154110780501e-05,-8.800891302357541e-06,3.514936221103227e-05,-5.9576752368963165e-05,6.1333,6.2
2.50390625,-2.392662790112156e-05,-1.2701238475623739e-05,3.466181881437398e-05,-5.616394859235525e-05,6.1333,6.2
2.5078125,-2.735132298008699e-05,-1.4163868665598555e-05,3.124901503776607e-05,-6.298955614557109e-05,6.1333,6.2
2.51171875,-2.783886637674527e-05,-1.4651412062256823e-05,1.6111387136644508e-05,-6.543916443121998e-05,6.1333,6.2
2.515625,-2.6376236186770455e-05,-1.1238608285648908e-05,1.3174235454337349e-05,-5.371434030670636e-05,6.1333,6.2
2.51953125,-2.735132298008699e-05,-1.2701238475623739e-05,2.098682110322727e-05,-5.5176970496681176e-05,6.1333,6.2
2.5234375,-2.978903996337837e-05,-1.7101020347905718e-05,6.824279995422273e-06,-6.347709954222936e-05,6.1333,6.2
2.52734375,-2.735132298008699e-05,-2.0026280727855364e-05,-1.3188781872282006e-05,-6.347709954222936e-05,6.1333,6.2
2.53125,-3.076412675669492e-05,-2.148891091783018e-05,-4.4011094300755644e-06,-6.0551839162279714e-05,6.1333,6.2
2.53515625,-3.370127843900208e-05,-1.7101020347905718e-05,1.0248975074387715e-05,-5.90892089723049e-05,6.1333,6.2
2.5390625,-2.832640977340354e-05,-1.2213695078965457e-05,2.6849233165484065e-05,-5.420188370336464e-05,6.1333,6.2
2.54296875,-3.222675694666974e-05,-1.8563650537880548e-05,2.3436429388876147e-05,-4.8838906340123614e-05,6.1333,6.2
2.546875,-3.565145202563518e-05,-2.6863779583428723e-05,5.849193202105738e-06,-5.0301536530098444e-05,6.1333,6.2
2.55078125,-3.076412675669492e-05,-2.735132298008699e-05,9.737592355229765e-07,-4.346403767452508e-05,6.1333,6.2
2.5546875,-3.272619164568553e-05,-2.392662790112156e-05,2.2948885992217866e-05,-4.541421126115819e-05,6.1333,6.2
2.55859375,-3.370127843900208e-05,-2.6863779583428723e-05,2.9774493545433726e-05,-4.395158107118335e-05,6.1333,6.2
2.5625,-2.832640977340354e-05,-3.272619164568553e-05,2.3436429388876147e-05,-4.102632069123372e-05,6.1333,6.2
2.56640625,-2.295154110780501e-05,-1.7588563744564e-05,3.8074622590981904e-05,-4.0538777294575436e-05,6.1333,6.2
2.5703125,-2.5888692790112174e-05,-1.4651412062256823e-05,5.1749620302128614e-05,-2.1001367521171913e-05,6.1333,6.2
2.57421875,-2.6863779583428723e-05,-2.0026280727855364e-05,4.882435992217898e-05,-2.343908450446328e-05,6.1333,6.2
2.578125,-2.783886637674527e-05,-1.4163868665598555e-05,3.368673202105742e-05,-3.370127843900208e-05,6.1333,6.2
2.58203125,-2.930149656672009e-05,-6.8388264133669165e-06,1.3174235454337349e-05,-3.8576712405584826e-05,6.1333,6.2
2.5859375,-2.6863779583428723e-05,1.94884602883954e-06,2.8799406752117163e-05,-3.8089169008926544e-05,6.1333,6.2
2.58984375,-2.392662790112156e-05,6.824279995422273e-06,-8.008924893568324e-05,-4.003934259555964e-05,6.1333,6.2
2.59375,-2.1001367521171913e-05,9.273888281071151e-06,-0.0004179568228198673,-5.616394859235525e-05,6.1333,6.2
2.59765625,-2.148891091783018e-05,1.0736518471045997e-05,-0.00052832,-6.298955614557109e-05,6.1333,6.2
2.6015625,-2.246399771114673e-05,4.3865630121308926e-06,-0.0004487196220187686,-5.811412217898835e-05,6.1333,6.2
2.60546875,-2.930149656672009e-05,-8.301456603341734e-06,-0.000412106302059968,-4.785192824444955e-05,6.1333,6.2
2.609375,-3.173921355001147e-05,-1.1238608285648908e-05,-0.00037645617759212634,-4.49266678644999e-05,6.1333,6.2
2.61328125,-3.8089169008926544e-05,-1.9538737331197097e-05,-0.00034960561686884876,-4.9326449736781895e-05,6.1333,6.2
2.6171875,-3.760162561226828e-05,-2.246399771114673e-05,-0.00030760553694209205,-4.29764942778668e-05,6.1333,6.2
2.62109375,-3.662653881895173e-05,-2.4913605996795625e-05,-0.00027391747736324104,-3.760162561226828e-05,6.1333,6.2
2.625,-3.125167015335319e-05,-1.7101020347905718e-05,-0.00024217959137102314,-3.222675694666974e-05,6.1333,6.2
2.62890625,-2.881395317006182e-05,-1.4651412062256823e-05,-0.00021386640045777068,-3.370127843900208e-05,6.1333,6.2
2.6328125,-3.0276583360036637e-05,-2.5888692790112174e-05,-0.00020457929331654844,-3.565145202563518e-05,6.1333,6.2
2.63671875,-3.0276583360036637e-05,-2.6863779583428723e-05,-0.00018602886163881897,-2.735132298008699e-05,6.1333,6.2
2.640625,-3.222675694666974e-05,-2.4913605996795625e-05,-0.000157703779423209,-2.832640977340354e-05,6.1333,6.2
2.64453125,-3.272619164568553e-05,-2.1976454314488462e-05,-0.00014647838999771114,-3.0276583360036637e-05,6.1333,6.2
2.6484375,-3.272619164568553e-05,-2.5401149393453906e-05,-0.00012793984962233924,-1.9538737331197097e-05,6.1333,6.2
2.65234375,-3.370127843900208e-05,-3.125167015335319e-05,-0.00011475239530785079,-1.9538737331197097e-05,6.1333,6.2
2.65625,-3.8089169008926544e-05,-2.246399771114673e-05,-8.936446477454797e-05,-2.0026280727855364e-05,6.1333,6.2
2.66015625,-4.29764942778668e-05,-1.7101020347905718e-05,-5.127662332341499e-05,-1.5138955458915106e-05,6.1333,6.2
2.6640625,-3.7114082215609996e-05,-2.5401149393453906e-05,-6.836442481116962e-05,-1.075106488899064e-05,6.1333,6.2
2.66796875,-3.6138995422293447e-05,-2.392662790112156e-05,-0.00011231467832455941,-1.7101020347905718e-05,6.1333,6.2
2.671875,-4.6389298054474736e-05,-2.4913605996795625e-05,-0.00011767765568780043,-1.8076107141222267e-05,6.1333,6.2
2.67578125,-4.29764942778668e-05,-2.5888692790112174e-05,-0.00010205248439002063,-1.2701238475623739e-05,6.1333,6.2
2.6796875,-3.8576712405584826e-05,-3.0276583360036637e-05,-8.398959610894943e-05,-1.6114042252231656e-05,6.1333,6.2
2.68359375,-4.0538777294575436e-05,-3.173921355001147e-05,-7.422683687342644e-05,-1.4651412062256823e-05,6.1333,6.2
2.6875,-4.102632069123372e-05,-3.272619164568553e-05,-8.593976969558254e-05,-1.4651412062256823e-05,6.1333,6.2
2.69140625,-3.7114082215609996e-05,-4.29764942778668e-05,-9.131463836118107e-05,-2.0026280727855364e-05,6.1333,6.2
2.6953125,-3.272619164568553e-05,-4.1513864087891985e-05,-8.301450931563288e-05,-2.1001367521171913e-05,6.1333,6.2
2.69921875,-3.173921355001147e-05,-3.7114082215609996e-05,-7.910227084000918e-05,-1.7101020347905718e-05,6.1333,6.2
2.703125,-2.5888692790112174e-05,-3.222675694666974e-05,-6.250201274891281e-05,-1.5138955458915106e-05,6.1333,6.2
2.70703125,-3.370127843900208e-05,-3.6138995422293447e-05,-6.885196820782791e-05,-2.1976454314488462e-05,6.1333,6.2
2.7109375,-3.9551799198901375e-05,-4.443912446784164e-05,-7.861472744335091e-05,-2.246399771114673e-05,6.1333,6.2
2.71484375,-3.662653881895173e-05,-3.8089169008926544e-05,-6.49516210345617e-05,-1.660158564888992e-05,6.1333,6.2
2.71875,-3.662653881895173e-05,-3.272619164568553e-05,-5.468942710002291e-05,-1.7588563744564e-05,6.1333,6.2
2.72265625,-3.6138995422293447e-05,-3.173921355001147e-05,-6.446407763790343e-05,-1.7588563744564e-05,6.1333,6.2
2.7265625,-3.8576712405584826e-05,-3.076412675669492e-05,-7.471438027008471e-05,-1.8563650537880548e-05,6.1333,6.2
2.73046875,-3.6138995422293447e-05,-2.978903996337837e-05,-7.276420668345161e-05,-1.7101020347905718e-05,6.1333,6.2
2.734375,-3.0276583360036637e-05,-3.418882183566036e-05,-5.71390353856718e-05,-2.148891091783018e-05,6.1333,6.2
2.73828125,-3.076412675669492e-05,-4.29764942778668e-05,-4.541421126115819e-05,-2.4414171297779828e-05,6.1333,6.2
2.7421875,-3.662653881895173e-05,-4.541421126115819e-05,-7.128968519111927e-05,-1.9051193934538815e-05,6.1333,6.2
2.74609375,-3.6138995422293447e-05,-4.2488950881208534e-05,-7.666455385671781e-05,-2.0513824124513632e-05,6.1333,6.2
2.75,-3.760162561226828e-05,-3.370127843900208e-05,-6.201446935225455e-05,-2.783886637674527e-05,6.1333,6.2
2.75390625,-3.565145202563518e-05,-3.370127843900208e-05,-6.1039382558938e-05,-1.6114042252231656e-05,6.1333,6.2
2.7578125,-3.272619164568553e-05,-3.0276583360036637e-05,-5.371434030670636e-05,-1.660158564888992e-05,6.1333,6.2
2.76171875,-3.7114082215609996e-05,-2.783886637674527e-05,-4.200140748455025e-05,-2.148891091783018e-05,6.1333,6.2
2.765625,-2.978903996337837e-05,-2.978903996337837e-05,-4.003934259555964e-05,-1.660158564888992e-05,6.1333,6.2
2.76953125,-2.832640977340354e-05,-3.0276583360036637e-05,-5.127662332341499e-05,-2.246399771114673e-05,6.1333,6.2
2.7734375,-3.565145202563518e-05,-3.0276583360036637e-05,-5.811412217898835e-05,-2.4913605996795625e-05,6.1333,6.2
2.77734375,-3.370127843900208e-05,-3.076412675669492e-05,-5.420188370336464e-05,-2.0026280727855364e-05,6.1333,6.2
2.78125,-3.321373504234381e-05,-3.321373504234381e-05,-5.078907992675671e-05,-1.8076107141222267e-05,6.1333,6.2
2.78515625,-3.6138995422293447e-05,-3.51639086289769e-05,-4.49266678644999e-05,-1.9051193934538815e-05,6.1333,6.2
2.7890625,-3.6138995422293447e-05,-3.565145202563518e-05,-4.1513864087891985e-05,-1.3676325268940274e-05,6.1333,6.2
2.79296875,-3.0276583360036637e-05,-3.760162561226828e-05,-4.785192824444955e-05,-9.775978095674076e-06,6.1333,6.2
2.796875,-2.930149656672009e-05,-4.2488950881208534e-05,-4.102632069123372e-05,-1.2213695078965457e-05,6.1333,6.2
2.80078125,-3.418882183566036e-05,-4.2488950881208534e-05,-3.0276583360036637e-05,-1.4651412062256823e-05,6.1333,6.2
2.8046875,-3.760162561226828e-05,-3.8089169008926544e-05,-4.346403767452508e-05,-2.0026280727855364e-05,6.1333,6.2
2.80859375,-3.272619164568553e-05,-2.4913605996795625e-05,-6.933951160448617e-05,-1.8076107141222267e-05,6.1333,6.2
2.8125,-3.222675694666974e-05,-2.783886637674527e-05,-6.982705500114445e-05,-1.5626498855573372e-05,6.1333,6.2
2.81640625,-3.662653881895173e-05,-3.467636523231863e-05,-6.250201274891281e-05,-1.7101020347905718e-05,6.1333,6.2
2.8203125,-3.467636523231863e-05,-2.735132298008699e-05,-5.078907992675671e-05,-2.0026280727855364e-05,6.1333,6.2
2.82421875,-3.0276583360036637e-05,-2.930149656672009e-05,-3.9551799198901375e-05,-2.0026280727855364e-05,6.1333,6.2
2.828125,-3.076412675669492e-05,-3.0276583360036637e-05,-4.346403767452508e-05,-1.9538737331197097e-05,6.1333,6.2
2.83203125,-3.076412675669492e-05,-2.4913605996795625e-05,-3.760162561226828e-05,-2.295154110780501e-05,6.1333,6.2
2.8359375,-2.4913605996795625e-05,-1.8563650537880548e-05,-8.301456603341734e-06,-2.1976454314488462e-05,6.1333,6.2
2.83984375,-2.4913605996795625e-05,-3.125167015335319e-05,-1.0263521492332358e-05,-1.4651412062256823e-05,6.1333,6.2
2.84375,-3.321373504234381e-05,-6.982705500114445e-05,-6.885196820782791e-05,-1.2213695078965457e-05,6.1333,6.2
2.84765625,-3.565145202563518e-05,-9.620196363012132e-05,-0.00010596472286564434,-1.8563650537880548e-05,6.1333,6.2
2.8515625,-3.6138995422293447e-05,-0.00010791489645227742,-0.00010498963607232778,-1.7588563744564e-05,6.1333,6.2
2.85546875,-4.102632069123372e-05,-0.0001323277401922637,-0.00010742735305561916,-9.288434699015824e-06,6.1333,6.2
2.859375,-4.8838906340123614e-05,-0.00015331588885328455,-0.00013135265339894714,-8.800891302357541e-06,6.1333,6.2
2.86328125,-4.8838906340123614e-05,-0.00016307864808880754,-0.00017626610240329598,-8.800891302357541e-06,6.1333,6.2
2.8671875,-4.49266678644999e-05,-0.00017235386392767225,-0.00017870381938658733,-3.4260226367590007e-06,6.1333,6.2
2.87109375,-5.176416672007326e-05,-0.00017821627598992907,-0.0001699161469443809,1.94884602883954e-06,6.1333,6.2
2.875,-5.90892089723049e-05,-0.0001855413182421607,-0.00017675364579995424,6.824279995422273e-06,6.1333,6.2
2.87890625,-6.0064295765621446e-05,-0.00017089123373769744,-0.0001713787771343557,4.3865630121308926e-06,6.1333,6.2
2.8828125,-6.738933801785308e-05,-0.00016307864808880754,-0.00016307864808880754,6.336736598763991e-06,6.1333,6.2
2.88671875,-7.373929347676816e-05,-0.00017089123373769744,-0.0001415910647287709,-4.4011094300755644e-06,6.1333,6.2
2.890625,-7.666455385671781e-05,-0.0001635661914854658,-0.00013721506546120397,-8.800891302357541e-06,6.1333,6.2
2.89453125,-7.568946706340125e-05,-0.0001440406730144198,-0.00012842739301899752,-3.4260226367590007e-06,6.1333,6.2
2.8984375,-7.666455385671781e-05,-0.00012500269794003208,-9.326481194781417e-05,-7.81391320668348e-06,6.1333,6.2
2.90234375,-7.0802141794461e-05,-0.00010010231080338751,-5.176416672007326e-05,-5.863739620050381e-06,6.1333,6.2
2.90625,-6.69017946211948e-05,-9.472744213778898e-05,-3.8089169008926544e-05,-4.4011094300755644e-06,6.1333,6.2
2.91015625,-7.227666328679334e-05,-9.423989874113071e-05,-2.392662790112156e-05,-4.888652826733818e-06,6.1333,6.2
2.9140625,-6.543916443121998e-05,-7.812718404669263e-05,9.273888281071151e-06,-3.4260226367590007e-06,6.1333,6.2
2.91796875,-6.543916443121998e-05,-7.373929347676816e-05,3.61244490043488e-05,1.4613026321812582e-06,6.1333,6.2
2.921875,-6.641425122453653e-05,-6.446407763790343e-05,6.19999229343099e-05,8.298801487754616e-06,6.1333,6.2
2.92578125,-5.371434030670636e-05,-5.127662332341499e-05,9.667496060883497e-05,-1.3275577935587535e-09,6.1333,6.2
2.9296875,-5.420188370336464e-05,-5.322679691004809e-05,0.00013085056358434421,-9.288434699015824e-06,6.1333,6.2
2.93359375,-5.468942710002291e-05,-5.71390353856718e-05,0.00016210090617990386,-3.913566033417282e-06,6.1333,6.2
2.9375,-5.468942710002291e-05,-4.9326449736781895e-05,0.00018407603293659877,4.3865630121308926e-06,6.1333,6.2
2.94140625,-5.762657878233007e-05,-4.443912446784164e-05,0.0002109265936598764,-3.4260226367590007e-06,6.1333,6.2
2.9453125,-5.273925351338981e-05,-4.200140748455025e-05,0.00023778904568551155,-7.326369810025199e-06,6.1333,6.2
2.94921875,-4.981399313344016e-05,-4.346403767452508e-05,0.00023730150228885326,-9.8830565346762e-07,6.1333,6.2
2.953125,-4.981399313344016e-05,-4.003934259555964e-05,0.00024365145774776835,-1.9633924467841836e-06,6.1333,6.2
2.95703125,-4.9326449736781895e-05,-2.783886637674527e-05,0.0002509765,-8.301456603341734e-06,6.1333,6.2
2.9609375,-4.785192824444955e-05,-2.5888692790112174e-05,0.0002343643506065461,-1.3676325268940274e-05,6.1333,6.2
2.96484375,-4.6389298054474736e-05,-3.222675694666974e-05,0.00022460159137102311,-1.172615168230719e-05,6.1333,6.2
2.96875,-4.49266678644999e-05,-3.6138995422293447e-05,0.00021191357175555042,-1.5138955458915106e-05,6.1333,6.2
2.97265625,-4.1513864087891985e-05,-3.222675694666974e-05,0.00020605115969329362,-2.783886637674527e-05,6.1333,6.2
2.9765625,-4.0538777294575436e-05,-2.881395317006182e-05,0.00021873917930876632,-3.321373504234381e-05,6.1333,6.2
2.98046875,-4.29764942778668e-05,-3.7114082215609996e-05,0.00020311400801098647,-2.735132298008699e-05,6.1333,6.2
2.984375,-3.662653881895173e-05,-4.0538777294575436e-05,0.00017675099068436713,-2.6376236186770455e-05,6.1333,6.2
2.98828125,-3.8089169008926544e-05,-4.1513864087891985e-05,0.00015282569034103915,-3.125167015335319e-05,6.1333,6.2
2.9921875,-4.200140748455025e-05,-4.346403767452508e-05,0.00011962517415884638,-3.8089169008926544e-05,6.1333,6.2
2.99609375,-3.565145202563518e-05,-3.418882183566036e-05,0.0001040000028610666,-4.0538777294575436e-05,6.1333,6.2
3.0,-3.7114082215609996e-05,-2.832640977340354e-05,9.472478702220187e-05,-4.395158107118335e-05,6.1333,6.2
3.00390625,-4.003934259555964e-05,-3.272619164568553e-05,8.98374617532616e-05,-5.0301536530098444e-05,6.1333,6.2
3.0078125,-3.760162561226828e-05,-4.1513864087891985e-05,7.323720366216522e-05,-5.225171011673154e-05,6.1333,6.2
3.01171875,-3.125167015335319e-05,-4.395158107118335e-05,6.151237953765161e-05,-5.468942710002291e-05,6.1333,6.2
3.015625,-3.076412675669492e-05,-3.222675694666974e-05,7.128703007553212e-05,-5.71390353856718e-05,6.1333,6.2
3.01953125,-3.418882183566036e-05,-3.0276583360036637e-05,6.053729274433507e-05,-6.0551839162279714e-05,6.1333,6.2
3.0234375,-3.0276583360036637e-05,-3.662653881895173e-05,9.273888281071151e-06,-5.8601665575646616e-05,6.1333,6.2
3.02734375,-2.735132298008699e-05,-3.6138995422293447e-05,-1.3676325268940274e-05,-5.811412217898835e-05,6.1333,6.2
3.03125,-3.076412675669492e-05,-3.662653881895173e-05,-1.2701238475623739e-05,-6.347709954222936e-05,6.1333,6.2
3.03515625,-3.565145202563518e-05,-3.51639086289769e-05,-9.288434699015824e-06,-6.446407763790343e-05,6.1333,6.2
3.0390625,-3.7114082215609996e-05,-3.6138995422293447e-05,-1.5138955458915106e-05,-5.71390353856718e-05,6.1333,6.2
3.04296875,-3.418882183566036e-05,-3.370127843900208e-05,-2.783886637674527e-05,-5.71390353856718e-05,6.1333,6.2
3.046875,-3.8089169008926544e-05,-3.076412675669492e-05,-5.420188370336464e-05,-5.566451389333946e-05,6.1333,6.2
3.05078125,-4.6876841451133004e-05,-4.102632069123372e-05,-7.0802141794461e-05,-6.1039382558938e-05,6.1333,6.2
3.0546875,-4.6389298054474736e-05,-4.8838906340123614e-05,-6.347709954222936e-05,-5.71390353856718e-05,6.1333,6.2
3.05859375,-4.003934259555964e-05,-4.395158107118335e-05,-5.90892089723049e-05,-5.90892089723049e-05,6.1333,6.2
3.0625,-4.2488950881208534e-05,-3.9551799198901375e-05,-5.5176970496681176e-05,-5.8601665575646616e-05,6.1333,6.2
3.06640625,-4.003934259555964e-05,-3.662653881895173e-05,-5.616394859235525e-05,-5.5176970496681176e-05,6.1333,6.2
3.0703125,-2.5888692790112174e-05,-3.7114082215609996e-05,-5.5176970496681176e-05,-6.0064295765621446e-05,6.1333,6.2
3.07421875,-2.4913605996795625e-05,-2.930149656672009e-05,-4.443912446784164e-05,-6.298955614557109e-05,6.1333,6.2
3.078125,-3.076412675669492e-05,-2.5888692790112174e-05,-2.978903996337837e-05,-6.201446935225455e-05,6.1333,6.2
3.08203125,-3.0276583360036637e-05,-1.8076107141222267e-05,-8.301456603341734e-06,-5.665149198901352e-05,6.1333,6.2
3.0859375,-2.6376236186770455e-05,-1.3676325268940274e-05,-2.5888692790112174e-05,-4.49266678644999e-05,6.1333,6.2
3.08984375,-3.0276583360036637e-05,-2.5888692790112174e-05,-6.152692595559626e-05,-4.785192824444955e-05,6.1333,6.2
3.09375,-3.418882183566036e-05,-2.978903996337837e-05,-4.9326449736781895e-05,-5.420188370336464e-05,6.1333,6.2
3.09765625,-3.467636523231863e-05,-2.4414171297779828e-05,-3.9551799198901375e-05,-4.8838906340123614e-05,6.1333,6.2
3.1015625,-3.272619164568553e-05,-2.0513824124513632e-05,-6.250201274891281e-05,-4.443912446784164e-05,6.1333,6.2
3.10546875,-2.6863779583428723e-05,-2.392662790112156e-05,-5.322679691004809e-05,-3.760162561226828e-05,6.1333,6.2
3.109375,-2.930149656672009e-05,-3.222675694666974e-05,-5.71390353856718e-05,-3.8576712405584826e-05,6.1333,6.2
3.11328125,-3.0276583360036637e-05,-3.51639086289769e-05,-7.276420668345161e-05,-4.541421126115819e-05,6.1333,6.2
3.1171875,-2.735132298008699e-05,-3.370127843900208e-05,-5.225171011673154e-05,-3.51639086289769e-05,6.1333,6.2
3.12109375,-2.930149656672009e-05,-3.370127843900208e-05,-5.468942710002291e-05,-3.760162561226828e-05,6.1333,6.2
3.125,-2.832640977340354e-05,-3.321373504234381e-05,-5.322679691004809e-05,-4.5901754657816455e-05,6.1333,6.2
3.12890625,-2.5401149393453906e-05,-3.9551799198901375e-05,-5.0301536530098444e-05,-3.173921355001147e-05,6.1333,6.2
3.1328125,-2.5888692790112174e-05,-3.9064255802243093e-05,-5.616394859235525e-05,-3.0276583360036637e-05,6.1333,6.2
3.13671875,-2.6863779583428723e-05,-3.51639086289769e-05,-4.5901754657816455e-05,-3.9551799198901375e-05,6.1333,6.2
3.140625,-2.343908450446328e-05,-3.0276583360036637e-05,-4.8838906340123614e-05,-3.8089169008926544e-05,6.1333,6.2
3.14453125,-2.978903996337837e-05,-3.565145202563518e-05,-5.5176970496681176e-05,-3.662653881895173e-05,6.1333,6.2
3.1484375,-3.565145202563518e-05,-4.5901754657816455e-05,-6.152692595559626e-05,-3.370127843900208e-05,6.1333,6.2
3.15234375,-3.370127843900208e-05,-4.443912446784164e-05,-6.982705500114445e-05,-3.0276583360036637e-05,6.1333,6.2
3.15625,-3.076412675669492e-05,-4.346403767452508e-05,-6.446407763790343e-05,-2.6863779583428723e-05,6.1333,6.2
3.16015625,-3.370127843900208e-05,-4.7364384847791285e-05,-7.031459839780272e-05,-2.5888692790112174e-05,6.1333,6.2
3.1640625,-3.321373504234381e-05,-5.127662332341499e-05,-8.398959610894943e-05,-2.5401149393453906e-05,6.1333,6.2
3.16796875,-2.4414171297779828e-05,-4.49266678644999e-05,-9.033955156786453e-05,-2.246399771114673e-05,6.1333,6.2
3.171875,-3.222675694666974e-05,-4.003934259555964e-05,-7.715209725337608e-05,-2.295154110780501e-05,6.1333,6.2
3.17578125,-3.467636523231863e-05,-3.8576712405584826e-05,-6.592670782787825e-05,-1.5138955458915106e-05,6.1333,6.2
3.1796875,-3.125167015335319e-05,-2.978903996337837e-05,-5.566451389333946e-05,-1.4758490501259017e-06,6.1333,6.2
3.18359375,-3.51639086289769e-05,-3.467636523231863e-05,-6.347709954222936e-05,-4.4011094300755644e-06,6.1333,6.2
3.1875,-3.222675694666974e-05,-4.200140748455025e-05,-7.276420668345161e-05,-1.172615168230719e-05,6.1333,6.2
3.19140625,-3.222675694666974e-05,-4.1513864087891985e-05,-7.128968519111927e-05,-5.863739620050381e-06,6.1333,6.2
3.1953125,-3.272619164568553e-05,-4.541421126115819e-05,-7.128968519111927e-05,-8.301456603341734e-06,6.1333,6.2
3.19921875,-2.832640977340354e-05,-4.1513864087891985e-05,-8.545222629892427e-05,-1.5138955458915106e-05,6.1333,6.2
3.203125,-2.4913605996795625e-05,-3.8576712405584826e-05,-0.00010596472286564434,-1.2701238475623739e-05,6.1333,6.2
3.20703125,-2.783886637674527e-05,-3.9064255802243093e-05,-0.00011377730851453424,-1.3676325268940274e-05,6.1333,6.2
3.2109375,-3.173921355001147e-05,-3.662653881895173e-05,-0.00010888998324559397,-1.9051193934538815e-05,6.1333,6.2
3.21484375,-3.7114082215609996e-05,-3.6138995422293447e-05,-0.00010205248439002063,-1.9051193934538815e-05,6.1333,6.2
3.21875,-4.1513864087891985e-05,-4.2488950881208534e-05,-9.571442023346306e-05,-2.1001367521171913e-05,6.1333,6.2
3.22265625,-4.0538777294575436e-05,-5.322679691004809e-05,-0.00010937752664225226,-2.0513824124513632e-05,6.1333,6.2
3.2265625,-3.272619164568553e-05,-4.5901754657816455e-05,-0.00011133959153124286,-1.1238608285648908e-05,6.1333,6.2
3.23046875,-3.0276583360036637e-05,-3.9064255802243093e-05,-9.228972515449763e-05,-8.301456603341734e-06,6.1333,6.2
3.234375,-3.076412675669492e-05,-4.1513864087891985e-05,-7.617701046005953e-05,-5.3761962233921e-06,6.1333,6.2
3.23828125,-3.467636523231863e-05,-4.29764942778668e-05,-7.178911989013506e-05,-2.4509358434424652e-06,6.1333,6.2
3.2421875,-3.9551799198901375e-05,-4.200140748455025e-05,-7.861472744335091e-05,-1.4163868665598555e-05,6.1333,6.2
3.24609375,-3.8576712405584826e-05,-3.7114082215609996e-05,-6.250201274891281e-05,-1.9051193934538815e-05,6.1333,6.2
3.25,-3.565145202563518e-05,-4.29764942778668e-05,-6.738933801785308e-05,-9.288434699015824e-06,6.1333,6.2
3.25390625,-3.076412675669492e-05,-3.9064255802243093e-05,-7.763964065003434e-05,-7.81391320668348e-06,6.1333,6.2
3.2578125,-3.0276583360036637e-05,-2.783886637674527e-05,-6.446407763790343e-05,-1.5138955458915106e-05,6.1333,6.2
3.26171875,-3.125167015335319e-05,-2.978903996337837e-05,-5.665149198901352e-05,-1.7101020347905718e-05,6.1333,6.2
3.265625,-2.832640977340354e-05,-3.51639086289769e-05,-6.446407763790343e-05,-1.660158564888992e-05,6.1333,6.2
3.26953125,-2.343908450446328e-05,-3.8576712405584826e-05,-6.738933801785308e-05,-1.9538737331197097e-05,6.1333,6.2
3.2734375,-2.5401149393453906e-05,-3.418882183566036e-05,-5.71390353856718e-05,-2.0513824124513632e-05,6.1333,6.2
3.27734375,-2.978903996337837e-05,-3.321373504234381e-05,-4.443912446784164e-05,-1.660158564888992e-05,6.1333,6.2
3.28125,-3.125167015335319e-05,-4.8838906340123614e-05,-4.981399313344016e-05,-2.0026280727855364e-05,6.1333,6.2
3.28515625,-3.7114082215609996e-05,-4.6389298054474736e-05,-4.003934259555964e-05,-2.832640977340354e-05,6.1333,6.2
3.2890625,-3.173921355001147e-05,-3.7114082215609996e-05,-4.102632069123372e-05,-2.735132298008699e-05,6.1333,6.2
3.29296875,-1.8563650537880548e-05,-4.395158107118335e-05,-5.71390353856718e-05,-2.0513824124513632e-05,6.1333,6.2
3.296875,-2.0513824124513632e-05,-5.811412217898835e-05,-6.0551839162279714e-05,-2.5401149393453906e-05,6.1333,6.2
3.30078125,-2.5888692790112174e-05,-5.9576752368963165e-05,-5.176416672007326e-05,-4.102632069123372e-05,6.1333,6.2
3.3046875,-2.148891091783018e-05,-5.322679691004809e-05,-4.785192824444955e-05,-6.152692595559626e-05,6.1333,6.2
3.30859375,-1.8563650537880548e-05,-6.543916443121998e-05,-7.373929347676816e-05,-7.422683687342644e-05,6.1333,6.2
3.3125,-1.1238608285648908e-05,-6.397653424124515e-05,-8.44771395056077e-05,-8.155187912565807e-05,6.1333,6.2
3.31640625,-1.9633924467841836e-06,-6.446407763790343e-05,-8.252696591897461e-05,-9.912722401007098e-05,6.1333,6.2
3.3203125,-4.888709544518406e-07,-5.811412217898835e-05,-8.44771395056077e-05,-0.00011621502549782561,6.1333,6.2
3.32421875,5.849193202105738e-06,-5.90892089723049e-05,-0.00010302757118333717,-0.0001259777847333486,6.1333,6.2
3.328125,1.2199148661020813e-05,-6.49516210345617e-05,-0.00011426485191119251,-0.00013526489187457087,6.1333,6.2
3.33203125,1.5623843739986257e-05,-5.322679691004809e-05,-0.00011377730851453424,-0.00014842856358434424,6.1333,6.2
3.3359375,7.811258091096335e-06,-5.616394859235525e-05,-0.00011133959153124286,-0.0001601533877088579,6.1333,6.2
3.33984375,7.32371469443808e-06,-5.225171011673154e-05,-9.961476740672925e-05,-0.00015672869262989245,6.1333,6.2
3.34375,1.4636865644312165e-05,-4.6876841451133004e-05,-0.00010450209267566952,-0.00014696593339436943,6.1333,6.2
3.34765625,1.6111387136644508e-05,-3.9064255802243093e-05,-0.00011182713492790114,-0.00015087817186999316,6.1333,6.2
3.3515625,1.5136300343327974e-05,-3.321373504234381e-05,-0.00011182713492790114,-0.00015429097564660107,6.1333,6.2
3.35546875,1.366177885099563e-05,-2.6376236186770455e-05,-0.00010888998324559397,-0.00013477734847791258,6.1333,6.2
3.359375,1.0736518471045997e-05,-1.660158564888992e-05,-0.00010302757118333717,-0.00011475239530785079,6.1333,6.2
3.36328125,1.0248975074387715e-05,-1.4163868665598555e-05,-9.131463836118107e-05,-0.00010645226626230261,6.1333,6.2
3.3671875,1.0736518471045997e-05,-1.9051193934538815e-05,-8.398959610894943e-05,-9.472744213778898e-05,6.1333,6.2
3.37109375,1.0736518471045997e-05,-2.1001367521171913e-05,-9.08270949645228e-05,-7.910227084000918e-05,6.1333,6.2
3.375,7.32371469443808e-06,-2.295154110780501e-05,-0.00010547717946898607,-7.325175008010989e-05,6.1333,6.2
3.37890625,6.824279995422273e-06,-2.392662790112156e-05,-9.375235534447244e-05,-7.373929347676816e-05,6.1333,6.2
3.3828125,-4.888709544518406e-07,-2.735132298008699e-05,-9.033955156786453e-05,-6.641425122453653e-05,6.1333,6.2
3.38671875,-6.8388264133669165e-06,-2.930149656672009e-05,-0.00011572748210116734,-6.592670782787825e-05,6.1333,6.2
3.390625,-7.326369810025199e-06,-2.881395317006182e-05,-0.00011816519908445872,-6.933951160448617e-05,6.1333,6.2
3.39453125,-4.888652826733818e-06,-1.8076107141222267e-05,-8.398959610894943e-05,-6.250201274891281e-05,6.1333,6.2
3.3984375,-1.075106488899064e-05,-2.295154110780501e-05,-7.128968519111927e-05,-5.5176970496681176e-05,6.1333,6.2
3.40234375,-2.0513824124513632e-05,-3.662653881895173e-05,-9.423989874113071e-05,-5.468942710002291e-05,6.1333,6.2
3.40625,-1.9538737331197097e-05,-3.418882183566036e-05,-0.00010450209267566952,-6.0064295765621446e-05,6.1333,6.2
3.41015625,-2.0513824124513632e-05,-2.783886637674527e-05,-9.717705042343788e-05,-6.0551839162279714e-05,6.1333,6.2
3.4140625,-2.1001367521171913e-05,-2.881395317006182e-05,-8.88769213778897e-05,-4.395158107118335e-05,6.1333,6.2
3.41796875,-2.0026280727855364e-05,-2.343908450446328e-05,-6.982705500114445e-05,-3.565145202563518e-05,6.1333,6.2
3.421875,-1.8563650537880548e-05,-1.075106488899064e-05,-5.273925351338981e-05,-3.51639086289769e-05,6.1333,6.2
3.42578125,-1.7101020347905718e-05,-1.0263521492332358e-05,-7.128968519111927e-05,-3.076412675669492e-05,6.1333,6.2
3.4296875,-1.3676325268940274e-05,-1.5138955458915106e-05,-8.057679233234151e-05,-2.1001367521171913e-05,6.1333,6.2
3.43359375,-1.1238608285648908e-05,-1.660158564888992e-05,-6.1039382558938e-05,-1.8563650537880548e-05,6.1333,6.2
3.4375,-1.8563650537880548e-05,-1.660158564888992e-05,-4.6876841451133004e-05,-2.5888692790112174e-05,6.1333,6.2
3.44140625,-2.1976454314488462e-05,-1.172615168230719e-05,-7.422683687342644e-05,-2.978903996337837e-05,6.1333,6.2
3.4453125,-1.4651412062256823e-05,-1.1238608285648908e-05,-9.815213721675442e-05,-2.783886637674527e-05,6.1333,6.2
3.44921875,-1.5138955458915106e-05,-2.1001367521171913e-05,-8.88769213778897e-05,-2.6376236186770455e-05,6.1333,6.2
3.453125,-2.0026280727855364e-05,-2.1001367521171913e-05,-6.0064295765621446e-05,-3.076412675669492e-05,6.1333,6.2
3.45703125,-2.1976454314488462e-05,-2.1976454314488462e-05,-1.8076107141222267e-05,-2.5401149393453906e-05,6.1333,6.2
3.4609375,-2.343908450446328e-05,-2.881395317006182e-05,-5.273925351338981e-05,-2.148891091783018e-05,6.1333,6.2
3.46484375,-1.9538737331197097e-05,-2.978903996337837e-05,-8.155187912565807e-05,-2.5401149393453906e-05,6.1333,6.2
3.46875,-1.7101020347905718e-05,-2.930149656672009e-05,-4.5901754657816455e-05,-2.1001367521171913e-05,6.1333,6.2
3.47265625,-1.660158564888992e-05,-2.4913605996795625e-05,-4.7364384847791285e-05,-1.6114042252231656e-05,6.1333,6.2
3.4765625,-1.9538737331197097e-05,-2.6863779583428723e-05,-5.71390353856718e-05,-2.0026280727855364e-05,6.1333,6.2
3.48046875,-1.5626498855573372e-05,-2.5401149393453906e-05,-6.397653424124515e-05,-1.8563650537880548e-05,6.1333,6.2
3.484375,-1.5138955458915106e-05,-1.9051193934538815e-05,-8.496468290226598e-05,-1.8076107141222267e-05,6.1333,6.2
3.48828125,-1.4651412062256823e-05,-1.8076107141222267e-05,-9.08270949645228e-05,-1.2701238475623739e-05,6.1333,6.2
3.4921875,-1.2701238475623739e-05,-2.0026280727855364e-05,-9.033955156786453e-05,-9.288434699015824e-06,6.1333,6.2
3.49609375,-1.4651412062256823e-05,-1.8563650537880548e-05,-9.131463836118107e-05,-9.288434699015824e-06,6.1333,6.2
3.5,-1.5138955458915106e-05,-1.7101020347905718e-05,-6.641425122453653e-05,-8.800891302357541e-06,6.1333,6.2
3.50390625,-2.148891091783018e-05,-2.735132298008699e-05,-6.787688141451135e-05,-7.326369810025199e-06,6.1333,6.2
3.5078125,-2.4414171297779828e-05,-3.076412675669492e-05,-8.252696591897461e-05,-5.863739620050381e-06,6.1333,6.2
3.51171875,-2.4414171297779828e-05,-2.978903996337837e-05,-7.422683687342644e-05,-9.775978095674076e-06,6.1333,6.2
3.515625,-2.343908450446328e-05,-2.5888692790112174e-05,-5.566451389333946e-05,-1.2213695078965457e-05,6.1333,6.2
3.51953125,-2.5401149393453906e-05,-3.125167015335319e-05,-5.322679691004809e-05,-9.775978095674076e-06,6.1333,6.2
3.5234375,-3.125167015335319e-05,-4.003934259555964e-05,-6.201446935225455e-05,-8.301456603341734e-06,6.1333,6.2
3.52734375,-3.370127843900208e-05,-4.29764942778668e-05,-6.0064295765621446e-05,-7.81391320668348e-06,6.1333,6.2
3.53125,-3.662653881895173e-05,-4.981399313344016e-05,-6.933951160448617e-05,4.862158388647231e-07,6.1333,6.2
3.53515625,-3.760162561226828e-05,-5.665149198901352e-05,-6.885196820782791e-05,2.4363894254977934e-06,6.1333,6.2
3.5390625,-4.346403767452508e-05,-5.9576752368963165e-05,-5.71390353856718e-05,8.298801487754616e-06,6.1333,6.2
3.54296875,-4.443912446784164e-05,-5.8601665575646616e-05,-6.738933801785308e-05,7.811258091096335e-06,6.1333,6.2
3.546875,-4.541421126115819e-05,-6.1039382558938e-05,-6.592670782787825e-05,3.899019615472639e-06,6.1333,6.2
3.55078125,-4.541421126115819e-05,-6.49516210345617e-05,-5.762657878233007e-05,1.4636865644312165e-05,6.1333,6.2
3.5546875,-4.003934259555964e-05,-5.71390353856718e-05,-5.371434030670636e-05,1.3174235454337349e-05,6.1333,6.2
3.55859375,-3.8089169008926544e-05,-5.273925351338981e-05,-4.5901754657816455e-05,1.122406186770425e-05,6.1333,6.2
3.5625,-4.102632069123372e-05,-6.0064295765621446e-05,-2.978903996337837e-05,8.298801487754616e-06,6.1333,6.2
3.56640625,-4.49266678644999e-05,-5.616394859235525e-05,-6.446407763790343e-05,4.862158388647231e-07,6.1333,6.2
3.5703125,-4.541421126115819e-05,-5.322679691004809e-05,-9.961476740672925e-05,9.737592355229765e-07,6.1333,6.2
3.57421875,-4.395158107118335e-05,-5.566451389333946e-05,-7.763964065003434e-05,-1.4758490501259017e-06,6.1333,6.2
3.578125,-4.6876841451133004e-05,-4.981399313344016e-05,-5.078907992675671e-05,-4.888709544518406e-07,6.1333,6.2
3.58203125,-4.6389298054474736e-05,-3.760162561226828e-05,-4.5901754657816455e-05,-4.4011094300755644e-06,6.1333,6.2
3.5859375,-4.1513864087891985e-05,-3.8576712405584826e-05,-6.933951160448617e-05,-1.2701238475623739e-05,6.1333,6.2
3.58984375,-3.9551799198901375e-05,-4.29764942778668e-05,-5.762657878233007e-05,-1.1238608285648908e-05,6.1333,6.2
3.59375,-4.346403767452508e-05,-4.8351362943465346e-05,-5.127662332341499e-05,-6.351283016708663e-06,6.1333,6.2
3.59765625,-4.2488950881208534e-05,-4.6389298054474736e-05,-6.1039382558938e-05,-4.888652826733818e-06,6.1333,6.2
3.6015625,-3.662653881895173e-05,-3.760162561226828e-05,-5.468942710002291e-05,-6.8388264133669165e-06,6.1333,6.2
3.60546875,-3.662653881895173e-05,-4.29764942778668e-05,-5.665149198901352e-05,-5.863739620050381e-06,6.1333,6.2
3.609375,-3.9551799198901375e-05,-4.785192824444955e-05,-6.397653424124515e-05,-5.3761962233921e-06,6.1333,6.2
3.61328125,-4.0538777294575436e-05,-4.346403767452508e-05,-6.49516210345617e-05,-1.0263521492332358e-05,6.1333,6.2
3.6171875,-4.200140748455025e-05,-3.662653881895173e-05,-4.8351362943465346e-05,-1.1238608285648908e-05,6.1333,6.2
3.62109375,-3.8576712405584826e-05,-3.0276583360036637e-05,-4.29764942778668e-05,-9.775978095674076e-06,6.1333,6.2
3.625,-3.662653881895173e-05,-3.222675694666974e-05,-4.5901754657816455e-05,-1.075106488899064e-05,6.1333,6.2
3.62890625,-3.173921355001147e-05,-3.076412675669492e-05,-4.346403767452508e-05,-1.1238608285648908e-05,6.1333,6.2
3.6328125,-2.832640977340354e-05,-2.4913605996795625e-05,-3.467636523231863e-05,-1.2701238475623739e-05,6.1333,6.2
3.63671875,-2.343908450446328e-05,-2.0026280727855364e-05,-1.8076107141222267e-05,-1.8076107141222267e-05,6.1333,6.2
3.640625,-1.8076107141222267e-05,-2.246399771114673e-05,-1.8563650537880548e-05,-1.0263521492332358e-05,6.1333,6.2
3.64453125,-2.295154110780501e-05,-2.392662790112156e-05,-2.735132298008699e-05,-3.913566033417282e-06,6.1333,6.2
3.6484375,-2.4913605996795625e-05,-1.4651412062256823e-05,-4.9326449736781895e-05,-6.351283016708663e-06,6.1333,6.2
3.65234375,-2.1001367521171913e-05,-1.8076107141222267e-05,-5.8601665575646616e-05,-7.81391320668348e-06,6.1333,6.2
3.65625,-2.295154110780501e-05,-2.832640977340354e-05,-4.29764942778668e-05,-1.172615168230719e-05,6.1333,6.2
3.66015625,-2.881395317006182e-05,-2.392662790112156e-05,-2.5888692790112174e-05,-1.5138955458915106e-05,6.1333,6.2
3.6640625,-2.930149656672009e-05,-2.832640977340354e-05,-3.370127843900208e-05,-1.2701238475623739e-05,6.1333,6.2
3.66796875,-2.832640977340354e-05,-3.662653881895173e-05,-4.102632069123372e-05,-9.775978095674076e-06,6.1333,6.2
3.671875,-2.930149656672009e-05,-3.418882183566036e-05,-3.272619164568553e-05,-1.660158564888992e-05,6.1333,6.2
3.67578125,-3.222675694666974e-05,-3.0276583360036637e-05,-4.1513864087891985e-05,-2.246399771114673e-05,6.1333,6.2
3.6796875,-3.321373504234381e-05,-3.272619164568553e-05,-4.6389298054474736e-05,-1.8076107141222267e-05,6.1333,6.2
3.68359375,-3.51639086289769e-05,-3.222675694666974e-05,-7.715209725337608e-05,-1.2701238475623739e-05,6.1333,6.2
3.6875,-3.272619164568553e-05,-3.272619164568553e-05,-8.838937798123143e-05,-1.2213695078965457e-05,6.1333,6.2
3.69140625,-3.076412675669492e-05,-3.51639086289769e-05,-6.152692595559626e-05,-1.7101020347905718e-05,6.1333,6.2
3.6953125,-3.0276583360036637e-05,-3.662653881895173e-05,-4.003934259555964e-05,-2.392662790112156e-05,6.1333,6.2
3.69921875,-2.832640977340354e-05,-4.1513864087891985e-05,-3.9551799198901375e-05,-1.4163868665598555e-05,6.1333,6.2
3.703125,-2.978903996337837e-05,-3.9551799198901375e-05,-4.6389298054474736e-05,-1.0263521492332358e-05,6.1333,6.2
3.70703125,-3.565145202563518e-05,-3.760162561226828e-05,-6.543916443121998e-05,-1.2213695078965457e-05,6.1333,6.2
3.7109375,-3.467636523231863e-05,-3.7114082215609996e-05,-7.617701046005953e-05,-1.7101020347905718e-05,6.1333,6.2
3.71484375,-2.6376236186770455e-05,-2.930149656672009e-05,-6.0551839162279714e-05,-2.1976454314488462e-05,6.1333,6.2
3.71875,-2.930149656672009e-05,-3.076412675669492e-05,-4.9326449736781895e-05,-2.0513824124513632e-05,6.1333,6.2
3.72265625,-3.467636523231863e-05,-3.370127843900208e-05,-5.8601665575646616e-05,-2.4913605996795625e-05,6.1333,6.2
3.7265625,-3.467636523231863e-05,-3.9551799198901375e-05,-6.0064295765621446e-05,-2.6863779583428723e-05,6.1333,6.2
3.73046875,-3.418882183566036e-05,-4.981399313344016e-05,-5.468942710002291e-05,-2.148891091783018e-05,6.1333,6.2
3.734375,-3.467636523231863e-05,-4.7364384847791285e-05,-4.5901754657816455e-05,-1.9538737331197097e-05,6.1333,6.2
3.73828125,-3.7114082215609996e-05,-4.541421126115819e-05,-4.003934259555964e-05,-2.295154110780501e-05,6.1333,6.2
3.7421875,-3.9064255802243093e-05,-5.273925351338981e-05,-5.71390353856718e-05,-1.8563650537880548e-05,6.1333,6.2
3.74609375,-3.8576712405584826e-05,-5.371434030670636e-05,-9.08270949645228e-05,-1.4163868665598555e-05,6.1333,6.2
3.75,-4.1513864087891985e-05,-6.0064295765621446e-05,-7.617701046005953e-05,-1.8563650537880548e-05,6.1333,6.2
3.75390625,-4.1513864087891985e-05,-6.1039382558938e-05,-4.9326449736781895e-05,-2.1976454314488462e-05,6.1333,6.2
3.7578125,-3.173921355001147e-05,-4.785192824444955e-05,-4.785192824444955e-05,-2.148891091783018e-05,6.1333,6.2
3.76171875,-2.5401149393453906e-05,-3.9551799198901375e-05,-5.420188370336464e-05,-1.8563650537880548e-05,6.1333,6.2
3.765625,-2.832640977340354e-05,-4.49266678644999e-05,-7.373929347676816e-05,-1.660158564888992e-05,6.1333,6.2
3.76953125,-3.321373504234381e-05,-5.127662332341499e-05,-8.057679233234151e-05,-2.392662790112156e-05,6.1333,6.2
3.7734375,-3.272619164568553e-05,-4.8351362943465346e-05,-7.471438027008471e-05,-2.343908450446328e-05,6.1333,6.2
3.77734375,-3.565145202563518e-05,-4.6876841451133004e-05,-5.762657878233007e-05,-1.9538737331197097e-05,6.1333,6.2
3.78125,-3.7114082215609996e-05,-5.322679691004809e-05,-4.6389298054474736e-05,-1.5626498855573372e-05,6.1333,6.2
3.78515625,-3.467636523231863e-05,-5.322679691004809e-05,-6.347709954222936e-05,-1.0263521492332358e-05,6.1333,6.2
3.7890625,-3.662653881895173e-05,-5.0301536530098444e-05,-6.982705500114445e-05,-1.172615168230719e-05,6.1333,6.2
3.79296875,-2.978903996337837e-05,-4.6876841451133004e-05,-5.665149198901352e-05,-1.3188781872282006e-05,6.1333,6.2
3.796875,-2.392662790112156e-05,-4.102632069123372e-05,-5.078907992675671e-05,-1.4651412062256823e-05,6.1333,6.2
3.80078125,-3.0276583360036637e-05,-4.102632069123372e-05,-4.785192824444955e-05,-2.0026280727855364e-05,6.1333,6.2
3.8046875,-3.272619164568553e-05,-4.49266678644999e-05,-6.347709954222936e-05,-1.7588563744564e-05,6.1333,6.2
3.80859375,-3.125167015335319e-05,-4.2488950881208534e-05,-7.666455385671781e-05,-1.9538737331197097e-05,6.1333,6.2
3.8125,-3.51639086289769e-05,-4.1513864087891985e-05,-7.520192366674299e-05,-2.832640977340354e-05,6.1333,6.2
3.81640625,-4.0538777294575436e-05,-4.346403767452508e-05,-7.617701046005953e-05,-3.565145202563518e-05,6.1333,6.2
3.8203125,-4.346403767452508e-05,-3.8576712405584826e-05,-7.617701046005953e-05,-3.272619164568553e-05,6.1333,6.2
3.82421875,-3.467636523231863e-05,-3.7114082215609996e-05,-6.787688141451135e-05,-2.295154110780501e-05,6.1333,6.2
3.828125,-3.467636523231863e-05,-4.0538777294575436e-05,-6.0551839162279714e-05,-2.148891091783018e-05,6.1333,6.2
3.83203125,-3.7114082215609996e-05,-3.51639086289769e-05,-3.8576712405584826e-05,-2.1976454314488462e-05,6.1333,6.2
3.8359375,-3.321373504234381e-05,-3.125167015335319e-05,-4.785192824444955e-05,-1.7101020347905718e-05,6.1333,6.2
3.83984375,-3.321373504234381e-05,-2.978903996337837e-05,-8.496468290226598e-05,-1.8563650537880548e-05,6.1333,6.2
3.84375,-3.125167015335319e-05,-2.4913605996795625e-05,-7.763964065003434e-05,-2.1001367521171913e-05,6.1333,6.2
3.84765625,-2.930149656672009e-05,-2.6863779583428723e-05,-6.592670782787825e-05,-1.660158564888992e-05,6.1333,6.2
3.8515625,-2.5401149393453906e-05,-3.418882183566036e-05,-6.787688141451135e-05,-1.3188781872282006e-05,6.1333,6.2
3.85546875,-2.6863779583428723e-05,-3.7114082215609996e-05,-5.90892089723049e-05,-1.4163868665598555e-05,6.1333,6.2
3.859375,-2.978903996337837e-05,-3.7114082215609996e-05,-4.541421126115819e-05,-2.4414171297779828e-05,6.1333,6.2
3.86328125,-3.467636523231863e-05,-4.1513864087891985e-05,-3.125167015335319e-05,-2.978903996337837e-05,6.1333,6.2
3.8671875,-3.8089169008926544e-05,-4.346403767452508e-05,-2.832640977340354e-05,-2.392662790112156e-05,6.1333,6.2
3.87109375,-3.9551799198901375e-05,-4.5901754657816455e-05,-3.51639086289769e-05,-2.148891091783018e-05,6.1333,6.2
3.875,-3.467636523231863e-05,-3.9064255802243093e-05,-3.321373504234381e-05,-2.343908450446328e-05,6.1333,6.2
3.87890625,-3.272619164568553e-05,-3.565145202563518e-05,-2.5401149393453906e-05,-2.0026280727855364e-05,6.1333,6.2
3.8828125,-3.51639086289769e-05,-4.102632069123372e-05,-2.832640977340354e-05,-1.7101020347905718e-05,6.1333,6.2
3.88671875,-3.076412675669492e-05,-3.9064255802243093e-05,-2.392662790112156e-05,-2.246399771114673e-05,6.1333,6.2
3.890625,-2.783886637674527e-05,-3.418882183566036e-05,6.336736598763991e-06,-2.343908450446328e-05,6.1333,6.2
3.89453125,-2.6376236186770455e-05,-3.7114082215609996e-05,1.6598930533302792e-05,-2.4414171297779828e-05,6.1333,6.2
3.8984375,-2.6863779583428723e-05,-3.272619164568553e-05,-5.3761962233921e-06,-2.978903996337837e-05,6.1333,6.2
3.90234375,-2.6376236186770455e-05,-3.760162561226828e-05,-4.888709544518406e-07,-3.222675694666974e-05,6.1333,6.2
3.90625,-2.783886637674527e-05,-4.0538777294575436e-05,9.761431677729432e-06,-3.125167015335319e-05,6.1333,6.2
3.91015625,-3.125167015335319e-05,-3.7114082215609996e-05,1.0248975074387715e-05,-3.0276583360036637e-05,6.1333,6.2
3.9140625,-2.832640977340354e-05,-3.8089169008926544e-05,1.4149322247653913e-05,-2.5401149393453906e-05,6.1333,6.2
3.91796875,-3.0276583360036637e-05,-4.200140748455025e-05,8.298801487754616e-06,-2.6376236186770455e-05,6.1333,6.2
3.921875,-3.565145202563518e-05,-4.5901754657816455e-05,1.0248975074387715e-05,-3.321373504234381e-05,6.1333,6.2
3.92578125,-3.076412675669492e-05,-4.8838906340123614e-05,7.32371469443808e-06,-2.148891091783018e-05,6.1333,6.2
3.9296875,-2.881395317006182e-05,-4.395158107118335e-05,4.3865630121308926e-06,-1.7588563744564e-05,6.1333,6.2
3.93359375,-3.272619164568553e-05,-3.51639086289769e-05,8.298801487754616e-06,-2.343908450446328e-05,6.1333,6.2
3.9375,-2.881395317006182e-05,-2.930149656672009e-05,9.761431677729432e-06,-2.148891091783018e-05,6.1333,6.2
3.94140625,-2.5888692790112174e-05,-3.370127843900208e-05,4.862158388647231e-07,-1.7588563744564e-05,6.1333,6.2
3.9453125,-2.4913605996795625e-05,-3.662653881895173e-05,1.94884602883954e-06,-2.1976454314488462e-05,6.1333,6.2
3.94921875,-2.392662790112156e-05,-3.076412675669492e-05,2.9239328221560755e-06,-2.4913605996795625e-05,6.1333,6.2
3.953125,-2.6376236186770455e-05,-3.076412675669492e-05,-5.3761962233921e-06,-2.392662790112156e-05,6.1333,6.2
3.95703125,-2.6376236186770455e-05,-3.222675694666974e-05,2.4363894254977934e-06,-2.4414171297779828e-05,6.1333,6.2
3.9609375,-2.295154110780501e-05,-3.321373504234381e-05,1.0736518471045997e-05,-2.881395317006182e-05,6.1333,6.2
3.96484375,-2.5888692790112174e-05,-3.321373504234381e-05,8.786344884412897e-06,-3.272619164568553e-05,6.1333,6.2
3.96875,-2.881395317006182e-05,-3.321373504234381e-05,-8.800891302357541e-06,-2.246399771114673e-05,6.1333,6.2
3.97265625,-2.5401149393453906e-05,-3.222675694666974e-05,-1.2701238475623739e-05,-1.4651412062256823e-05,6.1333,6.2
3.9765625,-2.6863779583428723e-05,-3.467636523231863e-05,7.811258091096335e-06,-1.7101020347905718e-05,6.1333,6.2
3.98046875,-3.321373504234381e-05,-3.9064255802243093e-05,-2.938479240100719e-06,-1.6114042252231656e-05,6.1333,6.2
3.984375,-2.930149656672009e-05,-3.8576712405584826e-05,-3.0276583360036637e-05,-2.1976454314488462e-05,6.1333,6.2
3.98828125,-2.783886637674527e-05,-4.1513864087891985e-05,-2.832640977340354e-05,-2.1001367521171913e-05,6.1333,6.2
3.9921875,-2.5401149393453906e-05,-3.9064255802243093e-05,-2.1976454314488462e-05,-1.660158564888992e-05,6.1333,6.2
3.99609375,-2.343908450446328e-05,-3.51639086289769e-05,-3.076412675669492e-05,-1.9538737331197097e-05,6.1333,6.2
4.0,-2.6863779583428723e-05,-3.9064255802243093e-05,-2.881395317006182e-05,-1.9538737331197097e-05,6.1333,6.2
4.00390625,-2.5401149393453906e-05,-3.51639086289769e-05,-2.4414171297779828e-05,-2.343908450446328e-05,6.1333,6.2
4.0078125,-2.5401149393453906e-05,-3.222675694666974e-05,-3.076412675669492e-05,-2.4414171297779828e-05,6.1333,6.2
4.01171875,-2.5888692790112174e-05,-3.125167015335319e-05,-2.295154110780501e-05,-2.392662790112156e-05,6.1333,6.2
4.015625,-2.295154110780501e-05,-2.978903996337837e-05,-2.4913605996795625e-05,-1.9538737331197097e-05,6.1333,6.2
4.01953125,-2.246399771114673e-05,-2.4414171297779828e-05,-2.1001367521171913e-05,-1.3188781872282006e-05,6.1333,6.2
4.0234375,-2.343908450446328e-05,-1.9538737331197097e-05,-1.660158564888992e-05,-1.9051193934538815e-05,6.1333,6.2
4.02734375,-1.8563650537880548e-05,-1.9538737331197097e-05,-4.0538777294575436e-05,-1.9538737331197097e-05,6.1333,6.2
4.03125,-2.0026280727855364e-05,-2.5888692790112174e-05,-6.347709954222936e-05,-2.0026280727855364e-05,6.1333,6.2
4.03515625,-3.0276583360036637e-05,-3.418882183566036e-05,-6.152692595559626e-05,-2.783886637674527e-05,6.1333,6.2
4.0390625,-3.0276583360036637e-05,-3.0276583360036637e-05,-5.5176970496681176e-05,-2.930149656672009e-05,6.1333,6.2
4.04296875,-3.076412675669492e-05,-3.565145202563518e-05,-5.176416672007326e-05,-2.4913605996795625e-05,6.1333,6.2
4.046875,-3.565145202563518e-05,-4.8351362943465346e-05,-5.078907992675671e-05,-2.1001367521171913e-05,6.1333,6.2
4.05078125,-3.321373504234381e-05,-4.443912446784164e-05,-6.250201274891281e-05,-2.1976454314488462e-05,6.1333,6.2
4.0546875,-3.662653881895173e-05,-4.0538777294575436e-05,-4.8838906340123614e-05,-2.0026280727855364e-05,6.1333,6.2
4.05859375,-3.9551799198901375e-05,-3.9551799198901375e-05,-4.6876841451133004e-05,-1.6114042252231656e-05,6.1333,6.2
4.0625,-3.321373504234381e-05,-3.272619164568553e-05,-4.785192824444955e-05,-1.3188781872282006e-05,6.1333,6.2
4.06640625,-2.881395317006182e-05,-2.5401149393453906e-05,-3.8576712405584826e-05,-1.172615168230719e-05,6.1333,6.2
4.0703125,-3.173921355001147e-05,-2.6376236186770455e-05,-3.7114082215609996e-05,-2.0026280727855364e-05,6.1333,6.2
4.07421875,-3.565145202563518e-05,-2.295154110780501e-05,-2.978903996337837e-05,-1.7101020347905718e-05,6.1333,6.2
4.078125,-3.418882183566036e-05,-2.343908450446328e-05,-2.343908450446328e-05,-1.4163868665598555e-05,6.1333,6.2
4.08203125,-3.370127843900208e-05,-2.4414171297779828e-05,-2.832640977340354e-05,-1.660158564888992e-05,6.1333,6.2
4.0859375,-3.6138995422293447e-05,-2.246399771114673e-05,-2.930149656672009e-05,-1.0263521492332358e-05,6.1333,6.2
4.08984375,-3.565145202563518e-05,-2.735132298008699e-05,-2.978903996337837e-05,-6.8388264133669165e-06,6.1333,6.2
4.09375,-3.321373504234381e-05,-2.881395317006182e-05,-4.003934259555964e-05,-1.172615168230719e-05,6.1333,6.2
4.09765625,-2.832640977340354e-05,-1.8076107141222267e-05,-3.272619164568553e-05,-3.4260226367590007e-06,6.1333,6.2
4.1015625,-2.783886637674527e-05,-2.295154110780501e-05,-1.9051193934538815e-05,1.94884602883954e-06,6.1333,6.2
4.10546875,-2.783886637674527e-05,-4.7364384847791285e-05,-4.8838906340123614e-05,-3.4260226367590007e-06,6.1333,6.2
4.109375,-3.076412675669492e-05,-6.543916443121998e-05,-8.691485648889909e-05,-5.863739620050381e-06,6.1333,6.2
4.11328125,-2.343908450446328e-05,-7.325175008010989e-05,-8.106433572899979e-05,4.874106408789174e-06,6.1333,6.2
4.1171875,-2.4509358434424652e-06,-6.933951160448617e-05,-6.836442481116962e-05,8.786344884412897e-06,6.1333,6.2
