timestamp,TP9,AF7,AF8,TP10,Valence,Arousal
0.0,-3.27022991989013e-05,2.1005509468223152e-05,1.4171810910200718e-05,9.767871839475147e-06,5.9286,3.3571
0.00390625,-2.781747022964822e-05,2.4903248645761863e-05,2.1992599259937505e-05,8.325202143892624e-06,5.9286,3.3571
0.0078125,-2.781747022964822e-05,2.735831812771808e-05,1.710777029068443e-05,1.6120680498970072e-05,5.9286,3.3571
0.01171875,-2.9766339818417576e-05,2.978807761501494e-05,1.9056639879453784e-05,1.5158900701915071e-05,5.9286,3.3571
0.015625,-2.391973105210951e-05,4.006393544670793e-05,2.978807761501494e-05,7.338112352178285e-06,5.9286,3.3571
0.01953125,-2.146466157015328e-05,5.226335287251093e-05,3.6140886274509866e-05,4.402152971694562e-06,5.9286,3.3571
0.0234375,-2.880456002136256e-05,4.54296543144885e-05,1.8575749980926288e-05,9.28698194094764e-06,5.9286,3.3571
0.02734375,-3.417027888914313e-05,3.0775167406729296e-05,-1.1695003631647153e-05,7.338112352178285e-06,5.9286,3.3571
0.03125,-3.368938899061564e-05,3.3711126787213e-05,-1.0252333936064643e-05,-1.5618052803845215e-05,5.9286,3.3571
0.03515625,-3.465116878767065e-05,4.6391434111543516e-05,1.9723934843977133e-06,-2.146466157015328e-05,5.9286,3.3571
0.0390625,-2.73365803311207e-05,4.834030370031287e-05,5.8701326619364234e-06,1.4661935912108673e-06,5.9286,3.3571
0.04296875,-1.7086032494087077e-05,4.785941380178536e-05,1.2703831219958857e-05,8.325202143892624e-06,5.9286,3.3571
0.046875,-2.3413531158922636e-05,4.54296543144885e-05,-8.278154352635937e-06,-2.912435484855365e-06,5.9286,3.3571
0.05078125,-3.2221409300373774e-05,3.565999637598236e-05,-2.0502881773098295e-05,-8.784354245822782e-06,5.9286,3.3571
0.0546875,-2.5868600640878865e-05,3.859595575646607e-05,-4.380415175097227e-06,2.934173281452729e-06,5.9286,3.3571
0.05859375,-2.391973105210951e-05,4.1025715243762926e-05,2.453283382925207e-06,-4.826759975584878e-07,5.9286,3.3571
0.0625,-3.0272539711604422e-05,3.517910647745485e-05,-5.367504966811566e-06,-4.86130507362472e-06,5.9286,3.3571
0.06640625,-2.5868600640878865e-05,4.249369493400479e-05,-4.86130507362472e-06,-6.835484657053427e-06,5.9286,3.3571
0.0703125,-1.7086032494087077e-05,4.737852390325785e-05,1.0274071732661994e-05,3.4403731746395747e-06,5.9286,3.3571
0.07421875,-2.73365803311207e-05,3.955773555352108e-05,1.0754961631189502e-05,1.1742051422903855e-05,5.9286,3.3571
0.078125,-2.9766339818417576e-05,4.932739349202722e-05,2.2473489158464998e-05,-4.826759975584878e-07,5.9286,3.3571
0.08203125,-3.0272539711604422e-05,3.7608865964751725e-05,1.3184721118486365e-05,1.123585152971701e-05,5.9286,3.3571
0.0859375,-3.611914847791252e-05,2.834540791943243e-05,-8.278154352635937e-06,2.1992599259937505e-05,5.9286,3.3571
0.08984375,-3.368938899061564e-05,3.1256057305256786e-05,-4.826759975584878e-07,8.806092042420147e-06,5.9286,3.3571
0.09375,-3.2221409300373774e-05,2.5890338437476216e-05,-4.86130507362472e-06,4.9083528648814365e-06,5.9286,3.3571
0.09765625,-4.052308754863807e-05,1.8575749980926288e-05,-7.316374555580921e-06,4.402152971694562e-06,5.9286,3.3571
0.1015625,-4.49017166247043e-05,2.834540791943243e-05,-1.2682093423361493e-05,7.338112352178285e-06,5.9286,3.3571
0.10546875,-4.1003977447165565e-05,3.272403699549865e-05,-2.245175136186765e-05,-4.826759975584878e-07,5.9286,3.3571
0.109375,-3.758712816815435e-05,1.2703831219958857e-05,-2.781747022964822e-05,-7.316374555580921e-06,5.9286,3.3571
0.11328125,-4.148486734569309e-05,1.7588660189211935e-05,-3.758712816815435e-05,-1.4444557946135035e-06,5.9286,3.3571
0.1171875,-4.540791651789115e-05,2.8826297817959924e-05,-4.3433736934462444e-05,2.3523895628358103e-08,5.9286,3.3571
0.12109375,-3.513205868619815e-05,3.6140886274509866e-05,-1.9515791981383925e-05,-3.3933253833828585e-06,5.9286,3.3571
0.125,-3.465116878767065e-05,3.712797606622422e-05,-1.4630963012130848e-05,2.3523895628358103e-08,5.9286,3.3571
0.12890625,-3.854890796520936e-05,2.148639936675066e-05,-4.49017166247043e-05,1.8575749980926288e-05,5.9286,3.3571
0.1328125,-3.513205868619815e-05,3.3204926894026155e-05,-3.758712816815435e-05,2.2473489158464998e-05,5.9286,3.3571
0.13671875,-3.905510785839621e-05,2.6371228336003722e-05,-2.6830380437933854e-05,1.0274071732661994e-05,5.9286,3.3571
0.140625,-3.905510785839621e-05,6.857222453650792e-06,-3.465116878767065e-05,6.857222453650792e-06,5.9286,3.3571
0.14453125,-3.513205868619815e-05,1.2222941321431363e-05,-3.854890796520936e-05,1.4171810910200718e-05,5.9286,3.3571
0.1484375,-4.148486734569309e-05,6.857222453650792e-06,-4.2471957137407424e-05,1.0274071732661994e-05,5.9286,3.3571
0.15234375,-4.6369696314946135e-05,8.325202143892624e-06,-3.27022991989013e-05,2.3523895628358103e-08,5.9286,3.3571
0.15625,-4.001688765545123e-05,2.5409448538948706e-05,-1.1695003631647153e-05,9.767871839475147e-06,5.9286,3.3571
0.16015625,-3.513205868619815e-05,2.1992599259937505e-05,-2.912435484855365e-06,1.0274071732661994e-05,5.9286,3.3571
0.1640625,-4.442082672617678e-05,2.453283382925207e-06,-1.0733223834592138e-05,-2.912435484855365e-06,5.9286,3.3571
0.16796875,-4.3433736934462444e-05,5.8701326619364234e-06,-5.84839486533906e-06,-1.855401218432891e-05,5.9286,3.3571
0.171875,-3.465116878767065e-05,1.3184721118486365e-05,-6.329284763866581e-06,-6.329284763866581e-06,5.9286,3.3571
0.17578125,-3.611914847791252e-05,9.767871839475147e-06,-2.1970861463340127e-05,8.325202143892624e-06,5.9286,3.3571
0.1796875,-3.417027888914313e-05,1.2703831219958857e-05,-1.5618052803845215e-05,4.402152971694562e-06,5.9286,3.3571
0.18359375,-2.8298360128175716e-05,2.0043729671168137e-05,-1.9515791981383925e-05,7.338112352178285e-06,5.9286,3.3571
0.1875,-3.0272539711604422e-05,7.819002250705779e-06,-2.880456002136256e-05,9.767871839475147e-06,5.9286,3.3571
0.19140625,-2.3413531158922636e-05,1.710777029068443e-05,-2.245175136186765e-05,1.369092101167321e-05,5.9286,3.3571
0.1953125,-2.391973105210951e-05,3.3711126787213e-05,-6.835484657053427e-06,9.767871839475147e-06,5.9286,3.3571
0.19921875,-3.660003837644001e-05,2.7839208026245585e-05,-1.2682093423361493e-05,4.9083528648814365e-06,5.9286,3.3571
0.203125,-4.295284703593492e-05,1.1742051422903855e-05,-3.0272539711604422e-05,9.853036926833739e-07,5.9286,3.3571
0.20703125,-4.1003977447165565e-05,2.0524619569695643e-05,-2.0983771671625788e-05,-8.278154352635937e-06,5.9286,3.3571
0.2109375,-3.8068018066681874e-05,2.4903248645761863e-05,-1.1695003631647153e-05,-4.86130507362472e-06,5.9286,3.3571
0.21484375,-4.1991067238879935e-05,2.346057895017935e-05,-8.784354245822782e-06,-4.826759975584878e-07,5.9286,3.3571
0.21875,-4.2471957137407424e-05,3.3204926894026155e-05,-1.2201203524833999e-05,3.921263073167068e-06,5.9286,3.3571
0.22265625,-3.8068018066681874e-05,2.7839208026245585e-05,-1.9034902082856433e-05,4.402152971694562e-06,5.9286,3.3571
0.2265625,-3.513205868619815e-05,3.1256057305256786e-05,-5.84839486533906e-06,-1.4150073113603354e-05,5.9286,3.3571
0.23046875,-4.442082672617678e-05,2.5890338437476216e-05,-2.912435484855365e-06,-1.511185291065837e-05,5.9286,3.3571
0.234375,-4.685058621347366e-05,1.4171810910200718e-05,-6.835484657053427e-06,-2.912435484855365e-06,5.9286,3.3571
0.23828125,-3.8068018066681874e-05,1.563979060044258e-05,-2.4315455863278427e-06,-1.5618052803845215e-05,5.9286,3.3571
0.2421875,-3.368938899061564e-05,1.8575749980926288e-05,-2.0502881773098295e-05,-1.999668187991145e-05,5.9286,3.3571
0.24609375,-3.3183189097428793e-05,8.325202143892624e-06,-2.9766339818417576e-05,-1.2201203524833999e-05,5.9286,3.3571
0.25,-3.513205868619815e-05,7.819002250705779e-06,-2.146466157015328e-05,-6.329284763866581e-06,5.9286,3.3571
0.25390625,-3.27022991989013e-05,1.710777029068443e-05,-5.84839486533906e-06,-5.84839486533906e-06,5.9286,3.3571
0.2578125,-2.48815108491645e-05,2.9307187716487434e-05,1.4171810910200718e-05,-1.0252333936064643e-05,5.9286,3.3571
0.26171875,-2.73365803311207e-05,3.0775167406729296e-05,5.044137941558517e-07,-1.5618052803845215e-05,5.9286,3.3571
0.265625,-3.660003837644001e-05,1.7588660189211935e-05,-2.146466157015328e-05,-4.86130507362472e-06,5.9286,3.3571
0.26953125,-3.27022991989013e-05,2.9307187716487434e-05,-7.316374555580921e-06,-6.835484657053427e-06,5.9286,3.3571
0.2734375,-2.781747022964822e-05,4.6391434111543516e-05,7.819002250705779e-06,-1.2682093423361493e-05,5.9286,3.3571
0.27734375,-3.660003837644001e-05,3.6140886274509866e-05,-3.8995252765697045e-06,9.853036926833739e-07,5.9286,3.3571
0.28125,-4.2471957137407424e-05,2.8826297817959924e-05,-1.756692239261457e-05,-4.826759975584878e-07,5.9286,3.3571
0.28515625,-3.5638258579384996e-05,3.859595575646607e-05,-1.855401218432891e-05,-1.9034902082856433e-05,5.9286,3.3571
0.2890625,-3.513205868619815e-05,3.7608865964751725e-05,-2.0502881773098295e-05,-2.3413531158922636e-05,5.9286,3.3571
0.29296875,-3.758712816815435e-05,3.907684565499358e-05,-9.746134042877798e-06,-1.2682093423361493e-05,5.9286,3.3571
0.296875,-4.1003977447165565e-05,3.859595575646607e-05,1.0754961631189502e-05,-1.4444557946135035e-06,5.9286,3.3571
0.30078125,-3.905510785839621e-05,2.735831812771808e-05,1.2222941321431363e-05,-1.2682093423361493e-05,5.9286,3.3571
0.3046875,-2.245175136186765e-05,2.2473489158464998e-05,4.402152971694562e-06,-2.0983771671625788e-05,5.9286,3.3571
0.30859375,-1.855401218432891e-05,1.0754961631189502e-05,-7.316374555580921e-06,-1.657983260090023e-05,5.9286,3.3571
0.3125,-3.27022991989013e-05,8.806092042420147e-06,-9.746134042877798e-06,-2.3413531158922636e-05,5.9286,3.3571
0.31640625,-3.368938899061564e-05,1.953752977798129e-05,7.819002250705779e-06,-1.8047812291142066e-05,5.9286,3.3571
0.3203125,-3.3183189097428793e-05,1.6120680498970072e-05,1.2222941321431363e-05,-1.511185291065837e-05,5.9286,3.3571
0.32421875,-3.3183189097428793e-05,9.767871839475147e-06,4.9083528648814365e-06,-3.3933253833828585e-06,5.9286,3.3571
0.328125,-3.660003837644001e-05,1.9056639879453784e-05,2.934173281452729e-06,-1.4444557946135035e-06,5.9286,3.3571
0.33203125,-4.1003977447165565e-05,3.0775167406729296e-05,9.853036926833739e-07,-1.1214113733119632e-05,5.9286,3.3571
0.3359375,-3.8068018066681874e-05,3.224314709697114e-05,2.453283382925207e-06,-1.0252333936064643e-05,5.9286,3.3571
0.33984375,-4.295284703593492e-05,1.953752977798129e-05,-2.4315455863278427e-06,-8.278154352635937e-06,5.9286,3.3571
0.34375,-4.148486734569309e-05,2.0043729671168137e-05,-6.835484657053427e-06,-6.329284763866581e-06,5.9286,3.3571
0.34765625,-3.417027888914313e-05,3.3711126787213e-05,8.325202143892624e-06,-1.1214113733119632e-05,5.9286,3.3571
0.3515625,-2.9766339818417576e-05,3.517910647745485e-05,1.8069550087739444e-05,-1.0733223834592138e-05,5.9286,3.3571
0.35546875,-3.3183189097428793e-05,2.978807761501494e-05,1.123585152971701e-05,-5.84839486533906e-06,5.9286,3.3571
0.359375,-3.3183189097428793e-05,3.565999637598236e-05,1.0274071732661994e-05,-2.912435484855365e-06,5.9286,3.3571
0.36328125,-2.8298360128175716e-05,3.955773555352108e-05,1.2222941321431363e-05,-4.380415175097227e-06,5.9286,3.3571
0.3671875,-3.0753429610131915e-05,2.5890338437476216e-05,6.857222453650792e-06,-3.8995252765697045e-06,5.9286,3.3571
0.37109375,-3.2221409300373774e-05,1.369092101167321e-05,-3.8995252765697045e-06,-4.380415175097227e-06,5.9286,3.3571
0.375,-3.513205868619815e-05,2.0524619569695643e-05,1.0274071732661994e-05,-8.784354245822782e-06,5.9286,3.3571
0.37890625,-4.148486734569309e-05,1.7588660189211935e-05,1.2703831219958857e-05,-1.609894270237271e-05,5.9286,3.3571
0.3828125,-3.758712816815435e-05,2.1992599259937505e-05,2.934173281452729e-06,-1.4150073113603354e-05,5.9286,3.3571
0.38671875,-3.611914847791252e-05,1.8575749980926288e-05,-2.4315455863278427e-06,-1.2201203524833999e-05,5.9286,3.3571
0.390625,-3.611914847791252e-05,2.148639936675066e-05,-9.746134042877798e-06,-2.5387710742351345e-05,5.9286,3.3571
0.39453125,-2.73365803311207e-05,3.467290658426801e-05,3.4403731746395747e-06,-1.9515791981383925e-05,5.9286,3.3571
0.3984375,-3.368938899061564e-05,2.9307187716487434e-05,1.4661935912108673e-06,-6.835484657053427e-06,5.9286,3.3571
0.40234375,-3.368938899061564e-05,2.5409448538948706e-05,-1.2201203524833999e-05,-3.8995252765697045e-06,5.9286,3.3571
0.40625,-2.8298360128175716e-05,1.2703831219958857e-05,-7.797264454108443e-06,-2.2932641260395143e-05,5.9286,3.3571
0.41015625,-3.660003837644001e-05,4.402152971694562e-06,4.9083528648814365e-06,-3.3183189097428793e-05,5.9286,3.3571
0.4140625,-4.5888806416418646e-05,-7.316374555580921e-06,-1.609894270237271e-05,-2.5387710742351345e-05,5.9286,3.3571
0.41796875,-4.540791651789115e-05,4.402152971694562e-06,-1.4630963012130848e-05,-3.27022991989013e-05,5.9286,3.3571
0.421875,-4.1991067238879935e-05,1.5158900701915071e-05,-5.367504966811566e-06,-2.391973105210951e-05,5.9286,3.3571
0.42578125,-3.9535997756923706e-05,9.767871839475147e-06,-1.511185291065837e-05,-1.2682093423361493e-05,5.9286,3.3571
0.4296875,-4.001688765545123e-05,6.857222453650792e-06,-1.5618052803845215e-05,-1.0733223834592138e-05,5.9286,3.3571
0.43359375,-4.001688765545123e-05,1.2703831219958857e-05,-8.784354245822782e-06,-1.0252333936064643e-05,5.9286,3.3571
0.4375,-3.905510785839621e-05,1.123585152971701e-05,-9.265244144350277e-06,-2.391973105210951e-05,5.9286,3.3571
0.44140625,-3.2221409300373774e-05,1.6120680498970072e-05,-4.380415175097227e-06,-2.880456002136256e-05,5.9286,3.3571
0.4453125,-2.8298360128175716e-05,1.4652700808728226e-05,-1.0252333936064643e-05,-1.657983260090023e-05,5.9286,3.3571
0.44921875,-3.1715209407186934e-05,3.921263073167068e-06,-1.609894270237271e-05,-2.391973105210951e-05,5.9286,3.3571
0.453125,-3.2221409300373774e-05,1.1742051422903855e-05,1.9723934843977133e-06,-4.3433736934462444e-05,5.9286,3.3571
0.45703125,-2.6830380437933854e-05,1.6120680498970072e-05,1.2703831219958857e-05,-2.9285449919890083e-05,5.9286,3.3571
0.4609375,-2.2932641260395143e-05,1.953752977798129e-05,2.4422358747234367e-05,-1.4444557946135035e-06,5.9286,3.3571
0.46484375,-3.5638258579384996e-05,9.767871839475147e-06,1.3184721118486365e-05,-2.0502881773098295e-05,5.9286,3.3571
0.46875,-4.148486734569309e-05,-4.380415175097227e-06,-1.0733223834592138e-05,-4.49017166247043e-05,5.9286,3.3571
0.47265625,-2.6830380437933854e-05,9.767871839475147e-06,-1.7086032494087077e-05,-1.9034902082856433e-05,5.9286,3.3571
0.4765625,-2.0502881773098295e-05,1.2222941321431363e-05,-1.9515791981383925e-05,-9.746134042877798e-06,5.9286,3.3571
0.48046875,-3.417027888914313e-05,1.4661935912108673e-06,-1.9515791981383925e-05,-2.48815108491645e-05,5.9286,3.3571
0.484375,-3.905510785839621e-05,4.402152971694562e-06,-2.5387710742351345e-05,-2.6830380437933854e-05,5.9286,3.3571
0.48828125,-2.1970861463340127e-05,5.8701326619364234e-06,-2.73365803311207e-05,-2.0502881773098295e-05,5.9286,3.3571
0.4921875,-3.0272539711604422e-05,-2.4315455863278427e-06,-3.7106238269626855e-05,-2.4400620950637006e-05,5.9286,3.3571
0.49609375,-3.660003837644001e-05,3.4403731746395747e-06,-2.245175136186765e-05,-4.052308754863807e-05,5.9286,3.3571
0.5,-2.9766339818417576e-05,8.325202143892624e-06,-2.4315455863278427e-06,-4.540791651789115e-05,5.9286,3.3571
0.50390625,-3.5638258579384996e-05,-1.4444557946135035e-06,-1.3162983321889014e-05,-2.0502881773098295e-05,5.9286,3.3571
0.5078125,-3.905510785839621e-05,1.2703831219958857e-05,-1.609894270237271e-05,-1.1214113733119632e-05,5.9286,3.3571
0.51171875,-3.854890796520936e-05,2.5409448538948706e-05,-2.912435484855365e-06,-1.9515791981383925e-05,5.9286,3.3571
0.515625,-2.5868600640878865e-05,2.978807761501494e-05,2.394146884870686e-05,-5.84839486533906e-06,5.9286,3.3571
0.51953125,-2.5868600640878865e-05,3.6140886274509866e-05,2.9307187716487434e-05,5.38924276340893e-06,5.9286,3.3571
0.5234375,-2.8298360128175716e-05,3.907684565499358e-05,2.5409448538948706e-05,-5.84839486533906e-06,5.9286,3.3571
0.52734375,-3.905510785839621e-05,2.6371228336003722e-05,1.4661935912108673e-06,-2.48815108491645e-05,5.9286,3.3571
0.53125,-4.9786545593957356e-05,1.7588660189211935e-05,-1.999668187991145e-05,-1.855401218432891e-05,5.9286,3.3571
0.53515625,-4.2471957137407424e-05,2.834540791943243e-05,9.28698194094764e-06,-9.265244144350277e-06,5.9286,3.3571
0.5390625,-3.417027888914313e-05,3.859595575646607e-05,2.2954379056992508e-05,-1.0252333936064643e-05,5.9286,3.3571
0.54296875,-2.73365803311207e-05,4.1506605142290436e-05,2.0043729671168137e-05,-1.4630963012130848e-05,5.9286,3.3571
0.546875,-2.3413531158922636e-05,3.1762257198443646e-05,5.8701326619364234e-06,-1.1214113733119632e-05,5.9286,3.3571
0.55078125,-2.6830380437933854e-05,2.1005509468223152e-05,-1.1214113733119632e-05,5.044137941558517e-07,5.9286,3.3571
0.5546875,-2.6830380437933854e-05,2.394146884870686e-05,6.351022560463946e-06,-1.0733223834592138e-05,5.9286,3.3571
0.55859375,-1.9034902082856433e-05,3.224314709697114e-05,1.9056639879453784e-05,-1.999668187991145e-05,5.9286,3.3571
0.5625,-2.245175136186765e-05,3.1256057305256786e-05,1.6120680498970072e-05,-9.746134042877798e-06,5.9286,3.3571
0.56640625,-1.8047812291142066e-05,3.859595575646607e-05,2.9307187716487434e-05,-2.912435484855365e-06,5.9286,3.3571
0.5703125,-1.1214113733119632e-05,4.884650359349972e-05,4.006393544670793e-05,-5.367504966811566e-06,5.9286,3.3571
0.57421875,-2.9766339818417576e-05,3.712797606622422e-05,2.4422358747234367e-05,-1.7086032494087077e-05,5.9286,3.3571
0.578125,-4.49017166247043e-05,3.808975586327922e-05,2.148639936675066e-05,-1.756692239261457e-05,5.9286,3.3571
0.58203125,-4.5888806416418646e-05,4.054482534523544e-05,2.1005509468223152e-05,-1.5618052803845215e-05,5.9286,3.3571
0.5859375,-4.5888806416418646e-05,4.006393544670793e-05,2.1005509468223152e-05,-2.4400620950637006e-05,5.9286,3.3571
0.58984375,-5.173541518272674e-05,4.29745848325323e-05,2.346057895017935e-05,-2.73365803311207e-05,5.9286,3.3571
0.59375,-5.7607333943694155e-05,2.9307187716487434e-05,9.28698194094764e-06,-7.797264454108443e-06,5.9286,3.3571
0.59765625,-5.419048466468294e-05,2.346057895017935e-05,2.1005509468223152e-05,-4.380415175097227e-06,5.9286,3.3571
0.6015625,-4.7837676005188e-05,2.4903248645761863e-05,2.0524619569695643e-05,-1.1695003631647153e-05,5.9286,3.3571
0.60546875,-4.8318565903715524e-05,2.0043729671168137e-05,3.4403731746395747e-06,-1.4630963012130848e-05,5.9286,3.3571
0.609375,-4.1003977447165565e-05,2.1992599259937505e-05,1.662688039215692e-05,-7.797264454108443e-06,5.9286,3.3571
0.61328125,-2.880456002136256e-05,3.808975586327922e-05,3.517910647745485e-05,-5.84839486533906e-06,5.9286,3.3571
0.6171875,-2.146466157015328e-05,5.421222246128029e-05,3.565999637598236e-05,-1.0733223834592138e-05,5.9286,3.3571
0.62109375,-2.391973105210951e-05,3.6140886274509866e-05,1.3184721118486365e-05,-1.1214113733119632e-05,5.9286,3.3571
0.625,-3.3183189097428793e-05,1.3184721118486365e-05,7.819002250705779e-06,-1.855401218432891e-05,5.9286,3.3571
0.62890625,-3.0272539711604422e-05,2.9307187716487434e-05,2.834540791943243e-05,-2.2932641260395143e-05,5.9286,3.3571
0.6328125,-2.391973105210951e-05,5.031448328374158e-05,3.0775167406729296e-05,-3.417027888914313e-05,5.9286,3.3571
0.63671875,-3.27022991989013e-05,4.201280503547728e-05,1.0754961631189502e-05,-3.660003837644001e-05,5.9286,3.3571
0.640625,-3.758712816815435e-05,4.1506605142290436e-05,4.9083528648814365e-06,-2.634949053940636e-05,5.9286,3.3571
0.64453125,-3.9535997756923706e-05,3.565999637598236e-05,-1.1214113733119632e-05,-3.123431950865944e-05,5.9286,3.3571
0.6484375,-5.419048466468294e-05,3.467290658426801e-05,-3.8995252765697045e-06,-3.27022991989013e-05,5.9286,3.3571
0.65234375,-4.2471957137407424e-05,5.76290717402915e-05,2.735831812771808e-05,-2.9766339818417576e-05,5.9286,3.3571
0.65625,-1.855401218432891e-05,3.419201668574051e-05,1.710777029068443e-05,-1.8047812291142066e-05,5.9286,3.3571
0.66015625,-1.855401218432891e-05,1.662688039215692e-05,7.819002250705779e-06,-4.295284703593492e-05,5.9286,3.3571
0.6640625,-1.511185291065837e-05,2.4422358747234367e-05,-3.8995252765697045e-06,-7.028764126802466e-05,5.9286,3.3571
0.66796875,-1.1695003631647153e-05,1.2222941321431363e-05,-3.9535997756923706e-05,-7.714664982070644e-05,5.9286,3.3571
0.671875,-2.912435484855365e-06,4.402152971694562e-06,-4.052308754863807e-05,-0.00010058370487525743,5.9286,3.3571
0.67578125,1.4171810910200718e-05,1.8575749980926288e-05,-2.0502881773098295e-05,-0.00013085445848783086,5.9286,3.3571
0.6796875,1.9056639879453784e-05,9.767871839475147e-06,-3.417027888914313e-05,-0.00015624038313115124,5.9286,3.3571
0.68359375,2.346057895017935e-05,-3.8995252765697045e-06,-5.320339487296857e-05,-0.00014890048467994192,5.9286,3.3571
0.6875,3.565999637598236e-05,1.0754961631189502e-05,-5.7607333943694155e-05,-0.00016307408168917369,5.9286,3.3571
0.69140625,2.9307187716487434e-05,2.2954379056992508e-05,-5.370959476615542e-05,-0.00018992798602273584,5.9286,3.3571
0.6953125,2.834540791943243e-05,3.3711126787213e-05,-4.2471957137407424e-05,-0.00019774877437247267,5.9286,3.3571
0.69921875,4.737852390325785e-05,5.226335287251093e-05,-3.0753429610131915e-05,-0.00019481281499198893,5.9286,3.3571
0.703125,3.955773555352108e-05,4.1506605142290436e-05,-3.660003837644001e-05,-0.0002123779512855725,5.9286,3.3571
0.70703125,2.687742822919057e-05,2.6371228336003722e-05,-5.7607333943694155e-05,-0.00022313469901579302,5.9286,3.3571
0.7109375,3.712797606622422e-05,4.348078472571914e-05,-4.49017166247043e-05,-0.0002123779512855725,5.9286,3.3571
0.71484375,4.492345442130166e-05,5.5199312252994645e-05,-1.3162983321889014e-05,-0.0002084802121080338,5.9286,3.3571
0.71875,4.006393544670793e-05,5.1782462973983423e-05,1.3184721118486365e-05,-0.00020653134251926445,5.9286,3.3571
0.72265625,3.3711126787213e-05,6.299479060807208e-05,1.3184721118486365e-05,-0.00019774877437247267,5.9286,3.3571
0.7265625,3.1256057305256786e-05,5.909705143053337e-05,-7.797264454108443e-06,-0.0001845622671549553,5.9286,3.3571
0.73046875,2.394146884870686e-05,4.591054421301601e-05,-6.835484657053427e-06,-0.00016454206137941555,5.9286,3.3571
0.734375,2.2954379056992508e-05,5.322513266956593e-05,1.4652700808728226e-05,-0.00015183644406042567,5.9286,3.3571
0.73828125,2.4903248645761863e-05,5.568020215152215e-05,1.4171810910200718e-05,-0.0001420667861219195,5.9286,3.3571
0.7421875,2.834540791943243e-05,6.350099050125892e-05,9.28698194094764e-06,-0.00012693140931563281,5.9286,3.3571
0.74609375,1.953752977798129e-05,6.350099050125892e-05,2.1992599259937505e-05,-0.00011668086147859915,5.9286,3.3571
0.75,2.2954379056992508e-05,8.693804555580994e-05,4.980828339055473e-05,-0.00012546342962539096,5.9286,3.3571
0.75390625,2.1992599259937505e-05,8.496386597238123e-05,3.6621776173037376e-05,-0.00012303367013809406,5.9286,3.3571
0.7578125,3.4403731746395747e-06,5.373133256275279e-05,2.0043729671168137e-05,-0.00010888538312352173,5.9286,3.3571
0.76171875,5.38924276340893e-06,6.350099050125892e-05,3.0775167406729296e-05,-0.00010837918323033489,5.9286,3.3571
0.765625,8.806092042420147e-06,7.033468905928136e-05,3.7608865964751725e-05,-0.00010496233395132367,5.9286,3.3571
0.76953125,-4.380415175097227e-06,6.59307499885558e-05,3.565999637598236e-05,-0.00010741740343327987,5.9286,3.3571
0.7734375,-1.0733223834592138e-05,5.909705143053337e-05,2.687742822919057e-05,-0.00010400055415426865,5.9286,3.3571
0.77734375,-9.265244144350277e-06,6.104592101930272e-05,2.687742822919057e-05,-9.228202662699314e-05,5.9286,3.3571
0.78125,-8.278154352635937e-06,6.299479060807208e-05,4.492345442130166e-05,-0.00010058370487525743,5.9286,3.3571
0.78515625,-2.912435484855365e-06,4.348078472571914e-05,3.859595575646607e-05,-8.886517734798192e-05,5.9286,3.3571
0.7890625,-8.784354245822782e-06,3.6621776173037376e-05,3.6140886274509866e-05,-7.567867013046458e-05,5.9286,3.3571
0.79296875,-1.3669183215075861e-05,4.785941380178536e-05,4.444256452277415e-05,-7.66404499275196e-05,5.9286,3.3571
0.796875,-1.511185291065837e-05,4.396167462424665e-05,4.054482534523544e-05,-7.762753971923394e-05,5.9286,3.3571
0.80078125,-1.5618052803845215e-05,3.1762257198443646e-05,3.955773555352108e-05,-6.687079198901344e-05,5.9286,3.3571
0.8046875,-1.0733223834592138e-05,3.3711126787213e-05,4.201280503547728e-05,-5.6139354253452296e-05,5.9286,3.3571
0.80859375,-2.0502881773098295e-05,3.808975586327922e-05,3.517910647745485e-05,-7.028764126802466e-05,5.9286,3.3571
0.8125,-3.123431950865944e-05,3.0775167406729296e-05,4.6391434111543516e-05,-7.957640930800329e-05,5.9286,3.3571
0.81640625,-1.657983260090023e-05,3.565999637598236e-05,6.982848916609451e-05,-5.370959476615542e-05,5.9286,3.3571
0.8203125,-1.3669183215075861e-05,3.6621776173037376e-05,5.031448328374158e-05,-4.2471957137407424e-05,5.9286,3.3571
0.82421875,-2.8298360128175716e-05,2.735831812771808e-05,4.54296543144885e-05,-5.712644404516663e-05,5.9286,3.3571
0.828125,-2.9285449919890083e-05,3.6140886274509866e-05,7.276444854657821e-05,-5.2241615075913585e-05,5.9286,3.3571
0.83203125,-3.0272539711604422e-05,3.859595575646607e-05,6.0565031120775214e-05,-3.5638258579384996e-05,5.9286,3.3571
0.8359375,-3.465116878767065e-05,3.272403699549865e-05,5.226335287251093e-05,-4.5888806416418646e-05,5.9286,3.3571
0.83984375,-2.6830380437933854e-05,2.8826297817959924e-05,6.446277029831394e-05,-5.419048466468294e-05,5.9286,3.3571
0.84375,-2.5868600640878865e-05,1.7588660189211935e-05,4.348078472571914e-05,-4.540791651789115e-05,5.9286,3.3571
0.84765625,-3.123431950865944e-05,1.8575749980926288e-05,4.29745848325323e-05,-3.905510785839621e-05,5.9286,3.3571
0.8515625,-3.3183189097428793e-05,2.7839208026245585e-05,7.423242823682009e-05,-4.1003977447165565e-05,5.9286,3.3571
0.85546875,-3.5638258579384996e-05,2.1992599259937505e-05,8.595095576409558e-05,-4.2471957137407424e-05,5.9286,3.3571
0.859375,-2.8298360128175716e-05,1.953752977798129e-05,7.666218772411694e-05,-3.465116878767065e-05,5.9286,3.3571
0.86328125,-7.316374555580921e-06,3.6621776173037376e-05,8.352119627679872e-05,-3.660003837644001e-05,5.9286,3.3571
0.8671875,-8.278154352635937e-06,2.4903248645761863e-05,8.98486949416343e-05,-5.370959476615542e-05,5.9286,3.3571
0.87109375,-2.5868600640878865e-05,1.369092101167321e-05,0.00010303520215915165,-7.175562095826652e-05,5.9286,3.3571
0.875,-4.540791651789115e-05,1.0274071732661994e-05,9.572061370260172e-05,-6.542812229343093e-05,5.9286,3.3571
0.87890625,-4.8318565903715524e-05,5.8701326619364234e-06,8.98486949416343e-05,-4.8318565903715524e-05,5.9286,3.3571
0.8828125,-4.052308754863807e-05,1.2222941321431363e-05,9.620150360112923e-05,-5.026743549248488e-05,5.9286,3.3571
0.88671875,-3.2221409300373774e-05,2.394146884870686e-05,0.00011133688040741594,-5.026743549248488e-05,5.9286,3.3571
0.890625,-3.3183189097428793e-05,1.662688039215692e-05,0.00012011944855420773,-4.2471957137407424e-05,5.9286,3.3571
0.89453125,-3.465116878767065e-05,1.0754961631189502e-05,0.00012842112680247201,-4.7837676005188e-05,5.9286,3.3571
0.8984375,-3.2221409300373774e-05,1.5158900701915071e-05,0.0001572239007248036,-6.054329332417785e-05,5.9286,3.3571
0.90234375,-4.052308754863807e-05,5.38924276340893e-06,0.0001328250658731976,-6.492192240024409e-05,5.9286,3.3571
0.90625,-4.295284703593492e-05,1.9723934843977133e-06,0.00011181777030594345,-6.054329332417785e-05,5.9286,3.3571
0.91015625,-3.123431950865944e-05,1.2703831219958857e-05,0.00015135198196383618,-6.297305281147472e-05,5.9286,3.3571
0.9140625,-2.634949053940636e-05,2.0524619569695643e-05,0.0001782058862973984,-7.028764126802466e-05,5.9286,3.3571
0.91796875,-2.9766339818417576e-05,1.3184721118486365e-05,0.00018260982536812397,-8.446123827725637e-05,5.9286,3.3571
0.921875,-2.6830380437933854e-05,9.853036926833739e-07,0.0001689424282520791,-7.07938411612115e-05,5.9286,3.3571
0.92578125,-1.9034902082856433e-05,7.338112352178285e-06,0.00015039020216678115,-6.297305281147472e-05,5.9286,3.3571
0.9296875,-1.855401218432891e-05,1.662688039215692e-05,0.0001669682486686504,-8.056349909971766e-05,5.9286,3.3571
0.93359375,-3.0272539711604422e-05,4.9083528648814365e-06,0.00018650756454566267,-8.3474148485542e-05,5.9286,3.3571
0.9375,-3.465116878767065e-05,-6.835484657053427e-06,0.0001923794833066301,-7.517247023727774e-05,5.9286,3.3571
0.94140625,-3.0753429610131915e-05,-3.3933253833828585e-06,0.00019529013269245447,-6.884497157244215e-05,5.9286,3.3571
0.9453125,-3.660003837644001e-05,1.3184721118486365e-05,0.00019921318186465252,-7.274271074998086e-05,5.9286,3.3571
0.94921875,-3.9535997756923706e-05,1.563979060044258e-05,0.0002333816746547647,-6.345394271000221e-05,5.9286,3.3571
0.953125,-3.8068018066681874e-05,1.710777029068443e-05,0.00025633783981078817,-5.419048466468294e-05,5.9286,3.3571
0.95703125,-3.611914847791252e-05,2.1005509468223152e-05,0.0002597546890897994,-6.249216291294721e-05,5.9286,3.3571
0.9609375,-3.513205868619815e-05,1.710777029068443e-05,0.00026122266878004125,-7.66404499275196e-05,5.9286,3.3571
0.96484375,-3.9535997756923706e-05,4.9083528648814365e-06,0.0002392535934157321,-7.07938411612115e-05,5.9286,3.3571
0.96875,-4.001688765545123e-05,-7.797264454108443e-06,0.00023484965434500656,-5.6139354253452296e-05,5.9286,3.3571
0.97265625,-3.9535997756923706e-05,-1.3162983321889014e-05,0.0002514530108415351,-6.492192240024409e-05,5.9286,3.3571
0.9765625,-3.905510785839621e-05,-1.0733223834592138e-05,0.00024803616156252387,-7.226182085145336e-05,5.9286,3.3571
0.98046875,-3.0272539711604422e-05,1.9723934843977133e-06,0.0002587675992980851,-6.542812229343093e-05,5.9286,3.3571
0.984375,-2.634949053940636e-05,2.453283382925207e-06,0.00027000523692683305,-6.249216291294721e-05,5.9286,3.3571
0.98828125,-3.854890796520936e-05,-1.4444557946135035e-06,0.0002739029761043717,-7.07938411612115e-05,5.9286,3.3571
0.9921875,-4.540791651789115e-05,2.934173281452729e-06,0.00029149342239261463,-7.858931951628894e-05,5.9286,3.3571
0.99609375,-4.1003977447165565e-05,4.402152971694562e-06,0.0003032119499198902,-6.297305281147472e-05,5.9286,3.3571
1.0,-3.9535997756923706e-05,1.4661935912108673e-06,0.00029734003115892277,-5.5152264461737926e-05,5.9286,3.3571
1.00390625,-3.0753429610131915e-05,1.2222941321431363e-05,0.00030809677888914323,-6.932586147096964e-05,5.9286,3.3571
1.0078125,-2.9766339818417576e-05,2.7839208026245585e-05,0.00033249561374074923,-7.274271074998086e-05,5.9286,3.3571
1.01171875,-3.660003837644001e-05,2.148639936675066e-05,0.00033591246301976045,-6.249216291294721e-05,5.9286,3.3571
1.015625,-3.905510785839621e-05,1.3184721118486365e-05,0.00032419393549248504,-5.808822384222165e-05,5.9286,3.3571
1.01953125,-2.9766339818417576e-05,2.394146884870686e-05,0.0003222450659037156,-6.102418322270537e-05,5.9286,3.3571
1.0234375,-3.0753429610131915e-05,1.8069550087739444e-05,0.00031591756723888003,-6.444103250171658e-05,5.9286,3.3571
1.02734375,-3.5638258579384996e-05,-1.9506556878003493e-06,0.00031052653837644015,-6.542812229343093e-05,5.9286,3.3571
1.03125,-2.9766339818417576e-05,8.325202143892624e-06,0.00032763609476615555,-6.102418322270537e-05,5.9286,3.3571
1.03515625,-2.5387710742351345e-05,1.123585152971701e-05,0.00034373325136949725,-6.198596301976035e-05,5.9286,3.3571
1.0390625,-3.0753429610131915e-05,3.4403731746395747e-06,0.00033396359343099114,-6.78578817807278e-05,5.9286,3.3571
1.04296875,-2.781747022964822e-05,1.1742051422903855e-05,0.00033054674415198,-6.444103250171658e-05,5.9286,3.3571
1.046875,-2.73365803311207e-05,8.325202143892624e-06,0.0003564388686884871,-6.396014260318907e-05,5.9286,3.3571
1.05078125,-2.9285449919890083e-05,1.1742051422903855e-05,0.00037010626580453196,-6.737699188220029e-05,5.9286,3.3571
1.0546875,-4.052308754863807e-05,-4.86130507362472e-06,0.000363753457145037,-6.884497157244215e-05,5.9286,3.3571
1.05859375,-4.7837676005188e-05,-2.2932641260395143e-05,0.0003764590744640269,-6.345394271000221e-05,5.9286,3.3571
1.0625,-3.513205868619815e-05,-7.316374555580921e-06,0.0003774208542610819,-4.8824765796902364e-05,5.9286,3.3571
1.06640625,-2.9766339818417576e-05,-2.4315455863278427e-06,0.00036620852662699324,-5.2241615075913585e-05,5.9286,3.3571
1.0703125,-4.685058621347366e-05,-8.278154352635937e-06,0.00036081749776455336,-5.808822384222165e-05,5.9286,3.3571
1.07421875,-4.5888806416418646e-05,-1.7086032494087077e-05,0.00036717030642404824,-5.467137456321043e-05,5.9286,3.3571
1.078125,-3.758712816815435e-05,-2.391973105210951e-05,0.0003730422251850157,-6.102418322270537e-05,5.9286,3.3571
1.08203125,-4.148486734569309e-05,-1.756692239261457e-05,0.0003764590744640269,-7.421069044022272e-05,5.9286,3.3571
1.0859375,-3.7106238269626855e-05,-1.511185291065837e-05,0.0003622854774547952,-7.07938411612115e-05,5.9286,3.3571
1.08984375,-3.513205868619815e-05,-9.746134042877798e-06,0.00035545177889677277,-7.07938411612115e-05,5.9286,3.3571
1.09375,-3.27022991989013e-05,7.819002250705779e-06,0.0003788888339513238,-7.274271074998086e-05,5.9286,3.3571
1.09765625,-2.9766339818417576e-05,5.38924276340893e-06,0.00039255623106736865,-7.175562095826652e-05,5.9286,3.3571
1.1015625,-3.368938899061564e-05,-9.265244144350277e-06,0.00038670962230106056,-7.07938411612115e-05,5.9286,3.3571
1.10546875,-3.368938899061564e-05,-4.86130507362472e-06,0.0003754719846723126,-7.469158033875021e-05,5.9286,3.3571
1.109375,-2.781747022964822e-05,1.2703831219958857e-05,0.00038719051219958807,-8.494212817578386e-05,5.9286,3.3571
1.11328125,-2.9285449919890083e-05,1.0274071732661994e-05,0.00041599328612191964,-7.90955194094758e-05,5.9286,3.3571
1.1171875,-3.368938899061564e-05,-4.86130507362472e-06,0.00038719051219958807,-6.102418322270537e-05,5.9286,3.3571
1.12109375,-3.2221409300373774e-05,-1.0252333936064643e-05,0.0003730422251850157,-5.467137456321043e-05,5.9286,3.3571
1.125,-3.465116878767065e-05,-1.2682093423361493e-05,0.00038670962230106056,-6.78578817807278e-05,5.9286,3.3571
1.12890625,-3.513205868619815e-05,-1.657983260090023e-05,0.0003808377035400931,-7.517247023727774e-05,5.9286,3.3571
1.1328125,-3.417027888914313e-05,-2.0502881773098295e-05,0.0003720551353933014,-7.1274731059739e-05,5.9286,3.3571
1.13671875,-3.513205868619815e-05,-1.4630963012130848e-05,0.0003749910947737851,-7.517247023727774e-05,5.9286,3.3571
1.140625,-3.9535997756923706e-05,-1.0733223834592138e-05,0.0003793697238498513,-8.641010786602572e-05,5.9286,3.3571
1.14453125,-4.393993682764929e-05,-1.2682093423361493e-05,0.0003852416426108187,-8.299325858701451e-05,5.9286,3.3571
1.1484375,-4.1003977447165565e-05,-1.9515791981383925e-05,0.0003759528745708401,-7.1274731059739e-05,5.9286,3.3571
1.15234375,-4.3433736934462444e-05,-3.0753429610131915e-05,0.00038377366292057684,-6.83387716792553e-05,5.9286,3.3571
1.15625,-3.9535997756923706e-05,-1.1695003631647153e-05,0.0004145506164263371,-9.324380642404816e-05,5.9286,3.3571
1.16015625,-3.5638258579384996e-05,-1.1214113733119632e-05,0.0003920753411688411,-8.446123827725637e-05,5.9286,3.3571
1.1640625,-4.393993682764929e-05,-8.784354245822782e-06,0.0003613236976577402,-6.737699188220029e-05,5.9286,3.3571
1.16796875,-4.2471957137407424e-05,1.9723934843977133e-06,0.00037451020487525754,-7.372980054169523e-05,5.9286,3.3571
1.171875,-4.442082672617678e-05,-1.511185291065837e-05,0.0003769399643625544,-6.737699188220029e-05,5.9286,3.3571
1.17578125,-4.052308754863807e-05,-1.1214113733119632e-05,0.00036474054693675143,-5.5152264461737926e-05,5.9286,3.3571
1.1796875,-3.0753429610131915e-05,-2.4315455863278427e-06,0.0003622854774547952,-5.856911374074914e-05,5.9286,3.3571
1.18359375,-2.8298360128175716e-05,-7.797264454108443e-06,0.00036962537590600446,-6.638990209048595e-05,5.9286,3.3571
1.1875,-3.5638258579384996e-05,-6.329284763866581e-06,0.00037058715570305946,-6.249216291294721e-05,5.9286,3.3571
1.19140625,-3.758712816815435e-05,-9.265244144350277e-06,0.0003559326687953003,-6.638990209048595e-05,5.9286,3.3571
1.1953125,-4.052308754863807e-05,-1.1695003631647153e-05,0.00035448999909971777,-6.542812229343093e-05,5.9286,3.3571
1.19921875,-4.295284703593492e-05,-6.329284763866581e-06,0.000362791677347982,-6.542812229343093e-05,5.9286,3.3571
1.203125,-3.8068018066681874e-05,-1.4150073113603354e-05,0.00035302201940947585,-7.07938411612115e-05,5.9286,3.3571
1.20703125,-3.854890796520936e-05,-1.9034902082856433e-05,0.00033396359343099114,-4.8318565903715524e-05,5.9286,3.3571
1.2109375,-3.1715209407186934e-05,5.044137941558517e-07,0.0003349506832227055,-3.465116878767065e-05,5.9286,3.3571
1.21484375,-2.146466157015328e-05,6.351022560463946e-06,0.00034325236147096975,-3.9535997756923706e-05,5.9286,3.3571
1.21875,-2.2932641260395143e-05,1.4661935912108673e-06,0.0003378866426031892,-3.905510785839621e-05,5.9286,3.3571
1.22265625,-1.999668187991145e-05,9.767871839475147e-06,0.00033591246301976045,-4.052308754863807e-05,5.9286,3.3571
1.2265625,-1.756692239261457e-05,9.28698194094764e-06,0.00033249561374074923,-5.2241615075913585e-05,5.9286,3.3571
1.23046875,-2.1970861463340127e-05,5.38924276340893e-06,0.000329078764461738,-5.467137456321043e-05,5.9286,3.3571
1.234375,-1.7086032494087077e-05,5.044137941558517e-07,0.00031247540796520946,-4.8318565903715524e-05,5.9286,3.3571
1.23828125,-2.2932641260395143e-05,-1.3162983321889014e-05,0.00029832712095063707,-4.5888806416418646e-05,5.9286,3.3571
1.2421875,-3.2221409300373774e-05,-1.511185291065837e-05,0.00028514061373311974,-5.712644404516663e-05,5.9286,3.3571
1.24609375,-2.5868600640878865e-05,2.3523895628358103e-08,0.0003012630803311208,-6.932586147096964e-05,5.9286,3.3571
1.25,-2.48815108491645e-05,-2.912435484855365e-06,0.00030857766878767073,-5.2722504974441075e-05,5.9286,3.3571
1.25390625,-3.368938899061564e-05,-1.756692239261457e-05,0.000299795100640879,-3.8068018066681874e-05,5.9286,3.3571
1.2578125,-3.0272539711604422e-05,-1.7086032494087077e-05,0.00031103273826962695,-4.295284703593492e-05,5.9286,3.3571
1.26171875,-2.634949053940636e-05,-1.2682093423361493e-05,0.00029344229198138404,-5.026743549248488e-05,5.9286,3.3571
1.265625,-2.8298360128175716e-05,-1.7086032494087077e-05,0.00026901814713511875,-4.8824765796902364e-05,5.9286,3.3571
1.26953125,-2.73365803311207e-05,-7.316374555580921e-06,0.00027537095579461364,-4.7356786106660505e-05,5.9286,3.3571
1.2734375,-2.146466157015328e-05,8.806092042420147e-06,0.00028855746301213096,-4.5888806416418646e-05,5.9286,3.3571
1.27734375,-2.3413531158922636e-05,7.338112352178285e-06,0.0002709923267185474,-3.513205868619815e-05,5.9286,3.3571
1.28125,-3.513205868619815e-05,-7.797264454108443e-06,0.0002495041412527657,-4.5888806416418646e-05,5.9286,3.3571
1.28515625,-3.3183189097428793e-05,-5.84839486533906e-06,0.0002431513325932708,-5.370959476615542e-05,5.9286,3.3571
1.2890625,-2.9285449919890083e-05,1.9723934843977133e-06,0.0002460872919737545,-5.1254525284199215e-05,5.9286,3.3571
1.29296875,-3.2221409300373774e-05,-1.9506556878003493e-06,0.0002451002021820402,-6.345394271000221e-05,5.9286,3.3571
1.296875,-2.8298360128175716e-05,-3.3933253833828585e-06,0.00021872718774700546,-5.026743549248488e-05,5.9286,3.3571
1.30078125,-2.73365803311207e-05,-1.1214113733119632e-05,0.00020751486011291682,-4.295284703593492e-05,5.9286,3.3571
1.3046875,-2.4400620950637006e-05,-1.511185291065837e-05,0.0002050597906309606,-4.49017166247043e-05,5.9286,3.3571
1.30859375,-2.781747022964822e-05,-1.7086032494087077e-05,0.00020898283980315868,-3.854890796520936e-05,5.9286,3.3571
1.3125,-3.417027888914313e-05,-1.9515791981383925e-05,0.0002099446196002137,-3.3183189097428793e-05,5.9286,3.3571
1.31640625,-2.5387710742351345e-05,-1.0733223834592138e-05,0.0002084766399099718,-2.6830380437933854e-05,5.9286,3.3571
1.3203125,-2.3413531158922636e-05,-9.265244144350277e-06,0.00020263003114366374,-3.758712816815435e-05,5.9286,3.3571
1.32421875,-2.391973105210951e-05,-1.756692239261457e-05,0.00017919297608911275,-4.442082672617678e-05,5.9286,3.3571
1.328125,-2.5387710742351345e-05,-1.9034902082856433e-05,0.00017625701670862903,-3.5638258579384996e-05,5.9286,3.3571
1.33203125,-2.880456002136256e-05,-1.4444557946135035e-06,0.00019091150361638825,-3.5638258579384996e-05,5.9286,3.3571
1.3359375,-2.0502881773098295e-05,3.4403731746395747e-06,0.00021971427753871982,-3.3183189097428793e-05,5.9286,3.3571
1.33984375,-6.835484657053427e-06,-2.4315455863278427e-06,0.00021923338764019234,-1.3669183215075861e-05,5.9286,3.3571
1.34375,-7.316374555580921e-06,-1.7086032494087077e-05,0.00018260982536812397,-3.3933253833828585e-06,5.9286,3.3571
1.34765625,-2.781747022964822e-05,-4.7837676005188e-05,0.00015281996165407804,-2.0502881773098295e-05,5.9286,3.3571
1.3515625,-2.1970861463340127e-05,-5.370959476615542e-05,0.00014940311237506682,-2.9766339818417576e-05,5.9286,3.3571
1.35546875,-8.278154352635937e-06,-5.907531363393599e-05,0.00013135708618295573,-1.9034902082856433e-05,5.9286,3.3571
1.359375,6.857222453650792e-06,-7.714664982070644e-05,9.035489483482115e-05,-1.999668187991145e-05,5.9286,3.3571
1.36328125,2.834540791943243e-05,-8.739719765774006e-05,7.959814710460066e-05,-3.513205868619815e-05,5.9286,3.3571
1.3671875,3.3204926894026155e-05,-0.00010496233395132367,7.129646885633637e-05,-3.2221409300373774e-05,5.9286,3.3571
1.37109375,3.6140886274509866e-05,-0.00013718195715266642,3.6140886274509866e-05,-9.746134042877798e-06,5.9286,3.3571
1.375,4.054482534523544e-05,-0.000176260588906691,-4.826759975584878e-07,-4.380415175097227e-06,5.9286,3.3571
1.37890625,4.348078472571914e-05,-0.0002084802121080338,-2.73365803311207e-05,-2.0983771671625788e-05,5.9286,3.3571
1.3828125,4.249369493400479e-05,-0.0002285004178835736,-4.8318565903715524e-05,-1.855401218432891e-05,5.9286,3.3571
1.38671875,4.980828339055473e-05,-0.00025340545262836643,-8.934606724650945e-05,1.0754961631189502e-05,5.9286,3.3571
1.390625,3.907684565499358e-05,-0.0002900290149004348,-0.00014598983529411758,1.9056639879453784e-05,5.9286,3.3571
1.39453125,2.1992599259937505e-05,-0.0003036964120164797,-0.0001620869918974593,1.953752977798129e-05,5.9286,3.3571
1.3984375,2.735831812771808e-05,-0.0003075941511940184,-0.00014745781498435944,3.0775167406729296e-05,5.9286,3.3571
1.40234375,2.5890338437476216e-05,-0.00031541493954375516,-0.00015624038313115124,5.1782462973983423e-05,5.9286,3.3571
1.40625,9.28698194094764e-06,-0.00033591603521782243,-0.0001786903483939879,6.54498600900283e-05,5.9286,3.3571
1.41015625,-2.4315455863278427e-06,-0.00033983908439002056,-0.00017089487003891043,6.299479060807208e-05,5.9286,3.3571
1.4140625,-1.5618052803845215e-05,-0.00033396716562905307,-0.0001577083628213931,7.76492775158313e-05,5.9286,3.3571
1.41796875,-2.3413531158922636e-05,-0.00032860144676127254,-0.00015575949323262374,8.98486949416343e-05,5.9286,3.3571
1.421875,-3.7106238269626855e-05,-0.0003271334670710307,-0.00016550384117647052,9.718859339284359e-05,5.9286,3.3571
1.42578125,-5.5152264461737926e-05,-0.0003212868583047226,-0.00017233753973449297,0.00010255431226062416,5.9286,3.3571
1.4296875,-6.638990209048595e-05,-0.0002958756236667429,-0.00014890048467994192,0.00011574081947814151,5.9286,3.3571
1.43359375,-7.469158033875021e-05,-0.0002797784670634012,-0.00010837918323033489,0.00014940311237506682,5.9286,3.3571
1.4375,-9.081404693675128e-05,-0.0002670728497444113,-9.911572518501557e-05,0.00014550537319752812,5.9286,3.3571
1.44140625,-0.00010106459477378493,-0.00024168692510109094,-6.83387716792553e-05,0.00013135708618295573,5.9286,3.3571
1.4453125,-0.00010741740343327987,-0.00022703243819333175,-5.2241615075913585e-05,0.00014793513268482496,5.9286,3.3571
1.44921875,-0.00011913593096055535,-0.00018894089623102154,-2.146466157015328e-05,0.0001655255789730679,5.9286,3.3571
1.453125,-0.00012402075992980842,-0.00015183644406042567,1.4171810910200718e-05,0.00016843622835889226,5.9286,3.3571
1.45703125,-0.0001289055888990615,-0.00011814884116884101,4.396167462424665e-05,0.00017577612681010153,5.9286,3.3571
1.4609375,-0.00014305387591363386,-9.276291652552066e-05,6.446277029831394e-05,0.00018749465433737702,5.9286,3.3571
1.46484375,-0.00014548363540093073,-7.175562095826652e-05,6.9347599267567e-05,0.00018650756454566267,5.9286,3.3571
1.46875,-0.00014500274550240322,-3.1715209407186934e-05,0.00011037510061036093,0.00018357160516517898,5.9286,3.3571
1.47265625,-0.0001503684643701838,-1.4630963012130848e-05,0.00012892732669565887,0.0001777249963988709,5.9286,3.3571
1.4765625,-0.0001494066845731288,2.3523895628358103e-08,0.0001357610252536813,0.0001664873587701229,5.9286,3.3571
1.48046875,-0.00014890048467994192,1.953752977798129e-05,0.00014745424278629746,0.0001723592775310903,5.9286,3.3571
1.484375,-0.00014062411642633702,3.1762257198443646e-05,0.0001464671529945831,0.00016013455011062796,5.9286,3.3571
1.48828125,-0.00013280332807660022,4.444256452277415e-05,0.00015330085155260554,0.00014892222247653932,5.9286,3.3571
1.4921875,-0.00013280332807660022,4.249369493400479e-05,0.00014110143412680252,0.0001586665704203861,5.9286,3.3571
1.49609375,-0.00012743760920881964,4.591054421301601e-05,0.0001362419151522088,0.0001376845848477913,5.9286,3.3571
1.5,-0.00012303367013809406,6.299479060807208e-05,0.00014892222247653932,0.00012305540793469143,5.9286,3.3571
1.50390625,-0.00012351456003662162,5.616109205004966e-05,0.00016307050949111168,0.0001279402369039445,5.9286,3.3571
1.5078125,-0.00011716175137712667,6.494366019684144e-05,0.00017478903701838717,0.00011867677885862522,5.9286,3.3571
1.51171875,-0.00011032805281910424,9.035489483482115e-05,0.00018845643413443203,0.0001015672224689098,5.9286,3.3571
1.515625,-0.00010936627302204922,0.00010743914122987723,0.00018698845444419017,8.98486949416343e-05,5.9286,3.3571
1.51953125,-0.00011179603250934607,0.00010938801081864659,0.0001923794833066301,8.888691514457929e-05,5.9286,3.3571
1.5234375,-0.00010544322384985116,0.00010549027164110786,0.00018896263402761888,9.326554422064551e-05,5.9286,3.3571
1.52734375,-0.00010007750498207059,0.00011379194988937214,0.00017430814711985967,8.643184566262308e-05,5.9286,3.3571
1.53125,-9.423089621576249e-05,0.0001333059557717251,0.00017577612681010153,6.494366019684144e-05,5.9286,3.3571
1.53515625,-9.372469632257565e-05,0.0001132857499961853,0.00015524972114137488,6.982848916609451e-05,5.9286,3.3571
1.5390625,-8.494212817578386e-05,9.131667463187617e-05,0.00014305030371557188,7.863636730754564e-05,5.9286,3.3571
1.54296875,-8.299325858701451e-05,9.718859339284359e-05,0.00014940311237506682,6.0565031120775214e-05,5.9286,3.3571
1.546875,-9.17758267338063e-05,0.00010009924277866796,0.00015380705144579237,4.689763400473036e-05,5.9286,3.3571
1.55078125,-8.056349909971766e-05,0.00010009924277866796,0.00015281996165407804,4.980828339055473e-05,5.9286,3.3571
1.5546875,-6.444103250171658e-05,0.00010549027164110786,0.00013720369494926382,4.444256452277415e-05,5.9286,3.3571
1.55859375,-6.78578817807278e-05,9.865657308308545e-05,0.00013477393546196693,2.687742822919057e-05,5.9286,3.3571
1.5625,-7.028764126802466e-05,8.98486949416343e-05,0.00013183797608148324,2.1992599259937505e-05,5.9286,3.3571
1.56640625,-6.444103250171658e-05,9.961835288014044e-05,0.00013087619628442823,2.1005509468223152e-05,5.9286,3.3571
1.5703125,-6.249216291294721e-05,0.0001006054426718548,0.00013135708618295573,1.563979060044258e-05,5.9286,3.3571
1.57421875,-5.712644404516663e-05,9.815037318989858e-05,0.00012842112680247201,8.325202143892624e-06,5.9286,3.3571
1.578125,-4.930565569542986e-05,0.00010549027164110786,0.00013183797608148324,6.857222453650792e-06,5.9286,3.3571
1.58203125,-4.8318565903715524e-05,9.718859339284359e-05,0.00013525482536049446,1.7588660189211935e-05,5.9286,3.3571
1.5859375,-5.1254525284199215e-05,8.693804555580994e-05,0.0001240424977264058,2.4422358747234367e-05,5.9286,3.3571
1.58984375,-4.7837676005188e-05,0.00010597116153963537,0.00013087619628442823,1.3184721118486365e-05,5.9286,3.3571
1.59375,-4.9786545593957356e-05,0.00011427283978789965,0.0001459862630960556,6.351022560463946e-06,5.9286,3.3571
1.59765625,-5.808822384222165e-05,8.936780504310679e-05,0.00011768968906691086,1.6120680498970072e-05,5.9286,3.3571
1.6015625,-5.467137456321043e-05,7.716838761730379e-05,8.98486949416343e-05,8.806092042420147e-06,5.9286,3.3571
1.60546875,-4.49017166247043e-05,8.106612679484251e-05,8.154701669337e-05,1.9723934843977133e-06,5.9286,3.3571
1.609375,-4.685058621347366e-05,7.716838761730379e-05,9.083578473334865e-05,7.338112352178285e-06,5.9286,3.3571
1.61328125,-4.5888806416418646e-05,7.570040792706195e-05,0.00011232397019913029,1.0754961631189502e-05,5.9286,3.3571
1.6171875,-4.001688765545123e-05,7.863636730754564e-05,0.00010498407174792102,1.9723934843977133e-06,5.9286,3.3571
1.62109375,-4.9786545593957356e-05,6.787961957732516e-05,6.787961957732516e-05,-2.0502881773098295e-05,5.9286,3.3571
1.625,-5.907531363393599e-05,4.054482534523544e-05,4.689763400473036e-05,-1.9515791981383925e-05,5.9286,3.3571
1.62890625,-5.419048466468294e-05,4.492345442130166e-05,6.739872967879764e-05,-1.0252333936064643e-05,5.9286,3.3571
1.6328125,-5.173541518272674e-05,5.664198194857715e-05,8.154701669337e-05,-1.4630963012130848e-05,5.9286,3.3571
1.63671875,-5.5152264461737926e-05,4.249369493400479e-05,7.521951802853442e-05,-1.609894270237271e-05,5.9286,3.3571
1.640625,-4.8824765796902364e-05,4.834030370031287e-05,6.494366019684144e-05,-3.3933253833828585e-06,5.9286,3.3571
1.64453125,-4.685058621347366e-05,5.957794132906086e-05,5.5199312252994645e-05,-6.329284763866581e-06,5.9286,3.3571
1.6484375,-4.685058621347366e-05,4.785941380178536e-05,5.76290717402915e-05,-1.7086032494087077e-05,5.9286,3.3571
1.65234375,-4.9786545593957356e-05,4.492345442130166e-05,6.152681091783023e-05,-1.9515791981383925e-05,5.9286,3.3571
1.65625,-5.2722504974441075e-05,4.1506605142290436e-05,6.0565031120775214e-05,-1.7086032494087077e-05,5.9286,3.3571
1.66015625,-5.2241615075913585e-05,2.735831812771808e-05,6.251390070954459e-05,-1.9034902082856433e-05,5.9286,3.3571
1.6640625,-4.6369696314946135e-05,4.737852390325785e-05,6.787961957732516e-05,-2.880456002136256e-05,5.9286,3.3571
1.66796875,-3.905510785839621e-05,5.0795373182269074e-05,5.274424277103844e-05,-3.27022991989013e-05,5.9286,3.3571
1.671875,-4.1003977447165565e-05,2.9307187716487434e-05,4.054482534523544e-05,-2.0983771671625788e-05,5.9286,3.3571
1.67578125,-3.1715209407186934e-05,4.348078472571914e-05,4.591054421301601e-05,-1.9515791981383925e-05,5.9286,3.3571
1.6796875,-2.3413531158922636e-05,4.6391434111543516e-05,4.006393544670793e-05,-3.7106238269626855e-05,5.9286,3.3571
1.68359375,-3.854890796520936e-05,2.4903248645761863e-05,2.1992599259937505e-05,-4.685058621347366e-05,5.9286,3.3571
1.6875,-3.9535997756923706e-05,2.6371228336003722e-05,3.565999637598236e-05,-4.295284703593492e-05,5.9286,3.3571
1.69140625,-2.5868600640878865e-05,4.785941380178536e-05,5.810996163881901e-05,-4.1003977447165565e-05,5.9286,3.3571
1.6953125,-2.146466157015328e-05,5.1782462973983423e-05,5.373133256275279e-05,-3.7106238269626855e-05,5.9286,3.3571
1.69921875,-2.781747022964822e-05,3.565999637598236e-05,3.517910647745485e-05,-3.611914847791252e-05,5.9286,3.3571
1.703125,-3.513205868619815e-05,2.1005509468223152e-05,2.5890338437476216e-05,-4.2471957137407424e-05,5.9286,3.3571
1.70703125,-3.465116878767065e-05,2.735831812771808e-05,3.272403699549865e-05,-4.393993682764929e-05,5.9286,3.3571
1.7109375,-3.2221409300373774e-05,3.955773555352108e-05,4.201280503547728e-05,-5.467137456321043e-05,5.9286,3.3571
1.71484375,-3.611914847791252e-05,2.4422358747234367e-05,2.1005509468223152e-05,-4.5888806416418646e-05,5.9286,3.3571
1.71875,-3.758712816815435e-05,1.1742051422903855e-05,1.9723934843977133e-06,-3.513205868619815e-05,5.9286,3.3571
1.72265625,-3.27022991989013e-05,1.2703831219958857e-05,9.853036926833739e-07,-4.8318565903715524e-05,5.9286,3.3571
1.7265625,-3.3183189097428793e-05,9.28698194094764e-06,9.767871839475147e-06,-4.930565569542986e-05,5.9286,3.3571
1.73046875,-3.465116878767065e-05,2.148639936675066e-05,1.0274071732661994e-05,-3.465116878767065e-05,5.9286,3.3571
1.734375,-3.513205868619815e-05,2.735831812771808e-05,-3.3933253833828585e-06,-3.758712816815435e-05,5.9286,3.3571
1.73828125,-3.905510785839621e-05,1.3184721118486365e-05,6.857222453650792e-06,-4.2471957137407424e-05,5.9286,3.3571
1.7421875,-4.7356786106660505e-05,-1.1214113733119632e-05,1.4171810910200718e-05,-4.052308754863807e-05,5.9286,3.3571
1.74609375,-4.148486734569309e-05,-2.4315455863278427e-06,6.351022560463946e-06,-3.7106238269626855e-05,5.9286,3.3571
1.75,-3.417027888914313e-05,2.0043729671168137e-05,1.2222941321431363e-05,-3.27022991989013e-05,5.9286,3.3571
1.75390625,-3.8068018066681874e-05,1.4661935912108673e-06,1.369092101167321e-05,-3.660003837644001e-05,5.9286,3.3571
1.7578125,-3.3183189097428793e-05,7.338112352178285e-06,3.4403731746395747e-06,-4.001688765545123e-05,5.9286,3.3571
1.76171875,-3.854890796520936e-05,1.6120680498970072e-05,-1.9506556878003493e-06,-3.368938899061564e-05,5.9286,3.3571
1.765625,-4.685058621347366e-05,8.325202143892624e-06,1.5158900701915071e-05,-2.880456002136256e-05,5.9286,3.3571
1.76953125,-3.8068018066681874e-05,2.4903248645761863e-05,3.6621776173037376e-05,-2.9766339818417576e-05,5.9286,3.3571
1.7734375,-3.9535997756923706e-05,2.4903248645761863e-05,7.338112352178285e-06,-2.8298360128175716e-05,5.9286,3.3571
1.77734375,-4.7837676005188e-05,5.38924276340893e-06,-3.123431950865944e-05,-2.3413531158922636e-05,5.9286,3.3571
1.78125,-4.5888806416418646e-05,-9.635658960860098e-07,-3.905510785839621e-05,-3.611914847791252e-05,5.9286,3.3571
1.78515625,-4.5888806416418646e-05,4.9083528648814365e-06,-4.540791651789115e-05,-4.930565569542986e-05,5.9286,3.3571
1.7890625,-4.6369696314946135e-05,3.921263073167068e-06,-3.905510785839621e-05,-3.660003837644001e-05,5.9286,3.3571
1.79296875,-4.148486734569309e-05,1.7588660189211935e-05,-6.329284763866581e-06,-3.1715209407186934e-05,5.9286,3.3571
1.796875,-4.6369696314946135e-05,8.806092042420147e-06,1.5158900701915071e-05,-3.9535997756923706e-05,5.9286,3.3571
1.80078125,-5.712644404516663e-05,-6.835484657053427e-06,1.0754961631189502e-05,-3.9535997756923706e-05,5.9286,3.3571
1.8046875,-4.685058621347366e-05,8.325202143892624e-06,1.662688039215692e-05,-2.5868600640878865e-05,5.9286,3.3571
1.80859375,-4.685058621347366e-05,1.662688039215692e-05,2.4903248645761863e-05,-2.634949053940636e-05,5.9286,3.3571
1.8125,-4.1003977447165565e-05,2.148639936675066e-05,3.272403699549865e-05,-3.660003837644001e-05,5.9286,3.3571
1.81640625,-2.245175136186765e-05,2.6371228336003722e-05,3.7608865964751725e-05,-2.634949053940636e-05,5.9286,3.3571
1.8203125,-3.611914847791252e-05,7.819002250705779e-06,1.563979060044258e-05,-1.9506556878003493e-06,5.9286,3.3571
1.82421875,-5.320339487296857e-05,-1.609894270237271e-05,-1.4150073113603354e-05,-4.86130507362472e-06,5.9286,3.3571
1.828125,-4.7356786106660505e-05,-1.7086032494087077e-05,-1.4630963012130848e-05,-2.781747022964822e-05,5.9286,3.3571
1.83203125,-3.8068018066681874e-05,2.453283382925207e-06,1.369092101167321e-05,-3.513205868619815e-05,5.9286,3.3571
1.8359375,-4.5888806416418646e-05,-1.4444557946135035e-06,2.4422358747234367e-05,-3.0272539711604422e-05,5.9286,3.3571
1.83984375,-5.370959476615542e-05,-3.2221409300373774e-05,2.5890338437476216e-05,-3.0753429610131915e-05,5.9286,3.3571
1.84375,-4.49017166247043e-05,6.351022560463946e-06,3.0775167406729296e-05,-5.5152264461737926e-05,5.9286,3.3571
1.84765625,-4.8824765796902364e-05,5.616109205004966e-05,3.3204926894026155e-05,-3.9535997756923706e-05,5.9286,3.3571
1.8515625,-6.0037093430991006e-05,4.29745848325323e-05,2.978807761501494e-05,5.8701326619364234e-06,5.9286,3.3571
1.85546875,-2.0502881773098295e-05,2.1005509468223152e-05,4.785941380178536e-05,2.735831812771808e-05,5.9286,3.3571
1.859375,-3.3933253833828585e-06,-6.329284763866581e-06,3.224314709697114e-05,9.853036926833739e-07,5.9286,3.3571
1.86328125,-3.7106238269626855e-05,-2.73365803311207e-05,7.338112352178285e-06,-2.1970861463340127e-05,5.9286,3.3571
1.8671875,-4.1991067238879935e-05,-5.565846435492477e-05,-3.2221409300373774e-05,-8.278154352635937e-06,5.9286,3.3571
1.87109375,-4.8318565903715524e-05,-6.638990209048595e-05,-8.056349909971766e-05,-1.3669183215075861e-05,5.9286,3.3571
1.875,-6.444103250171658e-05,-4.7837676005188e-05,-6.054329332417785e-05,-5.367504966811566e-06,5.9286,3.3571
1.87890625,-4.2471957137407424e-05,-8.544832806897071e-05,-6.249216291294721e-05,1.4171810910200718e-05,5.9286,3.3571
1.8828125,-3.611914847791252e-05,-0.00014647072519264508,-0.00011619997158007166,1.9723934843977133e-06,5.9286,3.3571
1.88671875,-6.78578817807278e-05,-0.0001503684643701838,-0.00010936627302204922,-1.4444557946135035e-06,5.9286,3.3571
1.890625,-1.1214113733119632e-05,-0.00014257298601510639,-9.17758267338063e-05,5.664198194857715e-05,5.9286,3.3571
1.89453125,2.1005509468223152e-05,-0.00021435213086900125,-0.00017577969900816348,6.494366019684144e-05,5.9286,3.3571
1.8984375,-1.5618052803845215e-05,-0.0003036964120164797,-0.0002963818235599297,-1.4150073113603354e-05,5.9286,3.3571
1.90234375,-7.90955194094758e-05,-0.00030564528160524905,-0.0002553543222171358,-8.784354245822782e-06,5.9286,3.3571
1.90625,-6.054329332417785e-05,-0.00031151720036621644,-0.0002455846642786297,2.6371228336003722e-05,5.9286,3.3571
1.91015625,3.1762257198443646e-05,-0.000476057475646601,-0.00041503507852292656,-2.2932641260395143e-05,5.9286,3.3571
1.9140625,3.0775167406729296e-05,-0.0004023294612039367,-0.0003505705221255817,8.595095576409558e-05,5.9286,3.3571
1.91796875,6.691783978027014e-05,-0.0002431549047913328,-0.00029734360335698475,0.0001376845848477913,5.9286,3.3571
1.921875,-2.2932641260395143e-05,-0.0004990136408026245,-0.00046823668729686424,-5.712644404516663e-05,5.9286,3.3571
1.92578125,7.819002250705779e-06,-0.000539054052353704,-0.00043017045532921336,-0.0001411050063248645,5.9286,3.3571
1.9296875,-0.00010202637457083995,-0.0003134660699549858,-0.0002543925424200808,-0.00011131514261081858,5.9286,3.3571
1.93359375,-0.00021824987004653997,-0.00016061901220721744,-8.592921796749823e-05,-2.0502881773098295e-05,5.9286,3.3571
1.9375,3.6140886274509866e-05,-0.000199697643961242,-0.00012645051941710528,-2.8298360128175716e-05,5.9286,3.3571
1.94140625,0.00011280486009765781,-0.0003305503163500419,-0.0003100492206759746,-0.00010789829333180736,5.9286,3.3571
1.9453125,1.2703831219958857e-05,-0.0004579861394598306,-0.0003666929887235827,-0.00010496233395132367,5.9286,3.3571
1.94921875,2.148639936675066e-05,-0.000371071617799649,-0.0002988115830472266,-3.368938899061564e-05,5.9286,3.3571
1.953125,4.737852390325785e-05,-0.00018552404695201032,-0.00017772856859693285,1.710777029068443e-05,5.9286,3.3571
1.95703125,9.28698194094764e-06,-0.00022214760922407867,-0.0001674780207598992,3.224314709697114e-05,5.9286,3.3571
1.9609375,-9.265244144350277e-06,-0.00013232243817807272,-0.00010544322384985116,9.035489483482115e-05,5.9286,3.3571
1.96484375,-7.421069044022272e-05,-3.611914847791252e-05,-2.4400620950637006e-05,0.00011768968906691086,5.9286,3.3571
1.96875,-0.0001879791164339665,-6.329284763866581e-06,2.834540791943243e-05,0.00010645205143816287,5.9286,3.3571
1.97265625,-0.00011278312230106044,8.98486949416343e-05,0.00011037510061036093,0.00019579633258564133,5.9286,3.3571
1.9765625,4.1025715243762926e-05,0.00015087109206530868,0.00012011944855420773,0.00028025578476386666,5.9286,3.3571
1.98046875,3.955773555352108e-05,0.0001694233181506066,7.959814710460066e-05,0.00026952434702830555,5.9286,3.3571
1.984375,-0.00011913593096055535,3.467290658426801e-05,2.0043729671168137e-05,0.00017673790660715656,5.9286,3.3571
1.98828125,-0.00014745781498435944,-4.7837676005188e-05,3.0294277508201787e-05,0.00019921318186465252,5.9286,3.3571
1.9921875,-7.028764126802466e-05,4.591054421301601e-05,8.448297607385374e-05,0.00026415862816052497,5.9286,3.3571
1.99609375,-6.687079198901344e-05,0.00011525992957961401,0.00012500427752346082,0.00025828670939955753,5.9286,3.3571
2.0,-9.716685559624622e-05,0.0001357610252536813,0.00013963345443656066,0.000300756880437934,5.9286,3.3571
2.00390625,-8.056349909971766e-05,0.00012892732669565887,8.301499638361186e-05,0.00034666921074998097,5.9286,3.3571
2.0078125,-5.2722504974441075e-05,0.00013816547474631883,9.815037318989858e-05,0.000362791677347982,5.9286,3.3571
2.01171875,-6.638990209048595e-05,0.00013915256453803318,0.0001323441759746701,0.0003798759237430381,5.9286,3.3571
2.015625,-6.687079198901344e-05,0.00015087109206530868,0.00014256941381704438,0.0003959730803463798,5.9286,3.3571
2.01953125,-8.982695714503694e-05,0.00012647225721370265,9.668239349965673e-05,0.0003979472599298086,5.9286,3.3571
2.0234375,-9.228202662699314e-05,0.00015135198196383618,6.88667093690395e-05,0.0003852416426108187,5.9286,3.3571
2.02734375,-8.689099776455322e-05,0.00020604688042267496,0.00012305540793469143,0.00041599328612191964,5.9286,3.3571
2.03125,-7.810842961776143e-05,0.0001655255789730679,0.00011963855865568024,0.0004536039381857023,5.9286,3.3571
2.03515625,-6.590901219195842e-05,0.00014940311237506682,8.595095576409558e-05,0.0004472511295262074,5.9286,3.3571
2.0390625,-4.1003977447165565e-05,0.00017041040794232095,4.980828339055473e-05,0.000475092123651484,5.9286,3.3571
2.04296875,-3.5638258579384996e-05,8.496386597238123e-05,-3.3183189097428793e-05,0.00043211575271992074,5.9286,3.3571
2.046875,-9.716685559624622e-05,9.913746298161294e-05,-2.6830380437933854e-05,0.00045995674684519726,5.9286,3.3571
2.05078125,-0.00012255278023956656,0.00022996482537575348,7.863636730754564e-05,0.0005400375699473563,5.9286,3.3571
2.0546875,-2.9285449919890083e-05,0.0002099446196002137,6.691783978027014e-05,0.0005121965758220799,5.9286,3.3571
2.05859375,1.662688039215692e-05,8.741893545433744e-05,-4.148486734569309e-05,0.00038134390343328,5.9286,3.3571
2.0625,-2.912435484855365e-06,3.467290658426801e-05,-6.297305281147472e-05,0.0003349506832227055,5.9286,3.3571
2.06640625,-2.4315455863278427e-06,5.909705143053337e-05,5.38924276340893e-06,0.0004555528077744717,5.9286,3.3571
2.0703125,-4.148486734569309e-05,2.394146884870686e-05,-4.380415175097227e-06,0.0004433533903486687,5.9286,3.3571
2.07421875,-0.00011473199188982979,4.591054421301601e-05,2.148639936675066e-05,0.0004008579093156329,5.9286,3.3571
2.078125,-7.469158033875021e-05,0.0001333059557717251,0.00011915766875715273,0.0004433533903486687,5.9286,3.3571
2.08203125,6.857222453650792e-06,0.00016112163990234234,0.00016795533846036473,0.00040966578745708405,5.9286,3.3571
2.0859375,-4.9786545593957356e-05,0.00013087619628442823,0.00011670259927519652,0.0003207770862134738,5.9286,3.3571
2.08984375,-9.617976580453188e-05,6.251390070954459e-05,2.834540791943243e-05,0.000334469793324178,5.9286,3.3571
2.09375,-7.322360064850838e-05,3.3204926894026155e-05,-6.835484657053427e-06,0.0003564388686884871,5.9286,3.3571
2.09765625,-4.6369696314946135e-05,5.616109205004966e-05,-9.635658960860098e-07,0.000339354622293431,5.9286,3.3571
2.1015625,-5.419048466468294e-05,6.104592101930272e-05,8.806092042420147e-06,0.0003422652716792554,5.9286,3.3571
2.10546875,-9.911572518501557e-05,9.179756453040365e-05,4.201280503547728e-05,0.0003422652716792554,5.9286,3.3571
2.109375,-5.2241615075913585e-05,0.0001782058862973984,0.00010255431226062416,0.00038622873240253306,5.9286,3.3571
2.11328125,-3.0272539711604422e-05,0.00010207342236209664,8.741893545433744e-05,0.0003964792802395667,5.9286,3.3571
2.1171875,-3.905510785839621e-05,6.203301081101707e-05,6.398188039978644e-05,0.0003603366078660258,5.9286,3.3571
2.12109375,-3.513205868619815e-05,9.179756453040365e-05,3.7608865964751725e-05,0.00034373325136949725,5.9286,3.3571
2.125,-5.565846435492477e-05,6.104592101930272e-05,1.369092101167321e-05,0.0003622854774547952,5.9286,3.3571
2.12890625,-7.517247023727774e-05,4.348078472571914e-05,4.249369493400479e-05,0.00034618832085145346,5.9286,3.3571
2.1328125,-6.542812229343093e-05,9.131667463187617e-05,8.400208617532622e-05,0.00033054674415198,5.9286,3.3571
2.13671875,-4.052308754863807e-05,0.00010498407174792102,8.007903700312816e-05,0.0003764590744640269,5.9286,3.3571
2.140625,1.9723934843977133e-06,6.0565031120775214e-05,5.664198194857715e-05,0.0004042747585946441,5.9286,3.3571
2.14453125,1.3184721118486365e-05,0.00012599136731517515,0.00010549027164110786,0.000393543320859083,5.9286,3.3571
2.1484375,2.1992599259937505e-05,0.0001586665704203861,0.00013135708618295573,0.0003847607527122912,5.9286,3.3571
2.15234375,6.857222453650792e-06,3.808975586327922e-05,2.834540791943243e-05,0.0003564388686884871,5.9286,3.3571
2.15625,-3.3933253833828585e-06,5.568020215152215e-05,1.1742051422903855e-05,0.000363753457145037,5.9286,3.3571
2.16015625,1.9723934843977133e-06,8.789982535286494e-05,3.0775167406729296e-05,0.0003710933555962463,5.9286,3.3571
2.1640625,-2.391973105210951e-05,5.7148181841764e-05,5.8701326619364234e-06,0.00035155403971923405,5.9286,3.3571
2.16796875,-1.511185291065837e-05,8.936780504310679e-05,2.1992599259937505e-05,0.00034909897023727783,5.9286,3.3571
2.171875,2.0524619569695643e-05,0.00014158232402533005,5.957794132906086e-05,0.00035203492961776155,5.9286,3.3571
2.17578125,1.710777029068443e-05,0.00014793513268482496,9.377174411383237e-05,0.00034861808033875033,5.9286,3.3571
2.1796875,2.0524619569695643e-05,0.0001586665704203861,0.00011427283978789965,0.00034472034116121166,5.9286,3.3571
2.18359375,5.7148181841764e-05,0.0001782058862973984,8.400208617532622e-05,0.00035302201940947585,5.9286,3.3571
2.1875,3.0775167406729296e-05,0.0001723592775310903,8.205321658655686e-05,0.00037010626580453196,5.9286,3.3571
2.19140625,1.2703831219958857e-05,0.00021728451805142296,0.00016747444856183725,0.00039938992962539104,5.9286,3.3571
2.1953125,7.618129782558943e-05,0.0002519339007400626,0.00017919297608911275,0.0004379876714808881,5.9286,3.3571
2.19921875,0.0001362419151522088,0.00028759568321507596,0.00015623681093308926,0.00044919999911497674,5.9286,3.3571
2.203125,8.496386597238123e-05,0.00010792003112840473,1.563979060044258e-05,0.00033054674415198,5.9286,3.3571
2.20703125,3.419201668574051e-05,-2.0983771671625788e-05,-8.200616879530017e-05,0.00022361201671625854,5.9286,3.3571
2.2109375,4.884650359349972e-05,6.641163988708329e-05,-2.4315455863278427e-06,0.0003154113673456932,5.9286,3.3571
2.21484375,2.978807761501494e-05,0.00011867677885862522,6.59307499885558e-05,0.0003759528745708401,5.9286,3.3571
2.21875,3.272403699549865e-05,0.00015135198196383618,6.251390070954459e-05,0.0003173602369344626,5.9286,3.3571
2.22265625,4.348078472571914e-05,0.00016990420804913412,7.959814710460066e-05,0.00027048612682536056,5.9286,3.3571
2.2265625,4.785941380178536e-05,0.0001323441759746701,8.106612679484251e-05,0.00033641866291294736,5.9286,3.3571
2.23046875,3.0294277508201787e-05,0.0001323441759746701,8.154701669337e-05,0.0003798759237430381,5.9286,3.3571
2.234375,3.955773555352108e-05,0.0001850395848554208,0.00011867677885862522,0.0003622854774547952,5.9286,3.3571
2.23828125,8.352119627679872e-05,0.0001572239007248036,0.00011232397019913029,0.0003373804427100023,5.9286,3.3571
2.2421875,6.203301081101707e-05,0.00010938801081864659,5.5199312252994645e-05,0.0003032119499198902,5.9286,3.3571
2.24609375,8.205321658655686e-05,0.00014451828340581374,6.982848916609451e-05,0.0003227512657969025,5.9286,3.3571
2.25,6.350099050125892e-05,0.00014793513268482496,9.766948329137108e-05,0.0003032119499198902,5.9286,3.3571
2.25390625,7.570040792706195e-05,0.00015135198196383618,0.00011280486009765781,0.0003173602369344626,5.9286,3.3571
2.2578125,0.00011963855865568024,0.00015380705144579237,8.595095576409558e-05,0.00032566191518272684,5.9286,3.3571
2.26171875,8.888691514457929e-05,0.00015623681093308926,4.348078472571914e-05,0.0002836726340428779,5.9286,3.3571
2.265625,1.8575749980926288e-05,0.00018309071526665147,0.00010207342236209664,0.00030564170940718707,5.9286,3.3571
2.26953125,3.3711126787213e-05,0.00018845643413443203,0.00013381215566491195,0.00035302201940947585,5.9286,3.3571
2.2734375,0.00011232397019913029,0.00014499917330434124,7.716838761730379e-05,0.00032811698466468306,5.9286,3.3571
2.27734375,6.54498600900283e-05,9.865657308308545e-05,4.6391434111543516e-05,0.00028417883393606474,5.9286,3.3571
2.28125,3.0775167406729296e-05,6.350099050125892e-05,2.4903248645761863e-05,0.0002548698601205463,5.9286,3.3571
2.28515625,2.1992599259937505e-05,1.0274071732661994e-05,-4.052308754863807e-05,0.00023290078475623718,5.9286,3.3571
2.2890625,-5.367504966811566e-06,9.767871839475147e-06,-3.0272539711604422e-05,0.00027294119630731677,5.9286,3.3571
2.29296875,6.739872967879764e-05,3.0294277508201787e-05,2.934173281452729e-06,0.00032371304559395753,5.9286,3.3571
2.296875,0.00010597116153963537,-7.469158033875021e-05,-0.00011716175137712667,0.00028903835291065847,5.9286,3.3571
2.30078125,6.299479060807208e-05,-0.0001620869918974593,-0.00021776898014801247,0.00027489006589608613,5.9286,3.3571
2.3046875,9.767871839475147e-06,-0.0001376881570458533,-0.00021189706138704503,0.0002514530108415351,5.9286,3.3571
2.30859375,1.4661935912108673e-06,-0.00012498253972686343,-0.0002133650410772869,0.0002792940049668117,5.9286,3.3571
2.3125,0.0001367228050507363,-0.00019529370489051643,-0.0002768425076829175,0.00034421414126802475,5.9286,3.3571
2.31640625,0.0001777249963988709,-0.00030126665252918277,-0.0003452048032578011,0.00034421414126802475,5.9286,3.3571
2.3203125,0.00010890712092011908,-0.0003544682613031204,-0.0004003805916151674,0.00033054674415198,5.9286,3.3571
2.32421875,9.523972380407423e-05,-0.0003330053858319981,-0.0004076951800717173,0.00031444958754863817,5.9286,3.3571
2.328125,6.104592101930272e-05,-0.0003139469598535133,-0.00039255980326543063,0.00028319174414435043,5.9286,3.3571
2.33203125,5.7148181841764e-05,-0.0002875739454184786,-0.00038671319449912255,0.00028514061373311974,5.9286,3.3571
2.3359375,0.00010792003112840473,-0.00020212740344853887,-0.0003818283655298695,0.00027246030640878927,5.9286,3.3571
2.33984375,0.00013087619628442823,-0.00018944709612420837,-0.00033103120624856935,0.00029880801084916463,5.9286,3.3571
2.34375,0.00010890712092011908,-0.00022655154829480425,-0.000335435145319295,0.00030809677888914323,5.9286,3.3571
2.34765625,6.641163988708329e-05,-0.0002460908641718165,-0.00036522500903334086,0.00024168335290302895,5.9286,3.3571
2.3515625,4.6391434111543516e-05,-0.00023485322654306855,-0.0005009625103913938,0.00019139239351491575,5.9286,3.3571
2.35546875,1.0754961631189502e-05,-0.00022214760922407867,-0.000692382,0.0001581856805218586,5.9286,3.3571
2.359375,-4.5888806416418646e-05,-0.00013085445848783086,-0.0006176668957656213,0.00015183287186236366,5.9286,3.3571
2.36328125,8.496386597238123e-05,6.641163988708329e-05,-0.0004174648380102235,0.0002553507500190738,5.9286,3.3571
2.3671875,0.00016795533846036473,2.2954379056992508e-05,-0.00043796593368429076,0.0002250799964065004,5.9286,3.3571
2.37109375,9.230376442359051e-05,-4.6369696314946135e-05,-0.00040331655099565115,0.00015135198196383618,5.9286,3.3571
2.375,0.00010255431226062416,6.982848916609451e-05,-0.00025340545262836643,0.00019675811238269633,5.9286,3.3571
2.37890625,6.350099050125892e-05,8.106612679484251e-05,-0.0002607200410849164,0.0001777249963988709,5.9286,3.3571
2.3828125,-9.265244144350277e-06,9.083578473334865e-05,-0.00021971784973678183,0.00012842112680247201,5.9286,3.3571
2.38671875,1.9056639879453784e-05,0.00015965366021210048,-0.00014353476581216136,8.205321658655686e-05,5.9286,3.3571
2.390625,7.959814710460066e-05,0.00013963345443656066,-0.00013133534838635837,3.419201668574051e-05,5.9286,3.3571
2.39453125,2.687742822919057e-05,0.00016501937907988104,-6.980675136949715e-05,6.203301081101707e-05,5.9286,3.3571
2.3984375,2.4422358747234367e-05,0.00018698845444419017,-4.8824765796902364e-05,6.54498600900283e-05,5.9286,3.3571
2.40234375,4.006393544670793e-05,0.0001850395848554208,-6.054329332417785e-05,3.517910647745485e-05,5.9286,3.3571
2.40625,2.5409448538948706e-05,0.00022313112681773104,-7.316374555580921e-06,5.46931123598078e-05,5.9286,3.3571
2.41015625,1.563979060044258e-05,0.00026560129785610753,3.565999637598236e-05,4.249369493400479e-05,5.9286,3.3571
2.4140625,2.687742822919057e-05,0.0003183473267261769,9.377174411383237e-05,2.9307187716487434e-05,5.9286,3.3571
2.41796875,8.301499638361186e-05,0.00030956475857938515,0.00010840092102693223,1.369092101167321e-05,5.9286,3.3571
2.421875,2.1992599259937505e-05,0.00027294119630731677,7.276444854657821e-05,2.5409448538948706e-05,5.9286,3.3571
2.42578125,5.373133256275279e-05,0.0002714732166170749,6.251390070954459e-05,4.884650359349972e-05,5.9286,3.3571
2.4296875,7.228355864805072e-05,0.0002519339007400626,4.492345442130166e-05,1.4652700808728226e-05,5.9286,3.3571
2.43359375,1.2222941321431363e-05,0.00024363222249179834,6.251390070954459e-05,5.38924276340893e-06,5.9286,3.3571
2.4375,-2.146466157015328e-05,0.00027782602527656985,9.473352391088739e-05,1.5158900701915071e-05,5.9286,3.3571
2.44140625,-1.9515791981383925e-05,0.00026901814713511875,0.00011133688040741594,3.0775167406729296e-05,5.9286,3.3571
2.4453125,1.7588660189211935e-05,0.000230445715274281,0.00011427283978789965,2.5409448538948706e-05,5.9286,3.3571
2.44921875,4.249369493400479e-05,0.00026901814713511875,0.0001245233876249333,5.568020215152215e-05,5.9286,3.3571
2.453125,5.226335287251093e-05,0.00032470013538567184,0.00016747444856183725,0.00012257451803616396,5.9286,3.3571
2.45703125,1.953752977798129e-05,0.00028271085424582293,0.00015623681093308926,9.668239349965673e-05,5.9286,3.3571
2.4609375,3.3711126787213e-05,0.00021728451805142296,9.620150360112923e-05,3.224314709697114e-05,5.9286,3.3571
2.46484375,3.1762257198443646e-05,0.00021042550949874116,9.668239349965673e-05,5.031448328374158e-05,5.9286,3.3571
2.46875,4.884650359349972e-05,0.0002543889702220188,0.0001323441759746701,7.129646885633637e-05,5.9286,3.3571
2.47265625,4.737852390325785e-05,0.0002587675992980851,0.00012257451803616396,2.735831812771808e-05,5.9286,3.3571
2.4765625,1.6120680498970072e-05,0.00024363222249179834,0.00012158742824444959,5.861616153200586e-05,5.9286,3.3571
2.48046875,3.565999637598236e-05,0.00019139239351491575,0.00011085599050888843,8.205321658655686e-05,5.9286,3.3571
2.484375,2.9307187716487434e-05,0.0001572239007248036,7.666218772411694e-05,5.1276263080796577e-05,5.9286,3.3571
2.48828125,-4.826759975584878e-07,0.0001904053037232014,8.693804555580994e-05,7.819002250705779e-06,5.9286,3.3571
2.4921875,1.2703831219958857e-05,0.00023778561372549026,0.00014158232402533005,2.346057895017935e-05,5.9286,3.3571
2.49609375,-6.835484657053427e-06,0.0002460872919737545,0.00015623681093308926,9.179756453040365e-05,5.9286,3.3571
2.5,-8.784354245822782e-06,0.00020212383125047691,0.00012599136731517515,7.471331813534758e-05,5.9286,3.3571
2.50390625,4.492345442130166e-05,0.00018845643413443203,0.00013039530638590073,9.035489483482115e-05,5.9286,3.3571
2.5078125,5.226335287251093e-05,0.00018698845444419017,0.00014062054422827504,0.00011525992957961401,5.9286,3.3571
2.51171875,4.884650359349972e-05,0.00020311092104219124,0.00014256941381704438,0.00011963855865568024,5.9286,3.3571
2.515625,6.641163988708329e-05,0.00022070136733043418,0.0001357610252536813,0.00010549027164110786,5.9286,3.3571
2.51953125,4.1506605142290436e-05,0.00016600646887159537,0.00010255431226062416,4.1506605142290436e-05,5.9286,3.3571
2.5234375,-4.826759975584878e-07,0.0001240424977264058,8.693804555580994e-05,2.148639936675066e-05,5.9286,3.3571
2.52734375,1.0274071732661994e-05,0.0001333059557717251,7.959814710460066e-05,3.6140886274509866e-05,5.9286,3.3571
2.53125,-4.86130507362472e-06,0.00012257451803616396,8.253410648508437e-05,2.5409448538948706e-05,5.9286,3.3571
2.53515625,1.9056639879453784e-05,0.00014451828340581374,0.0001045031818493935,4.884650359349972e-05,5.9286,3.3571
2.5390625,3.419201668574051e-05,0.00012988910649271387,8.838071525139245e-05,6.446277029831394e-05,5.9286,3.3571
2.54296875,2.5890338437476216e-05,0.00014451828340581374,9.815037318989858e-05,0.00010890712092011908,5.9286,3.3571
2.546875,4.785941380178536e-05,0.00017625701670862903,0.00013087619628442823,0.0001240424977264058,5.9286,3.3571
2.55078125,2.7839208026245585e-05,0.00015380705144579237,0.00010549027164110786,7.521951802853442e-05,5.9286,3.3571
2.5546875,1.662688039215692e-05,0.00013816547474631883,9.179756453040365e-05,8.301499638361186e-05,5.9286,3.3571
2.55859375,1.5158900701915071e-05,0.00015039020216678115,0.00013183797608148324,9.913746298161294e-05,5.9286,3.3571
2.5625,3.0775167406729296e-05,0.00016307050949111168,0.00013039530638590073,0.0001045031818493935,5.9286,3.3571
2.56640625,3.907684565499358e-05,0.00015135198196383618,0.00011037510061036093,7.911725720607315e-05,5.9286,3.3571
2.5703125,1.563979060044258e-05,0.00010890712092011908,8.888691514457929e-05,7.863636730754564e-05,5.9286,3.3571
2.57421875,7.033468905928136e-05,0.00011181777030594345,0.00010255431226062416,0.00012647225721370265,5.9286,3.3571
2.578125,5.909705143053337e-05,9.425263401235986e-05,7.863636730754564e-05,0.00011379194988937214,5.9286,3.3571
2.58203125,-7.797264454108443e-06,0.00012551047741664765,7.324533844510573e-05,0.00011817057896543838,5.9286,3.3571
2.5859375,1.1742051422903855e-05,0.00012599136731517515,8.888691514457929e-05,0.00014305030371557188,5.9286,3.3571
2.58984375,2.5890338437476216e-05,6.008414122224772e-05,5.909705143053337e-05,0.00011720879916838336,5.9286,3.3571
2.59375,5.226335287251093e-05,7.423242823682009e-05,6.739872967879764e-05,9.913746298161294e-05,5.9286,3.3571
2.59765625,1.3184721118486365e-05,9.179756453040365e-05,6.008414122224772e-05,0.00010402229195086602,5.9286,3.3571
2.6015625,-2.73365803311207e-05,0.00014110143412680252,8.98486949416343e-05,0.00012599136731517515,5.9286,3.3571
2.60546875,6.398188039978644e-05,0.00011427283978789965,7.228355864805072e-05,0.00013381215566491195,5.9286,3.3571
2.609375,8.741893545433744e-05,4.591054421301601e-05,1.6120680498970072e-05,9.473352391088739e-05,5.9286,3.3571
2.61328125,-2.245175136186765e-05,0.00010986890071717408,0.00010207342236209664,9.572061370260172e-05,5.9286,3.3571
2.6171875,-5.467137456321043e-05,0.0001523390717555505,0.00013867167463950568,0.0001459862630960556,5.9286,3.3571
2.62109375,6.59307499885558e-05,5.76290717402915e-05,3.955773555352108e-05,0.00011622170937666902,5.9286,3.3571
2.625,0.00013963345443656066,1.563979060044258e-05,1.3184721118486365e-05,9.523972380407423e-05,5.9286,3.3571
2.62890625,8.547006586556807e-05,4.1025715243762926e-05,4.348078472571914e-05,0.00011574081947814151,5.9286,3.3571
2.6328125,4.1506605142290436e-05,6.982848916609451e-05,7.911725720607315e-05,0.00015281996165407804,5.9286,3.3571
2.63671875,5.322513266956593e-05,7.666218772411694e-05,8.352119627679872e-05,0.0001333059557717251,5.9286,3.3571
2.640625,-2.912435484855365e-06,5.1276263080796577e-05,7.324533844510573e-05,6.836050947585266e-05,5.9286,3.3571
2.64453125,-2.912435484855365e-06,5.322513266956593e-05,9.473352391088739e-05,0.0001269784571068895,5.9286,3.3571
2.6484375,6.203301081101707e-05,6.008414122224772e-05,9.718859339284359e-05,0.00015575592103456173,5.9286,3.3571
2.65234375,4.396167462424665e-05,5.322513266956593e-05,9.865657308308545e-05,0.00012500427752346082,5.9286,3.3571
2.65625,1.9056639879453784e-05,3.224314709697114e-05,0.0001132857499961853,0.00010255431226062416,5.9286,3.3571
2.66015625,-1.657983260090023e-05,7.959814710460066e-05,0.00012500427752346082,8.838071525139245e-05,5.9286,3.3571
2.6640625,1.3184721118486365e-05,0.00011232397019913029,0.00013816547474631883,0.00014403739350728623,5.9286,3.3571
2.66796875,3.224314709697114e-05,1.2222941321431363e-05,8.154701669337e-05,0.00012892732669565887,5.9286,3.3571
2.671875,-4.052308754863807e-05,-1.1695003631647153e-05,8.301499638361186e-05,0.0001045031818493935,5.9286,3.3571
2.67578125,3.7608865964751725e-05,5.044137941558517e-07,8.352119627679872e-05,0.0001269784571068895,5.9286,3.3571
2.6796875,9.377174411383237e-05,-1.4444557946135035e-06,6.54498600900283e-05,0.00010986890071717408,5.9286,3.3571
2.68359375,1.2222941321431363e-05,3.272403699549865e-05,9.766948329137108e-05,0.00010549027164110786,5.9286,3.3571
2.6875,2.3523895628358103e-08,4.492345442130166e-05,0.00011085599050888843,0.0001015672224689098,5.9286,3.3571
2.69140625,5.76290717402915e-05,2.346057895017935e-05,9.523972380407423e-05,9.131667463187617e-05,5.9286,3.3571
2.6953125,5.1782462973983423e-05,7.819002250705779e-06,6.739872967879764e-05,6.9347599267567e-05,5.9286,3.3571
2.69921875,-3.8995252765697045e-06,5.957794132906086e-05,9.230376442359051e-05,6.54498600900283e-05,5.9286,3.3571
2.703125,1.2222941321431363e-05,3.7608865964751725e-05,9.035489483482115e-05,8.643184566262308e-05,5.9286,3.3571
2.70703125,2.687742822919057e-05,-2.9766339818417576e-05,2.4422358747234367e-05,7.228355864805072e-05,5.9286,3.3571
2.7109375,1.0754961631189502e-05,9.853036926833739e-07,4.689763400473036e-05,0.0001045031818493935,5.9286,3.3571
2.71484375,3.517910647745485e-05,1.953752977798129e-05,9.668239349965673e-05,0.00011817057896543838,5.9286,3.3571
2.71875,4.591054421301601e-05,3.921263073167068e-06,7.033468905928136e-05,4.932739349202722e-05,5.9286,3.3571
2.72265625,2.5409448538948706e-05,2.346057895017935e-05,5.5199312252994645e-05,5.46931123598078e-05,5.9286,3.3571
2.7265625,6.351022560463946e-06,4.1506605142290436e-05,6.494366019684144e-05,0.00012647225721370265,5.9286,3.3571
2.73046875,-2.5868600640878865e-05,5.274424277103844e-05,0.0001045031818493935,0.00014892222247653932,5.9286,3.3571
2.734375,3.565999637598236e-05,1.9056639879453784e-05,7.666218772411694e-05,7.324533844510573e-05,5.9286,3.3571
2.73828125,3.467290658426801e-05,-6.198596301976035e-05,-1.0252333936064643e-05,7.819002250705779e-06,5.9286,3.3571
2.7421875,1.9056639879453784e-05,-5.1254525284199215e-05,1.953752977798129e-05,6.982848916609451e-05,5.9286,3.3571
2.74609375,-3.8068018066681874e-05,-4.380415175097227e-06,7.129646885633637e-05,0.00012257451803616396,5.9286,3.3571
2.75,-5.2241615075913585e-05,8.806092042420147e-06,4.689763400473036e-05,0.00012158742824444959,5.9286,3.3571
2.75390625,-6.329284763866581e-06,-5.84839486533906e-06,4.396167462424665e-05,8.547006586556807e-05,5.9286,3.3571
2.7578125,4.1506605142290436e-05,-1.2682093423361493e-05,5.810996163881901e-05,0.00010303520215915165,5.9286,3.3571
2.76171875,5.76290717402915e-05,8.325202143892624e-06,4.201280503547728e-05,0.00012500427752346082,5.9286,3.3571
2.765625,3.467290658426801e-05,-1.3162983321889014e-05,2.4903248645761863e-05,0.00011915766875715273,5.9286,3.3571
2.76953125,4.932739349202722e-05,-4.052308754863807e-05,1.9056639879453784e-05,0.00011670259927519652,5.9286,3.3571
2.7734375,3.565999637598236e-05,-7.797264454108443e-06,2.5890338437476216e-05,0.00010890712092011908,5.9286,3.3571
2.77734375,-3.0753429610131915e-05,6.251390070954459e-05,7.423242823682009e-05,0.00012940821659418637,5.9286,3.3571
2.78125,-1.4150073113603354e-05,2.687742822919057e-05,5.322513266956593e-05,0.0001279402369039445,5.9286,3.3571
2.78515625,7.324533844510573e-05,-3.8068018066681874e-05,-1.4150073113603354e-05,7.716838761730379e-05,5.9286,3.3571
2.7890625,2.687742822919057e-05,1.7588660189211935e-05,1.710777029068443e-05,4.396167462424665e-05,5.9286,3.3571
2.79296875,-2.391973105210951e-05,0.00010840092102693223,0.00010351609205767916,0.00014499917330434124,5.9286,3.3571
2.796875,7.228355864805072e-05,4.444256452277415e-05,5.0795373182269074e-05,0.00018066095577935458,5.9286,3.3571
2.80078125,5.1276263080796577e-05,-4.001688765545123e-05,-1.855401218432891e-05,7.570040792706195e-05,5.9286,3.3571
2.8046875,-2.5868600640878865e-05,-6.835484657053427e-06,1.4661935912108673e-06,6.299479060807208e-05,5.9286,3.3571
2.80859375,1.8069550087739444e-05,1.563979060044258e-05,1.5158900701915071e-05,7.375153833829257e-05,5.9286,3.3571
2.8125,1.710777029068443e-05,1.3184721118486365e-05,3.419201668574051e-05,7.76492775158313e-05,5.9286,3.3571
2.81640625,2.1992599259937505e-05,1.6120680498970072e-05,5.274424277103844e-05,0.00010402229195086602,5.9286,3.3571
2.8203125,6.104592101930272e-05,3.1256057305256786e-05,6.104592101930272e-05,8.98486949416343e-05,5.9286,3.3571
2.82421875,5.46931123598078e-05,2.1005509468223152e-05,3.224314709697114e-05,0.00010255431226062416,5.9286,3.3571
2.828125,-1.9506556878003493e-06,1.662688039215692e-05,3.6140886274509866e-05,0.00010938801081864659,5.9286,3.3571
2.83203125,-4.148486734569309e-05,7.180266874952322e-05,9.718859339284359e-05,0.00011622170937666902,5.9286,3.3571
2.8359375,5.7148181841764e-05,9.718859339284359e-05,0.00012892732669565887,0.00014110143412680252,5.9286,3.3571
2.83984375,0.00011475372968642716,1.4171810910200718e-05,6.494366019684144e-05,0.00012892732669565887,5.9286,3.3571
2.84375,4.1506605142290436e-05,-6.329284763866581e-06,2.453283382925207e-06,9.815037318989858e-05,5.9286,3.3571
2.84765625,3.4403731746395747e-06,3.517910647745485e-05,2.735831812771808e-05,7.863636730754564e-05,5.9286,3.3571
2.8515625,3.0294277508201787e-05,2.2954379056992508e-05,5.274424277103844e-05,9.230376442359051e-05,5.9286,3.3571
2.85546875,-4.826759975584878e-07,3.0775167406729296e-05,5.274424277103844e-05,0.00011379194988937214,5.9286,3.3571
2.859375,1.2222941321431363e-05,9.668239349965673e-05,8.838071525139245e-05,0.00013429304556343945,5.9286,3.3571
2.86328125,8.496386597238123e-05,6.494366019684144e-05,6.739872967879764e-05,0.00011867677885862522,5.9286,3.3571
2.8671875,5.226335287251093e-05,-1.756692239261457e-05,1.1742051422903855e-05,8.301499638361186e-05,5.9286,3.3571
2.87109375,3.6621776173037376e-05,2.453283382925207e-06,2.4903248645761863e-05,9.815037318989858e-05,5.9286,3.3571
2.875,3.955773555352108e-05,3.1256057305256786e-05,2.978807761501494e-05,8.154701669337e-05,5.9286,3.3571
2.87890625,-1.999668187991145e-05,3.6140886274509866e-05,4.29745848325323e-05,6.691783978027014e-05,5.9286,3.3571
2.8828125,-5.6139354253452296e-05,4.348078472571914e-05,6.494366019684144e-05,9.766948329137108e-05,5.9286,3.3571
2.88671875,3.517910647745485e-05,2.4903248645761863e-05,2.0524619569695643e-05,0.00012209362813763643,5.9286,3.3571
2.890625,0.00011622170937666902,2.3523895628358103e-08,-1.609894270237271e-05,0.00010743914122987723,5.9286,3.3571
2.89453125,6.104592101930272e-05,-1.0733223834592138e-05,-1.9034902082856433e-05,8.547006586556807e-05,5.9286,3.3571
2.8984375,-9.746134042877798e-06,1.4652700808728226e-05,-3.3933253833828585e-06,9.913746298161294e-05,5.9286,3.3571
2.90234375,4.444256452277415e-05,6.0565031120775214e-05,4.348078472571914e-05,0.00013087619628442823,5.9286,3.3571
2.90625,4.689763400473036e-05,3.3204926894026155e-05,1.7588660189211935e-05,9.865657308308545e-05,5.9286,3.3571
2.91015625,1.5158900701915071e-05,5.664198194857715e-05,3.467290658426801e-05,0.00011232397019913029,5.9286,3.3571
2.9140625,5.861616153200586e-05,4.1025715243762926e-05,1.4171810910200718e-05,0.00010255431226062416,5.9286,3.3571
2.91796875,4.1506605142290436e-05,-5.565846435492477e-05,-7.372980054169523e-05,3.3711126787213e-05,5.9286,3.3571
2.921875,5.8701326619364234e-06,-3.758712816815435e-05,-5.856911374074914e-05,5.322513266956593e-05,5.9286,3.3571
2.92578125,-3.660003837644001e-05,6.446277029831394e-05,-3.3933253833828585e-06,7.081557895780886e-05,5.9286,3.3571
2.9296875,-4.6369696314946135e-05,8.301499638361186e-05,4.348078472571914e-05,0.00010743914122987723,5.9286,3.3571
2.93359375,7.618129782558943e-05,3.4403731746395747e-06,-7.316374555580921e-06,0.00011720879916838336,5.9286,3.3571
2.9375,0.00011085599050888843,-1.0733223834592138e-05,-4.2471957137407424e-05,8.595095576409558e-05,5.9286,3.3571
2.94140625,4.884650359349972e-05,1.3184721118486365e-05,-7.316374555580921e-06,6.739872967879764e-05,5.9286,3.3571
2.9453125,2.346057895017935e-05,1.4661935912108673e-06,-2.781747022964822e-05,5.226335287251093e-05,5.9286,3.3571
2.94921875,3.808975586327922e-05,2.4903248645761863e-05,-9.635658960860098e-07,0.00010108633257038229,5.9286,3.3571
2.953125,3.6621776173037376e-05,4.348078472571914e-05,3.907684565499358e-05,0.00010255431226062416,5.9286,3.3571
2.95703125,-6.329284763866581e-06,6.857222453650792e-06,8.806092042420147e-06,4.591054421301601e-05,5.9286,3.3571
2.9609375,-2.781747022964822e-05,4.492345442130166e-05,2.5409448538948706e-05,8.400208617532622e-05,5.9286,3.3571
2.96484375,4.396167462424665e-05,0.00010695825133134972,7.570040792706195e-05,0.00012062564844739458,5.9286,3.3571
2.96875,6.008414122224772e-05,8.547006586556807e-05,8.205321658655686e-05,0.00010597116153963537,5.9286,3.3571
2.97265625,4.249369493400479e-05,6.982848916609451e-05,7.666218772411694e-05,7.324533844510573e-05,5.9286,3.3571
2.9765625,7.276444854657821e-05,4.884650359349972e-05,4.834030370031287e-05,5.76290717402915e-05,5.9286,3.3571
2.98046875,3.272403699549865e-05,1.9723934843977133e-06,4.402152971694562e-06,4.29745848325323e-05,5.9286,3.3571
2.984375,-7.316374555580921e-06,3.3204926894026155e-05,4.29745848325323e-05,6.982848916609451e-05,5.9286,3.3571
2.98828125,2.6371228336003722e-05,5.1782462973983423e-05,8.838071525139245e-05,0.00010207342236209664,5.9286,3.3571
2.9921875,1.563979060044258e-05,8.838071525139245e-05,0.00011574081947814151,0.00010303520215915165,5.9286,3.3571
2.99609375,3.3711126787213e-05,0.00011181777030594345,0.00012892732669565887,7.324533844510573e-05,5.9286,3.3571
3.0,8.205321658655686e-05,7.471331813534758e-05,0.00010938801081864659,4.591054421301601e-05,5.9286,3.3571
3.00390625,3.712797606622422e-05,5.861616153200586e-05,0.0001045031818493935,6.446277029831394e-05,5.9286,3.3571
3.0078125,-2.880456002136256e-05,3.6140886274509866e-05,9.425263401235986e-05,5.0795373182269074e-05,5.9286,3.3571
3.01171875,1.9056639879453784e-05,0.00011622170937666902,0.00012647225721370265,8.253410648508437e-05,5.9286,3.3571
3.015625,9.620150360112923e-05,0.00017041040794232095,0.00013915256453803318,9.035489483482115e-05,5.9286,3.3571
3.01953125,5.861616153200586e-05,0.00013477393546196693,0.00012500427752346082,0.00010009924277866796,5.9286,3.3571
3.0234375,2.148639936675066e-05,0.000127459347005417,0.00013381215566491195,0.00011427283978789965,5.9286,3.3571
3.02734375,5.1276263080796577e-05,6.836050947585266e-05,0.00010645205143816287,9.326554422064551e-05,5.9286,3.3571
3.03125,4.444256452277415e-05,-2.6830380437933854e-05,1.3184721118486365e-05,-1.4444557946135035e-06,5.9286,3.3571
3.03515625,2.978807761501494e-05,-3.854890796520936e-05,-1.7086032494087077e-05,-3.0272539711604422e-05,5.9286,3.3571
3.0390625,8.595095576409558e-05,7.180266874952322e-05,4.932739349202722e-05,5.322513266956593e-05,5.9286,3.3571
3.04296875,6.9347599267567e-05,4.834030370031287e-05,3.467290658426801e-05,5.909705143053337e-05,5.9286,3.3571
3.046875,1.563979060044258e-05,5.76290717402915e-05,4.932739349202722e-05,6.203301081101707e-05,5.9286,3.3571
3.05078125,1.4171810910200718e-05,9.473352391088739e-05,7.324533844510573e-05,6.398188039978644e-05,5.9286,3.3571
3.0546875,4.402152971694562e-06,7.471331813534758e-05,5.274424277103844e-05,4.006393544670793e-05,5.9286,3.3571
3.05859375,1.563979060044258e-05,0.00011867677885862522,8.547006586556807e-05,-7.797264454108443e-06,5.9286,3.3571
3.0625,6.836050947585266e-05,0.00011475372968642716,9.377174411383237e-05,2.978807761501494e-05,5.9286,3.3571
3.06640625,4.006393544670793e-05,7.276444854657821e-05,4.884650359349972e-05,1.953752977798129e-05,5.9286,3.3571
3.0703125,4.492345442130166e-05,1.0274071732661994e-05,-1.1695003631647153e-05,-5.6139354253452296e-05,5.9286,3.3571
3.07421875,6.54498600900283e-05,0.00013816547474631883,8.007903700312816e-05,4.6391434111543516e-05,5.9286,3.3571
3.078125,6.54498600900283e-05,0.00022019516743724732,0.00016795533846036473,8.643184566262308e-05,5.9286,3.3571
3.08203125,0.00011133688040741594,8.693804555580994e-05,4.29745848325323e-05,-4.86130507362472e-06,5.9286,3.3571
3.0859375,5.226335287251093e-05,4.201280503547728e-05,-2.73365803311207e-05,-3.0753429610131915e-05,5.9286,3.3571
3.08984375,6.104592101930272e-05,2.7839208026245585e-05,-2.880456002136256e-05,-5.7607333943694155e-05,5.9286,3.3571
3.09375,5.274424277103844e-05,2.4422358747234367e-05,-2.0983771671625788e-05,-7.810842961776143e-05,5.9286,3.3571
3.09765625,-5.907531363393599e-05,2.6371228336003722e-05,-6.932586147096964e-05,-4.7356786106660505e-05,5.9286,3.3571
3.1015625,4.689763400473036e-05,8.301499638361186e-05,-1.5618052803845215e-05,-5.419048466468294e-05,5.9286,3.3571
3.10546875,0.0001669682486686504,0.0001523390717555505,9.718859339284359e-05,-7.567867013046458e-05,5.9286,3.3571
3.109375,5.861616153200586e-05,4.348078472571914e-05,-8.784354245822782e-06,-9.423089621576249e-05,5.9286,3.3571
3.11328125,3.955773555352108e-05,-4.6369696314946135e-05,-0.00010007750498207059,-6.980675136949715e-05,5.9286,3.3571
3.1171875,1.4661935912108673e-06,2.735831812771808e-05,-3.660003837644001e-05,-7.615956002899207e-05,5.9286,3.3571
3.12109375,-7.316374555580921e-06,9.766948329137108e-05,1.953752977798129e-05,-0.00011814884116884101,5.9286,3.3571
3.125,0.00010597116153963537,2.394146884870686e-05,-3.513205868619815e-05,-8.494212817578386e-05,5.9286,3.3571
3.12890625,4.402152971694562e-06,2.687742822919057e-05,-6.444103250171658e-05,-0.00010544322384985116,5.9286,3.3571
3.1328125,2.4422358747234367e-05,7.863636730754564e-05,6.857222453650792e-06,-0.00010594942374303801,5.9286,3.3571
3.13671875,0.0001015672224689098,-5.026743549248488e-05,-0.0001064303136415655,-0.0001332842179751277,5.9286,3.3571
3.140625,1.4661935912108673e-06,-0.00012645051941710528,-0.0002123779512855725,-0.00018015832808422977,5.9286,3.3571
3.14453125,-5.320339487296857e-05,-4.826759975584878e-07,-0.00011131514261081858,-0.00023143637726405733,5.9286,3.3571
3.1484375,1.4661935912108673e-06,0.00018554578474860766,2.1005509468223152e-05,-0.00022214760922407867,5.9286,3.3571
3.15234375,3.3204926894026155e-05,9.425263401235986e-05,-2.912435484855365e-06,-4.393993682764929e-05,5.9286,3.3571
3.15625,6.54498600900283e-05,7.959814710460066e-05,-1.1695003631647153e-05,6.446277029831394e-05,5.9286,3.3571
3.16015625,4.737852390325785e-05,0.00019384746299687196,7.423242823682009e-05,8.106612679484251e-05,5.9286,3.3571
3.1640625,4.402152971694562e-06,4.402152971694562e-06,-7.90955194094758e-05,3.1256057305256786e-05,5.9286,3.3571
3.16796875,5.76290717402915e-05,-0.00012303367013809406,-0.00019628079468223078,1.369092101167321e-05,5.9286,3.3571
3.171875,-1.657983260090023e-05,-0.00012060391065079721,-0.00020458247293049509,-4.380415175097227e-06,5.9286,3.3571
3.17578125,-4.442082672617678e-05,8.325202143892624e-06,-0.00011179603250934607,0.00012209362813763643,5.9286,3.3571
3.1796875,1.0274071732661994e-05,0.00011379194988937214,1.8575749980926288e-05,0.00024704907177080956,5.9286,3.3571
3.18359375,3.7608865964751725e-05,5.226335287251093e-05,-9.265244144350277e-06,0.0001279402369039445,5.9286,3.3571
3.1875,0.0001015672224689098,6.0565031120775214e-05,-5.565846435492477e-05,0.00022849684568551163,5.9286,3.3571
3.19140625,0.00013183797608148324,5.031448328374158e-05,-6.980675136949715e-05,0.0003803568136415656,5.9286,3.3571
3.1953125,5.226335287251093e-05,-4.8824765796902364e-05,-0.0001298673686961165,0.00028855746301213096,5.9286,3.3571
3.19921875,-7.372980054169523e-05,-3.5638258579384996e-05,-0.0001503684643701838,0.00031247540796520946,5.9286,3.3571
3.203125,-6.542812229343093e-05,0.00012551047741664765,2.934173281452729e-06,0.0005546667468604563,5.9286,3.3571
3.20703125,8.936780504310679e-05,6.398188039978644e-05,-3.3183189097428793e-05,0.0006132593844968338,5.9286,3.3571
3.2109375,1.369092101167321e-05,-0.0001337651078736552,-0.00027342565840390626,0.0004619056164339666,5.9286,3.3571
3.21484375,-0.0001142511019913023,-0.00015183644406042567,-0.00027000880912489504,0.000546365068612192,5.9286,3.3571
3.21875,2.687742822919057e-05,1.1742051422903855e-05,-0.0001064303136415655,0.0007319126394598306,5.9286,3.3571
3.22265625,0.00010498407174792102,6.59307499885558e-05,-7.517247023727774e-05,0.0007543879147173266,5.9286,3.3571
3.2265625,-1.3162983321889014e-05,-9.716685559624622e-05,-0.00022409647881284803,0.0007812418190508889,5.9286,3.3571
3.23046875,-5.1254525284199215e-05,-0.00014500274550240322,-0.0002797784670634012,0.000828115929159991,5.9286,3.3571
3.234375,-6.0037093430991006e-05,-7.421069044022272e-05,-0.00020701223241779195,0.0008647394914320592,5.9286,3.3571
3.23828125,-7.1274731059739e-05,-2.0502881773098295e-05,-0.00017233753973449297,0.0009335826769054703,5.9286,3.3571
3.2421875,-2.5387710742351345e-05,5.8701326619364234e-06,-0.00013427130776684208,0.0009545646624780651,5.9286,3.3571
3.24609375,6.9347599267567e-05,3.517910647745485e-05,-9.860952529182873e-05,0.0009584877116502633,5.9286,3.3571
3.25,7.76492775158313e-05,4.6391434111543516e-05,-9.324380642404816e-05,0.0009628663407263295,5.9286,3.3571
3.25390625,4.9083528648814365e-06,-4.442082672617678e-05,-0.0001577083628213931,0.0009580068217517357,5.9286,3.3571
3.2578125,-2.4315455863278427e-06,-8.494212817578386e-05,-0.00021042908169680315,0.0009575006218585488,5.9286,3.3571
3.26171875,2.2473489158464998e-05,-3.0753429610131915e-05,-0.00017233753973449297,0.0009584877116502633,5.9286,3.3571
3.265625,3.955773555352108e-05,1.4171810910200718e-05,-0.00011521288178835729,0.0009604365812390327,5.9286,3.3571
3.26953125,-8.3474148485542e-05,2.2954379056992508e-05,-0.00010888538312352173,0.0009594494914473183,5.9286,3.3571
3.2734375,-2.5868600640878865e-05,2.5409448538948706e-05,-9.372469632257565e-05,0.0009584877116502633,5.9286,3.3571
3.27734375,0.00014110143412680252,0.0001015672224689098,-6.329284763866581e-06,0.0009643343204165713,5.9286,3.3571
3.28125,8.936780504310679e-05,3.6140886274509866e-05,-6.249216291294721e-05,0.0009663085000000001,5.9286,3.3571
3.28515625,-2.2932641260395143e-05,-3.611914847791252e-05,-0.0001337651078736552,0.0009628663407263295,5.9286,3.3571
3.2890625,-1.3669183215075861e-05,-2.5868600640878865e-05,-9.617976580453188e-05,0.0009609174711375601,5.9286,3.3571
3.29296875,-1.4444557946135035e-06,-0.00010448144405279614,-0.00016013812230868994,0.0009565388420614939,5.9286,3.3571
3.296875,-5.2722504974441075e-05,1.8575749980926288e-05,-5.320339487296857e-05,0.0009584877116502633,5.9286,3.3571
3.30078125,3.4403731746395747e-06,7.911725720607315e-05,4.444256452277415e-05,0.0009638534305180438,5.9286,3.3571
3.3046875,9.815037318989858e-05,-7.372980054169523e-05,-8.934606724650945e-05,0.0009599556913405051,5.9286,3.3571
3.30859375,-0.0001064303136415655,-2.5868600640878865e-05,-6.638990209048595e-05,0.0009570197319600214,5.9286,3.3571
3.3125,-7.226182085145336e-05,0.00013915256453803318,0.00011181777030594345,0.0009638534305180438,5.9286,3.3571
3.31640625,0.0001923794833066301,3.0775167406729296e-05,2.346057895017935e-05,0.0009604365812390327,5.9286,3.3571
3.3203125,6.0565031120775214e-05,-8.104438899824515e-05,-0.00011961682085908284,0.0009555517522697796,5.9286,3.3571
3.32421875,-5.2241615075913585e-05,2.453283382925207e-06,-4.49017166247043e-05,0.0009540837725795377,5.9286,3.3571
3.328125,6.152681091783023e-05,7.471331813534758e-05,5.274424277103844e-05,0.0009628663407263295,5.9286,3.3571
3.33203125,5.0795373182269074e-05,2.5409448538948706e-05,2.394146884870686e-05,0.0009516540130922409,5.9286,3.3571
3.3359375,-3.8068018066681874e-05,-2.73365803311207e-05,-4.49017166247043e-05,0.000884759697207599,5.9286,3.3571
3.33984375,-4.49017166247043e-05,4.006393544670793e-05,2.934173281452729e-06,0.0009037928131914245,5.9286,3.3571
3.34375,1.6120680498970072e-05,5.46931123598078e-05,3.517910647745485e-05,0.0009599556913405051,5.9286,3.3571
3.34765625,1.0754961631189502e-05,-2.6830380437933854e-05,-1.1214113733119632e-05,0.0009311276074235142,5.9286,3.3571
3.3515625,-4.393993682764929e-05,-3.368938899061564e-05,5.8701326619364234e-06,0.0008832917175173572,5.9286,3.3571
3.35546875,-4.148486734569309e-05,5.76290717402915e-05,8.007903700312816e-05,0.0008896445261768521,5.9286,3.3571
3.359375,-9.746134042877798e-06,3.419201668574051e-05,4.591054421301601e-05,0.0009189281899977112,5.9286,3.3571
3.36328125,-5.84839486533906e-06,-5.808822384222165e-05,-4.49017166247043e-05,0.0008862276768978409,5.9286,3.3571
3.3671875,1.563979060044258e-05,-4.380415175097227e-06,5.044137941558517e-07,0.000873522059578851,5.9286,3.3571
3.37109375,9.853036926833739e-07,9.853036926833739e-07,-3.8995252765697045e-06,0.0008383664769970246,5.9286,3.3571
3.375,-1.657983260090023e-05,-3.368938899061564e-05,5.044137941558517e-07,0.0008486170248340581,5.9286,3.3571
3.37890625,-7.858931951628894e-05,-3.368938899061564e-05,8.806092042420147e-06,0.0008500850045243001,5.9286,3.3571
3.3828125,-6.737699188220029e-05,7.276444854657821e-05,6.152681091783023e-05,0.000821763120500496,5.9286,3.3571
3.38671875,6.0565031120775214e-05,0.00019187328341344325,0.00016453848918135354,0.0009199152797894255,5.9286,3.3571
3.390625,-1.2682093423361493e-05,3.224314709697114e-05,4.834030370031287e-05,0.0008725349697871367,5.9286,3.3571
3.39453125,-2.8298360128175716e-05,-5.7607333943694155e-05,-1.9034902082856433e-05,0.0007763569900816358,5.9286,3.3571
3.3984375,9.523972380407423e-05,5.274424277103844e-05,6.446277029831394e-05,0.0007568176742046236,5.9286,3.3571
3.40234375,0.0001132857499961853,5.909705143053337e-05,6.398188039978644e-05,0.0008041979842069125,5.9286,3.3571
3.40625,-1.609894270237271e-05,-5.856911374074914e-05,-3.7106238269626855e-05,0.0007958963059586481,5.9286,3.3571
3.41015625,-6.737699188220029e-05,3.3711126787213e-05,3.1762257198443646e-05,0.0008242181899824521,5.9286,3.3571
3.4140625,-8.787808755626759e-05,4.932739349202722e-05,4.54296543144885e-05,0.0007958963059586481,5.9286,3.3571
3.41796875,-1.657983260090023e-05,-7.66404499275196e-05,-6.345394271000221e-05,0.0006791919205844205,5.9286,3.3571
3.421875,-2.391973105210951e-05,-0.00010837918323033489,-0.00011230223240253295,0.0006283947613031205,5.9286,3.3571
3.42578125,-0.00011374490209811546,-9.746134042877798e-06,-2.0983771671625788e-05,0.0006249779120241094,5.9286,3.3571
3.4296875,9.28698194094764e-06,3.565999637598236e-05,4.444256452277415e-05,0.0006625885640878919,5.9286,3.3571
3.43359375,5.5199312252994645e-05,-7.797264454108443e-06,1.4171810910200718e-05,0.0006630694539864195,5.9286,3.3571
3.4375,4.29745848325323e-05,6.350099050125892e-05,8.154701669337e-05,0.0006440363380025941,5.9286,3.3571
3.44140625,4.1025715243762926e-05,0.00011280486009765781,9.035489483482115e-05,0.0006025279467612726,5.9286,3.3571
3.4453125,-2.880456002136256e-05,-6.835484657053427e-06,-3.0753429610131915e-05,0.0005595515758297095,5.9286,3.3571
3.44921875,-5.419048466468294e-05,-8.2512368688487e-05,-9.228202662699314e-05,0.0005644364047989624,5.9286,3.3571
3.453125,-2.6830380437933854e-05,-4.295284703593492e-05,-3.27022991989013e-05,0.0005864054801632716,5.9286,3.3571
3.45703125,-5.419048466468294e-05,1.8575749980926288e-05,3.0775167406729296e-05,0.0005839757206759748,5.9286,3.3571
3.4609375,-6.590901219195842e-05,3.955773555352108e-05,5.1276263080796577e-05,0.0005600577757228962,5.9286,3.3571
3.46484375,4.348078472571914e-05,6.008414122224772e-05,8.789982535286494e-05,0.000622067262638285,5.9286,3.3571
3.46875,6.351022560463946e-06,2.687742822919057e-05,5.421222246128029e-05,0.0006088807554207676,5.9286,3.3571
3.47265625,-6.78578817807278e-05,-4.1991067238879935e-05,-1.999668187991145e-05,0.0005117156859235524,5.9286,3.3571
3.4765625,-1.8047812291142066e-05,6.857222453650792e-06,8.806092042420147e-06,0.0005029078077821012,5.9286,3.3571
3.48046875,-1.1214113733119632e-05,3.272403699549865e-05,2.8826297817959924e-05,0.0005326976714961472,5.9286,3.3571
3.484375,6.351022560463946e-06,1.2222941321431363e-05,1.0754961631189502e-05,0.0005077926367513543,5.9286,3.3571
3.48828125,-2.9766339818417576e-05,8.98486949416343e-05,8.643184566262308e-05,0.00048288760200656145,5.9286,3.3571
3.4921875,-7.762753971923394e-05,7.716838761730379e-05,8.693804555580994e-05,0.0005102477062333105,5.9286,3.3571
3.49609375,-1.1695003631647153e-05,6.982848916609451e-05,7.570040792706195e-05,0.000540518459845884,5.9286,3.3571
3.5,7.666218772411694e-05,2.687742822919057e-05,3.467290658426801e-05,0.0004941252396353094,5.9286,3.3571
3.50390625,1.662688039215692e-05,-0.00013181623828488584,-0.00011278312230106044,0.00041941013540093086,5.9286,3.3571
3.5078125,-6.884497157244215e-05,-0.00011131514261081858,-9.764774549477371e-05,0.00041014667735561155,5.9286,3.3571
3.51171875,-2.391973105210951e-05,9.278465432211801e-05,0.00011768968906691086,0.0004482382193179218,5.9286,3.3571
3.515625,6.494366019684144e-05,0.00013429304556343945,0.00018162273557640961,0.0005117156859235524,5.9286,3.3571
3.51953125,-1.9034902082856433e-05,-4.6369696314946135e-05,-7.797264454108443e-06,0.0004633735961242085,5.9286,3.3571
3.5234375,-9.423089621576249e-05,-7.90955194094758e-05,-6.638990209048595e-05,0.000440417430968185,5.9286,3.3571
3.52734375,-0.00014745781498435944,1.1742051422903855e-05,3.808975586327922e-05,0.00043894945127794313,5.9286,3.3571
3.53125,-6.0037093430991006e-05,3.808975586327922e-05,5.568020215152215e-05,0.0003798759237430381,5.9286,3.3571
3.53515625,-1.4444557946135035e-06,1.2703831219958857e-05,3.1762257198443646e-05,0.00043358373241016255,5.9286,3.3571
3.5390625,-1.7086032494087077e-05,-8.278154352635937e-06,2.687742822919057e-05,0.00045018708890669115,5.9286,3.3571
3.54296875,2.834540791943243e-05,5.8701326619364234e-06,3.6140886274509866e-05,0.0003793697238498513,5.9286,3.3571
3.546875,-6.198596301976035e-05,-8.784354245822782e-06,2.394146884870686e-05,0.0003793697238498513,5.9286,3.3571
3.55078125,-0.00010594942374303801,-6.444103250171658e-05,-4.540791651789115e-05,0.0003784079440527963,5.9286,3.3571
3.5546875,3.0294277508201787e-05,7.375153833829257e-05,8.058523689631501e-05,0.0003808377035400931,5.9286,3.3571
3.55859375,-2.5387710742351345e-05,5.46931123598078e-05,9.718859339284359e-05,0.00036081749776455336,5.9286,3.3571
3.5625,-9.569887590600436e-05,-7.226182085145336e-05,-2.3413531158922636e-05,0.00034277147157244224,5.9286,3.3571
3.56640625,-5.367504966811566e-06,-1.855401218432891e-05,8.325202143892624e-06,0.0003422652716792554,5.9286,3.3571
3.5703125,-9.372469632257565e-05,-3.5638258579384996e-05,-1.657983260090023e-05,0.0002519339007400626,5.9286,3.3571
3.57421875,-0.00010594942374303801,8.400208617532622e-05,0.00011037510061036093,0.0003202961963149463,5.9286,3.3571
3.578125,2.9307187716487434e-05,8.741893545433744e-05,0.00011622170937666902,0.00038572253250934626,5.9286,3.3571
3.58203125,4.402152971694562e-06,-4.7356786106660505e-05,-2.6830380437933854e-05,0.0002709923267185474,5.9286,3.3571
3.5859375,-9.569887590600436e-05,-4.7837676005188e-05,-5.565846435492477e-05,0.00021581653836118112,5.9286,3.3571
3.58984375,-8.544832806897071e-05,-5.320339487296857e-05,-6.83387716792553e-05,0.00023730472382696273,5.9286,3.3571
3.59375,2.453283382925207e-06,4.348078472571914e-05,5.421222246128029e-05,0.0003569197585870146,5.9286,3.3571
3.59765625,-2.4400620950637006e-05,7.471331813534758e-05,9.179756453040365e-05,0.00029734003115892277,5.9286,3.3571
3.6015625,-9.372469632257565e-05,4.591054421301601e-05,5.0795373182269074e-05,0.00020359181094071875,5.9286,3.3571
3.60546875,-0.00013181623828488584,-7.797264454108443e-06,-1.3669183215075861e-05,0.0002485170514610514,5.9286,3.3571
3.609375,-8.641010786602572e-05,-6.297305281147472e-05,-6.737699188220029e-05,0.00024755527166399636,5.9286,3.3571
3.61328125,7.911725720607315e-05,8.496386597238123e-05,8.301499638361186e-05,0.00030857766878767073,5.9286,3.3571
3.6171875,0.00014256941381704438,0.0001933412631036851,0.00020359181094071875,0.000429179793339437,5.9286,3.3571
3.62109375,-4.2471957137407424e-05,-0.00011521288178835729,-0.00010301346436255428,0.00024168335290302895,5.9286,3.3571
3.625,-0.00014890048467994192,-0.00022214760922407867,-0.00021923695983825433,9.278465432211801e-05,5.9286,3.3571
3.62890625,-0.000141585896223392,-8.739719765774006e-05,-9.617976580453188e-05,0.00011427283978789965,5.9286,3.3571
3.6328125,-0.00015575949323262374,-4.5888806416418646e-05,-5.1254525284199215e-05,0.0001362419151522088,5.9286,3.3571
3.63671875,-4.8318565903715524e-05,1.9723934843977133e-06,3.921263073167068e-06,0.00021531033846799424,5.9286,3.3571
3.640625,9.668239349965673e-05,4.396167462424665e-05,3.7608865964751725e-05,0.00026074177888151375,5.9286,3.3571
3.64453125,8.806092042420147e-06,3.517910647745485e-05,1.9056639879453784e-05,0.00023484965434500656,5.9286,3.3571
3.6484375,-0.00015330442375066753,4.1025715243762926e-05,2.0524619569695643e-05,0.00015770479062333112,5.9286,3.3571
3.65234375,-0.00010936627302204922,-7.66404499275196e-05,-8.835897745479508e-05,9.083578473334865e-05,5.9286,3.3571
3.65625,-5.712644404516663e-05,-0.0001411050063248645,-0.00015867014261844808,0.00013183797608148324,5.9286,3.3571
3.66015625,-7.175562095826652e-05,-8.200616879530017e-05,-0.00012204658034637975,0.00018212893546959644,5.9286,3.3571
3.6640625,-5.026743549248488e-05,-1.3162983321889014e-05,-6.737699188220029e-05,0.00015524972114137488,5.9286,3.3571
3.66796875,-2.245175136186765e-05,2.5890338437476216e-05,-3.3183189097428793e-05,0.00021336146887922488,5.9286,3.3571
3.671875,-8.104438899824515e-05,2.453283382925207e-06,-5.907531363393599e-05,0.00020116205145342188,5.9286,3.3571
3.67578125,-6.884497157244215e-05,1.1742051422903855e-05,-3.513205868619815e-05,0.0001581856805218586,5.9286,3.3571
3.6796875,-5.173541518272674e-05,-0.0001186297310673685,-0.00013475219766536956,0.00012500427752346082,5.9286,3.3571
3.68359375,-5.712644404516663e-05,-0.00011766795127031352,-0.00015624038313115124,0.00016307050949111168,5.9286,3.3571
3.6875,-3.2221409300373774e-05,-7.316374555580921e-06,-6.737699188220029e-05,0.00019286037320515758,5.9286,3.3571
3.69140625,-9.911572518501557e-05,-1.2682093423361493e-05,-5.712644404516663e-05,0.0001376845848477913,5.9286,3.3571
3.6953125,-0.00018699202664225218,-6.835484657053427e-06,-6.83387716792553e-05,0.00015917277031357295,5.9286,3.3571
3.69921875,-7.226182085145336e-05,1.662688039215692e-05,-4.8824765796902364e-05,0.00018554578474860766,5.9286,3.3571
3.703125,1.8069550087739444e-05,-4.1003977447165565e-05,-8.3474148485542e-05,0.00017673790660715656,5.9286,3.3571
3.70703125,-5.7607333943694155e-05,-9.911572518501557e-05,-0.00015183644406042567,0.00019675811238269633,5.9286,3.3571
3.7109375,-0.00011766795127031352,-0.00013034825859464404,-0.00018944709612420837,0.00012551047741664765,5.9286,3.3571
3.71484375,-7.66404499275196e-05,-8.544832806897071e-05,-0.00014647072519264508,9.620150360112923e-05,5.9286,3.3571
3.71875,-2.8298360128175716e-05,-2.245175136186765e-05,-9.12949368352788e-05,0.00016307050949111168,5.9286,3.3571
3.72265625,-2.245175136186765e-05,-1.9506556878003493e-06,-7.1274731059739e-05,0.00015917277031357295,5.9286,3.3571
3.7265625,-7.07938411612115e-05,-2.146466157015328e-05,-8.689099776455322e-05,0.00015965366021210048,5.9286,3.3571
3.73046875,-0.00011668086147859915,-8.934606724650945e-05,-0.00014745781498435944,0.0001606407500038148,5.9286,3.3571
3.734375,-0.0001850431570534828,-0.00011230223240253295,-0.0001786903483939879,7.666218772411694e-05,5.9286,3.3571
3.73828125,-0.00012546342962539096,-4.148486734569309e-05,-0.00011179603250934607,7.716838761730379e-05,5.9286,3.3571
3.7421875,-1.609894270237271e-05,-1.4630963012130848e-05,-9.081404693675128e-05,0.0001689424282520791,5.9286,3.3571
3.74609375,-2.880456002136256e-05,-8.200616879530017e-05,-0.00015429151354238188,0.00016795533846036473,5.9286,3.3571
3.75,-3.3183189097428793e-05,-5.1254525284199215e-05,-0.00010789829333180736,0.00019579633258564133,5.9286,3.3571
3.75390625,9.767871839475147e-06,5.0795373182269074e-05,-2.146466157015328e-05,0.00021971427753871982,5.9286,3.3571
3.7578125,-2.4400620950637006e-05,-1.5618052803845215e-05,-9.812863539330124e-05,0.00018944352392614639,5.9286,3.3571
3.76171875,-0.00011961682085908284,-8.835897745479508e-05,-0.00018603024684519715,0.0001689424282520791,5.9286,3.3571
3.765625,-0.00012791849910734714,-8.835897745479508e-05,-0.0001879791164339665,0.00018260982536812397,5.9286,3.3571
3.76953125,-6.590901219195842e-05,-4.6369696314946135e-05,-0.00013718195715266642,0.0002123996890821699,5.9286,3.3571
3.7734375,-7.274271074998086e-05,2.4903248645761863e-05,-6.102418322270537e-05,0.00026415862816052497,5.9286,3.3571
3.77734375,-7.175562095826652e-05,-1.1214113733119632e-05,-9.860952529182873e-05,0.00021776540794995049,5.9286,3.3571
3.78125,-7.957640930800329e-05,9.853036926833739e-07,-9.764774549477371e-05,0.00011867677885862522,5.9286,3.3571
3.78515625,-4.8824765796902364e-05,1.123585152971701e-05,-6.638990209048595e-05,0.00015917277031357295,5.9286,3.3571
3.7890625,-1.855401218432891e-05,-4.7356786106660505e-05,-0.00011571908168154413,0.0001899244138246739,5.9286,3.3571
3.79296875,-7.810842961776143e-05,-6.150507312123287e-05,-0.00012839938900587462,0.0002050597906309606,5.9286,3.3571
3.796875,-9.276291652552066e-05,-6.102418322270537e-05,-0.0001200977107576104,0.000276358045586328,5.9286,3.3571
3.80078125,-3.7106238269626855e-05,1.4171810910200718e-05,-7.07938411612115e-05,0.00031103273826962695,5.9286,3.3571
3.8046875,-6.492192240024409e-05,3.467290658426801e-05,-5.173541518272674e-05,0.0002797748948653392,5.9286,3.3571
3.80859375,-8.689099776455322e-05,-8.787808755626759e-05,-0.00014257298601510639,0.00016501937907988104,5.9286,3.3571
3.8125,-1.2201203524833999e-05,-9.471178611429002e-05,-0.000153785313649195,0.00015380705144579237,5.9286,3.3571
3.81640625,-5.173541518272674e-05,-2.73365803311207e-05,-0.00010691120354009302,0.0001728401674296178,5.9286,3.3571
3.8203125,-5.808822384222165e-05,3.224314709697114e-05,-4.685058621347366e-05,0.00019139239351491575,5.9286,3.3571
3.82421875,-4.8824765796902364e-05,3.1762257198443646e-05,-2.0502881773098295e-05,0.00021971427753871982,5.9286,3.3571
3.828125,-6.0037093430991006e-05,-1.1695003631647153e-05,-6.737699188220029e-05,0.00020017496166170755,5.9286,3.3571
3.83203125,-8.278154352635937e-06,2.4903248645761863e-05,-6.737699188220029e-05,0.0002451002021820402,5.9286,3.3571
3.8359375,2.9307187716487434e-05,0.0001850395848554208,7.76492775158313e-05,0.0003227512657969025,5.9286,3.3571
3.83984375,1.953752977798129e-05,4.29745848325323e-05,-4.1991067238879935e-05,0.00031103273826962695,5.9286,3.3571
3.84375,-7.517247023727774e-05,-0.0001699077802471961,-0.00024705264396887155,0.00019139239351491575,5.9286,3.3571
3.84765625,-9.372469632257565e-05,-0.0001142511019913023,-0.0001904088759212634,0.00012353629783321893,5.9286,3.3571
3.8515625,-6.590901219195842e-05,-2.0502881773098295e-05,-8.982695714503694e-05,0.00023290078475623718,5.9286,3.3571
3.85546875,-0.00010301346436255428,-5.419048466468294e-05,-0.00012645051941710528,0.00022558619629968726,5.9286,3.3571
3.859375,-6.884497157244215e-05,-3.7106238269626855e-05,-0.00010106459477378493,0.00016843622835889226,5.9286,3.3571
3.86328125,-2.781747022964822e-05,2.834540791943243e-05,-2.1970861463340127e-05,0.00021971427753871982,5.9286,3.3571
3.8671875,-8.299325858701451e-05,5.226335287251093e-05,-2.0983771671625788e-05,0.00022214403702601669,5.9286,3.3571
3.87109375,-8.278154352635937e-06,7.375153833829257e-05,8.806092042420147e-06,0.0002446193122835127,5.9286,3.3571
3.875,3.6140886274509866e-05,1.369092101167321e-05,-3.513205868619815e-05,0.00022654797609674226,5.9286,3.3571
3.87890625,-4.295284703593492e-05,-2.48815108491645e-05,-8.398034837872888e-05,0.0002167783181582361,5.9286,3.3571
3.8828125,-0.00010544322384985116,-3.27022991989013e-05,-0.00010984716292057672,0.00021189348918898302,5.9286,3.3571
3.88671875,-6.198596301976035e-05,-2.880456002136256e-05,-0.00011230223240253295,0.00018357160516517898,5.9286,3.3571
3.890625,-7.797264454108443e-06,9.853036926833739e-07,-6.542812229343093e-05,0.0002084766399099718,5.9286,3.3571
3.89453125,-7.322360064850838e-05,-1.4150073113603354e-05,-6.884497157244215e-05,0.00020946372970168618,5.9286,3.3571
3.8984375,-8.200616879530017e-05,-3.8995252765697045e-06,-5.856911374074914e-05,0.0002446193122835127,5.9286,3.3571
3.90234375,-3.9535997756923706e-05,9.767871839475147e-06,-6.884497157244215e-05,0.00027294119630731677,5.9286,3.3571
3.90625,-1.4630963012130848e-05,-2.48815108491645e-05,-9.471178611429002e-05,0.00019822609207293816,5.9286,3.3571
3.91015625,1.0754961631189502e-05,4.054482534523544e-05,-2.912435484855365e-06,0.00019286037320515758,5.9286,3.3571
3.9140625,9.853036926833739e-07,9.179756453040365e-05,2.394146884870686e-05,0.00023679852393377593,5.9286,3.3571
3.91796875,1.563979060044258e-05,3.6140886274509866e-05,-5.2722504974441075e-05,0.00026952434702830555,5.9286,3.3571
3.921875,-4.3433736934462444e-05,2.934173281452729e-06,-9.911572518501557e-05,0.0002739029761043717,5.9286,3.3571
3.92578125,-4.8824765796902364e-05,6.691783978027014e-05,-4.052308754863807e-05,0.0002797748948653392,5.9286,3.3571
3.9296875,-6.737699188220029e-05,-4.1003977447165565e-05,-0.00011716175137712667,0.0001987069819714657,5.9286,3.3571
3.93359375,-7.1274731059739e-05,-8.200616879530017e-05,-0.00014598983529411758,0.00019579633258564133,5.9286,3.3571
3.9375,2.9307187716487434e-05,-7.316374555580921e-06,-7.90955194094758e-05,0.0002597546890897994,5.9286,3.3571
3.94140625,1.9723934843977133e-06,4.29745848325323e-05,-3.2221409300373774e-05,0.00027782602527656985,5.9286,3.3571
3.9453125,-9.617976580453188e-05,6.857222453650792e-06,-6.054329332417785e-05,0.0002597546890897994,5.9286,3.3571
3.94921875,-4.8824765796902364e-05,-4.1003977447165565e-05,-0.00010154548467231245,0.00023191369496452285,5.9286,3.3571
3.953125,-3.3933253833828585e-06,-1.999668187991145e-05,-8.934606724650945e-05,0.00023095191516746781,5.9286,3.3571
3.95703125,-7.797264454108443e-06,1.4661935912108673e-06,-6.78578817807278e-05,0.0002504659210498208,5.9286,3.3571
3.9609375,1.6120680498970072e-05,2.8826297817959924e-05,-3.660003837644001e-05,0.0002485170514610514,5.9286,3.3571
3.96484375,-2.781747022964822e-05,-1.3162983321889014e-05,-6.932586147096964e-05,0.00026512040795757997,5.9286,3.3571
3.96875,-8.494212817578386e-05,-4.442082672617678e-05,-9.12949368352788e-05,0.00027246030640878927,5.9286,3.3571
3.97265625,-3.368938899061564e-05,-1.1695003631647153e-05,-6.884497157244215e-05,0.00021581653836118112,5.9286,3.3571
3.9765625,-8.934606724650945e-05,-3.513205868619815e-05,-9.911572518501557e-05,0.00020263003114366374,5.9286,3.3571
3.98046875,-0.00014598983529411758,-2.5387710742351345e-05,-8.544832806897071e-05,0.00026952434702830555,5.9286,3.3571
3.984375,-4.826759975584878e-07,3.224314709697114e-05,-2.6830380437933854e-05,0.00029685914126039527,5.9286,3.3571
3.98828125,1.8575749980926288e-05,-4.380415175097227e-06,-5.7607333943694155e-05,0.0002485170514610514,5.9286,3.3571
3.9921875,-4.3433736934462444e-05,-6.102418322270537e-05,-0.00010106459477378493,0.00021923338764019234,5.9286,3.3571
3.99609375,-6.345394271000221e-05,-5.1254525284199215e-05,-8.200616879530017e-05,0.00021728451805142296,5.9286,3.3571
4.0,-7.858931951628894e-05,-5.6620244151979785e-05,-0.00010544322384985116,0.00022654797609674226,5.9286,3.3571
4.00390625,-4.5888806416418646e-05,-8.152527889677265e-05,-0.00012351456003662162,0.0002495041412527657,5.9286,3.3571
4.0078125,-1.9515791981383925e-05,-2.2932641260395143e-05,-6.297305281147472e-05,0.00027731982538338294,5.9286,3.3571
4.01171875,-7.028764126802466e-05,-3.1715209407186934e-05,-7.322360064850838e-05,0.00029784623105210957,5.9286,3.3571
4.015625,-0.00012839938900587462,-0.00013280332807660022,-0.00017820945849546035,0.00028562150363164725,5.9286,3.3571
4.01953125,-4.7837676005188e-05,-0.00014841959478141444,-0.00018651113674372465,0.0003383675325017167,5.9286,3.3571
4.0234375,-2.48815108491645e-05,-0.00019822966427100015,-0.00020359538313878073,0.0003207770862134738,5.9286,3.3571
4.02734375,-3.758712816815435e-05,-0.00020896110200656129,-0.00021042908169680315,0.00022849684568551163,5.9286,3.3571
4.03125,-2.6830380437933854e-05,-0.0001845622671549553,-0.00019139596571297773,0.0002490232513542382,5.9286,3.3571
4.03515625,-6.345394271000221e-05,-0.00016013812230868994,-0.00016502295127794302,0.000357906848378729,5.9286,3.3571
4.0390625,-4.295284703593492e-05,-0.00021483302076752875,-0.00021824987004653997,0.0003710933555962463,5.9286,3.3571
4.04296875,-7.316374555580921e-06,-0.0002748936380941481,-0.00028367620624093987,0.00031199451806668196,5.9286,3.3571
4.046875,-4.3433736934462444e-05,-0.00019382572520027457,-0.00021141617148851753,0.00034666921074998097,5.9286,3.3571
4.05078125,-7.322360064850838e-05,-0.00017527349911497668,-0.00018944709612420837,0.0003012630803311208,5.9286,3.3571
4.0546875,-1.1214113733119632e-05,-0.00021678189035629809,-0.0002128841511787594,0.0002621844485770963,5.9286,3.3571
4.05859375,8.325202143892624e-06,-0.00020701223241779195,-0.0001972425744792858,0.00028271085424582293,5.9286,3.3571
