timestamp,TP9,AF7,AF8,TP10,Valence,Arousal
0.0,-2.9789622257724872e-05,-3.2719441536278313e-05,-3.076622868390935e-05,-4.394548308171205e-05,4.2,3.6
0.00390625,-3.662586724101623e-05,-3.662586724101623e-05,-3.125453189700159e-05,-2.9301319044632628e-05,4.2,3.6
0.0078125,-3.7602473667200714e-05,-3.85741477376974e-05,-2.637149976607918e-05,-3.174283511009383e-05,4.2,3.6
0.01171875,-4.1015663803158605e-05,-3.564926081483175e-05,-1.2210706586404199e-05,-5.468815376974135e-05,4.2,3.6
0.015625,-4.443378629480429e-05,-3.174283511009383e-05,-1.3675616225680926e-05,-3.6137564027924e-05,4.2,3.6
0.01953125,-4.199227022934309e-05,-2.734810619226367e-05,-2.1976770848249016e-05,-9.769190520942998e-06,4.2,3.6
0.0234375,-4.443378629480429e-05,-1.70937387173266e-05,-1.6117132291142127e-05,-2.392998370061798e-05,4.2,3.6
0.02734375,-4.0527360590066365e-05,-2.2465074061341254e-05,-2.148846763515678e-05,-2.881301583154039e-05,4.2,3.6
0.03125,-3.85741477376974e-05,-2.3441680487525742e-05,-2.295337727443349e-05,-2.734810619226367e-05,4.2,3.6
0.03515625,-4.345717986861981e-05,-1.9535254782787816e-05,-2.0023557995880053e-05,-4.296887665552757e-05,4.2,3.6
0.0390625,-4.9805121638818946e-05,-2.881301583154039e-05,-2.637149976607918e-05,-5.078172806500343e-05,4.2,3.6
0.04296875,-5.419985055664911e-05,-3.2719441536278313e-05,-3.174283511009383e-05,-4.345717986861981e-05,4.2,3.6
0.046875,-4.8828515212634465e-05,-3.223113832318607e-05,-4.248057344243533e-05,-3.85741477376974e-05,4.2,3.6
0.05078125,-4.785190878644998e-05,-3.711417045410848e-05,-4.785190878644998e-05,-4.0527360590066365e-05,4.2,3.6
0.0546875,-4.589869593408101e-05,-4.1015663803158605e-05,-3.7602473667200714e-05,-4.68753023602655e-05,4.2,3.6
0.05859375,-4.199227022934309e-05,-3.6137564027924e-05,-3.3207744749370554e-05,-5.078172806500343e-05,4.2,3.6
0.0625,-5.712966983520255e-05,-3.2719441536278313e-05,-2.6859802979171417e-05,-4.443378629480429e-05,4.2,3.6
0.06640625,-8.056822406363011e-05,-3.711417045410848e-05,-3.564926081483175e-05,-2.734810619226367e-05,4.2,3.6
0.0703125,-5.712966983520255e-05,-4.248057344243533e-05,-4.1015663803158605e-05,-3.027792547081711e-05,4.2,3.6
0.07421875,-2.392998370061798e-05,-4.296887665552757e-05,-3.4184351175555036e-05,-4.0039057376974124e-05,4.2,3.6
0.078125,-2.637149976607918e-05,-4.199227022934309e-05,-2.8324712618448143e-05,-3.4184351175555036e-05,4.2,3.6
0.08203125,-2.9789622257724872e-05,-4.1015663803158605e-05,-2.4906590126802454e-05,-3.467265438864727e-05,4.2,3.6
0.0859375,-2.881301583154039e-05,-4.394548308171205e-05,-2.9301319044632628e-05,-3.467265438864727e-05,4.2,3.6
0.08984375,-3.516095760173952e-05,-4.68753023602655e-05,-2.4418286913710217e-05,-3.809077688029296e-05,4.2,3.6
0.09375,-3.85741477376974e-05,-4.443378629480429e-05,-2.881301583154039e-05,-4.9805121638818946e-05,4.2,3.6
0.09765625,-3.85741477376974e-05,-4.0527360590066365e-05,-2.9789622257724872e-05,-5.810627626138703e-05,4.2,3.6
0.1015625,-5.615306340901807e-05,-3.4184351175555036e-05,-1.6117132291142127e-05,-4.0039057376974124e-05,4.2,3.6
0.10546875,-5.029342485191118e-05,-3.662586724101623e-05,-3.174283511009383e-05,-2.148846763515678e-05,4.2,3.6
0.109375,-3.6137564027924e-05,-4.248057344243533e-05,-4.6386999147173254e-05,-3.223113832318607e-05,4.2,3.6
0.11328125,-4.589869593408101e-05,-4.1015663803158605e-05,-3.809077688029296e-05,-4.199227022934309e-05,4.2,3.6
0.1171875,-5.3223244130464625e-05,-3.662586724101623e-05,-3.027792547081711e-05,-4.394548308171205e-05,4.2,3.6
0.12109375,-4.93168184257267e-05,-3.85741477376974e-05,-2.9301319044632628e-05,-5.17583344911879e-05,4.2,3.6
0.125,-5.17583344911879e-05,-4.0039057376974124e-05,-3.027792547081711e-05,-4.785190878644998e-05,4.2,3.6
0.12890625,-4.834021199954222e-05,-3.711417045410848e-05,-3.467265438864727e-05,-3.85741477376974e-05,4.2,3.6
0.1328125,-4.394548308171205e-05,-3.125453189700159e-05,-3.027792547081711e-05,-4.9805121638818946e-05,4.2,3.6
0.13671875,-4.68753023602655e-05,-3.516095760173952e-05,-2.9789622257724872e-05,-4.6386999147173254e-05,4.2,3.6
0.140625,-4.296887665552757e-05,-3.3207744749370554e-05,-2.9301319044632628e-05,-2.6859802979171417e-05,4.2,3.6
0.14453125,-4.7363605573357736e-05,-3.076622868390935e-05,-2.5394893339894705e-05,-3.906245095078964e-05,4.2,3.6
0.1484375,-5.078172806500343e-05,-3.516095760173952e-05,-4.296887665552757e-05,-4.834021199954222e-05,4.2,3.6
0.15234375,-4.1015663803158605e-05,-2.8324712618448143e-05,-4.834021199954222e-05,-4.0039057376974124e-05,4.2,3.6
0.15625,-3.809077688029296e-05,-2.4906590126802454e-05,-3.027792547081711e-05,-4.248057344243533e-05,4.2,3.6
0.16015625,-4.68753023602655e-05,-2.783640940535591e-05,-3.174283511009383e-05,-3.516095760173952e-05,4.2,3.6
0.1640625,-4.541039272098877e-05,-2.392998370061798e-05,-3.2719441536278313e-05,-2.9789622257724872e-05,4.2,3.6
0.16796875,-4.296887665552757e-05,-3.027792547081711e-05,-3.174283511009383e-05,-3.3696047962462795e-05,4.2,3.6
0.171875,-4.296887665552757e-05,-3.7602473667200714e-05,-3.662586724101623e-05,-4.345717986861981e-05,4.2,3.6
0.17578125,-4.492208950789653e-05,-3.662586724101623e-05,-3.125453189700159e-05,-4.589869593408101e-05,4.2,3.6
0.1796875,-5.419985055664911e-05,-3.6137564027924e-05,-2.9789622257724872e-05,-4.541039272098877e-05,4.2,3.6
0.18359375,-5.127003127809566e-05,-3.809077688029296e-05,-3.2719441536278313e-05,-4.296887665552757e-05,4.2,3.6
0.1875,-4.834021199954222e-05,-3.7602473667200714e-05,-3.4184351175555036e-05,-3.85741477376974e-05,4.2,3.6
0.19140625,-5.468815376974135e-05,-3.906245095078964e-05,-2.1000164422064528e-05,-3.223113832318607e-05,4.2,3.6
0.1953125,-4.8828515212634465e-05,-3.809077688029296e-05,-1.6117132291142127e-05,-2.9789622257724872e-05,4.2,3.6
0.19921875,-5.3711547343556866e-05,-3.7602473667200714e-05,-2.1976770848249016e-05,-5.810627626138703e-05,4.2,3.6
0.203125,-6.250100517921719e-05,-3.7602473667200714e-05,-2.392998370061798e-05,-5.127003127809566e-05,4.2,3.6
0.20703125,-5.566476019592583e-05,-3.223113832318607e-05,-2.3441680487525742e-05,-1.562882907804989e-05,4.2,3.6
0.2109375,-4.394548308171205e-05,-3.4184351175555036e-05,-2.2465074061341254e-05,-2.1000164422064528e-05,4.2,3.6
0.21484375,-4.248057344243533e-05,-4.296887665552757e-05,-2.9789622257724872e-05,-4.1015663803158605e-05,4.2,3.6
0.21875,-5.029342485191118e-05,-4.1503967016250846e-05,-3.125453189700159e-05,-4.68753023602655e-05,4.2,3.6
0.22265625,-5.17583344911879e-05,-3.4184351175555036e-05,-2.6859802979171417e-05,-4.0527360590066365e-05,4.2,3.6
0.2265625,-4.93168184257267e-05,-3.4184351175555036e-05,-3.516095760173952e-05,-3.076622868390935e-05,4.2,3.6
0.23046875,-5.029342485191118e-05,-3.85741477376974e-05,-4.785190878644998e-05,-3.6137564027924e-05,4.2,3.6
0.234375,-6.201270196612496e-05,-3.516095760173952e-05,-3.564926081483175e-05,-4.394548308171205e-05,4.2,3.6
0.23828125,-6.445421803158616e-05,-3.223113832318607e-05,-2.1000164422064528e-05,-4.93168184257267e-05,4.2,3.6
0.2421875,-3.906245095078964e-05,-3.125453189700159e-05,-2.5883196552986942e-05,-3.662586724101623e-05,4.2,3.6
0.24609375,-2.392998370061798e-05,-3.027792547081711e-05,-3.2719441536278313e-05,-2.9789622257724872e-05,4.2,3.6
0.25,-3.3207744749370554e-05,-2.881301583154039e-05,-2.4418286913710217e-05,-3.809077688029296e-05,4.2,3.6
0.25390625,-4.1503967016250846e-05,-3.662586724101623e-05,-3.3207744749370554e-05,-4.834021199954222e-05,4.2,3.6
0.2578125,-3.85741477376974e-05,-3.516095760173952e-05,-3.85741477376974e-05,-5.664136662211031e-05,4.2,3.6
0.26171875,-3.3696047962462795e-05,-2.5394893339894705e-05,-3.3696047962462795e-05,-3.955075416388188e-05,4.2,3.6
0.265625,-3.711417045410848e-05,-3.125453189700159e-05,-3.955075416388188e-05,-2.4906590126802454e-05,4.2,3.6
0.26953125,-3.906245095078964e-05,-3.4184351175555036e-05,-4.345717986861981e-05,-3.4184351175555036e-05,4.2,3.6
0.2734375,-3.662586724101623e-05,-3.076622868390935e-05,-4.6386999147173254e-05,-3.906245095078964e-05,4.2,3.6
0.27734375,-4.0039057376974124e-05,-3.3696047962462795e-05,-4.541039272098877e-05,-3.3207744749370554e-05,4.2,3.6
0.28125,-4.443378629480429e-05,-3.516095760173952e-05,-4.1503967016250846e-05,-3.906245095078964e-05,4.2,3.6
0.28515625,-4.199227022934309e-05,-3.516095760173952e-05,-5.029342485191118e-05,-4.492208950789653e-05,4.2,3.6
0.2890625,-4.443378629480429e-05,-3.955075416388188e-05,-6.103609553994048e-05,-4.6386999147173254e-05,4.2,3.6
0.29296875,-4.834021199954222e-05,-3.955075416388188e-05,-6.396591481849392e-05,-4.834021199954222e-05,4.2,3.6
0.296875,-4.68753023602655e-05,-3.6137564027924e-05,-4.589869593408101e-05,-5.9571185900663755e-05,4.2,3.6
0.30078125,-4.834021199954222e-05,-3.174283511009383e-05,-2.783640940535591e-05,-4.394548308171205e-05,4.2,3.6
0.3046875,-4.785190878644998e-05,-2.9789622257724872e-05,-3.85741477376974e-05,-3.223113832318607e-05,4.2,3.6
0.30859375,-3.174283511009383e-05,-3.076622868390935e-05,-3.955075416388188e-05,-3.906245095078964e-05,4.2,3.6
0.3125,-2.881301583154039e-05,-3.516095760173952e-05,-3.955075416388188e-05,-1.8558648356603327e-05,4.2,3.6
0.31640625,-3.662586724101623e-05,-3.564926081483175e-05,-4.8828515212634465e-05,-2.6859802979171417e-05,4.2,3.6
0.3203125,-4.541039272098877e-05,-3.467265438864727e-05,-4.589869593408101e-05,-3.3207744749370554e-05,4.2,3.6
0.32421875,-4.589869593408101e-05,-3.4184351175555036e-05,-3.467265438864727e-05,-2.4906590126802454e-05,4.2,3.6
0.328125,-3.3696047962462795e-05,-3.516095760173952e-05,-4.0039057376974124e-05,-3.564926081483175e-05,4.2,3.6
0.33203125,-3.906245095078964e-05,-3.85741477376974e-05,-4.394548308171205e-05,-4.6386999147173254e-05,4.2,3.6
0.3359375,-4.345717986861981e-05,-3.223113832318607e-05,-4.1503967016250846e-05,-4.834021199954222e-05,4.2,3.6
0.33984375,-3.711417045410848e-05,-2.5883196552986942e-05,-3.662586724101623e-05,-3.6137564027924e-05,4.2,3.6
0.34375,-4.394548308171205e-05,-2.881301583154039e-05,-3.467265438864727e-05,-2.9301319044632628e-05,4.2,3.6
0.34765625,-4.1503967016250846e-05,-2.9789622257724872e-05,-4.1015663803158605e-05,-3.223113832318607e-05,4.2,3.6
0.3515625,-3.3696047962462795e-05,-2.9301319044632628e-05,-3.955075416388188e-05,-3.174283511009383e-05,4.2,3.6
0.35546875,-3.6137564027924e-05,-3.076622868390935e-05,-3.85741477376974e-05,-4.9805121638818946e-05,4.2,3.6
0.359375,-3.564926081483175e-05,-3.174283511009383e-05,-3.711417045410848e-05,-4.0527360590066365e-05,4.2,3.6
0.36328125,-3.223113832318607e-05,-3.076622868390935e-05,-3.516095760173952e-05,-1.6117132291142127e-05,4.2,3.6
0.3671875,-3.711417045410848e-05,-2.734810619226367e-05,-2.9301319044632628e-05,-1.6605435504234364e-05,4.2,3.6
0.37109375,-3.4184351175555036e-05,-2.734810619226367e-05,-2.8324712618448143e-05,-2.9789622257724872e-05,4.2,3.6
0.375,-3.223113832318607e-05,-3.223113832318607e-05,-3.564926081483175e-05,-4.1503967016250846e-05,4.2,3.6
0.37890625,-3.809077688029296e-05,-3.2719441536278313e-05,-3.564926081483175e-05,-4.248057344243533e-05,4.2,3.6
0.3828125,-4.492208950789653e-05,-3.3207744749370554e-05,-3.223113832318607e-05,-4.248057344243533e-05,4.2,3.6
0.38671875,-3.85741477376974e-05,-3.076622868390935e-05,-2.3441680487525742e-05,-4.0527360590066365e-05,4.2,3.6
0.390625,-2.881301583154039e-05,-3.3696047962462795e-05,-3.223113832318607e-05,-4.248057344243533e-05,4.2,3.6
0.39453125,-3.711417045410848e-05,-4.394548308171205e-05,-4.93168184257267e-05,-4.785190878644998e-05,4.2,3.6
0.3984375,-4.248057344243533e-05,-3.906245095078964e-05,-4.443378629480429e-05,-4.394548308171205e-05,4.2,3.6
0.40234375,-3.85741477376974e-05,-2.392998370061798e-05,-3.3207744749370554e-05,-4.443378629480429e-05,4.2,3.6
0.40625,-3.125453189700159e-05,-2.5883196552986942e-05,-3.809077688029296e-05,-5.810627626138703e-05,4.2,3.6
0.41015625,-2.5394893339894705e-05,-4.1015663803158605e-05,-4.492208950789653e-05,-3.906245095078964e-05,4.2,3.6
0.4140625,-3.076622868390935e-05,-4.0527360590066365e-05,-3.955075416388188e-05,-2.6859802979171417e-05,4.2,3.6
0.41796875,-3.027792547081711e-05,-3.174283511009383e-05,-2.5394893339894705e-05,-3.906245095078964e-05,4.2,3.6
0.421875,-2.2465074061341254e-05,-3.125453189700159e-05,-2.295337727443349e-05,-3.809077688029296e-05,4.2,3.6
0.42578125,-2.148846763515678e-05,-3.2719441536278313e-05,-2.881301583154039e-05,-3.7602473667200714e-05,4.2,3.6
0.4296875,-3.027792547081711e-05,-2.783640940535591e-05,-2.8324712618448143e-05,-3.955075416388188e-05,4.2,3.6
0.43359375,-3.467265438864727e-05,-3.711417045410848e-05,-4.0527360590066365e-05,-4.1503967016250846e-05,4.2,3.6
0.4375,-3.906245095078964e-05,-4.1015663803158605e-05,-5.2734940917372384e-05,-5.127003127809566e-05,4.2,3.6
0.44140625,-3.85741477376974e-05,-3.467265438864727e-05,-5.029342485191118e-05,-5.029342485191118e-05,4.2,3.6
0.4453125,-2.9789622257724872e-05,-3.711417045410848e-05,-5.127003127809566e-05,-5.517645698283359e-05,4.2,3.6
0.44921875,-4.0039057376974124e-05,-3.125453189700159e-05,-5.3223244130464625e-05,-5.3223244130464625e-05,4.2,3.6
0.453125,-4.345717986861981e-05,-2.9789622257724872e-05,-5.029342485191118e-05,-5.419985055664911e-05,4.2,3.6
0.45703125,-3.564926081483175e-05,-3.125453189700159e-05,-4.199227022934309e-05,-5.9082882687571514e-05,4.2,3.6
0.4609375,-4.0527360590066365e-05,-2.4418286913710217e-05,-3.809077688029296e-05,-4.785190878644998e-05,4.2,3.6
0.46484375,-3.955075416388188e-05,-2.4418286913710217e-05,-3.564926081483175e-05,-4.199227022934309e-05,4.2,3.6
0.46875,-3.3696047962462795e-05,-2.148846763515678e-05,-3.662586724101623e-05,-2.734810619226367e-05,4.2,3.6
0.47265625,-3.467265438864727e-05,-1.46522226518654e-05,-3.076622868390935e-05,-2.6859802979171417e-05,4.2,3.6
0.4765625,-3.662586724101623e-05,-2.1976770848249016e-05,-1.3187313012588674e-05,-3.564926081483175e-05,4.2,3.6
0.48046875,-2.9301319044632628e-05,-3.4184351175555036e-05,-1.2210706586404199e-05,-3.223113832318607e-05,4.2,3.6
0.484375,-2.881301583154039e-05,-3.2719441536278313e-05,-2.1000164422064528e-05,-3.955075416388188e-05,4.2,3.6
0.48828125,-3.662586724101623e-05,-3.125453189700159e-05,-2.6859802979171417e-05,-4.541039272098877e-05,4.2,3.6
0.4921875,-4.0039057376974124e-05,-3.564926081483175e-05,-3.516095760173952e-05,-2.881301583154039e-05,4.2,3.6
0.49609375,-4.541039272098877e-05,-3.564926081483175e-05,-2.5394893339894705e-05,-5.17583344911879e-05,4.2,3.6
0.5,-4.93168184257267e-05,-3.711417045410848e-05,-1.9535254782787816e-05,-6.396591481849392e-05,4.2,3.6
0.50390625,-4.541039272098877e-05,-4.345717986861981e-05,-3.223113832318607e-05,-3.3207744749370554e-05,4.2,3.6
0.5078125,-4.1503967016250846e-05,-3.906245095078964e-05,-3.2719441536278313e-05,-2.5394893339894705e-05,4.2,3.6
0.51171875,-4.0527360590066365e-05,-3.3696047962462795e-05,-2.734810619226367e-05,-5.9571185900663755e-05,4.2,3.6
0.515625,-3.809077688029296e-05,-3.85741477376974e-05,-3.4184351175555036e-05,-6.933725016250858e-05,4.2,3.6
0.51953125,-4.1503967016250846e-05,-4.541039272098877e-05,-3.6137564027924e-05,-3.4184351175555036e-05,4.2,3.6
0.5234375,-4.345717986861981e-05,-4.1503967016250846e-05,-3.223113832318607e-05,-7.959161763744563e-05,4.2,3.6
0.52734375,-5.3223244130464625e-05,-4.0039057376974124e-05,-4.199227022934309e-05,-0.00011816263911604485,4.2,3.6
0.53125,-5.419985055664911e-05,-3.4184351175555036e-05,-5.17583344911879e-05,-9.960711701853971e-05,4.2,3.6
0.53515625,-4.589869593408101e-05,-3.3207744749370554e-05,-4.7363605573357736e-05,-6.933725016250858e-05,4.2,3.6
0.5390625,-4.394548308171205e-05,-3.076622868390935e-05,-4.345717986861981e-05,3.613131150972765e-05,4.2,3.6
0.54296875,-2.5883196552986942e-05,-2.5883196552986942e-05,-4.345717986861981e-05,8.786331576562162e-06,4.2,3.6
0.546875,-1.2699009799496436e-05,-2.734810619226367e-05,-3.467265438864727e-05,-6.250100517921719e-05,4.2,3.6
0.55078125,-2.2465074061341254e-05,-2.881301583154039e-05,-4.589869593408101e-05,-1.3675616225680926e-05,4.2,3.6
0.5546875,-3.7602473667200714e-05,-3.516095760173952e-05,-5.2734940917372384e-05,-8.79258409475851e-06,4.2,3.6
0.55859375,-5.2246637704280143e-05,-3.125453189700159e-05,-4.443378629480429e-05,-6.591912767086289e-05,4.2,3.6
0.5625,-4.6386999147173254e-05,-3.223113832318607e-05,-4.1503967016250846e-05,-5.664136662211031e-05,4.2,3.6
0.56640625,-3.223113832318607e-05,-3.467265438864727e-05,-3.076622868390935e-05,-6.351068029297309e-06,4.2,3.6
0.5703125,-2.8324712618448143e-05,-3.076622868390935e-05,-3.6137564027924e-05,-1.2210706586404199e-05,4.2,3.6
0.57421875,-3.711417045410848e-05,-2.9301319044632628e-05,-3.711417045410848e-05,-2.2465074061341254e-05,4.2,3.6
0.578125,-4.345717986861981e-05,-3.223113832318607e-05,-2.9301319044632628e-05,-2.0023557995880053e-05,4.2,3.6
0.58203125,-3.809077688029296e-05,-3.6137564027924e-05,-2.1000164422064528e-05,-2.783640940535591e-05,4.2,3.6
0.5859375,-3.564926081483175e-05,-4.199227022934309e-05,-2.4906590126802454e-05,-3.662586724101623e-05,4.2,3.6
0.58984375,-4.1015663803158605e-05,-4.1503967016250846e-05,-3.174283511009383e-05,-5.761797304829479e-05,4.2,3.6
0.59375,-4.0527360590066365e-05,-2.881301583154039e-05,-3.076622868390935e-05,-5.2734940917372384e-05,4.2,3.6
0.59765625,-3.564926081483175e-05,-2.5394893339894705e-05,-3.2719441536278313e-05,-1.9535254782787816e-05,4.2,3.6
0.6015625,-3.809077688029296e-05,-3.3207744749370554e-05,-2.4906590126802454e-05,-3.4184351175555036e-05,4.2,3.6
0.60546875,-2.881301583154039e-05,-3.174283511009383e-05,-2.4418286913710217e-05,-4.68753023602655e-05,4.2,3.6
0.609375,-2.9301319044632628e-05,-3.027792547081711e-05,-2.9301319044632628e-05,-4.68753023602655e-05,4.2,3.6
0.61328125,-2.9301319044632628e-05,-3.4184351175555036e-05,-3.125453189700159e-05,-4.492208950789653e-05,4.2,3.6
0.6171875,-2.734810619226367e-05,-3.076622868390935e-05,-3.662586724101623e-05,-3.4184351175555036e-05,4.2,3.6
0.62109375,-2.783640940535591e-05,-2.295337727443349e-05,-3.076622868390935e-05,-4.834021199954222e-05,4.2,3.6
0.625,-2.4906590126802454e-05,-1.70937387173266e-05,-1.4163919438773164e-05,-6.152439875303273e-05,4.2,3.6
0.62890625,-3.3696047962462795e-05,-2.9301319044632628e-05,-1.8558648356603327e-05,-5.517645698283359e-05,4.2,3.6
0.6328125,-4.0527360590066365e-05,-3.955075416388188e-05,-4.0039057376974124e-05,-4.394548308171205e-05,4.2,3.6
0.63671875,-3.955075416388188e-05,-3.564926081483175e-05,-4.199227022934309e-05,-4.785190878644998e-05,4.2,3.6
0.640625,-4.68753023602655e-05,-3.955075416388188e-05,-3.467265438864727e-05,-4.68753023602655e-05,4.2,3.6
0.64453125,-5.566476019592583e-05,-4.7363605573357736e-05,-3.7602473667200714e-05,-3.4184351175555036e-05,4.2,3.6
0.6484375,-5.566476019592583e-05,-4.8828515212634465e-05,-4.492208950789653e-05,-2.6859802979171417e-05,4.2,3.6
0.65234375,-5.566476019592583e-05,-4.834021199954222e-05,-4.541039272098877e-05,-2.881301583154039e-05,4.2,3.6
0.65625,-5.9082882687571514e-05,-4.541039272098877e-05,-3.711417045410848e-05,-4.443378629480429e-05,4.2,3.6
0.66015625,-4.93168184257267e-05,-3.906245095078964e-05,-3.85741477376974e-05,-4.296887665552757e-05,4.2,3.6
0.6640625,-4.345717986861981e-05,-4.1015663803158605e-05,-4.834021199954222e-05,-3.85741477376974e-05,4.2,3.6
0.66796875,-4.443378629480429e-05,-3.809077688029296e-05,-5.2734940917372384e-05,-6.103609553994048e-05,4.2,3.6
0.671875,-4.785190878644998e-05,-3.955075416388188e-05,-4.6386999147173254e-05,-4.443378629480429e-05,4.2,3.6
0.67578125,-5.419985055664911e-05,-4.1503967016250846e-05,-4.8828515212634465e-05,-2.2465074061341254e-05,4.2,3.6
0.6796875,-5.078172806500343e-05,-4.248057344243533e-05,-5.127003127809566e-05,-3.4184351175555036e-05,4.2,3.6
0.68359375,-4.248057344243533e-05,-3.3207744749370554e-05,-3.7602473667200714e-05,-3.027792547081711e-05,4.2,3.6
0.6875,-3.516095760173952e-05,-2.9789622257724872e-05,-4.0527360590066365e-05,-5.517645698283359e-05,4.2,3.6
0.69140625,-3.85741477376974e-05,-3.711417045410848e-05,-4.6386999147173254e-05,-6.982555337560081e-05,4.2,3.6
0.6953125,-4.1015663803158605e-05,-3.467265438864727e-05,-4.248057344243533e-05,-3.027792547081711e-05,4.2,3.6
0.69921875,-3.809077688029296e-05,-3.3207744749370554e-05,-3.076622868390935e-05,-1.8558648356603327e-05,4.2,3.6
0.703125,-3.85741477376974e-05,-3.516095760173952e-05,-2.881301583154039e-05,-3.711417045410848e-05,4.2,3.6
0.70703125,-4.541039272098877e-05,-4.0527360590066365e-05,-4.1503967016250846e-05,-3.85741477376974e-05,4.2,3.6
0.7109375,-4.7363605573357736e-05,-4.0527360590066365e-05,-4.589869593408101e-05,-3.516095760173952e-05,4.2,3.6
0.71484375,-4.492208950789653e-05,-3.516095760173952e-05,-4.785190878644998e-05,-3.125453189700159e-05,4.2,3.6
0.71875,-4.248057344243533e-05,-3.516095760173952e-05,-3.7602473667200714e-05,-4.345717986861981e-05,4.2,3.6
0.72265625,-3.6137564027924e-05,-3.85741477376974e-05,-1.7582041930418853e-05,-5.3223244130464625e-05,4.2,3.6
0.7265625,-3.906245095078964e-05,-4.443378629480429e-05,-2.148846763515678e-05,-4.541039272098877e-05,4.2,3.6
0.73046875,-3.564926081483175e-05,-3.564926081483175e-05,-1.4163919438773164e-05,-2.392998370061798e-05,4.2,3.6
0.734375,-3.223113832318607e-05,-3.027792547081711e-05,-3.4184351175555036e-05,-2.4906590126802454e-05,4.2,3.6
0.73828125,-3.516095760173952e-05,-3.223113832318607e-05,-5.712966983520255e-05,-3.3207744749370554e-05,4.2,3.6
0.7421875,-3.516095760173952e-05,-2.783640940535591e-05,-4.1503967016250846e-05,-2.783640940535591e-05,4.2,3.6
0.74609375,-3.809077688029296e-05,-3.7602473667200714e-05,-3.6137564027924e-05,-2.9789622257724872e-05,4.2,3.6
0.75,-4.394548308171205e-05,-4.394548308171205e-05,-4.492208950789653e-05,-3.711417045410848e-05,4.2,3.6
0.75390625,-4.7363605573357736e-05,-3.85741477376974e-05,-4.93168184257267e-05,-3.467265438864727e-05,4.2,3.6
0.7578125,-4.93168184257267e-05,-3.662586724101623e-05,-4.785190878644998e-05,-2.5883196552986942e-05,4.2,3.6
0.76171875,-4.589869593408101e-05,-4.248057344243533e-05,-4.345717986861981e-05,-4.1503967016250846e-05,4.2,3.6
0.765625,-4.199227022934309e-05,-4.492208950789653e-05,-3.955075416388188e-05,-5.566476019592583e-05,4.2,3.6
0.76953125,-4.8828515212634465e-05,-5.127003127809566e-05,-4.1503967016250846e-05,-3.7602473667200714e-05,4.2,3.6
0.7734375,-4.394548308171205e-05,-4.93168184257267e-05,-4.443378629480429e-05,-3.4184351175555036e-05,4.2,3.6
0.77734375,-4.1015663803158605e-05,-4.541039272098877e-05,-5.615306340901807e-05,-3.7602473667200714e-05,4.2,3.6
0.78125,-4.68753023602655e-05,-4.93168184257267e-05,-5.468815376974135e-05,-4.6386999147173254e-05,4.2,3.6
0.78515625,-4.492208950789653e-05,-5.2734940917372384e-05,-3.955075416388188e-05,-6.396591481849392e-05,4.2,3.6
0.7890625,-4.345717986861981e-05,-4.93168184257267e-05,-4.0527360590066365e-05,-2.5883196552986942e-05,4.2,3.6
0.79296875,-4.0527360590066365e-05,-4.199227022934309e-05,-4.0527360590066365e-05,-4.886158390020583e-06,4.2,3.6
0.796875,-3.7602473667200714e-05,-4.7363605573357736e-05,-3.564926081483175e-05,-2.4906590126802454e-05,4.2,3.6
0.80078125,-4.199227022934309e-05,-4.199227022934309e-05,-3.076622868390935e-05,-2.6859802979171417e-05,4.2,3.6
0.8046875,-3.906245095078964e-05,-3.467265438864727e-05,-4.0527360590066365e-05,-2.4906590126802454e-05,4.2,3.6
0.80859375,-3.3696047962462795e-05,-3.906245095078964e-05,-6.0059489113755996e-05,-3.6137564027924e-05,4.2,3.6
0.8125,-3.711417045410848e-05,-4.0527360590066365e-05,-5.078172806500343e-05,-4.345717986861981e-05,4.2,3.6
0.81640625,-3.906245095078964e-05,-4.589869593408101e-05,-4.785190878644998e-05,-4.345717986861981e-05,4.2,3.6
0.8203125,-3.85741477376974e-05,-4.394548308171205e-05,-4.68753023602655e-05,-3.564926081483175e-05,4.2,3.6
0.82421875,-4.443378629480429e-05,-3.564926081483175e-05,-3.516095760173952e-05,-3.2719441536278313e-05,4.2,3.6
0.828125,-4.0527360590066365e-05,-3.809077688029296e-05,-4.1503967016250846e-05,-4.296887665552757e-05,4.2,3.6
0.83203125,-3.955075416388188e-05,-4.248057344243533e-05,-4.199227022934309e-05,-4.443378629480429e-05,4.2,3.6
0.8359375,-4.443378629480429e-05,-3.809077688029296e-05,-3.3207744749370554e-05,-3.7602473667200714e-05,4.2,3.6
0.83984375,-4.1503967016250846e-05,-3.2719441536278313e-05,-3.076622868390935e-05,-4.296887665552757e-05,4.2,3.6
0.84375,-4.0527360590066365e-05,-3.516095760173952e-05,-3.662586724101623e-05,-6.0059489113755996e-05,4.2,3.6
0.84765625,-4.443378629480429e-05,-3.6137564027924e-05,-3.85741477376974e-05,-4.492208950789653e-05,4.2,3.6
0.8515625,-4.394548308171205e-05,-3.809077688029296e-05,-2.9301319044632628e-05,-2.4906590126802454e-05,4.2,3.6
0.85546875,-4.199227022934309e-05,-4.492208950789653e-05,-3.076622868390935e-05,-2.4418286913710217e-05,4.2,3.6
0.859375,-3.955075416388188e-05,-3.3696047962462795e-05,-3.3207744749370554e-05,-3.4184351175555036e-05,4.2,3.6
0.86328125,-3.955075416388188e-05,-3.85741477376974e-05,-3.223113832318607e-05,-4.93168184257267e-05,4.2,3.6
0.8671875,-3.85741477376974e-05,-3.955075416388188e-05,-3.809077688029296e-05,-4.68753023602655e-05,4.2,3.6
0.87109375,-3.076622868390935e-05,-2.392998370061798e-05,-4.296887665552757e-05,-3.125453189700159e-05,4.2,3.6
0.875,-3.3207744749370554e-05,-5.712966983520255e-05,-4.492208950789653e-05,-3.564926081483175e-05,4.2,3.6
0.87890625,-4.345717986861981e-05,-5.810627626138703e-05,-4.492208950789653e-05,-3.7602473667200714e-05,4.2,3.6
0.8828125,-4.0039057376974124e-05,-2.051186120897229e-05,-4.248057344243533e-05,-3.076622868390935e-05,4.2,3.6
0.88671875,-3.906245095078964e-05,-3.076622868390935e-05,-4.9805121638818946e-05,-3.125453189700159e-05,4.2,3.6
0.890625,-3.809077688029296e-05,-2.1976770848249016e-05,-6.396591481849392e-05,-3.85741477376974e-05,4.2,3.6
0.89453125,-3.516095760173952e-05,-9.769190520942998e-06,-5.078172806500343e-05,-3.564926081483175e-05,4.2,3.6
0.8984375,-3.467265438864727e-05,-2.392998370061798e-05,-4.589869593408101e-05,-3.809077688029296e-05,4.2,3.6
0.90234375,-3.7602473667200714e-05,-3.027792547081711e-05,-4.7363605573357736e-05,-4.248057344243533e-05,4.2,3.6
0.90625,-3.7602473667200714e-05,-2.9301319044632628e-05,-3.3696047962462795e-05,-3.467265438864727e-05,4.2,3.6
0.91015625,-3.809077688029296e-05,-3.2719441536278313e-05,-4.199227022934309e-05,-3.3696047962462795e-05,4.2,3.6
0.9140625,-3.7602473667200714e-05,-3.955075416388188e-05,-5.3223244130464625e-05,-4.0527360590066365e-05,4.2,3.6
0.91796875,-3.3696047962462795e-05,-3.564926081483175e-05,-4.345717986861981e-05,-4.199227022934309e-05,4.2,3.6
0.921875,-3.662586724101623e-05,-3.467265438864727e-05,-4.0039057376974124e-05,-5.2246637704280143e-05,4.2,3.6
0.92578125,-4.199227022934309e-05,-3.662586724101623e-05,-4.443378629480429e-05,-5.761797304829479e-05,4.2,3.6
0.9296875,-3.564926081483175e-05,-3.2719441536278313e-05,-4.0039057376974124e-05,-2.637149976607918e-05,4.2,3.6
0.93359375,-3.4184351175555036e-05,-3.3207744749370554e-05,-3.955075416388188e-05,-1.3187313012588674e-05,4.2,3.6
0.9375,-3.3696047962462795e-05,-3.3207744749370554e-05,-3.223113832318607e-05,-2.9789622257724872e-05,4.2,3.6
0.94140625,-3.7602473667200714e-05,-3.125453189700159e-05,-1.46522226518654e-05,-3.955075416388188e-05,4.2,3.6
0.9453125,-3.564926081483175e-05,-3.4184351175555036e-05,-2.881301583154039e-05,-2.295337727443349e-05,4.2,3.6
0.94921875,-2.6859802979171417e-05,-3.076622868390935e-05,-4.443378629480429e-05,-1.807034514351109e-05,4.2,3.6
0.953125,-2.9301319044632628e-05,-2.881301583154039e-05,-3.3207744749370554e-05,-2.1000164422064528e-05,4.2,3.6
0.95703125,-3.027792547081711e-05,-3.3207744749370554e-05,-2.1000164422064528e-05,-2.2465074061341254e-05,4.2,3.6
0.9609375,-2.4906590126802454e-05,-3.85741477376974e-05,-2.3441680487525742e-05,-2.0023557995880053e-05,4.2,3.6
0.96484375,-2.5883196552986942e-05,-4.1015663803158605e-05,-2.637149976607918e-05,-2.5394893339894705e-05,4.2,3.6
0.96875,-2.9789622257724872e-05,-3.564926081483175e-05,-2.9301319044632628e-05,-2.9301319044632628e-05,4.2,3.6
0.97265625,-3.076622868390935e-05,-3.516095760173952e-05,-3.2719441536278313e-05,-2.0023557995880053e-05,4.2,3.6
0.9765625,-2.6859802979171417e-05,-3.809077688029296e-05,-3.711417045410848e-05,-3.125453189700159e-05,4.2,3.6
0.98046875,-3.125453189700159e-05,-3.174283511009383e-05,-2.881301583154039e-05,-3.027792547081711e-05,4.2,3.6
0.984375,-3.3696047962462795e-05,-2.9789622257724872e-05,-2.6859802979171417e-05,-2.881301583154039e-05,4.2,3.6
0.98828125,-3.076622868390935e-05,-3.809077688029296e-05,-3.516095760173952e-05,-5.468815376974135e-05,4.2,3.6
0.9921875,-3.516095760173952e-05,-4.541039272098877e-05,-4.589869593408101e-05,-5.2734940917372384e-05,4.2,3.6
0.99609375,-3.711417045410848e-05,-4.1503967016250846e-05,-4.589869593408101e-05,-3.125453189700159e-05,4.2,3.6
1.0,-3.2719441536278313e-05,-2.9789622257724872e-05,-3.467265438864727e-05,-2.4906590126802454e-05,4.2,3.6
1.00390625,-3.4184351175555036e-05,-3.3207744749370554e-05,-3.6137564027924e-05,-2.5394893339894705e-05,4.2,3.6
1.0078125,-3.516095760173952e-05,-3.6137564027924e-05,-3.955075416388188e-05,-3.076622868390935e-05,4.2,3.6
1.01171875,-3.4184351175555036e-05,-3.3207744749370554e-05,-2.5394893339894705e-05,-3.174283511009383e-05,4.2,3.6
1.015625,-3.906245095078964e-05,-3.4184351175555036e-05,-2.783640940535591e-05,-3.662586724101623e-05,4.2,3.6
1.01953125,-4.1015663803158605e-05,-4.0527360590066365e-05,-3.564926081483175e-05,-5.029342485191118e-05,4.2,3.6
1.0234375,-3.3207744749370554e-05,-4.1503967016250846e-05,-4.1015663803158605e-05,-5.712966983520255e-05,4.2,3.6
1.02734375,-2.9301319044632628e-05,-3.3696047962462795e-05,-5.17583344911879e-05,-5.468815376974135e-05,4.2,3.6
1.03125,-3.3696047962462795e-05,-2.9789622257724872e-05,-4.394548308171205e-05,-4.345717986861981e-05,4.2,3.6
1.03515625,-3.2719441536278313e-05,-2.881301583154039e-05,-3.906245095078964e-05,-3.662586724101623e-05,4.2,3.6
1.0390625,-3.223113832318607e-05,-2.734810619226367e-05,-4.199227022934309e-05,-4.93168184257267e-05,4.2,3.6
1.04296875,-3.6137564027924e-05,-3.027792547081711e-05,-5.078172806500343e-05,-4.9805121638818946e-05,4.2,3.6
1.046875,-3.906245095078964e-05,-3.076622868390935e-05,-5.029342485191118e-05,-5.2246637704280143e-05,4.2,3.6
1.05078125,-4.443378629480429e-05,-3.174283511009383e-05,-4.9805121638818946e-05,-5.810627626138703e-05,4.2,3.6
1.0546875,-4.248057344243533e-05,-3.4184351175555036e-05,-5.419985055664911e-05,-4.93168184257267e-05,4.2,3.6
1.05859375,-4.0039057376974124e-05,-3.516095760173952e-05,-4.492208950789653e-05,-4.68753023602655e-05,4.2,3.6
1.0625,-4.1015663803158605e-05,-4.1015663803158605e-05,-4.248057344243533e-05,-5.2734940917372384e-05,4.2,3.6
1.06640625,-4.785190878644998e-05,-3.7602473667200714e-05,-4.785190878644998e-05,-4.785190878644998e-05,4.2,3.6
1.0703125,-4.394548308171205e-05,-3.174283511009383e-05,-4.443378629480429e-05,-4.1015663803158605e-05,4.2,3.6
1.07421875,-4.0527360590066365e-05,-3.467265438864727e-05,-2.9789622257724872e-05,-4.492208950789653e-05,4.2,3.6
1.078125,-4.6386999147173254e-05,-4.248057344243533e-05,-2.148846763515678e-05,-3.711417045410848e-05,4.2,3.6
1.08203125,-4.443378629480429e-05,-4.6386999147173254e-05,-3.125453189700159e-05,-3.4184351175555036e-05,4.2,3.6
1.0859375,-3.85741477376974e-05,-4.589869593408101e-05,-3.662586724101623e-05,-3.516095760173952e-05,4.2,3.6
1.08984375,-3.4184351175555036e-05,-4.443378629480429e-05,-3.85741477376974e-05,-2.9301319044632628e-05,4.2,3.6
1.09375,-3.564926081483175e-05,-4.6386999147173254e-05,-4.296887665552757e-05,-4.1015663803158605e-05,4.2,3.6
1.09765625,-3.516095760173952e-05,-4.492208950789653e-05,-2.783640940535591e-05,-4.1015663803158605e-05,4.2,3.6
1.1015625,-3.6137564027924e-05,-4.0527360590066365e-05,-1.9535254782787816e-05,-1.9046951569695565e-05,4.2,3.6
1.10546875,-4.1503967016250846e-05,-4.345717986861981e-05,-3.174283511009383e-05,-2.5883196552986942e-05,4.2,3.6
1.109375,-4.0039057376974124e-05,-4.296887665552757e-05,-3.85741477376974e-05,-2.6859802979171417e-05,4.2,3.6
1.11328125,-3.85741477376974e-05,-3.662586724101623e-05,-3.4184351175555036e-05,-1.8558648356603327e-05,4.2,3.6
1.1171875,-3.3207744749370554e-05,-3.711417045410848e-05,-3.027792547081711e-05,-2.5394893339894705e-05,4.2,3.6
1.12109375,-3.564926081483175e-05,-4.296887665552757e-05,-2.9789622257724872e-05,-3.467265438864727e-05,4.2,3.6
1.125,-3.467265438864727e-05,-3.906245095078964e-05,-3.662586724101623e-05,-3.955075416388188e-05,4.2,3.6
1.12890625,-3.027792547081711e-05,-3.3696047962462795e-05,-4.6386999147173254e-05,-3.711417045410848e-05,4.2,3.6
1.1328125,-3.223113832318607e-05,-3.467265438864727e-05,-3.7602473667200714e-05,-3.3207744749370554e-05,4.2,3.6
1.13671875,-3.3696047962462795e-05,-3.223113832318607e-05,-2.9301319044632628e-05,-3.662586724101623e-05,4.2,3.6
1.140625,-3.3696047962462795e-05,-2.295337727443349e-05,-2.8324712618448143e-05,-3.2719441536278313e-05,4.2,3.6
1.14453125,-3.467265438864727e-05,-2.0023557995880053e-05,-1.70937387173266e-05,-2.3441680487525742e-05,4.2,3.6
1.1484375,-2.9301319044632628e-05,-2.295337727443349e-05,-1.9046951569695565e-05,-2.8324712618448143e-05,4.2,3.6
1.15234375,-2.6859802979171417e-05,-2.295337727443349e-05,-2.6859802979171417e-05,-3.174283511009383e-05,4.2,3.6
1.15625,-3.516095760173952e-05,-2.6859802979171417e-05,-2.3441680487525742e-05,-2.8324712618448143e-05,4.2,3.6
1.16015625,-3.6137564027924e-05,-3.125453189700159e-05,-2.1000164422064528e-05,-3.174283511009383e-05,4.2,3.6
1.1640625,-4.1503967016250846e-05,-3.3696047962462795e-05,-2.4418286913710217e-05,-3.564926081483175e-05,4.2,3.6
1.16796875,-4.296887665552757e-05,-4.199227022934309e-05,-3.027792547081711e-05,-3.955075416388188e-05,4.2,3.6
1.171875,-3.2719441536278313e-05,-4.589869593408101e-05,-3.7602473667200714e-05,-5.127003127809566e-05,4.2,3.6
1.17578125,-2.734810619226367e-05,-3.516095760173952e-05,-3.7602473667200714e-05,-4.492208950789653e-05,4.2,3.6
1.1796875,-3.076622868390935e-05,-3.564926081483175e-05,-2.783640940535591e-05,-2.6859802979171417e-05,4.2,3.6
1.18359375,-3.2719441536278313e-05,-4.394548308171205e-05,-3.223113832318607e-05,-2.9301319044632628e-05,4.2,3.6
1.1875,-2.881301583154039e-05,-4.199227022934309e-05,-5.17583344911879e-05,-4.541039272098877e-05,4.2,3.6
1.19140625,-3.027792547081711e-05,-4.443378629480429e-05,-5.3711547343556866e-05,-5.078172806500343e-05,4.2,3.6
1.1953125,-3.516095760173952e-05,-5.029342485191118e-05,-4.589869593408101e-05,-4.1015663803158605e-05,4.2,3.6
1.19921875,-4.1015663803158605e-05,-5.3711547343556866e-05,-4.834021199954222e-05,-2.8324712618448143e-05,4.2,3.6
1.203125,-4.1015663803158605e-05,-5.2734940917372384e-05,-5.127003127809566e-05,-1.807034514351109e-05,4.2,3.6
1.20703125,-3.467265438864727e-05,-4.9805121638818946e-05,-4.9805121638818946e-05,-2.295337727443349e-05,4.2,3.6
1.2109375,-3.3207744749370554e-05,-4.6386999147173254e-05,-5.17583344911879e-05,-3.4184351175555036e-05,4.2,3.6
1.21484375,-3.516095760173952e-05,-4.785190878644998e-05,-5.2246637704280143e-05,-4.0039057376974124e-05,4.2,3.6
1.21875,-3.2719441536278313e-05,-4.9805121638818946e-05,-4.9805121638818946e-05,-4.296887665552757e-05,4.2,3.6
1.22265625,-3.223113832318607e-05,-4.394548308171205e-05,-5.029342485191118e-05,-4.394548308171205e-05,4.2,3.6
1.2265625,-3.85741477376974e-05,-3.7602473667200714e-05,-4.443378629480429e-05,-3.6137564027924e-05,4.2,3.6
1.23046875,-4.1015663803158605e-05,-3.85741477376974e-05,-4.541039272098877e-05,-3.4184351175555036e-05,4.2,3.6
1.234375,-3.85741477376974e-05,-3.7602473667200714e-05,-4.248057344243533e-05,-4.296887665552757e-05,4.2,3.6
1.23828125,-4.0039057376974124e-05,-3.564926081483175e-05,-3.516095760173952e-05,-4.1503967016250846e-05,4.2,3.6
1.2421875,-4.296887665552757e-05,-4.1015663803158605e-05,-4.394548308171205e-05,-3.516095760173952e-05,4.2,3.6
1.24609375,-3.711417045410848e-05,-4.199227022934309e-05,-3.955075416388188e-05,-3.516095760173952e-05,4.2,3.6
1.25,-3.4184351175555036e-05,-3.955075416388188e-05,-4.345717986861981e-05,-3.516095760173952e-05,4.2,3.6
1.25390625,-4.248057344243533e-05,-4.199227022934309e-05,-5.615306340901807e-05,-4.0527360590066365e-05,4.2,3.6
1.2578125,-3.662586724101623e-05,-4.68753023602655e-05,-4.589869593408101e-05,-3.955075416388188e-05,4.2,3.6
1.26171875,-2.9789622257724872e-05,-4.394548308171205e-05,-4.0039057376974124e-05,-3.711417045410848e-05,4.2,3.6
1.265625,-3.7602473667200714e-05,-4.1015663803158605e-05,-4.9805121638818946e-05,-4.248057344243533e-05,4.2,3.6
1.26953125,-4.248057344243533e-05,-4.345717986861981e-05,-5.078172806500343e-05,-4.7363605573357736e-05,4.2,3.6
1.2734375,-3.906245095078964e-05,-4.1015663803158605e-05,-4.93168184257267e-05,-4.785190878644998e-05,4.2,3.6
1.27734375,-3.3696047962462795e-05,-3.076622868390935e-05,-4.492208950789653e-05,-4.296887665552757e-05,4.2,3.6
1.28125,-3.516095760173952e-05,-3.027792547081711e-05,-3.467265438864727e-05,-4.1503967016250846e-05,4.2,3.6
1.28515625,-3.955075416388188e-05,-3.3207744749370554e-05,-4.296887665552757e-05,-5.029342485191118e-05,4.2,3.6
1.2890625,-3.7602473667200714e-05,-3.564926081483175e-05,-4.7363605573357736e-05,-6.396591481849392e-05,4.2,3.6
1.29296875,-3.662586724101623e-05,-3.7602473667200714e-05,-5.029342485191118e-05,-6.83606437363241e-05,4.2,3.6
1.296875,-3.809077688029296e-05,-4.0039057376974124e-05,-4.8828515212634465e-05,-3.906245095078964e-05,4.2,3.6
1.30078125,-3.85741477376974e-05,-3.6137564027924e-05,-3.711417045410848e-05,-2.1000164422064528e-05,4.2,3.6
1.3046875,-4.834021199954222e-05,-3.711417045410848e-05,-3.3696047962462795e-05,-2.392998370061798e-05,4.2,3.6
1.30859375,-4.589869593408101e-05,-4.199227022934309e-05,-3.662586724101623e-05,-3.076622868390935e-05,4.2,3.6
1.3125,-3.174283511009383e-05,-3.662586724101623e-05,-4.0527360590066365e-05,-4.296887665552757e-05,4.2,3.6
1.31640625,-3.516095760173952e-05,-2.734810619226367e-05,-2.9789622257724872e-05,-3.955075416388188e-05,4.2,3.6
1.3203125,-3.2719441536278313e-05,-2.734810619226367e-05,-1.70937387173266e-05,-3.711417045410848e-05,4.2,3.6
1.32421875,-2.3441680487525742e-05,-2.637149976607918e-05,-2.295337727443349e-05,-4.1015663803158605e-05,4.2,3.6
1.328125,-2.5394893339894705e-05,-2.5883196552986942e-05,-2.9301319044632628e-05,-3.955075416388188e-05,4.2,3.6
1.33203125,-2.9301319044632628e-05,-2.881301583154039e-05,-3.3696047962462795e-05,-4.492208950789653e-05,4.2,3.6
1.3359375,-2.783640940535591e-05,-2.637149976607918e-05,-3.85741477376974e-05,-4.589869593408101e-05,4.2,3.6
1.33984375,-3.076622868390935e-05,-1.8558648356603327e-05,-3.906245095078964e-05,-3.125453189700159e-05,4.2,3.6
1.34375,-3.564926081483175e-05,-2.2465074061341254e-05,-3.2719441536278313e-05,-2.9301319044632628e-05,4.2,3.6
1.34765625,-3.3207744749370554e-05,-2.5883196552986942e-05,-3.955075416388188e-05,-3.7602473667200714e-05,4.2,3.6
1.3515625,-3.3207744749370554e-05,-1.46522226518654e-05,-3.955075416388188e-05,-3.711417045410848e-05,4.2,3.6
1.35546875,-3.076622868390935e-05,-1.562882907804989e-05,-3.4184351175555036e-05,-3.174283511009383e-05,4.2,3.6
1.359375,-3.027792547081711e-05,-1.9046951569695565e-05,-2.783640940535591e-05,-2.783640940535591e-05,4.2,3.6
1.36328125,-3.3696047962462795e-05,-2.1000164422064528e-05,-2.9301319044632628e-05,-3.564926081483175e-05,4.2,3.6
1.3671875,-3.076622868390935e-05,-2.4418286913710217e-05,-3.711417045410848e-05,-3.4184351175555036e-05,4.2,3.6
1.37109375,-2.734810619226367e-05,-2.1976770848249016e-05,-3.125453189700159e-05,-2.6859802979171417e-05,4.2,3.6
1.375,-3.2719441536278313e-05,-2.4906590126802454e-05,-3.662586724101623e-05,-3.2719441536278313e-05,4.2,3.6
1.37890625,-3.516095760173952e-05,-3.027792547081711e-05,-3.711417045410848e-05,-3.2719441536278313e-05,4.2,3.6
1.3828125,-3.3696047962462795e-05,-3.174283511009383e-05,-3.809077688029296e-05,-3.85741477376974e-05,4.2,3.6
1.38671875,-3.662586724101623e-05,-3.906245095078964e-05,-4.248057344243533e-05,-4.443378629480429e-05,4.2,3.6
1.390625,-4.0527360590066365e-05,-4.0527360590066365e-05,-4.8828515212634465e-05,-4.199227022934309e-05,4.2,3.6
1.39453125,-3.2719441536278313e-05,-3.3696047962462795e-05,-5.17583344911879e-05,-4.443378629480429e-05,4.2,3.6
1.3984375,-2.4418286913710217e-05,-2.637149976607918e-05,-4.9805121638818946e-05,-4.7363605573357736e-05,4.2,3.6
1.40234375,-2.5883196552986942e-05,-2.4906590126802454e-05,-4.199227022934309e-05,-6.152439875303273e-05,4.2,3.6
1.40625,-2.734810619226367e-05,-2.4906590126802454e-05,-2.5883196552986942e-05,-5.761797304829479e-05,4.2,3.6
1.41015625,-2.4906590126802454e-05,-2.392998370061798e-05,-3.3207744749370554e-05,-4.589869593408101e-05,4.2,3.6
1.4140625,-2.9789622257724872e-05,-3.4184351175555036e-05,-4.68753023602655e-05,-4.0527360590066365e-05,4.2,3.6
1.41796875,-3.4184351175555036e-05,-3.467265438864727e-05,-3.711417045410848e-05,-3.3696047962462795e-05,4.2,3.6
1.421875,-3.809077688029296e-05,-2.5394893339894705e-05,-2.783640940535591e-05,-3.3207744749370554e-05,4.2,3.6
1.42578125,-3.85741477376974e-05,-3.076622868390935e-05,-4.0039057376974124e-05,-3.906245095078964e-05,4.2,3.6
1.4296875,-3.174283511009383e-05,-3.7602473667200714e-05,-4.541039272098877e-05,-4.345717986861981e-05,4.2,3.6
1.43359375,-3.906245095078964e-05,-3.7602473667200714e-05,-4.68753023602655e-05,-4.199227022934309e-05,4.2,3.6
1.4375,-4.0039057376974124e-05,-3.662586724101623e-05,-4.541039272098877e-05,-5.127003127809566e-05,4.2,3.6
1.44140625,-3.174283511009383e-05,-3.2719441536278313e-05,-3.6137564027924e-05,-4.93168184257267e-05,4.2,3.6
1.4453125,-3.711417045410848e-05,-3.3207744749370554e-05,-4.1015663803158605e-05,-3.4184351175555036e-05,4.2,3.6
1.44921875,-4.6386999147173254e-05,-4.296887665552757e-05,-5.078172806500343e-05,-5.029342485191118e-05,4.2,3.6
1.453125,-4.199227022934309e-05,-4.443378629480429e-05,-4.1015663803158605e-05,-5.2734940917372384e-05,4.2,3.6
1.45703125,-3.7602473667200714e-05,-4.199227022934309e-05,-4.541039272098877e-05,-4.6386999147173254e-05,4.2,3.6
1.4609375,-4.443378629480429e-05,-4.394548308171205e-05,-4.93168184257267e-05,-4.93168184257267e-05,4.2,3.6
1.46484375,-4.492208950789653e-05,-3.564926081483175e-05,-5.078172806500343e-05,-3.662586724101623e-05,4.2,3.6
1.46875,-3.467265438864727e-05,-2.734810619226367e-05,-5.468815376974135e-05,-4.8828515212634465e-05,4.2,3.6
1.47265625,-2.9301319044632628e-05,-3.125453189700159e-05,-5.664136662211031e-05,-4.6386999147173254e-05,4.2,3.6
1.4765625,-3.125453189700159e-05,-3.125453189700159e-05,-4.93168184257267e-05,-4.443378629480429e-05,4.2,3.6
1.48046875,-3.516095760173952e-05,-3.906245095078964e-05,-4.0527360590066365e-05,-4.1015663803158605e-05,4.2,3.6
1.484375,-3.3696047962462795e-05,-4.199227022934309e-05,-4.1503967016250846e-05,-3.223113832318607e-05,4.2,3.6
1.48828125,-3.6137564027924e-05,-3.7602473667200714e-05,-4.589869593408101e-05,-3.516095760173952e-05,4.2,3.6
1.4921875,-3.809077688029296e-05,-4.443378629480429e-05,-5.17583344911879e-05,-4.492208950789653e-05,4.2,3.6
1.49609375,-4.1015663803158605e-05,-4.394548308171205e-05,-3.906245095078964e-05,-5.17583344911879e-05,4.2,3.6
1.5,-4.199227022934309e-05,-3.7602473667200714e-05,-3.174283511009383e-05,-3.955075416388188e-05,4.2,3.6
1.50390625,-3.564926081483175e-05,-3.564926081483175e-05,-3.223113832318607e-05,-3.711417045410848e-05,4.2,3.6
1.5078125,-4.248057344243533e-05,-3.7602473667200714e-05,-3.223113832318607e-05,-3.662586724101623e-05,4.2,3.6
1.51171875,-4.492208950789653e-05,-4.1503967016250846e-05,-3.4184351175555036e-05,-4.345717986861981e-05,4.2,3.6
1.515625,-3.7602473667200714e-05,-3.662586724101623e-05,-2.8324712618448143e-05,-4.345717986861981e-05,4.2,3.6
1.51953125,-4.0039057376974124e-05,-3.516095760173952e-05,-3.4184351175555036e-05,-4.199227022934309e-05,4.2,3.6
1.5234375,-4.589869593408101e-05,-3.3207744749370554e-05,-3.223113832318607e-05,-4.541039272098877e-05,4.2,3.6
1.52734375,-4.296887665552757e-05,-2.9789622257724872e-05,-2.3441680487525742e-05,-4.589869593408101e-05,4.2,3.6
1.53125,-3.467265438864727e-05,-2.4418286913710217e-05,-2.783640940535591e-05,-4.199227022934309e-05,4.2,3.6
1.53515625,-3.2719441536278313e-05,-2.4418286913710217e-05,-2.9789622257724872e-05,-4.296887665552757e-05,4.2,3.6
1.5390625,-3.809077688029296e-05,-2.3441680487525742e-05,-1.3187313012588674e-05,-3.3696047962462795e-05,4.2,3.6
1.54296875,-3.564926081483175e-05,-2.1000164422064528e-05,-2.0023557995880053e-05,-2.6859802979171417e-05,4.2,3.6
1.546875,-3.516095760173952e-05,-1.7582041930418853e-05,-3.2719441536278313e-05,-3.6137564027924e-05,4.2,3.6
1.55078125,-3.2719441536278313e-05,-1.70937387173266e-05,-2.2465074061341254e-05,-3.955075416388188e-05,4.2,3.6
1.5546875,-3.076622868390935e-05,-2.1976770848249016e-05,-1.9046951569695565e-05,-4.248057344243533e-05,4.2,3.6
1.55859375,-2.9789622257724872e-05,-2.637149976607918e-05,-1.807034514351109e-05,-3.2719441536278313e-05,4.2,3.6
1.5625,-2.392998370061798e-05,-2.881301583154039e-05,-2.8324712618448143e-05,-2.783640940535591e-05,4.2,3.6
1.56640625,-2.4906590126802454e-05,-2.637149976607918e-05,-4.0039057376974124e-05,-2.9301319044632628e-05,4.2,3.6
1.5703125,-2.8324712618448143e-05,-2.9301319044632628e-05,-3.3207744749370554e-05,-2.4418286913710217e-05,4.2,3.6
1.57421875,-2.9789622257724872e-05,-3.125453189700159e-05,-2.2465074061341254e-05,-2.6859802979171417e-05,4.2,3.6
1.578125,-2.881301583154039e-05,-3.4184351175555036e-05,-3.125453189700159e-05,-4.541039272098877e-05,4.2,3.6
1.58203125,-2.637149976607918e-05,-3.174283511009383e-05,-3.223113832318607e-05,-4.443378629480429e-05,4.2,3.6
1.5859375,-2.881301583154039e-05,-2.9301319044632628e-05,-2.783640940535591e-05,-2.6859802979171417e-05,4.2,3.6
1.58984375,-2.881301583154039e-05,-2.881301583154039e-05,-3.6137564027924e-05,-2.295337727443349e-05,4.2,3.6
1.59375,-2.4418286913710217e-05,-2.5394893339894705e-05,-4.7363605573357736e-05,-2.1000164422064528e-05,4.2,3.6
1.59765625,-2.5883196552986942e-05,-3.6137564027924e-05,-4.0527360590066365e-05,-3.027792547081711e-05,4.2,3.6
1.6015625,-2.734810619226367e-05,-4.296887665552757e-05,-4.296887665552757e-05,-3.906245095078964e-05,4.2,3.6
1.60546875,-2.2465074061341254e-05,-3.564926081483175e-05,-5.2246637704280143e-05,-3.7602473667200714e-05,4.2,3.6
1.609375,-2.5883196552986942e-05,-4.394548308171205e-05,-5.419985055664911e-05,-4.248057344243533e-05,4.2,3.6
1.61328125,-2.9789622257724872e-05,-4.7363605573357736e-05,-5.761797304829479e-05,-4.7363605573357736e-05,4.2,3.6
1.6171875,-2.4418286913710217e-05,-3.7602473667200714e-05,-5.615306340901807e-05,-5.029342485191118e-05,4.2,3.6
1.62109375,-2.783640940535591e-05,-3.223113832318607e-05,-4.785190878644998e-05,-4.248057344243533e-05,4.2,3.6
1.625,-3.174283511009383e-05,-2.9301319044632628e-05,-4.0039057376974124e-05,-3.711417045410848e-05,4.2,3.6
1.62890625,-3.4184351175555036e-05,-3.3207744749370554e-05,-2.881301583154039e-05,-4.443378629480429e-05,4.2,3.6
1.6328125,-3.027792547081711e-05,-3.3696047962462795e-05,-1.7582041930418853e-05,-3.516095760173952e-05,4.2,3.6
1.63671875,-2.9301319044632628e-05,-3.3207744749370554e-05,-2.637149976607918e-05,-3.125453189700159e-05,4.2,3.6
1.640625,-3.223113832318607e-05,-3.809077688029296e-05,-3.7602473667200714e-05,-3.85741477376974e-05,4.2,3.6
1.64453125,-3.564926081483175e-05,-3.809077688029296e-05,-2.6859802979171417e-05,-3.809077688029296e-05,4.2,3.6
1.6484375,-3.4184351175555036e-05,-4.0039057376974124e-05,-1.9535254782787816e-05,-5.127003127809566e-05,4.2,3.6
1.65234375,-3.174283511009383e-05,-3.7602473667200714e-05,-3.564926081483175e-05,-4.7363605573357736e-05,4.2,3.6
1.65625,-3.125453189700159e-05,-3.3207744749370554e-05,-4.785190878644998e-05,-3.955075416388188e-05,4.2,3.6
1.66015625,-3.027792547081711e-05,-3.516095760173952e-05,-3.662586724101623e-05,-3.564926081483175e-05,4.2,3.6
1.6640625,-3.564926081483175e-05,-4.1503967016250846e-05,-3.125453189700159e-05,-3.906245095078964e-05,4.2,3.6
1.66796875,-4.1503967016250846e-05,-4.1503967016250846e-05,-3.809077688029296e-05,-4.834021199954222e-05,4.2,3.6
1.671875,-3.662586724101623e-05,-3.955075416388188e-05,-4.6386999147173254e-05,-4.345717986861981e-05,4.2,3.6
1.67578125,-3.7602473667200714e-05,-3.662586724101623e-05,-4.345717986861981e-05,-3.662586724101623e-05,4.2,3.6
1.6796875,-4.1503967016250846e-05,-3.516095760173952e-05,-4.1503967016250846e-05,-4.0039057376974124e-05,4.2,3.6
1.68359375,-4.1503967016250846e-05,-3.809077688029296e-05,-4.492208950789653e-05,-4.443378629480429e-05,4.2,3.6
1.6875,-4.248057344243533e-05,-3.6137564027924e-05,-3.809077688029296e-05,-4.541039272098877e-05,4.2,3.6
1.69140625,-3.662586724101623e-05,-3.3207744749370554e-05,-2.881301583154039e-05,-4.394548308171205e-05,4.2,3.6
1.6953125,-2.734810619226367e-05,-3.564926081483175e-05,-3.7602473667200714e-05,-3.3696047962462795e-05,4.2,3.6
1.69921875,-2.392998370061798e-05,-3.467265438864727e-05,-3.223113832318607e-05,-2.783640940535591e-05,4.2,3.6
1.703125,-2.4418286913710217e-05,-2.9789622257724872e-05,-2.148846763515678e-05,-2.881301583154039e-05,4.2,3.6
1.70703125,-2.5883196552986942e-05,-2.8324712618448143e-05,-2.637149976607918e-05,-2.881301583154039e-05,4.2,3.6
1.7109375,-3.174283511009383e-05,-3.174283511009383e-05,-2.9301319044632628e-05,-3.125453189700159e-05,4.2,3.6
1.71484375,-3.809077688029296e-05,-3.467265438864727e-05,-2.148846763515678e-05,-3.3696047962462795e-05,4.2,3.6
1.71875,-3.4184351175555036e-05,-4.0039057376974124e-05,-3.662586724101623e-05,-4.0039057376974124e-05,4.2,3.6
1.72265625,-3.467265438864727e-05,-4.443378629480429e-05,-5.2734940917372384e-05,-4.68753023602655e-05,4.2,3.6
1.7265625,-3.3696047962462795e-05,-4.541039272098877e-05,-4.834021199954222e-05,-4.199227022934309e-05,4.2,3.6
1.73046875,-3.711417045410848e-05,-5.17583344911879e-05,-6.054779232684824e-05,-3.6137564027924e-05,4.2,3.6
1.734375,-3.076622868390935e-05,-7.910331442435338e-05,-7.959161763744563e-05,-4.1503967016250846e-05,4.2,3.6
1.73828125,-2.1000164422064528e-05,-8.545125619455253e-05,-6.396591481849392e-05,-4.1015663803158605e-05,4.2,3.6
1.7421875,-1.46522226518654e-05,-4.394548308171205e-05,-6.396591481849392e-05,-2.9789622257724872e-05,4.2,3.6
1.74609375,-1.5140525864957637e-05,-5.029342485191118e-05,-8.349804334218357e-05,-2.8324712618448143e-05,4.2,3.6
1.75,-2.9329455376516193e-06,-5.761797304829479e-05,-8.691616583382923e-05,-1.3187313012588674e-05,4.2,3.6
1.75390625,-1.0257493734035236e-05,-7.32436758672465e-05,-8.30097401290913e-05,-1.2210706586404199e-05,4.2,3.6
1.7578125,-2.0023557995880053e-05,-8.789277226001373e-05,-7.666179835889218e-05,-2.295337727443349e-05,4.2,3.6
1.76171875,-9.797326852826557e-07,-9.765390416617075e-05,-9.765390416617075e-05,-2.2465074061341254e-05,4.2,3.6
1.765625,7.809725150377673e-06,-0.00012011585196841381,-0.00012890530980407415,-1.6117132291142127e-05,4.2,3.6
1.76953125,-4.886158390020583e-06,-0.00015136232525062943,-0.0001352532515742733,-7.327674455481798e-06,4.2,3.6
1.7734375,-5.374461603112835e-06,-0.0001640582087910277,-0.00014501931583611808,-2.444642324559382e-06,4.2,3.6
1.77734375,8.29802836346991e-06,-0.00017333596983978026,-0.0001762657891183337,-5.374461603112835e-06,4.2,3.6
1.78125,1.1227847642023362e-05,-0.00018993827908491646,-0.00017333596983978026,-7.815977668574035e-06,4.2,3.6
1.78515625,1.1227847642023362e-05,-0.0001928680983634699,-0.00016698802806958113,-1.0745796947127473e-05,4.2,3.6
1.7890625,5.368209084916472e-06,-0.0002172832590180819,-0.00019872773692057678,-1.807034514351109e-05,4.2,3.6
1.79296875,4.3916026587319836e-06,-0.00022949083934538795,-0.00020702889154314486,-1.562882907804989e-05,4.2,3.6
1.796875,1.3181060494392325e-05,-0.00019237979515037765,-0.0001953096144289311,-8.79258409475851e-06,4.2,3.6
1.80078125,2.343542796932938e-05,-0.00018017221482307164,-0.00019628622085511555,-3.4212487507438707e-06,4.2,3.6
1.8046875,3.1248279378805236e-05,-0.0001855435501670863,-0.00020409907226459143,-2.444642324559382e-06,4.2,3.6
1.80859375,1.5622576559853527e-05,-0.00017187106020050355,-0.00020263416262531473,-4.3978551769283455e-06,4.2,3.6
1.8125,8.786331576562162e-06,-0.000172847666626688,-0.00018896167265873196,-9.797326852826557e-07,4.2,3.6
1.81640625,1.757578941222249e-05,-0.00017480087947905698,-0.00016942954413504236,-2.392998370061798e-05,4.2,3.6
1.8203125,1.4645970133669037e-05,-0.00014453101262302585,-0.00015185062846372166,-2.2465074061341254e-05,4.2,3.6
1.82421875,9.734801670863078e-07,-0.0001328117355088121,-0.00013915967727901122,9.274634789654399e-06,4.2,3.6
1.828125,4.3916026587319836e-06,-0.00014453101262302585,-0.00011718603268986038,8.29802836346991e-06,4.2,3.6
1.83203125,9.274634789654399e-06,-0.00012060415518150606,-0.00011279130377203019,-6.351068029297309e-06,4.2,3.6
1.8359375,-3.4212487507438707e-06,-9.423578167452506e-05,-0.00012011585196841381,-1.9046951569695565e-05,4.2,3.6
1.83984375,-8.304280881666273e-06,-8.984598511238269e-05,-9.277087203524833e-05,-2.051186120897229e-05,4.2,3.6
1.84375,-6.351068029297309e-06,-7.763840478507666e-05,-7.129046301487753e-05,-1.46522226518654e-05,4.2,3.6
1.84765625,-1.6605435504234364e-05,-8.105652727672236e-05,-8.496295298146027e-05,-2.637149976607918e-05,4.2,3.6
1.8515625,-2.2465074061341254e-05,-7.763840478507666e-05,-8.545125619455253e-05,-4.443378629480429e-05,4.2,3.6
1.85546875,-3.174283511009383e-05,-4.93168184257267e-05,-7.861501121126115e-05,-5.029342485191118e-05,4.2,3.6
1.859375,-3.711417045410848e-05,-3.7602473667200714e-05,-5.9571185900663755e-05,-5.078172806500343e-05,4.2,3.6
1.86328125,-3.223113832318607e-05,-3.6137564027924e-05,-4.541039272098877e-05,-5.419985055664911e-05,4.2,3.6
1.8671875,-3.125453189700159e-05,-3.564926081483175e-05,-5.029342485191118e-05,-5.419985055664911e-05,4.2,3.6
1.87109375,-3.955075416388188e-05,-2.6859802979171417e-05,-3.3207744749370554e-05,-5.3223244130464625e-05,4.2,3.6
1.875,-3.3207744749370554e-05,-5.862764816205071e-06,-2.6859802979171417e-05,-5.615306340901807e-05,4.2,3.6
1.87890625,-2.881301583154039e-05,-2.9329455376516193e-06,-3.516095760173952e-05,-6.103609553994048e-05,4.2,3.6
1.8828125,-4.345717986861981e-05,-9.769190520942998e-06,-2.0023557995880053e-05,-7.129046301487753e-05,4.2,3.6
1.88671875,-3.955075416388188e-05,6.8331187241931985e-06,-3.909551963836108e-06,-7.373197908033874e-05,4.2,3.6
1.890625,-3.125453189700159e-05,1.2692757281300088e-05,-7.327674455481798e-06,-7.177876622796977e-05,4.2,3.6
1.89453125,-3.7602473667200714e-05,5.856512298008709e-06,9.734801670863078e-07,-6.640743088395513e-05,4.2,3.6
1.8984375,-4.0039057376974124e-05,1.6110879772945765e-05,2.6365247247882818e-05,-6.445421803158616e-05,4.2,3.6
1.90234375,-3.564926081483175e-05,2.3923731182421617e-05,2.4412034395513855e-05,-6.054779232684824e-05,4.2,3.6
1.90625,-3.906245095078964e-05,2.001730547768369e-05,2.099391190386818e-05,-6.543082445777065e-05,4.2,3.6
1.91015625,-4.1015663803158605e-05,2.001730547768369e-05,2.4900337608606106e-05,-6.73840373101396e-05,4.2,3.6
1.9140625,-4.68753023602655e-05,2.6365247247882818e-05,2.685355046097507e-05,-4.7363605573357736e-05,4.2,3.6
1.91796875,-4.589869593408101e-05,2.9295066526436273e-05,3.5643008296635396e-05,-3.85741477376974e-05,4.2,3.6
1.921875,-3.516095760173952e-05,3.173658259189747e-05,3.5643008296635396e-05,-3.7602473667200714e-05,4.2,3.6
1.92578125,-3.809077688029296e-05,3.515470508354316e-05,2.978336973952851e-05,-4.443378629480429e-05,4.2,3.6
1.9296875,-4.1015663803158605e-05,2.978336973952851e-05,2.587694403479058e-05,-4.93168184257267e-05,4.2,3.6
1.93359375,-3.711417045410848e-05,2.7341853674067306e-05,2.050560869077593e-05,-5.2246637704280143e-05,4.2,3.6
1.9375,-3.662586724101623e-05,3.466640187045092e-05,2.978336973952851e-05,-5.517645698283359e-05,4.2,3.6
1.94140625,-4.0039057376974124e-05,3.515470508354316e-05,3.759622114900438e-05,-5.9082882687571514e-05,4.2,3.6
1.9453125,-3.85741477376974e-05,2.7341853674067306e-05,3.222488580498971e-05,-5.2734940917372384e-05,4.2,3.6
1.94921875,-3.809077688029296e-05,1.513427334676129e-05,2.1482215116960417e-05,-4.443378629480429e-05,4.2,3.6
1.953125,-4.1015663803158605e-05,4.8799058718242345e-06,8.786331576562162e-06,-4.589869593408101e-05,4.2,3.6
1.95703125,-4.296887665552757e-05,2.050560869077593e-05,8.786331576562162e-06,-5.029342485191118e-05,4.2,3.6
1.9609375,-4.0527360590066365e-05,3.173658259189747e-05,1.6599182986038002e-05,-4.834021199954222e-05,4.2,3.6
1.96484375,-4.0039057376974124e-05,1.41576669205768e-05,1.757578941222249e-05,-4.7363605573357736e-05,4.2,3.6
1.96875,-4.296887665552757e-05,1.5622576559853527e-05,7.321421937285436e-06,-5.17583344911879e-05,4.2,3.6
1.97265625,-4.0039057376974124e-05,1.6110879772945765e-05,8.786331576562162e-06,-5.029342485191118e-05,4.2,3.6
1.9765625,-3.662586724101623e-05,1.4645970133669037e-05,2.245882154314489e-05,-4.589869593408101e-05,4.2,3.6
1.98046875,-3.564926081483175e-05,1.7087486199130253e-05,1.4645970133669037e-05,-4.345717986861981e-05,4.2,3.6
1.984375,-3.3207744749370554e-05,1.9529002264591454e-05,8.786331576562162e-06,-5.2734940917372384e-05,4.2,3.6
1.98828125,-3.467265438864727e-05,2.001730547768369e-05,8.786331576562162e-06,-4.443378629480429e-05,4.2,3.6
1.9921875,-3.3207744749370554e-05,1.0739544428931125e-05,1.461783380178545e-06,-3.174283511009383e-05,4.2,3.6
1.99609375,-2.9789622257724872e-05,8.29802836346991e-06,-6.351068029297309e-06,-4.1503967016250846e-05,4.2,3.6
2.0,-3.3207744749370554e-05,1.4645970133669037e-05,-9.280887307850761e-06,-5.078172806500343e-05,4.2,3.6
2.00390625,-4.0039057376974124e-05,8.786331576562162e-06,3.903299445639746e-06,-4.834021199954222e-05,4.2,3.6
2.0078125,-3.467265438864727e-05,1.6599182986038002e-05,5.856512298008709e-06,-4.7363605573357736e-05,4.2,3.6
2.01171875,-3.516095760173952e-05,1.9040699051499216e-05,-7.327674455481798e-06,-5.3223244130464625e-05,4.2,3.6
2.015625,-3.711417045410848e-05,1.0739544428931125e-05,-8.79258409475851e-06,-5.029342485191118e-05,4.2,3.6
2.01953125,-3.516095760173952e-05,1.3181060494392325e-05,2.9266930194552714e-06,-4.492208950789653e-05,4.2,3.6
2.0234375,-3.223113832318607e-05,9.762938002746636e-06,8.786331576562162e-06,-3.809077688029296e-05,4.2,3.6
2.02734375,-3.174283511009383e-05,1.9500865932707826e-06,-6.839371242389546e-06,-4.492208950789653e-05,4.2,3.6
2.03125,-3.125453189700159e-05,7.809725150377673e-06,-1.3675616225680926e-05,-4.93168184257267e-05,4.2,3.6
2.03515625,-3.174283511009383e-05,3.903299445639746e-06,-8.304280881666273e-06,-4.589869593408101e-05,4.2,3.6
2.0390625,-3.076622868390935e-05,-9.797326852826557e-07,-1.562882907804989e-05,-5.664136662211031e-05,4.2,3.6
2.04296875,-3.564926081483175e-05,4.3916026587319836e-06,-2.295337727443349e-05,-5.3223244130464625e-05,4.2,3.6
2.046875,-4.0527360590066365e-05,1.4645970133669037e-05,-1.5140525864957637e-05,-5.127003127809566e-05,4.2,3.6
2.05078125,-3.076622868390935e-05,1.0739544428931125e-05,-1.5140525864957637e-05,-4.68753023602655e-05,4.2,3.6
2.0546875,-2.637149976607918e-05,3.4149962325475088e-06,-1.6605435504234364e-05,-3.711417045410848e-05,4.2,3.6
2.05859375,-3.3207744749370554e-05,5.856512298008709e-06,-9.280887307850761e-06,-3.955075416388188e-05,4.2,3.6
2.0625,-3.906245095078964e-05,9.734801670863078e-07,-3.4212487507438707e-06,-3.467265438864727e-05,4.2,3.6
2.06640625,-3.7602473667200714e-05,-1.4680358983749073e-06,5.856512298008709e-06,-3.662586724101623e-05,4.2,3.6
2.0703125,-2.881301583154039e-05,-1.2210706586404199e-05,-1.0257493734035236e-05,-4.394548308171205e-05,4.2,3.6
2.07421875,-3.662586724101623e-05,-2.148846763515678e-05,-2.1000164422064528e-05,-4.1015663803158605e-05,4.2,3.6
2.078125,-4.1015663803158605e-05,-2.1000164422064528e-05,-1.70937387173266e-05,-3.711417045410848e-05,4.2,3.6
2.08203125,-3.076622868390935e-05,-1.9046951569695565e-05,-1.9535254782787816e-05,-4.492208950789653e-05,4.2,3.6
2.0859375,-3.6137564027924e-05,-1.6605435504234364e-05,-1.6605435504234364e-05,-4.199227022934309e-05,4.2,3.6
2.08984375,-4.0039057376974124e-05,-1.46522226518654e-05,-2.5394893339894705e-05,-3.711417045410848e-05,4.2,3.6
2.09375,-3.223113832318607e-05,-8.304280881666273e-06,-2.3441680487525742e-05,-5.2246637704280143e-05,4.2,3.6
2.09765625,-4.0039057376974124e-05,-1.0745796947127473e-05,-1.123410016021971e-05,-5.17583344911879e-05,4.2,3.6
2.1015625,-5.078172806500343e-05,-2.4906590126802454e-05,-1.2699009799496436e-05,-3.223113832318607e-05,4.2,3.6
2.10546875,-5.3711547343556866e-05,-3.174283511009383e-05,-1.46522226518654e-05,-1.70937387173266e-05,4.2,3.6
2.109375,-5.615306340901807e-05,-3.809077688029296e-05,-2.4418286913710217e-05,-2.3441680487525742e-05,4.2,3.6
2.11328125,-5.566476019592583e-05,-4.0039057376974124e-05,-1.6605435504234364e-05,-2.295337727443349e-05,4.2,3.6
2.1171875,-5.2246637704280143e-05,-3.3207744749370554e-05,-8.304280881666273e-06,-1.562882907804989e-05,4.2,3.6
2.12109375,-5.712966983520255e-05,-3.711417045410848e-05,-2.1976770848249016e-05,-2.1976770848249016e-05,4.2,3.6
2.125,-6.298930839230944e-05,-4.492208950789653e-05,-2.392998370061798e-05,-2.881301583154039e-05,4.2,3.6
2.12890625,-6.396591481849392e-05,-4.0527360590066365e-05,-1.2699009799496436e-05,-3.027792547081711e-05,4.2,3.6
2.1328125,-6.49425212446784e-05,-3.027792547081711e-05,-1.562882907804989e-05,-3.564926081483175e-05,4.2,3.6
2.13671875,-5.566476019592583e-05,-2.9301319044632628e-05,-2.295337727443349e-05,-3.6137564027924e-05,4.2,3.6
2.140625,-4.785190878644998e-05,-3.711417045410848e-05,-2.4906590126802454e-05,-3.223113832318607e-05,4.2,3.6
2.14453125,-4.6386999147173254e-05,-3.076622868390935e-05,-2.148846763515678e-05,-2.8324712618448143e-05,4.2,3.6
2.1484375,-4.9805121638818946e-05,-2.9301319044632628e-05,-2.2465074061341254e-05,-2.881301583154039e-05,4.2,3.6
2.15234375,-5.9082882687571514e-05,-3.6137564027924e-05,-2.295337727443349e-05,-3.467265438864727e-05,4.2,3.6
2.15625,-6.201270196612496e-05,-4.1503967016250846e-05,-1.4163919438773164e-05,-3.4184351175555036e-05,4.2,3.6
2.16015625,-5.566476019592583e-05,-4.0527360590066365e-05,-2.4418286913710217e-05,-3.4184351175555036e-05,4.2,3.6
2.1640625,-5.3223244130464625e-05,-3.6137564027924e-05,-2.783640940535591e-05,-3.711417045410848e-05,4.2,3.6
2.16796875,-5.468815376974135e-05,-3.7602473667200714e-05,-3.125453189700159e-05,-3.7602473667200714e-05,4.2,3.6
2.171875,-5.517645698283359e-05,-3.906245095078964e-05,-3.564926081483175e-05,-5.127003127809566e-05,4.2,3.6
2.17578125,-5.566476019592583e-05,-3.906245095078964e-05,-2.4906590126802454e-05,-4.443378629480429e-05,4.2,3.6
2.1796875,-5.127003127809566e-05,-3.3696047962462795e-05,-2.0023557995880053e-05,-2.9789622257724872e-05,4.2,3.6
2.18359375,-4.785190878644998e-05,-3.2719441536278313e-05,-2.8324712618448143e-05,-4.248057344243533e-05,4.2,3.6
2.1875,-4.589869593408101e-05,-4.0527360590066365e-05,-3.4184351175555036e-05,-3.809077688029296e-05,4.2,3.6
2.19140625,-4.345717986861981e-05,-3.3696047962462795e-05,-2.5883196552986942e-05,-2.148846763515678e-05,4.2,3.6
2.1953125,-3.711417045410848e-05,-3.125453189700159e-05,-2.3441680487525742e-05,-2.295337727443349e-05,4.2,3.6
2.19921875,-3.809077688029296e-05,-3.125453189700159e-05,-2.5883196552986942e-05,-2.8324712618448143e-05,4.2,3.6
2.203125,-4.296887665552757e-05,-2.4906590126802454e-05,-1.2210706586404199e-05,-3.3696047962462795e-05,4.2,3.6
2.20703125,-4.199227022934309e-05,-2.9301319044632628e-05,-2.6859802979171417e-05,-4.345717986861981e-05,4.2,3.6
2.2109375,-4.1503967016250846e-05,-3.6137564027924e-05,-4.0039057376974124e-05,-4.541039272098877e-05,4.2,3.6
2.21484375,-4.6386999147173254e-05,-3.711417045410848e-05,-2.9789622257724872e-05,-4.443378629480429e-05,4.2,3.6
2.21875,-5.468815376974135e-05,-3.3207744749370554e-05,-2.9301319044632628e-05,-4.394548308171205e-05,4.2,3.6
2.22265625,-4.492208950789653e-05,-2.9301319044632628e-05,-2.4906590126802454e-05,-4.248057344243533e-05,4.2,3.6
2.2265625,-3.711417045410848e-05,-2.5883196552986942e-05,-3.076622868390935e-05,-3.906245095078964e-05,4.2,3.6
2.23046875,-3.809077688029296e-05,-2.5883196552986942e-05,-3.711417045410848e-05,-3.809077688029296e-05,4.2,3.6
2.234375,-4.0527360590066365e-05,-3.125453189700159e-05,-4.345717986861981e-05,-3.4184351175555036e-05,4.2,3.6
2.23828125,-4.394548308171205e-05,-3.076622868390935e-05,-4.68753023602655e-05,-3.955075416388188e-05,4.2,3.6
2.2421875,-4.199227022934309e-05,-2.734810619226367e-05,-2.783640940535591e-05,-3.906245095078964e-05,4.2,3.6
2.24609375,-4.443378629480429e-05,-2.9301319044632628e-05,-6.351068029297309e-06,-3.955075416388188e-05,4.2,3.6
2.25,-4.443378629480429e-05,-3.3207744749370554e-05,-1.123410016021971e-05,-5.17583344911879e-05,4.2,3.6
2.25390625,-3.906245095078964e-05,-3.564926081483175e-05,-2.5394893339894705e-05,-5.078172806500343e-05,4.2,3.6
2.2578125,-3.906245095078964e-05,-3.516095760173952e-05,-3.3207744749370554e-05,-2.881301583154039e-05,4.2,3.6
2.26171875,-4.68753023602655e-05,-3.662586724101623e-05,-3.955075416388188e-05,-2.734810619226367e-05,4.2,3.6
2.265625,-4.199227022934309e-05,-4.199227022934309e-05,-4.296887665552757e-05,-2.9789622257724872e-05,4.2,3.6
2.26953125,-3.2719441536278313e-05,-4.1015663803158605e-05,-4.1015663803158605e-05,-2.734810619226367e-05,4.2,3.6
2.2734375,-3.467265438864727e-05,-3.516095760173952e-05,-2.4418286913710217e-05,-2.6859802979171417e-05,4.2,3.6
2.27734375,-2.9789622257724872e-05,-3.564926081483175e-05,-2.1000164422064528e-05,-3.223113832318607e-05,4.2,3.6
2.28125,-3.6137564027924e-05,-3.223113832318607e-05,-3.3696047962462795e-05,-3.809077688029296e-05,4.2,3.6
2.28515625,-4.345717986861981e-05,-3.3207744749370554e-05,-2.5394893339894705e-05,-4.0527360590066365e-05,4.2,3.6
2.2890625,-4.199227022934309e-05,-3.711417045410848e-05,-2.295337727443349e-05,-4.834021199954222e-05,4.2,3.6
2.29296875,-3.809077688029296e-05,-3.2719441536278313e-05,-2.9301319044632628e-05,-4.248057344243533e-05,4.2,3.6
2.296875,-3.223113832318607e-05,-2.6859802979171417e-05,-2.4906590126802454e-05,-2.881301583154039e-05,4.2,3.6
2.30078125,-3.174283511009383e-05,-1.9046951569695565e-05,-1.5140525864957637e-05,-2.783640940535591e-05,4.2,3.6
2.3046875,-3.955075416388188e-05,-1.2210706586404199e-05,-1.0745796947127473e-05,-2.9301319044632628e-05,4.2,3.6
2.30859375,-3.809077688029296e-05,-2.9789622257724872e-05,-2.3441680487525742e-05,-3.3696047962462795e-05,4.2,3.6
2.3125,-3.467265438864727e-05,-4.0039057376974124e-05,-3.2719441536278313e-05,-3.85741477376974e-05,4.2,3.6
2.31640625,-3.6137564027924e-05,-3.662586724101623e-05,-3.3207744749370554e-05,-4.492208950789653e-05,4.2,3.6
2.3203125,-4.1015663803158605e-05,-3.955075416388188e-05,-2.5883196552986942e-05,-4.248057344243533e-05,4.2,3.6
2.32421875,-3.564926081483175e-05,-3.2719441536278313e-05,-2.637149976607918e-05,-3.906245095078964e-05,4.2,3.6
2.328125,-2.9789622257724872e-05,-2.5883196552986942e-05,-1.6117132291142127e-05,-4.345717986861981e-05,4.2,3.6
2.33203125,-3.564926081483175e-05,-2.1976770848249016e-05,-9.280887307850761e-06,-3.223113832318607e-05,4.2,3.6
2.3359375,-3.564926081483175e-05,-1.9046951569695565e-05,-2.392998370061798e-05,-2.3441680487525742e-05,4.2,3.6
2.33984375,-3.2719441536278313e-05,-2.392998370061798e-05,-3.3696047962462795e-05,-3.125453189700159e-05,4.2,3.6
2.34375,-2.637149976607918e-05,-2.5883196552986942e-05,-2.5394893339894705e-05,-3.955075416388188e-05,4.2,3.6
2.34765625,-2.881301583154039e-05,-1.7582041930418853e-05,-1.2210706586404199e-05,-4.7363605573357736e-05,4.2,3.6
2.3515625,-3.125453189700159e-05,-1.7582041930418853e-05,-1.1722403373311961e-05,-4.541039272098877e-05,4.2,3.6
2.35546875,-2.881301583154039e-05,-2.392998370061798e-05,-2.734810619226367e-05,-3.125453189700159e-05,4.2,3.6
2.359375,-3.125453189700159e-05,-2.6859802979171417e-05,-3.174283511009383e-05,-2.148846763515678e-05,4.2,3.6
2.36328125,-3.3696047962462795e-05,-2.295337727443349e-05,-2.8324712618448143e-05,-2.392998370061798e-05,4.2,3.6
2.3671875,-3.174283511009383e-05,-2.295337727443349e-05,-2.5883196552986942e-05,-4.248057344243533e-05,4.2,3.6
2.37109375,-3.662586724101623e-05,-2.5394893339894705e-05,-2.734810619226367e-05,-5.029342485191118e-05,4.2,3.6
2.375,-4.199227022934309e-05,-2.637149976607918e-05,-3.7602473667200714e-05,-5.029342485191118e-05,4.2,3.6
2.37890625,-4.199227022934309e-05,-2.637149976607918e-05,-3.662586724101623e-05,-3.7602473667200714e-05,4.2,3.6
2.3828125,-3.85741477376974e-05,-2.734810619226367e-05,-2.392998370061798e-05,-3.076622868390935e-05,4.2,3.6
2.38671875,-3.3207744749370554e-05,-2.9301319044632628e-05,-3.076622868390935e-05,-3.564926081483175e-05,4.2,3.6
2.390625,-3.467265438864727e-05,-2.4906590126802454e-05,-4.394548308171205e-05,-3.3207744749370554e-05,4.2,3.6
2.39453125,-4.248057344243533e-05,-2.5883196552986942e-05,-4.248057344243533e-05,-4.1015663803158605e-05,4.2,3.6
2.3984375,-4.541039272098877e-05,-2.9301319044632628e-05,-3.4184351175555036e-05,-5.2246637704280143e-05,4.2,3.6
2.40234375,-4.1015663803158605e-05,-3.2719441536278313e-05,-3.955075416388188e-05,-4.785190878644998e-05,4.2,3.6
2.40625,-4.443378629480429e-05,-3.6137564027924e-05,-4.1503967016250846e-05,-4.248057344243533e-05,4.2,3.6
2.41015625,-4.68753023602655e-05,-3.85741477376974e-05,-4.9805121638818946e-05,-5.17583344911879e-05,4.2,3.6
2.4140625,-4.1015663803158605e-05,-4.1503967016250846e-05,-5.3711547343556866e-05,-5.517645698283359e-05,4.2,3.6
2.41796875,-3.7602473667200714e-05,-4.394548308171205e-05,-4.68753023602655e-05,-4.7363605573357736e-05,4.2,3.6
2.421875,-4.199227022934309e-05,-4.7363605573357736e-05,-4.68753023602655e-05,-4.589869593408101e-05,4.2,3.6
2.42578125,-3.906245095078964e-05,-4.6386999147173254e-05,-4.7363605573357736e-05,-5.127003127809566e-05,4.2,3.6
2.4296875,-3.174283511009383e-05,-4.0527360590066365e-05,-4.296887665552757e-05,-5.127003127809566e-05,4.2,3.6
2.43359375,-3.3696047962462795e-05,-4.1503967016250846e-05,-3.662586724101623e-05,-4.589869593408101e-05,4.2,3.6
2.4375,-4.589869593408101e-05,-4.199227022934309e-05,-3.809077688029296e-05,-4.1503967016250846e-05,4.2,3.6
2.44140625,-4.1015663803158605e-05,-4.1015663803158605e-05,-4.0527360590066365e-05,-3.4184351175555036e-05,4.2,3.6
2.4453125,-2.6859802979171417e-05,-4.1015663803158605e-05,-3.3207744749370554e-05,-3.711417045410848e-05,4.2,3.6
2.44921875,-2.8324712618448143e-05,-3.711417045410848e-05,-2.637149976607918e-05,-3.467265438864727e-05,4.2,3.6
2.453125,-2.881301583154039e-05,-3.3696047962462795e-05,-2.9301319044632628e-05,-2.881301583154039e-05,4.2,3.6
2.45703125,-2.9789622257724872e-05,-3.711417045410848e-05,-4.443378629480429e-05,-3.174283511009383e-05,4.2,3.6
2.4609375,-2.783640940535591e-05,-3.076622868390935e-05,-3.564926081483175e-05,-3.809077688029296e-05,4.2,3.6
2.46484375,-2.1000164422064528e-05,-2.295337727443349e-05,-1.6117132291142127e-05,-4.492208950789653e-05,4.2,3.6
2.46875,-2.5394893339894705e-05,-3.174283511009383e-05,-3.3207744749370554e-05,-4.8828515212634465e-05,4.2,3.6
2.47265625,-3.3696047962462795e-05,-3.3207744749370554e-05,-4.0039057376974124e-05,-4.589869593408101e-05,4.2,3.6
2.4765625,-3.7602473667200714e-05,-3.027792547081711e-05,-2.9301319044632628e-05,-4.6386999147173254e-05,4.2,3.6
2.48046875,-3.6137564027924e-05,-3.809077688029296e-05,-2.881301583154039e-05,-4.199227022934309e-05,4.2,3.6
2.484375,-3.7602473667200714e-05,-4.248057344243533e-05,-3.4184351175555036e-05,-4.1503967016250846e-05,4.2,3.6
2.48828125,-3.6137564027924e-05,-4.6386999147173254e-05,-2.783640940535591e-05,-4.834021199954222e-05,4.2,3.6
2.4921875,-2.9301319044632628e-05,-4.492208950789653e-05,-3.564926081483175e-05,-4.0527360590066365e-05,4.2,3.6
2.49609375,-3.027792547081711e-05,-4.0527360590066365e-05,-3.906245095078964e-05,-3.955075416388188e-05,4.2,3.6
2.5,-3.4184351175555036e-05,-4.0527360590066365e-05,-3.4184351175555036e-05,-4.589869593408101e-05,4.2,3.6
2.50390625,-3.906245095078964e-05,-3.711417045410848e-05,-3.3207744749370554e-05,-3.906245095078964e-05,4.2,3.6
2.5078125,-3.809077688029296e-05,-3.174283511009383e-05,-2.5883196552986942e-05,-3.6137564027924e-05,4.2,3.6
2.51171875,-3.223113832318607e-05,-3.564926081483175e-05,-2.9301319044632628e-05,-4.1503967016250846e-05,4.2,3.6
2.515625,-2.783640940535591e-05,-3.3696047962462795e-05,-4.248057344243533e-05,-4.296887665552757e-05,4.2,3.6
2.51953125,-2.4418286913710217e-05,-2.1976770848249016e-05,-4.834021199954222e-05,-3.906245095078964e-05,4.2,3.6
2.5234375,-2.734810619226367e-05,-2.734810619226367e-05,-3.467265438864727e-05,-3.7602473667200714e-05,4.2,3.6
2.52734375,-2.9301319044632628e-05,-3.2719441536278313e-05,-3.125453189700159e-05,-3.662586724101623e-05,4.2,3.6
2.53125,-3.809077688029296e-05,-2.051186120897229e-05,-2.148846763515678e-05,-3.3696047962462795e-05,4.2,3.6
2.53515625,-3.223113832318607e-05,-2.881301583154039e-05,-2.4418286913710217e-05,-3.711417045410848e-05,4.2,3.6
2.5390625,-3.125453189700159e-05,-4.248057344243533e-05,-3.516095760173952e-05,-3.662586724101623e-05,4.2,3.6
2.54296875,-4.1015663803158605e-05,-4.394548308171205e-05,-3.955075416388188e-05,-3.174283511009383e-05,4.2,3.6
2.546875,-3.2719441536278313e-05,-4.589869593408101e-05,-4.443378629480429e-05,-3.027792547081711e-05,4.2,3.6
2.55078125,-2.5394893339894705e-05,-4.1503967016250846e-05,-3.516095760173952e-05,-2.5883196552986942e-05,4.2,3.6
2.5546875,-2.9789622257724872e-05,-3.564926081483175e-05,-3.564926081483175e-05,-2.783640940535591e-05,4.2,3.6
2.55859375,-2.734810619226367e-05,-4.345717986861981e-05,-4.492208950789653e-05,-3.662586724101623e-05,4.2,3.6
2.5625,-2.392998370061798e-05,-4.7363605573357736e-05,-3.711417045410848e-05,-3.027792547081711e-05,4.2,3.6
2.56640625,-3.223113832318607e-05,-4.492208950789653e-05,-2.783640940535591e-05,-2.4906590126802454e-05,4.2,3.6
2.5703125,-3.4184351175555036e-05,-4.785190878644998e-05,-3.85741477376974e-05,-2.9789622257724872e-05,4.2,3.6
2.57421875,-3.662586724101623e-05,-4.7363605573357736e-05,-4.589869593408101e-05,-3.4184351175555036e-05,4.2,3.6
2.578125,-4.199227022934309e-05,-4.834021199954222e-05,-4.6386999147173254e-05,-2.734810619226367e-05,4.2,3.6
2.58203125,-4.0039057376974124e-05,-4.7363605573357736e-05,-4.834021199954222e-05,-3.564926081483175e-05,4.2,3.6
2.5859375,-3.662586724101623e-05,-4.1015663803158605e-05,-5.468815376974135e-05,-5.712966983520255e-05,4.2,3.6
2.58984375,-4.248057344243533e-05,-3.564926081483175e-05,-3.809077688029296e-05,-5.712966983520255e-05,4.2,3.6
2.59375,-3.711417045410848e-05,-3.955075416388188e-05,-3.85741477376974e-05,-3.174283511009383e-05,4.2,3.6
2.59765625,-3.2719441536278313e-05,-3.955075416388188e-05,-4.296887665552757e-05,-2.2465074061341254e-05,4.2,3.6
2.6015625,-4.1015663803158605e-05,-3.7602473667200714e-05,-4.1015663803158605e-05,-2.6859802979171417e-05,4.2,3.6
2.60546875,-3.125453189700159e-05,-2.1000164422064528e-05,-4.0039057376974124e-05,-3.564926081483175e-05,4.2,3.6
2.609375,-2.734810619226367e-05,-1.562882907804989e-05,-3.2719441536278313e-05,-3.662586724101623e-05,4.2,3.6
2.61328125,-3.7602473667200714e-05,-4.0527360590066365e-05,-4.296887665552757e-05,-2.148846763515678e-05,4.2,3.6
2.6171875,-4.296887665552757e-05,-4.199227022934309e-05,-4.492208950789653e-05,-1.9535254782787816e-05,4.2,3.6
2.62109375,-4.93168184257267e-05,-3.711417045410848e-05,-3.174283511009383e-05,-2.1000164422064528e-05,4.2,3.6
2.625,-5.127003127809566e-05,-3.85741477376974e-05,-3.2719441536278313e-05,-2.295337727443349e-05,4.2,3.6
2.62890625,-5.127003127809566e-05,-3.564926081483175e-05,-3.564926081483175e-05,-2.4418286913710217e-05,4.2,3.6
2.6328125,-6.0059489113755996e-05,-4.7363605573357736e-05,-3.3696047962462795e-05,-2.4418286913710217e-05,4.2,3.6
2.63671875,-6.396591481849392e-05,-4.9805121638818946e-05,-3.125453189700159e-05,-1.8558648356603327e-05,4.2,3.6
2.640625,-6.933725016250858e-05,-3.809077688029296e-05,-2.881301583154039e-05,-1.4163919438773164e-05,4.2,3.6
2.64453125,-7.617349514579995e-05,-3.662586724101623e-05,-3.4184351175555036e-05,-1.4163919438773164e-05,4.2,3.6
2.6484375,-7.275537265415426e-05,-3.174283511009383e-05,-3.7602473667200714e-05,-2.0023557995880053e-05,4.2,3.6
2.65234375,-7.763840478507666e-05,-3.6137564027924e-05,-3.467265438864727e-05,-2.5394893339894705e-05,4.2,3.6
2.65625,-8.447464976836804e-05,-4.443378629480429e-05,-2.392998370061798e-05,-1.3187313012588674e-05,4.2,3.6
2.66015625,-7.910331442435338e-05,-4.443378629480429e-05,-2.6859802979171417e-05,-1.123410016021971e-05,4.2,3.6
2.6640625,-8.154483048981459e-05,-4.0039057376974124e-05,-1.9046951569695565e-05,-9.769190520942998e-06,4.2,3.6
2.66796875,-8.349804334218357e-05,-3.662586724101623e-05,-1.2210706586404199e-05,-1.6117132291142127e-05,4.2,3.6
2.671875,-7.763840478507666e-05,-4.1503967016250846e-05,-3.125453189700159e-05,-3.027792547081711e-05,4.2,3.6
2.67578125,-7.422028229343099e-05,-4.443378629480429e-05,-4.1015663803158605e-05,-1.807034514351109e-05,4.2,3.6
2.6796875,-7.56851919327077e-05,-4.589869593408101e-05,-3.2719441536278313e-05,-1.2699009799496436e-05,4.2,3.6
2.68359375,-7.715010157198443e-05,-3.7602473667200714e-05,-2.637149976607918e-05,-2.881301583154039e-05,4.2,3.6
2.6875,-6.83606437363241e-05,-3.467265438864727e-05,-2.8324712618448143e-05,-2.148846763515678e-05,4.2,3.6
2.69140625,-6.445421803158616e-05,-3.467265438864727e-05,-3.662586724101623e-05,-1.0257493734035236e-05,4.2,3.6
2.6953125,-6.933725016250858e-05,-2.392998370061798e-05,-3.7602473667200714e-05,-1.5140525864957637e-05,4.2,3.6
2.69921875,-6.054779232684824e-05,-2.392998370061798e-05,-2.6859802979171417e-05,-1.5140525864957637e-05,4.2,3.6
2.703125,-5.127003127809566e-05,-3.076622868390935e-05,-2.392998370061798e-05,-1.9046951569695565e-05,4.2,3.6
2.70703125,-5.17583344911879e-05,-3.076622868390935e-05,-2.4906590126802454e-05,-3.076622868390935e-05,4.2,3.6
2.7109375,-5.615306340901807e-05,-2.783640940535591e-05,-2.637149976607918e-05,-3.467265438864727e-05,4.2,3.6
2.71484375,-5.566476019592583e-05,-2.5883196552986942e-05,-3.4184351175555036e-05,-2.637149976607918e-05,4.2,3.6
2.71875,-5.3711547343556866e-05,-2.051186120897229e-05,-2.881301583154039e-05,-2.3441680487525742e-05,4.2,3.6
2.72265625,-6.152439875303273e-05,-2.148846763515678e-05,-1.9046951569695565e-05,-2.2465074061341254e-05,4.2,3.6
2.7265625,-5.9571185900663755e-05,-2.6859802979171417e-05,-1.8558648356603327e-05,-2.4418286913710217e-05,4.2,3.6
2.73046875,-5.127003127809566e-05,-1.807034514351109e-05,-1.9535254782787816e-05,-2.148846763515678e-05,4.2,3.6
2.734375,-4.93168184257267e-05,-2.0023557995880053e-05,-2.1976770848249016e-05,-2.1976770848249016e-05,4.2,3.6
2.73828125,-5.127003127809566e-05,-2.881301583154039e-05,-3.027792547081711e-05,-2.392998370061798e-05,4.2,3.6
2.7421875,-5.2734940917372384e-05,-2.9789622257724872e-05,-2.392998370061798e-05,-2.392998370061798e-05,4.2,3.6
2.74609375,-5.468815376974135e-05,-3.662586724101623e-05,-2.5883196552986942e-05,-4.199227022934309e-05,4.2,3.6
2.75,-5.3223244130464625e-05,-3.6137564027924e-05,-3.6137564027924e-05,-4.492208950789653e-05,4.2,3.6
2.75390625,-5.127003127809566e-05,-3.6137564027924e-05,-3.711417045410848e-05,-2.9301319044632628e-05,4.2,3.6
2.7578125,-5.078172806500343e-05,-3.662586724101623e-05,-2.881301583154039e-05,-2.9301319044632628e-05,4.2,3.6
2.76171875,-4.589869593408101e-05,-3.906245095078964e-05,-3.6137564027924e-05,-3.906245095078964e-05,4.2,3.6
2.765625,-4.8828515212634465e-05,-3.2719441536278313e-05,-4.248057344243533e-05,-3.809077688029296e-05,4.2,3.6
2.76953125,-5.17583344911879e-05,-3.076622868390935e-05,-2.5883196552986942e-05,-3.7602473667200714e-05,4.2,3.6
2.7734375,-5.517645698283359e-05,-4.1503967016250846e-05,-1.2210706586404199e-05,-3.955075416388188e-05,4.2,3.6
2.77734375,-5.3223244130464625e-05,-2.9301319044632628e-05,-7.327674455481798e-06,-2.734810619226367e-05,4.2,3.6
2.78125,-3.516095760173952e-05,-2.1976770848249016e-05,-1.46522226518654e-05,-2.783640940535591e-05,4.2,3.6
2.78515625,-2.4906590126802454e-05,-3.711417045410848e-05,-3.809077688029296e-05,-4.199227022934309e-05,4.2,3.6
2.7890625,-1.6117132291142127e-05,-4.0039057376974124e-05,-4.443378629480429e-05,-4.296887665552757e-05,4.2,3.6
2.79296875,-3.4212487507438707e-06,-4.345717986861981e-05,-5.3223244130464625e-05,-4.443378629480429e-05,4.2,3.6
2.796875,-6.839371242389546e-06,-4.785190878644998e-05,-6.152439875303273e-05,-5.3223244130464625e-05,4.2,3.6
2.80078125,-7.815977668574035e-06,-4.7363605573357736e-05,-5.9082882687571514e-05,-5.078172806500343e-05,4.2,3.6
2.8046875,2.9266930194552714e-06,-5.761797304829479e-05,-8.252143691599907e-05,-4.93168184257267e-05,4.2,3.6
2.80859375,4.8799058718242345e-06,-5.9082882687571514e-05,-8.691616583382923e-05,-5.419985055664911e-05,4.2,3.6
2.8125,3.4149962325475088e-06,-6.054779232684824e-05,-8.496295298146027e-05,-5.566476019592583e-05,4.2,3.6
2.81640625,2.9266930194552714e-06,-5.9082882687571514e-05,-7.910331442435338e-05,-5.078172806500343e-05,4.2,3.6
2.8203125,5.856512298008709e-06,-4.9805121638818946e-05,-7.129046301487753e-05,-5.127003127809566e-05,4.2,3.6
2.82421875,-1.4680358983749073e-06,-4.6386999147173254e-05,-6.591912767086289e-05,-5.664136662211031e-05,4.2,3.6
2.828125,-6.351068029297309e-06,-4.492208950789653e-05,-6.152439875303273e-05,-5.127003127809566e-05,4.2,3.6
2.83203125,-3.4212487507438707e-06,-4.1503967016250846e-05,-5.9571185900663755e-05,-4.7363605573357736e-05,4.2,3.6
2.8359375,-4.3978551769283455e-06,-3.516095760173952e-05,-5.810627626138703e-05,-4.68753023602655e-05,4.2,3.6
2.83984375,-8.304280881666273e-06,-2.4418286913710217e-05,-4.345717986861981e-05,-4.492208950789653e-05,4.2,3.6
2.84375,-1.0257493734035236e-05,-2.2465074061341254e-05,-4.1015663803158605e-05,-4.541039272098877e-05,4.2,3.6
2.84765625,-1.562882907804989e-05,-3.125453189700159e-05,-5.2734940917372384e-05,-4.834021199954222e-05,4.2,3.6
2.8515625,-2.1976770848249016e-05,-2.783640940535591e-05,-5.615306340901807e-05,-4.9805121638818946e-05,4.2,3.6
2.85546875,-1.70937387173266e-05,-2.3441680487525742e-05,-4.8828515212634465e-05,-4.394548308171205e-05,4.2,3.6
2.859375,-1.4163919438773164e-05,-2.4418286913710217e-05,-3.3696047962462795e-05,-3.85741477376974e-05,4.2,3.6
2.86328125,-1.46522226518654e-05,-3.027792547081711e-05,-3.4184351175555036e-05,-3.906245095078964e-05,4.2,3.6
2.8671875,-1.5140525864957637e-05,-3.467265438864727e-05,-4.68753023602655e-05,-4.0039057376974124e-05,4.2,3.6
2.87109375,-1.5140525864957637e-05,-2.4418286913710217e-05,-4.589869593408101e-05,-4.0039057376974124e-05,4.2,3.6
2.875,-1.4163919438773164e-05,-2.148846763515678e-05,-3.7602473667200714e-05,-3.906245095078964e-05,4.2,3.6
2.87890625,-1.6605435504234364e-05,-2.4418286913710217e-05,-3.809077688029296e-05,-3.955075416388188e-05,4.2,3.6
2.8828125,-1.562882907804989e-05,-1.9535254782787816e-05,-3.662586724101623e-05,-3.711417045410848e-05,4.2,3.6
2.88671875,-2.1000164422064528e-05,-2.4418286913710217e-05,-3.955075416388188e-05,-3.809077688029296e-05,4.2,3.6
2.890625,-2.1976770848249016e-05,-3.3207744749370554e-05,-4.7363605573357736e-05,-4.93168184257267e-05,4.2,3.6
2.89453125,-1.2699009799496436e-05,-2.8324712618448143e-05,-3.809077688029296e-05,-3.809077688029296e-05,4.2,3.6
2.8984375,-1.0257493734035236e-05,-1.9046951569695565e-05,-2.4418286913710217e-05,-3.076622868390935e-05,4.2,3.6
2.90234375,-1.6117132291142127e-05,-1.9046951569695565e-05,-2.881301583154039e-05,-3.662586724101623e-05,4.2,3.6
2.90625,-1.46522226518654e-05,-2.051186120897229e-05,-1.9046951569695565e-05,-4.492208950789653e-05,4.2,3.6
2.91015625,-1.5140525864957637e-05,-2.2465074061341254e-05,-2.6859802979171417e-05,-4.1503967016250846e-05,4.2,3.6
2.9140625,-1.9046951569695565e-05,-2.637149976607918e-05,-5.078172806500343e-05,-3.467265438864727e-05,4.2,3.6
2.91796875,-1.9046951569695565e-05,-2.4906590126802454e-05,-4.7363605573357736e-05,-3.467265438864727e-05,4.2,3.6
2.921875,-1.9535254782787816e-05,-2.392998370061798e-05,-3.809077688029296e-05,-3.076622868390935e-05,4.2,3.6
2.92578125,-1.6117132291142127e-05,-2.051186120897229e-05,-4.394548308171205e-05,-2.734810619226367e-05,4.2,3.6
2.9296875,-1.46522226518654e-05,-2.051186120897229e-05,-3.809077688029296e-05,-3.027792547081711e-05,4.2,3.6
2.93359375,-1.7582041930418853e-05,-2.9301319044632628e-05,-3.955075416388188e-05,-3.4184351175555036e-05,4.2,3.6
2.9375,-1.2210706586404199e-05,-2.881301583154039e-05,-4.0527360590066365e-05,-3.174283511009383e-05,4.2,3.6
2.94140625,-8.79258409475851e-06,-3.076622868390935e-05,-3.906245095078964e-05,-2.1000164422064528e-05,4.2,3.6
2.9453125,-9.769190520942998e-06,-4.443378629480429e-05,-5.517645698283359e-05,-2.1976770848249016e-05,4.2,3.6
2.94921875,-2.2465074061341254e-05,-6.73840373101396e-05,-7.08021598017853e-05,-2.295337727443349e-05,4.2,3.6
2.953125,-2.392998370061798e-05,-7.763840478507666e-05,-7.617349514579995e-05,-1.3187313012588674e-05,4.2,3.6
2.95703125,2.4383898063630196e-06,-7.763840478507666e-05,-8.349804334218357e-05,-1.4680358983749073e-06,4.2,3.6
2.9609375,1.9500865932707826e-06,-0.0001079082716411078,-0.00010937318128038453,-9.769190520942998e-06,4.2,3.6
2.96484375,-1.5140525864957637e-05,-0.0001352532515742733,-0.00013574155478736553,-3.909551963836108e-06,4.2,3.6
2.96875,-1.123410016021971e-05,-0.00014794420275898373,-0.00014892080918516823,3.903299445639746e-06,4.2,3.6
2.97265625,-6.839371242389546e-06,-0.00015819857023392078,-0.00016210499593865874,6.8331187241931985e-06,4.2,3.6
2.9765625,6.8331187241931985e-06,-0.00017528918269214922,-0.00018652015659327076,8.29802836346991e-06,4.2,3.6
2.98046875,1.1227847642023362e-05,-0.0002016575561991302,-0.00020995871082169832,1.2204454068207837e-05,4.2,3.6
2.984375,1.0251241215838874e-05,-0.0002060522851169604,-0.00021777156223117417,2.4412034395513855e-05,4.2,3.6
2.98828125,1.4645970133669037e-05,-0.00020068094977294574,-0.00020409907226459143,8.786331576562162e-06,4.2,3.6
2.9921875,9.274634789654399e-06,-0.00021240022688715952,-0.00020409907226459143,-2.444642324559382e-06,4.2,3.6
2.99609375,-1.4680358983749073e-06,-0.00021337683331334404,-0.00020702889154314486,2.978336973952851e-05,4.2,3.6
3.0,2.9266930194552714e-06,-0.00020263416262531473,-0.0001977511304943923,3.759622114900438e-05,4.2,3.6
3.00390625,1.461783380178545e-06,-0.00018652015659327076,-0.00019384470478965435,2.5388640821698343e-05,4.2,3.6
3.0078125,-3.4212487507438707e-06,-0.00016210499593865874,-0.00017528918269214922,2.1482215116960417e-05,4.2,3.6
3.01171875,-9.797326852826557e-07,-0.0001425777997706569,-0.0001474558995458915,-4.914294721904185e-07,4.2,3.6
3.015625,9.734801670863078e-07,-0.0001284170065909819,-0.0001328117355088121,-7.327674455481798e-06,4.2,3.6
3.01953125,-3.4212487507438707e-06,-0.00011181469734584572,-0.00011181469734584572,9.734801670863078e-07,4.2,3.6
3.0234375,-1.3675616225680926e-05,-9.179919796475165e-05,-9.667729773998625e-05,-7.327674455481798e-06,4.2,3.6
3.02734375,-1.4163919438773164e-05,-7.715010157198443e-05,-8.935768189929046e-05,-1.8558648356603327e-05,4.2,3.6
3.03125,-1.8558648356603327e-05,-6.884894694941633e-05,-7.56851919327077e-05,-2.3441680487525742e-05,4.2,3.6
3.03515625,-2.8324712618448143e-05,-6.054779232684824e-05,-6.347761160540167e-05,-3.2719441536278313e-05,4.2,3.6
3.0390625,-2.9301319044632628e-05,-5.810627626138703e-05,-4.7363605573357736e-05,-3.174283511009383e-05,4.2,3.6
3.04296875,-3.4184351175555036e-05,-4.9805121638818946e-05,-3.174283511009383e-05,-2.881301583154039e-05,4.2,3.6
3.046875,-3.711417045410848e-05,-3.174283511009383e-05,-2.3441680487525742e-05,-3.3696047962462795e-05,4.2,3.6
3.05078125,-3.223113832318607e-05,-1.9535254782787816e-05,-1.562882907804989e-05,-4.1015663803158605e-05,4.2,3.6
3.0546875,-3.467265438864727e-05,-1.2699009799496436e-05,-1.3187313012588674e-05,-4.1015663803158605e-05,4.2,3.6
3.05859375,-3.711417045410848e-05,-4.3978551769283455e-06,-7.815977668574035e-06,-4.199227022934309e-05,4.2,3.6
3.0625,-3.467265438864727e-05,6.8331187241931985e-06,1.5622576559853527e-05,-4.248057344243533e-05,4.2,3.6
3.06640625,-3.125453189700159e-05,9.274634789654399e-06,2.001730547768369e-05,-5.3711547343556866e-05,4.2,3.6
3.0703125,-3.076622868390935e-05,9.762938002746636e-06,2.9266930194552714e-06,-5.9082882687571514e-05,4.2,3.6
3.07421875,-3.6137564027924e-05,1.3181060494392325e-05,-3.909551963836108e-06,-4.834021199954222e-05,4.2,3.6
3.078125,-4.0527360590066365e-05,1.7087486199130253e-05,-9.280887307850761e-06,-4.492208950789653e-05,4.2,3.6
3.08203125,-4.1503967016250846e-05,2.050560869077593e-05,6.8331187241931985e-06,-5.2734940917372384e-05,4.2,3.6
3.0859375,-4.541039272098877e-05,2.1482215116960417e-05,2.5388640821698343e-05,-5.419985055664911e-05,4.2,3.6
3.08984375,-4.7363605573357736e-05,2.343542796932938e-05,1.17161508551156e-05,-5.615306340901807e-05,4.2,3.6
3.09375,-4.345717986861981e-05,2.1970518330052654e-05,-1.9563391114671445e-06,-6.0059489113755996e-05,4.2,3.6
3.09765625,-4.248057344243533e-05,1.9529002264591454e-05,9.734801670863078e-07,-6.0059489113755996e-05,4.2,3.6
3.1015625,-4.296887665552757e-05,1.41576669205768e-05,1.757578941222249e-05,-6.103609553994048e-05,4.2,3.6
3.10546875,-4.589869593408101e-05,1.513427334676129e-05,1.3181060494392325e-05,-5.810627626138703e-05,4.2,3.6
3.109375,-4.6386999147173254e-05,1.6110879772945765e-05,3.903299445639746e-06,-5.810627626138703e-05,4.2,3.6
3.11328125,-4.199227022934309e-05,1.3669363707484563e-05,2.4383898063630196e-06,-5.9082882687571514e-05,4.2,3.6
3.1171875,-4.199227022934309e-05,1.6110879772945765e-05,2.9266930194552714e-06,-4.9805121638818946e-05,4.2,3.6
3.12109375,-4.248057344243533e-05,1.9040699051499216e-05,7.321421937285436e-06,-4.541039272098877e-05,4.2,3.6
3.125,-3.955075416388188e-05,2.001730547768369e-05,4.851769539940562e-07,-4.834021199954222e-05,4.2,3.6
3.12890625,-3.3207744749370554e-05,1.513427334676129e-05,-1.9563391114671445e-06,-4.8828515212634465e-05,4.2,3.6
3.1328125,-3.7602473667200714e-05,1.2692757281300088e-05,7.809725150377673e-06,-4.9805121638818946e-05,4.2,3.6
3.13671875,-4.1503967016250846e-05,1.1227847642023362e-05,1.2692757281300088e-05,-5.3223244130464625e-05,4.2,3.6
3.140625,-4.248057344243533e-05,1.0251241215838874e-05,1.4645970133669037e-05,-6.49425212446784e-05,4.2,3.6
3.14453125,-3.955075416388188e-05,8.786331576562162e-06,1.8064092625314728e-05,-6.83606437363241e-05,4.2,3.6
3.1484375,-3.125453189700159e-05,1.513427334676129e-05,1.757578941222249e-05,-4.345717986861981e-05,4.2,3.6
3.15234375,-3.027792547081711e-05,1.7087486199130253e-05,1.1227847642023362e-05,-3.125453189700159e-05,4.2,3.6
3.15625,-3.3207744749370554e-05,8.29802836346991e-06,9.762938002746636e-06,-4.1015663803158605e-05,4.2,3.6
3.16015625,-3.2719441536278313e-05,7.321421937285436e-06,1.3181060494392325e-05,-3.955075416388188e-05,4.2,3.6
3.1640625,-2.637149976607918e-05,7.321421937285436e-06,4.8799058718242345e-06,-4.1015663803158605e-05,4.2,3.6
3.16796875,-2.148846763515678e-05,1.1227847642023362e-05,4.8799058718242345e-06,-4.199227022934309e-05,4.2,3.6
3.171875,-2.8324712618448143e-05,1.0251241215838874e-05,5.856512298008709e-06,-4.443378629480429e-05,4.2,3.6
3.17578125,-4.541039272098877e-05,2.9266930194552714e-06,4.851769539940562e-07,-4.541039272098877e-05,4.2,3.6
3.1796875,-4.248057344243533e-05,2.9266930194552714e-06,-1.3187313012588674e-05,-4.492208950789653e-05,4.2,3.6
3.18359375,-3.85741477376974e-05,1.9500865932707826e-06,-1.562882907804989e-05,-4.8828515212634465e-05,4.2,3.6
3.1875,-3.809077688029296e-05,1.461783380178545e-06,-4.886158390020583e-06,-4.296887665552757e-05,4.2,3.6
3.19140625,-3.711417045410848e-05,-1.9563391114671445e-06,-5.374461603112835e-06,-4.248057344243533e-05,4.2,3.6
3.1953125,-3.955075416388188e-05,-1.3675616225680926e-05,-2.051186120897229e-05,-4.8828515212634465e-05,4.2,3.6
3.19921875,-3.4184351175555036e-05,-1.123410016021971e-05,-2.2465074061341254e-05,-4.443378629480429e-05,4.2,3.6
3.203125,-3.467265438864727e-05,-9.769190520942998e-06,-1.6117132291142127e-05,-4.443378629480429e-05,4.2,3.6
3.20703125,-3.662586724101623e-05,-1.0257493734035236e-05,-7.327674455481798e-06,-4.8828515212634465e-05,4.2,3.6
3.2109375,-3.3696047962462795e-05,-1.5140525864957637e-05,-1.807034514351109e-05,-4.9805121638818946e-05,4.2,3.6
3.21484375,-3.467265438864727e-05,-1.9535254782787816e-05,-2.1000164422064528e-05,-4.68753023602655e-05,4.2,3.6
3.21875,-3.467265438864727e-05,-1.3187313012588674e-05,-6.351068029297309e-06,-3.906245095078964e-05,4.2,3.6
3.22265625,-2.881301583154039e-05,-7.327674455481798e-06,-1.46522226518654e-05,-3.467265438864727e-05,4.2,3.6
3.2265625,-2.5883196552986942e-05,-1.2699009799496436e-05,-1.8558648356603327e-05,-3.955075416388188e-05,4.2,3.6
3.23046875,-2.295337727443349e-05,-2.295337727443349e-05,-2.4418286913710217e-05,-3.906245095078964e-05,4.2,3.6
3.234375,-2.5394893339894705e-05,-1.8558648356603327e-05,-1.4163919438773164e-05,-2.9301319044632628e-05,4.2,3.6
3.23828125,-2.734810619226367e-05,-2.148846763515678e-05,-1.4680358983749073e-06,-2.9789622257724872e-05,4.2,3.6
3.2421875,-1.7582041930418853e-05,-2.637149976607918e-05,-1.123410016021971e-05,-3.3696047962462795e-05,4.2,3.6
3.24609375,-1.562882907804989e-05,-2.637149976607918e-05,-1.9046951569695565e-05,-3.906245095078964e-05,4.2,3.6
3.25,-2.1000164422064528e-05,-2.8324712618448143e-05,-2.392998370061798e-05,-4.345717986861981e-05,4.2,3.6
3.25390625,-2.2465074061341254e-05,-2.5394893339894705e-05,-1.8558648356603327e-05,-4.1503967016250846e-05,4.2,3.6
3.2578125,-2.148846763515678e-05,-2.637149976607918e-05,-2.0023557995880053e-05,-4.0527360590066365e-05,4.2,3.6
3.26171875,-2.2465074061341254e-05,-2.9301319044632628e-05,-2.783640940535591e-05,-3.516095760173952e-05,4.2,3.6
3.265625,-2.2465074061341254e-05,-2.2465074061341254e-05,-3.2719441536278313e-05,-3.85741477376974e-05,4.2,3.6
3.26953125,-2.392998370061798e-05,-2.637149976607918e-05,-4.492208950789653e-05,-4.93168184257267e-05,4.2,3.6
3.2734375,-2.8324712618448143e-05,-3.223113832318607e-05,-4.394548308171205e-05,-4.345717986861981e-05,4.2,3.6
3.27734375,-2.5883196552986942e-05,-2.5394893339894705e-05,-3.223113832318607e-05,-3.809077688029296e-05,4.2,3.6
3.28125,-2.5883196552986942e-05,-2.4906590126802454e-05,-2.0023557995880053e-05,-4.1503967016250846e-05,4.2,3.6
3.28515625,-2.4418286913710217e-05,-2.881301583154039e-05,-2.4906590126802454e-05,-4.296887665552757e-05,4.2,3.6
3.2890625,-2.1000164422064528e-05,-2.881301583154039e-05,-2.734810619226367e-05,-3.85741477376974e-05,4.2,3.6
3.29296875,-2.6859802979171417e-05,-2.9301319044632628e-05,-2.9789622257724872e-05,-3.3696047962462795e-05,4.2,3.6
3.296875,-2.9301319044632628e-05,-2.4906590126802454e-05,-3.467265438864727e-05,-3.7602473667200714e-05,4.2,3.6
3.30078125,-2.881301583154039e-05,-2.4906590126802454e-05,-1.7582041930418853e-05,-3.809077688029296e-05,4.2,3.6
3.3046875,-3.223113832318607e-05,-2.783640940535591e-05,-2.295337727443349e-05,-3.711417045410848e-05,4.2,3.6
3.30859375,-3.3207744749370554e-05,-3.027792547081711e-05,-3.85741477376974e-05,-4.541039272098877e-05,4.2,3.6
3.3125,-3.027792547081711e-05,-3.223113832318607e-05,-3.6137564027924e-05,-4.394548308171205e-05,4.2,3.6
3.31640625,-2.6859802979171417e-05,-3.4184351175555036e-05,-3.3207744749370554e-05,-3.711417045410848e-05,4.2,3.6
3.3203125,-3.027792547081711e-05,-3.223113832318607e-05,-3.223113832318607e-05,-4.248057344243533e-05,4.2,3.6
3.32421875,-3.2719441536278313e-05,-3.174283511009383e-05,-2.2465074061341254e-05,-4.68753023602655e-05,4.2,3.6
3.328125,-2.8324712618448143e-05,-3.3696047962462795e-05,-1.562882907804989e-05,-3.2719441536278313e-05,4.2,3.6
3.33203125,-2.1976770848249016e-05,-3.174283511009383e-05,-2.392998370061798e-05,-2.734810619226367e-05,4.2,3.6
3.3359375,-2.1976770848249016e-05,-3.2719441536278313e-05,-2.881301583154039e-05,-2.881301583154039e-05,4.2,3.6
3.33984375,-2.637149976607918e-05,-3.027792547081711e-05,-2.9789622257724872e-05,-3.3696047962462795e-05,4.2,3.6
3.34375,-3.174283511009383e-05,-2.392998370061798e-05,-2.8324712618448143e-05,-3.564926081483175e-05,4.2,3.6
3.34765625,-4.0039057376974124e-05,-2.3441680487525742e-05,-2.2465074061341254e-05,-3.174283511009383e-05,4.2,3.6
3.3515625,-3.809077688029296e-05,-3.223113832318607e-05,-3.467265438864727e-05,-3.711417045410848e-05,4.2,3.6
3.35546875,-3.2719441536278313e-05,-3.174283511009383e-05,-4.345717986861981e-05,-3.6137564027924e-05,4.2,3.6
3.359375,-3.3207744749370554e-05,-3.125453189700159e-05,-4.248057344243533e-05,-4.199227022934309e-05,4.2,3.6
3.36328125,-3.223113832318607e-05,-3.3696047962462795e-05,-4.199227022934309e-05,-5.127003127809566e-05,4.2,3.6
3.3671875,-3.906245095078964e-05,-2.9789622257724872e-05,-3.4184351175555036e-05,-4.541039272098877e-05,4.2,3.6
3.37109375,-4.296887665552757e-05,-3.027792547081711e-05,-3.027792547081711e-05,-3.809077688029296e-05,4.2,3.6
3.375,-4.1503967016250846e-05,-3.85741477376974e-05,-3.906245095078964e-05,-3.906245095078964e-05,4.2,3.6
3.37890625,-4.0527360590066365e-05,-4.1503967016250846e-05,-4.1015663803158605e-05,-3.955075416388188e-05,4.2,3.6
3.3828125,-3.564926081483175e-05,-3.6137564027924e-05,-3.906245095078964e-05,-3.85741477376974e-05,4.2,3.6
3.38671875,-3.6137564027924e-05,-3.076622868390935e-05,-3.3207744749370554e-05,-3.662586724101623e-05,4.2,3.6
3.390625,-4.1503967016250846e-05,-3.711417045410848e-05,-2.9301319044632628e-05,-3.516095760173952e-05,4.2,3.6
3.39453125,-3.467265438864727e-05,-3.3696047962462795e-05,-3.3207744749370554e-05,-4.443378629480429e-05,4.2,3.6
3.3984375,-3.125453189700159e-05,-1.9535254782787816e-05,-2.8324712618448143e-05,-4.8828515212634465e-05,4.2,3.6
3.40234375,-3.4184351175555036e-05,-2.1000164422064528e-05,-1.9046951569695565e-05,-3.564926081483175e-05,4.2,3.6
3.40625,-2.734810619226367e-05,-2.051186120897229e-05,-1.6605435504234364e-05,-2.2465074061341254e-05,4.2,3.6
3.41015625,-2.734810619226367e-05,-2.4906590126802454e-05,-2.9301319044632628e-05,-2.4906590126802454e-05,4.2,3.6
3.4140625,-2.637149976607918e-05,-2.637149976607918e-05,-3.4184351175555036e-05,-3.2719441536278313e-05,4.2,3.6
3.41796875,-2.881301583154039e-05,-2.6859802979171417e-05,-3.711417045410848e-05,-3.467265438864727e-05,4.2,3.6
3.421875,-3.027792547081711e-05,-2.734810619226367e-05,-3.711417045410848e-05,-3.906245095078964e-05,4.2,3.6
3.42578125,-2.783640940535591e-05,-2.783640940535591e-05,-2.9789622257724872e-05,-3.7602473667200714e-05,4.2,3.6
3.4296875,-2.734810619226367e-05,-2.5394893339894705e-05,-2.881301583154039e-05,-3.223113832318607e-05,4.2,3.6
3.43359375,-2.9789622257724872e-05,-2.734810619226367e-05,-3.223113832318607e-05,-3.223113832318607e-05,4.2,3.6
3.4375,-3.174283511009383e-05,-1.9535254782787816e-05,-3.467265438864727e-05,-3.3696047962462795e-05,4.2,3.6
3.44140625,-2.881301583154039e-05,-1.3187313012588674e-05,-3.223113832318607e-05,-3.564926081483175e-05,4.2,3.6
3.4453125,-2.2465074061341254e-05,-1.562882907804989e-05,-2.392998370061798e-05,-3.076622868390935e-05,4.2,3.6
3.44921875,-1.9046951569695565e-05,-1.6117132291142127e-05,-3.027792547081711e-05,-2.783640940535591e-05,4.2,3.6
3.453125,-1.8558648356603327e-05,-1.9046951569695565e-05,-2.8324712618448143e-05,-2.5883196552986942e-05,4.2,3.6
3.45703125,-2.1000164422064528e-05,-1.807034514351109e-05,-2.051186120897229e-05,-2.6859802979171417e-05,4.2,3.6
3.4609375,-2.392998370061798e-05,-1.70937387173266e-05,-2.3441680487525742e-05,-3.076622868390935e-05,4.2,3.6
3.46484375,-2.1000164422064528e-05,-1.4163919438773164e-05,-2.2465074061341254e-05,-3.4184351175555036e-05,4.2,3.6
3.46875,-2.0023557995880053e-05,-1.70937387173266e-05,-2.4906590126802454e-05,-2.4906590126802454e-05,4.2,3.6
3.47265625,-2.5394893339894705e-05,-2.295337727443349e-05,-2.1000164422064528e-05,-2.5883196552986942e-05,4.2,3.6
3.4765625,-2.734810619226367e-05,-2.392998370061798e-05,-1.2210706586404199e-05,-3.2719441536278313e-05,4.2,3.6
3.48046875,-2.783640940535591e-05,-2.1976770848249016e-05,-2.392998370061798e-05,-1.6605435504234364e-05,4.2,3.6
3.484375,-2.783640940535591e-05,-1.9046951569695565e-05,-2.734810619226367e-05,-1.7582041930418853e-05,4.2,3.6
3.48828125,-2.9301319044632628e-05,-2.4906590126802454e-05,-3.564926081483175e-05,-2.734810619226367e-05,4.2,3.6
3.4921875,-3.6137564027924e-05,-3.3207744749370554e-05,-4.68753023602655e-05,-2.5883196552986942e-05,4.2,3.6
3.49609375,-3.174283511009383e-05,-2.9301319044632628e-05,-3.516095760173952e-05,-3.125453189700159e-05,4.2,3.6
3.5,-2.637149976607918e-05,-2.5883196552986942e-05,-2.9301319044632628e-05,-3.564926081483175e-05,4.2,3.6
3.50390625,-3.027792547081711e-05,-2.2465074061341254e-05,-3.174283511009383e-05,-3.711417045410848e-05,4.2,3.6
3.5078125,-3.564926081483175e-05,-2.637149976607918e-05,-3.223113832318607e-05,-3.4184351175555036e-05,4.2,3.6
3.51171875,-3.076622868390935e-05,-3.223113832318607e-05,-3.7602473667200714e-05,-3.223113832318607e-05,4.2,3.6
3.515625,-2.8324712618448143e-05,-2.9301319044632628e-05,-3.564926081483175e-05,-3.3696047962462795e-05,4.2,3.6
3.51953125,-3.711417045410848e-05,-3.027792547081711e-05,-3.6137564027924e-05,-3.564926081483175e-05,4.2,3.6
3.5234375,-3.3696047962462795e-05,-1.4163919438773164e-05,-2.2465074061341254e-05,-5.2246637704280143e-05,4.2,3.6
3.52734375,-2.392998370061798e-05,-3.909551963836108e-06,-9.280887307850761e-06,-5.17583344911879e-05,4.2,3.6
3.53125,-3.174283511009383e-05,-2.734810619226367e-05,-2.637149976607918e-05,-1.9535254782787816e-05,4.2,3.6
3.53515625,-4.1503967016250846e-05,-4.0039057376974124e-05,-3.906245095078964e-05,-5.862764816205071e-06,4.2,3.6
3.5390625,-4.345717986861981e-05,-3.564926081483175e-05,-3.7602473667200714e-05,-2.0023557995880053e-05,4.2,3.6
3.54296875,-5.029342485191118e-05,-3.467265438864727e-05,-3.4184351175555036e-05,-2.295337727443349e-05,4.2,3.6
3.546875,-6.201270196612496e-05,-4.492208950789653e-05,-4.0039057376974124e-05,-2.1000164422064528e-05,4.2,3.6
3.55078125,-6.543082445777065e-05,-6.152439875303273e-05,-4.6386999147173254e-05,-2.4418286913710217e-05,4.2,3.6
3.5546875,-6.445421803158616e-05,-4.9805121638818946e-05,-3.3696047962462795e-05,-7.327674455481798e-06,4.2,3.6
3.55859375,-6.445421803158616e-05,-5.127003127809566e-05,-3.076622868390935e-05,2.9266930194552714e-06,4.2,3.6
3.5625,-7.275537265415426e-05,-6.103609553994048e-05,-3.027792547081711e-05,-4.3978551769283455e-06,4.2,3.6
3.56640625,-7.715010157198443e-05,-5.761797304829479e-05,-1.2699009799496436e-05,-1.562882907804989e-05,4.2,3.6
3.5703125,-7.812670799816891e-05,-6.445421803158616e-05,-2.1976770848249016e-05,-2.3441680487525742e-05,4.2,3.6
3.57421875,-8.789277226001373e-05,-6.347761160540167e-05,-3.076622868390935e-05,-2.148846763515678e-05,4.2,3.6
3.578125,-9.423578167452506e-05,-6.445421803158616e-05,-2.5394893339894705e-05,-1.6117132291142127e-05,4.2,3.6
3.58203125,-9.033428832547492e-05,-5.9571185900663755e-05,-1.5140525864957637e-05,-4.886158390020583e-06,4.2,3.6
3.5859375,-8.593955940764476e-05,-5.17583344911879e-05,-1.0745796947127473e-05,-4.886158390020583e-06,4.2,3.6
3.58984375,-8.30097401290913e-05,-5.468815376974135e-05,-1.5140525864957637e-05,-1.6117132291142127e-05,4.2,3.6
3.59375,-8.154483048981459e-05,-5.566476019592583e-05,-2.444642324559382e-06,-1.807034514351109e-05,4.2,3.6
3.59765625,-7.861501121126115e-05,-4.68753023602655e-05,1.9500865932707826e-06,-1.6117132291142127e-05,4.2,3.6
3.6015625,-7.470858550652322e-05,-3.564926081483175e-05,-4.3978551769283455e-06,-1.7582041930418853e-05,4.2,3.6
3.60546875,-7.031385658869306e-05,-2.881301583154039e-05,-7.327674455481798e-06,-2.0023557995880053e-05,4.2,3.6
3.609375,-6.982555337560081e-05,-2.6859802979171417e-05,-5.862764816205071e-06,-1.3187313012588674e-05,4.2,3.6
3.61328125,-7.031385658869306e-05,-3.223113832318607e-05,-5.862764816205071e-06,-1.4163919438773164e-05,4.2,3.6
3.6171875,-6.640743088395513e-05,-3.3207744749370554e-05,-1.6117132291142127e-05,-2.3441680487525742e-05,4.2,3.6
3.62109375,-6.689573409704737e-05,-2.783640940535591e-05,-1.3187313012588674e-05,-2.392998370061798e-05,4.2,3.6
3.625,-5.810627626138703e-05,-2.5883196552986942e-05,-7.327674455481798e-06,-2.1000164422064528e-05,4.2,3.6
3.62890625,-5.3711547343556866e-05,-2.783640940535591e-05,-1.1722403373311961e-05,-2.4906590126802454e-05,4.2,3.6
3.6328125,-5.517645698283359e-05,-2.4418286913710217e-05,-6.839371242389546e-06,-3.3207744749370554e-05,4.2,3.6
3.63671875,-5.566476019592583e-05,-2.5394893339894705e-05,9.734801670863078e-07,-3.467265438864727e-05,4.2,3.6
3.640625,-6.298930839230944e-05,-3.125453189700159e-05,9.734801670863078e-07,-3.076622868390935e-05,4.2,3.6
3.64453125,-6.445421803158616e-05,-3.174283511009383e-05,-9.769190520942998e-06,-1.9535254782787816e-05,4.2,3.6
3.6484375,-5.566476019592583e-05,-2.5883196552986942e-05,-1.1722403373311961e-05,-1.562882907804989e-05,4.2,3.6
3.65234375,-5.517645698283359e-05,-2.5394893339894705e-05,-9.769190520942998e-06,-2.392998370061798e-05,4.2,3.6
3.65625,-5.761797304829479e-05,-2.734810619226367e-05,-1.4680358983749073e-06,-2.295337727443349e-05,4.2,3.6
3.66015625,-5.468815376974135e-05,-2.392998370061798e-05,-2.444642324559382e-06,-2.295337727443349e-05,4.2,3.6
3.6640625,-5.468815376974135e-05,-2.148846763515678e-05,-1.0257493734035236e-05,-3.516095760173952e-05,4.2,3.6
3.66796875,-5.029342485191118e-05,-1.9535254782787816e-05,-6.839371242389546e-06,-3.4184351175555036e-05,4.2,3.6
3.671875,-4.6386999147173254e-05,-2.051186120897229e-05,-6.351068029297309e-06,-2.6859802979171417e-05,4.2,3.6
3.67578125,-4.9805121638818946e-05,-2.4906590126802454e-05,-1.0745796947127473e-05,-2.637149976607918e-05,4.2,3.6
3.6796875,-5.3223244130464625e-05,-2.3441680487525742e-05,-9.769190520942998e-06,-3.076622868390935e-05,4.2,3.6
3.68359375,-5.127003127809566e-05,-2.295337727443349e-05,-3.1262590981810944e-09,-2.9789622257724872e-05,4.2,3.6
3.6875,-3.85741477376974e-05,-2.3441680487525742e-05,-4.3978551769283455e-06,-2.9301319044632628e-05,4.2,3.6
3.69140625,-4.248057344243533e-05,-2.1976770848249016e-05,-1.0745796947127473e-05,-3.4184351175555036e-05,4.2,3.6
3.6953125,-4.541039272098877e-05,-2.5883196552986942e-05,-1.9535254782787816e-05,-3.516095760173952e-05,4.2,3.6
3.69921875,-3.3696047962462795e-05,-2.4418286913710217e-05,-1.8558648356603327e-05,-3.516095760173952e-05,4.2,3.6
3.703125,-3.6137564027924e-05,-2.5883196552986942e-05,-6.351068029297309e-06,-3.3696047962462795e-05,4.2,3.6
3.70703125,-4.0527360590066365e-05,-2.392998370061798e-05,-2.5394893339894705e-05,-2.4906590126802454e-05,4.2,3.6
3.7109375,-3.662586724101623e-05,-2.2465074061341254e-05,-2.9301319044632628e-05,-2.4418286913710217e-05,4.2,3.6
3.71484375,-3.7602473667200714e-05,-2.295337727443349e-05,-1.562882907804989e-05,-2.9301319044632628e-05,4.2,3.6
3.71875,-3.906245095078964e-05,-2.148846763515678e-05,-1.2699009799496436e-05,-3.3696047962462795e-05,4.2,3.6
3.72265625,-3.564926081483175e-05,-2.4906590126802454e-05,-1.46522226518654e-05,-2.392998370061798e-05,4.2,3.6
3.7265625,-3.662586724101623e-05,-3.174283511009383e-05,-1.6117132291142127e-05,-2.148846763515678e-05,4.2,3.6
3.73046875,-3.564926081483175e-05,-3.3207744749370554e-05,-2.1000164422064528e-05,-3.027792547081711e-05,4.2,3.6
3.734375,-3.906245095078964e-05,-3.076622868390935e-05,-2.5883196552986942e-05,-3.516095760173952e-05,4.2,3.6
3.73828125,-4.589869593408101e-05,-3.3696047962462795e-05,-2.9301319044632628e-05,-4.834021199954222e-05,4.2,3.6
3.7421875,-4.492208950789653e-05,-3.076622868390935e-05,-2.295337727443349e-05,-4.1015663803158605e-05,4.2,3.6
3.74609375,-4.589869593408101e-05,-3.4184351175555036e-05,-1.3187313012588674e-05,-3.564926081483175e-05,4.2,3.6
3.75,-4.541039272098877e-05,-4.1503967016250846e-05,-3.4184351175555036e-05,-4.0527360590066365e-05,4.2,3.6
3.75390625,-4.834021199954222e-05,-3.125453189700159e-05,-3.85741477376974e-05,-3.809077688029296e-05,4.2,3.6
3.7578125,-5.2734940917372384e-05,-3.076622868390935e-05,-3.3207744749370554e-05,-3.809077688029296e-05,4.2,3.6
3.76171875,-5.3223244130464625e-05,-4.1015663803158605e-05,-3.955075416388188e-05,-3.564926081483175e-05,4.2,3.6
3.765625,-5.078172806500343e-05,-3.467265438864727e-05,-3.7602473667200714e-05,-2.9301319044632628e-05,4.2,3.6
3.76953125,-4.785190878644998e-05,-2.9789622257724872e-05,-3.955075416388188e-05,-3.125453189700159e-05,4.2,3.6
3.7734375,-5.3711547343556866e-05,-3.2719441536278313e-05,-4.296887665552757e-05,-3.027792547081711e-05,4.2,3.6
3.77734375,-5.127003127809566e-05,-3.174283511009383e-05,-4.345717986861981e-05,-2.6859802979171417e-05,4.2,3.6
3.78125,-4.9805121638818946e-05,-2.734810619226367e-05,-4.0527360590066365e-05,-3.3696047962462795e-05,4.2,3.6
3.78515625,-5.419985055664911e-05,-3.125453189700159e-05,-3.662586724101623e-05,-3.662586724101623e-05,4.2,3.6
3.7890625,-5.3711547343556866e-05,-3.662586724101623e-05,-3.516095760173952e-05,-3.516095760173952e-05,4.2,3.6
3.79296875,-4.834021199954222e-05,-3.85741477376974e-05,-3.906245095078964e-05,-4.443378629480429e-05,4.2,3.6
3.796875,-4.296887665552757e-05,-3.4184351175555036e-05,-4.345717986861981e-05,-4.7363605573357736e-05,4.2,3.6
3.80078125,-4.68753023602655e-05,-2.6859802979171417e-05,-3.467265438864727e-05,-3.076622868390935e-05,4.2,3.6
3.8046875,-5.127003127809566e-05,-2.295337727443349e-05,-2.148846763515678e-05,-2.5883196552986942e-05,4.2,3.6
3.80859375,-4.68753023602655e-05,-3.125453189700159e-05,-2.4906590126802454e-05,-4.394548308171205e-05,4.2,3.6
3.8125,-4.785190878644998e-05,-3.223113832318607e-05,-2.9789622257724872e-05,-3.906245095078964e-05,4.2,3.6
3.81640625,-4.68753023602655e-05,-3.027792547081711e-05,-2.5883196552986942e-05,-2.734810619226367e-05,4.2,3.6
3.8203125,-3.906245095078964e-05,-3.3207744749370554e-05,-2.3441680487525742e-05,-4.0527360590066365e-05,4.2,3.6
3.82421875,-4.1503967016250846e-05,-2.9301319044632628e-05,-2.5394893339894705e-05,-3.076622868390935e-05,4.2,3.6
3.828125,-4.345717986861981e-05,-3.223113832318607e-05,-3.4184351175555036e-05,-1.9046951569695565e-05,4.2,3.6
3.83203125,-3.711417045410848e-05,-3.467265438864727e-05,-3.516095760173952e-05,-2.5394893339894705e-05,4.2,3.6
3.8359375,-3.2719441536278313e-05,-2.4906590126802454e-05,-2.051186120897229e-05,-3.223113832318607e-05,4.2,3.6
3.83984375,-3.7602473667200714e-05,-2.051186120897229e-05,-1.562882907804989e-05,-3.662586724101623e-05,4.2,3.6
3.84375,-4.1015663803158605e-05,-2.392998370061798e-05,-1.8558648356603327e-05,-3.076622868390935e-05,4.2,3.6
3.84765625,-3.3207744749370554e-05,-2.1000164422064528e-05,-1.807034514351109e-05,-2.734810619226367e-05,4.2,3.6
3.8515625,-3.6137564027924e-05,-2.2465074061341254e-05,-1.7582041930418853e-05,-2.9789622257724872e-05,4.2,3.6
3.85546875,-3.85741477376974e-05,-2.5394893339894705e-05,-1.807034514351109e-05,-2.9789622257724872e-05,4.2,3.6
3.859375,-3.711417045410848e-05,-2.1976770848249016e-05,-2.148846763515678e-05,-3.906245095078964e-05,4.2,3.6
3.86328125,-4.199227022934309e-05,-2.8324712618448143e-05,-2.0023557995880053e-05,-3.906245095078964e-05,4.2,3.6
3.8671875,-4.541039272098877e-05,-3.4184351175555036e-05,-1.9535254782787816e-05,-3.027792547081711e-05,4.2,3.6
3.87109375,-3.809077688029296e-05,-3.711417045410848e-05,-3.223113832318607e-05,-3.3207744749370554e-05,4.2,3.6
3.875,-3.711417045410848e-05,-3.809077688029296e-05,-3.809077688029296e-05,-3.516095760173952e-05,4.2,3.6
3.87890625,-4.296887665552757e-05,-3.467265438864727e-05,-3.3696047962462795e-05,-4.6386999147173254e-05,4.2,3.6
3.8828125,-4.394548308171205e-05,-4.394548308171205e-05,-2.3441680487525742e-05,-4.785190878644998e-05,4.2,3.6
3.88671875,-5.3711547343556866e-05,-4.345717986861981e-05,-9.280887307850761e-06,-2.881301583154039e-05,4.2,3.6
3.890625,-5.2734940917372384e-05,-2.392998370061798e-05,-3.909551963836108e-06,-2.392998370061798e-05,4.2,3.6
3.89453125,-3.125453189700159e-05,-2.5394893339894705e-05,-2.6859802979171417e-05,-3.955075416388188e-05,4.2,3.6
3.8984375,-2.2465074061341254e-05,-4.199227022934309e-05,-4.68753023602655e-05,-4.93168184257267e-05,4.2,3.6
3.90234375,-1.6605435504234364e-05,-4.68753023602655e-05,-5.419985055664911e-05,-4.8828515212634465e-05,4.2,3.6
3.90625,-9.769190520942998e-06,-5.029342485191118e-05,-6.49425212446784e-05,-5.8594579474479274e-05,4.2,3.6
3.91015625,-1.9563391114671445e-06,-5.029342485191118e-05,-7.373197908033874e-05,-6.347761160540167e-05,4.2,3.6
3.9140625,1.0739544428931125e-05,-4.394548308171205e-05,-7.373197908033874e-05,-6.0059489113755996e-05,4.2,3.6
3.91796875,1.2204454068207837e-05,-4.1015663803158605e-05,-7.959161763744563e-05,-6.543082445777065e-05,4.2,3.6
3.921875,1.5622576559853527e-05,-3.6137564027924e-05,-7.959161763744563e-05,-7.129046301487753e-05,4.2,3.6
3.92578125,2.099391190386818e-05,-3.125453189700159e-05,-7.32436758672465e-05,-6.054779232684824e-05,4.2,3.6
3.9296875,2.978336973952851e-05,-3.662586724101623e-05,-7.617349514579995e-05,-5.761797304829479e-05,4.2,3.6
3.93359375,3.80845243620966e-05,-3.125453189700159e-05,-8.154483048981459e-05,-5.8594579474479274e-05,4.2,3.6
3.9375,3.4178098657358674e-05,-2.9301319044632628e-05,-9.033428832547492e-05,-6.201270196612496e-05,4.2,3.6
3.94140625,2.9295066526436273e-05,-2.637149976607918e-05,-7.470858550652322e-05,-6.347761160540167e-05,4.2,3.6
3.9453125,3.32014922311742e-05,-2.148846763515678e-05,-5.8594579474479274e-05,-6.250100517921719e-05,4.2,3.6
3.94921875,2.7830156887159544e-05,-2.4906590126802454e-05,-6.298930839230944e-05,-6.689573409704737e-05,4.2,3.6
3.953125,1.9529002264591454e-05,-3.174283511009383e-05,-6.73840373101396e-05,-6.298930839230944e-05,4.2,3.6
3.95703125,2.099391190386818e-05,-2.1000164422064528e-05,-6.49425212446784e-05,-5.468815376974135e-05,4.2,3.6
3.9609375,1.9529002264591454e-05,-8.304280881666273e-06,-6.201270196612496e-05,-5.468815376974135e-05,4.2,3.6
3.96484375,2.1482215116960417e-05,-1.70937387173266e-05,-6.250100517921719e-05,-6.201270196612496e-05,4.2,3.6
3.96875,1.9040699051499216e-05,-1.9046951569695565e-05,-5.712966983520255e-05,-6.0059489113755996e-05,4.2,3.6
3.97265625,1.2204454068207837e-05,-1.6117132291142127e-05,-4.6386999147173254e-05,-5.517645698283359e-05,4.2,3.6
3.9765625,1.0739544428931125e-05,-2.0023557995880053e-05,-3.906245095078964e-05,-6.103609553994048e-05,4.2,3.6
3.98046875,1.0739544428931125e-05,-1.8558648356603327e-05,-3.2719441536278313e-05,-5.566476019592583e-05,4.2,3.6
3.984375,4.8799058718242345e-06,-1.46522226518654e-05,-2.051186120897229e-05,-5.078172806500343e-05,4.2,3.6
3.98828125,-2.9329455376516193e-06,-1.7582041930418853e-05,-1.9535254782787816e-05,-6.0059489113755996e-05,4.2,3.6
3.9921875,-3.909551963836108e-06,-1.807034514351109e-05,-3.3696047962462795e-05,-4.541039272098877e-05,4.2,3.6
3.99609375,3.4149962325475088e-06,-1.3187313012588674e-05,-3.6137564027924e-05,-2.9301319044632628e-05,4.2,3.6
4.0,3.4149962325475088e-06,-1.5140525864957637e-05,-3.564926081483175e-05,-3.906245095078964e-05,4.2,3.6
4.00390625,-1.4680358983749073e-06,-2.148846763515678e-05,-3.564926081483175e-05,-4.0039057376974124e-05,4.2,3.6
4.0078125,-4.914294721904185e-07,-1.807034514351109e-05,-4.199227022934309e-05,-4.0527360590066365e-05,4.2,3.6
4.01171875,3.4149962325475088e-06,-2.051186120897229e-05,-5.468815376974135e-05,-5.078172806500343e-05,4.2,3.6
4.015625,-1.9563391114671445e-06,-2.148846763515678e-05,-4.68753023602655e-05,-4.1015663803158605e-05,4.2,3.6
4.01953125,-8.304280881666273e-06,-2.1000164422064528e-05,-3.2719441536278313e-05,-4.199227022934309e-05,4.2,3.6
4.0234375,-7.327674455481798e-06,-2.295337727443349e-05,-3.3207744749370554e-05,-5.9082882687571514e-05,4.2,3.6
4.02734375,-9.280887307850761e-06,-2.6859802979171417e-05,-3.906245095078964e-05,-4.6386999147173254e-05,4.2,3.6
4.03125,-1.5140525864957637e-05,-2.783640940535591e-05,-3.564926081483175e-05,-3.027792547081711e-05,4.2,3.6
4.03515625,-1.7582041930418853e-05,-2.3441680487525742e-05,-3.711417045410848e-05,-3.223113832318607e-05,4.2,3.6
4.0390625,-1.4163919438773164e-05,-1.807034514351109e-05,-3.7602473667200714e-05,-3.711417045410848e-05,4.2,3.6
4.04296875,-1.1722403373311961e-05,-1.7582041930418853e-05,-2.5394893339894705e-05,-4.345717986861981e-05,4.2,3.6
4.046875,-7.815977668574035e-06,-2.2465074061341254e-05,-2.295337727443349e-05,-5.3223244130464625e-05,4.2,3.6
4.05078125,-1.0745796947127473e-05,-2.295337727443349e-05,-3.125453189700159e-05,-4.492208950789653e-05,4.2,3.6
4.0546875,-2.1976770848249016e-05,-2.5883196552986942e-05,-4.0527360590066365e-05,-3.3207744749370554e-05,4.2,3.6
4.05859375,-1.7582041930418853e-05,-2.6859802979171417e-05,-3.3696047962462795e-05,-3.6137564027924e-05,4.2,3.6
4.0625,-1.562882907804989e-05,-1.9535254782787816e-05,-2.3441680487525742e-05,-3.6137564027924e-05,4.2,3.6
4.06640625,-2.5883196552986942e-05,-2.1000164422064528e-05,-1.9046951569695565e-05,-3.662586724101623e-05,4.2,3.6
4.0703125,-3.2719441536278313e-05,-2.5883196552986942e-05,-2.3441680487525742e-05,-3.4184351175555036e-05,4.2,3.6
4.07421875,-2.734810619226367e-05,-2.5394893339894705e-05,-2.3441680487525742e-05,-3.906245095078964e-05,4.2,3.6
4.078125,-2.881301583154039e-05,-2.8324712618448143e-05,-1.562882907804989e-05,-4.68753023602655e-05,4.2,3.6
4.08203125,-2.9789622257724872e-05,-3.076622868390935e-05,-2.1976770848249016e-05,-5.127003127809566e-05,4.2,3.6
4.0859375,-2.637149976607918e-05,-2.9301319044632628e-05,-2.051186120897229e-05,-4.8828515212634465e-05,4.2,3.6
4.08984375,-2.734810619226367e-05,-2.4906590126802454e-05,-1.9046951569695565e-05,-3.516095760173952e-05,4.2,3.6
4.09375,-1.7582041930418853e-05,-2.637149976607918e-05,-2.734810619226367e-05,-3.223113832318607e-05,4.2,3.6
4.09765625,-2.2465074061341254e-05,-3.174283511009383e-05,-2.295337727443349e-05,-3.516095760173952e-05,4.2,3.6
4.1015625,-3.027792547081711e-05,-3.076622868390935e-05,-1.7582041930418853e-05,-2.5883196552986942e-05,4.2,3.6
4.10546875,-3.125453189700159e-05,-3.516095760173952e-05,-3.125453189700159e-05,-2.0023557995880053e-05,4.2,3.6
4.109375,-3.076622868390935e-05,-3.906245095078964e-05,-4.296887665552757e-05,-2.9301319044632628e-05,4.2,3.6
4.11328125,-3.125453189700159e-05,-4.1015663803158605e-05,-4.345717986861981e-05,-2.8324712618448143e-05,4.2,3.6
4.1171875,-3.2719441536278313e-05,-3.955075416388188e-05,-4.443378629480429e-05,-3.125453189700159e-05,4.2,3.6
4.12109375,-2.881301583154039e-05,-2.881301583154039e-05,-2.637149976607918e-05,-4.589869593408101e-05,4.2,3.6
4.125,-2.4906590126802454e-05,-3.076622868390935e-05,-2.392998370061798e-05,-2.783640940535591e-05,4.2,3.6
4.12890625,-2.4906590126802454e-05,-4.1015663803158605e-05,-3.955075416388188e-05,-1.6117132291142127e-05,4.2,3.6
4.1328125,-2.734810619226367e-05,-3.6137564027924e-05,-4.296887665552757e-05,-2.148846763515678e-05,4.2,3.6
4.13671875,-2.8324712618448143e-05,-2.8324712618448143e-05,-3.85741477376974e-05,-2.392998370061798e-05,4.2,3.6
4.140625,-2.1000164422064528e-05,-3.3696047962462795e-05,-3.809077688029296e-05,-2.734810619226367e-05,4.2,3.6
4.14453125,-2.2465074061341254e-05,-3.955075416388188e-05,-4.1503967016250846e-05,-2.9789622257724872e-05,4.2,3.6
4.1484375,-2.734810619226367e-05,-4.199227022934309e-05,-4.0039057376974124e-05,-3.125453189700159e-05,4.2,3.6
4.15234375,-2.392998370061798e-05,-4.541039272098877e-05,-4.834021199954222e-05,-3.2719441536278313e-05,4.2,3.6
4.15625,-2.5394893339894705e-05,-4.492208950789653e-05,-5.810627626138703e-05,-3.467265438864727e-05,4.2,3.6
4.16015625,-3.027792547081711e-05,-4.492208950789653e-05,-6.689573409704737e-05,-3.2719441536278313e-05,4.2,3.6
4.1640625,-2.637149976607918e-05,-4.248057344243533e-05,-4.296887665552757e-05,-3.662586724101623e-05,4.2,3.6
4.16796875,-1.8558648356603327e-05,-3.6137564027924e-05,-3.076622868390935e-05,-3.662586724101623e-05,4.2,3.6
4.171875,-1.562882907804989e-05,-4.0039057376974124e-05,-4.834021199954222e-05,-1.9535254782787816e-05,4.2,3.6
4.17578125,-1.8558648356603327e-05,-4.443378629480429e-05,-5.8594579474479274e-05,-1.123410016021971e-05,4.2,3.6
4.1796875,-1.6605435504234364e-05,-4.541039272098877e-05,-5.2246637704280143e-05,-1.0745796947127473e-05,4.2,3.6
4.18359375,-1.9535254782787816e-05,-5.615306340901807e-05,-5.810627626138703e-05,-1.3187313012588674e-05,4.2,3.6
4.1875,-1.807034514351109e-05,-6.250100517921719e-05,-7.275537265415426e-05,-1.2210706586404199e-05,4.2,3.6
4.19140625,-1.2699009799496436e-05,-8.349804334218357e-05,-8.935768189929046e-05,-1.4163919438773164e-05,4.2,3.6
4.1953125,-1.3675616225680926e-05,-9.472408488761729e-05,-0.00010107202665781641,-1.1722403373311961e-05,4.2,3.6
4.19921875,-2.3441680487525742e-05,-0.00011425621341130692,-0.00011425621341130692,-9.769190520942998e-06,4.2,3.6
4.203125,-3.4212487507438707e-06,-0.00012695209695170518,-0.00012206906482078277,-3.909551963836108e-06,4.2,3.6
4.20703125,-2.444642324559382e-06,-0.0001498974156113527,-0.00014696759633279927,5.856512298008709e-06,4.2,3.6
4.2109375,-2.051186120897229e-05,-0.0001787073051837949,-0.00017382427305287252,8.29802836346991e-06,4.2,3.6
