timestamp,TP9,AF7,AF8,TP10,Valence,Arousal
0.0,-7.616976021515219e-05,0.0001513477303913939,0.00015720576421149007,-3.025131803158616e-05,6.6667,6.4667
0.00390625,-4.3783353261615755e-06,0.00015232406936140994,0.00013474996790112154,-3.1715826486610186e-05,6.6667,6.4667
0.0078125,1.5117933481345863e-05,0.0001313327815060655,0.00013426179841611355,-3.562118236667428e-05,6.6667,6.4667
0.01171875,-6.3310132661936195e-06,0.000155741255756466,0.00014402518811627377,-3.757386030670632e-05,6.6667,6.4667
0.015625,-2.9763148546578148e-05,0.00015427674730144199,0.00015183589987640195,-3.562118236667428e-05,6.6667,6.4667
0.01953125,-3.9038368761730354e-05,0.0001410961712062257,0.0001513477303913939,-2.9763148546578148e-05,6.6667,6.4667
0.0234375,-4.489640258182648e-05,0.00013816715429617763,0.0001415843406912337,-2.8786809576562122e-05,6.6667,6.4667
0.02734375,-1.999975884641793e-05,0.00012449840871595332,0.00014060800172121767,-3.1715826486610186e-05,6.6667,6.4667
0.03125,3.3668373911650276e-05,0.00010253078189059284,0.00012498657820096134,-3.562118236667428e-05,6.6667,6.4667
0.03515625,-3.562118236667428e-05,9.325556167544062e-05,0.00012254573077592128,-3.1715826486610186e-05,6.6667,6.4667
0.0390625,-4.831358897688256e-05,0.0001240102392309453,0.00012645108665598537,-2.9763148546578148e-05,6.6667,6.4667
0.04296875,2.7810340091554148e-05,0.00014890688296635387,0.00012254573077592128,-3.65975213366903e-05,6.6667,6.4667
0.046875,1.3165255541313818e-05,0.00014695420502632182,0.00012596291717097735,-3.562118236667428e-05,6.6667,6.4667
0.05078125,1.755878090638592e-05,0.00013963166275120166,0.00013084461202105745,-3.464484339665826e-05,6.6667,6.4667
0.0546875,2.3904984211490058e-05,0.00013279728996108952,0.00012205756129091327,-4.196738567177842e-05,6.6667,6.4667
0.05859375,3.1227526486610226e-05,0.00010741247674067293,0.00011082966313572902,-3.9038368761730354e-05,6.6667,6.4667
0.0625,-9.61148931105499e-07,9.862542601052873e-05,0.00012205756129091327,-2.097609781643395e-05,6.6667,6.4667
0.06640625,-9.260030176241686e-06,0.00010253078189059284,0.0001332854594460975,-2.7810470606546103e-05,6.6667,6.4667
0.0703125,2.488132318150608e-05,8.73975278553445e-05,0.00010594796828564891,-4.392006361181047e-05,6.6667,6.4667
0.07421875,6.330882751201665e-06,0.00010350712086060884,8.935020579537654e-05,-3.464484339665826e-05,6.6667,6.4667
0.078125,5.075430588693066e-05,0.0001313327815060655,0.00010790064622568095,-3.22039959716182e-05,6.6667,6.4667
0.08203125,7.177610433508813e-05,0.00012498657820096134,9.081471425040057e-05,-4.050287721675439e-05,6.6667,6.4667
0.0859375,4.7337119491874584e-05,0.00012645108665598537,0.00012059305283588923,-4.3431894126802455e-05,6.6667,6.4667
0.08984375,3.0251187516594204e-05,0.00010936515468070498,0.00012352206974593728,-3.9038368761730354e-05,6.6667,6.4667
0.09375,5.612417022201878e-05,9.569640910048068e-05,9.667274807049669e-05,-3.610935185168229e-05,6.6667,6.4667
0.09765625,6.10058650720989e-05,0.00010204261240558482,9.276739219043261e-05,-4.196738567177842e-05,6.6667,6.4667
0.1015625,2.5369492666514095e-05,0.00011278234107576106,0.00010838881571068896,-3.806202979171434e-05,6.6667,6.4667
0.10546875,2.6345831636530114e-05,0.00011766403592584118,0.00014402518811627377,-2.8786809576562122e-05,6.6667,6.4667
0.109375,-8.771860691233675e-06,9.325556167544062e-05,0.00011473501901579311,-2.732230112153809e-05,6.6667,6.4667
0.11328125,1.1212577601281776e-05,0.00010253078189059284,8.78856973403525e-05,-1.999975884641793e-05,6.6667,6.4667
0.1171875,2.5369492666514095e-05,0.00011619952747081714,0.00010643613777065691,-1.951158936140992e-05,6.6667,6.4667
0.12109375,-1.755891142137787e-05,0.00010545979880064089,8.349217197528039e-05,-2.536962318150605e-05,6.6667,6.4667
0.125,2.1464136786450005e-05,0.00010301895137560084,8.007498558022432e-05,-2.4393284211490024e-05,6.6667,6.4667
0.12890625,-2.9763148546578148e-05,0.0001010662734355688,8.544484991531244e-05,-1.999975884641793e-05,6.6667,6.4667
0.1328125,-3.757386030670632e-05,0.00010838881571068896,7.226427382009615e-05,-1.2677216571297761e-05,6.6667,6.4667
0.13671875,4.538444155184254e-05,9.227922270542459e-05,8.593301940032045e-05,-7.307352236209642e-06,6.6667,6.4667
0.140625,-5.354674296177598e-06,8.544484991531244e-05,9.911359549553675e-05,-3.890165841153565e-06,6.6667,6.4667
0.14453125,-4.001470773174638e-05,9.032654476539255e-05,9.374373116044863e-05,3.890035326161609e-06,6.6667,6.4667
0.1484375,-7.714609918516821e-05,7.861047712520029e-05,9.032654476539255e-05,-3.890165841153565e-06,6.6667,6.4667
0.15234375,-4.09910467017624e-05,9.569640910048068e-05,9.081471425040057e-05,-1.072453863126572e-05,6.6667,6.4667
0.15625,-4.050287721675439e-05,0.00010741247674067293,8.349217197528039e-05,-5.354674296177598e-06,6.6667,6.4667
0.16015625,-0.00010057823446555274,7.861047712520029e-05,7.324061279011216e-05,-6.3310132661936195e-06,6.6667,6.4667
0.1640625,-0.00015085969142137788,5.124247537193867e-05,6.982342639505609e-05,-1.072453863126572e-05,6.6667,6.4667
0.16796875,-0.0001923540976470588,6.10058650720989e-05,6.247037352712293e-05,-7.307352236209642e-06,6.6667,6.4667
0.171875,-0.00013230925099107346,8.78856973403525e-05,7.665779918516825e-05,4.7284893110553325e-07,6.6667,6.4667
0.17578125,-0.0001523241998764019,7.51932907301442e-05,9.764908704051272e-05,1.4491879011215552e-06,6.6667,6.4667
0.1796875,-0.00020654152330510414,6.10058650720989e-05,7.128793485008013e-05,-9.260030176241686e-06,6.6667,6.4667
0.18359375,-0.000246083251590753,8.30040024902724e-05,5.368332279697873e-05,-1.121270811627373e-05,6.6667,6.4667
0.1875,-0.00026121650562600134,6.539939043717099e-05,5.954135661707486e-05,-1.5320553902477717e-08,6.6667,6.4667
0.19140625,-0.00023876070931563284,5.514783125200276e-05,6.539939043717099e-05,-1.937487901121521e-06,6.6667,6.4667
0.1953125,-0.00026414552253604945,8.056315506523234e-05,5.71005091920348e-05,-7.307352236209642e-06,6.6667,6.4667
0.19921875,-0.0003022227423666743,8.202766352025636e-05,5.758867867704282e-05,-3.890165841153565e-06,6.6667,6.4667
0.203125,-0.00035741640476539253,7.90986466102083e-05,7.714596867017625e-05,-1.937487901121521e-06,6.6667,6.4667
0.20703125,-0.0003852420654108491,7.568146021515222e-05,9.374373116044863e-05,-5.354674296177598e-06,6.6667,6.4667
0.2109375,-0.0003954936245960174,6.491122095216298e-05,6.640624000000002e-05,-1.0236369146257707e-05,6.6667,6.4667
0.21484375,-0.0004008634889311055,3.318020442664227e-05,3.610922133669034e-05,-1.2189047086289752e-05,6.6667,6.4667
0.21875,-0.00040965053966124967,3.269203494163426e-05,4.880162794689862e-05,-6.3310132661936195e-06,6.6667,6.4667
0.22265625,-0.00047216674433508813,4.636078052185856e-05,3.4156543396658294e-05,-1.4141725026321795e-05,6.6667,6.4667
0.2265625,-0.00043991704773174635,5.514783125200276e-05,4.001457721675442e-05,-1.755891142137787e-05,6.6667,6.4667
0.23046875,-0.00040818603120622564,7.079976536507211e-05,6.247037352712293e-05,-1.609440296635384e-05,6.6667,6.4667
0.234375,-0.00043503535288166623,7.763413815518427e-05,6.10058650720989e-05,-1.999975884641793e-05,6.6667,6.4667
0.23828125,-0.0004379643697917143,8.642118888532846e-05,6.0029526102082876e-05,-1.7070741936369862e-05,6.6667,6.4667
0.2421875,-0.0005644307770016022,6.051769558709088e-05,6.640624000000002e-05,-1.7070741936369862e-05,6.6667,6.4667
0.24609375,-0.0005502738619363698,3.269203494163426e-05,7.03115958800641e-05,-1.170087760128174e-05,6.6667,6.4667
0.25,-0.0004741194222751201,5.8076848162050824e-05,6.149403455710691e-05,-1.2677216571297761e-05,6.6667,6.4667
0.25390625,-0.0005053622693156328,6.982342639505609e-05,4.5872611036850557e-05,-1.755891142137787e-05,6.6667,6.4667
0.2578125,-0.0005073149472556649,5.905318713206685e-05,5.1730644856946685e-05,-1.7070741936369862e-05,6.6667,6.4667
0.26171875,-0.000512196642105745,5.71005091920348e-05,4.050274670176243e-05,-1.121270811627373e-05,6.6667,6.4667
0.265625,-0.0004613965050720989,6.442305146715498e-05,5.026613640192266e-05,-9.748199661249696e-06,6.6667,6.4667
0.26953125,-0.0004560266407370107,8.983837528038453e-05,7.03115958800641e-05,-1.5118063996337817e-05,6.6667,6.4667
0.2734375,-0.000423807454726482,7.763413815518427e-05,5.954135661707486e-05,-2.097609781643395e-05,6.6667,6.4667
0.27734375,-0.00044089338670176234,7.42169517601282e-05,6.884708742504007e-05,-2.3416945241474e-05,6.6667,6.4667
0.28125,-0.000468261388455024,6.295854301213094e-05,6.5887559922179e-05,-1.755891142137787e-05,6.6667,6.4667
0.28515625,-0.0003305365724971389,2.976301803158619e-05,4.34317636118105e-05,-1.609440296635384e-05,6.6667,6.4667
0.2890625,-0.00032419036919203477,3.806189927672238e-05,4.684895000686658e-05,-1.7070741936369862e-05,6.6667,6.4667
0.29296875,-0.0002988055559716182,2.5369492666514095e-05,4.196725515678646e-05,-1.9023419876401904e-05,6.6667,6.4667
0.296875,-0.0002826959629663538,2.1952306271458016e-05,6.0029526102082876e-05,-2.488145369649804e-05,6.6667,6.4667
0.30078125,-0.00028904216627145796,6.149403455710691e-05,7.568146021515222e-05,-1.8535250391393893e-05,6.6667,6.4667
0.3046875,-0.00021337589609521628,6.982342639505609e-05,6.442305146715498e-05,-1.2189047086289752e-05,6.6667,6.4667
0.30859375,-0.0001523241998764019,8.544484991531244e-05,6.051769558709088e-05,-9.748199661249696e-06,6.6667,6.4667
0.3125,-7.665792970016021e-05,8.30040024902724e-05,3.562105185168232e-05,-9.260030176241686e-06,6.6667,6.4667
0.31640625,-6.689453999999997e-05,2.5857662151522106e-05,3.806189927672238e-05,-1.4141725026321795e-05,6.6667,6.4667
0.3203125,-3.415667391165024e-05,8.283560691233709e-06,4.391993309681851e-05,-1.804708090638588e-05,6.6667,6.4667
0.32421875,1.0236238631265752e-05,7.275244330510416e-05,5.514783125200276e-05,-2.097609781643395e-05,6.6667,6.4667
0.328125,3.171569597161824e-05,0.00011082966313572902,6.491122095216298e-05,-4.866504811169587e-06,6.6667,6.4667
0.33203125,7.372878227512018e-05,5.075430588693066e-05,3.0251187516594204e-05,5.842713266193654e-06,6.6667,6.4667
0.3359375,8.983837528038453e-05,1.0724408116273763e-05,1.755878090638592e-05,1.0236238631265752e-05,6.6667,6.4667
0.33984375,0.00012108122232089725,3.401865841153599e-06,1.8046950391393927e-05,1.9999628331425975e-05,6.6667,6.4667
0.34375,0.00011229417159075305,-2.732230112153809e-05,-3.401996356145554e-06,2.0487797816433986e-05,6.6667,6.4667
0.34765625,9.911359549553675e-05,-3.806202979171434e-05,-4.684908052185853e-05,2.439315369649807e-05,6.6667,6.4667
0.3515625,0.00012693925614099338,-7.079989588006407e-05,-5.90533176470588e-05,3.269203494163426e-05,6.6667,6.4667
0.35546875,8.593301940032045e-05,-0.0001161996579858091,-8.10514550652323e-05,4.34317636118105e-05,6.6667,6.4667
0.359375,0.00014890688296635387,-8.690948888532842e-05,-7.128806536507208e-05,4.0990916186770444e-05,6.6667,6.4667
0.36328125,0.00022753268064545665,-4.7825419491874556e-05,-4.2455555156786426e-05,4.0990916186770444e-05,6.6667,6.4667
0.3671875,0.00022802085013046464,-3.65975213366903e-05,-5.4171622796978696e-05,3.269203494163426e-05,6.6667,6.4667
0.37109375,0.00023631973137560084,-1.951158936140992e-05,-1.3653555541313785e-05,2.2440475756466028e-05,6.6667,6.4667
0.375,0.00029050654421149005,-1.3653555541313785e-05,-1.44931841611351e-06,2.292864524147404e-05,6.6667,6.4667
0.37890625,0.00038280108747081715,-2.146426730144196e-05,-2.3416945241474e-05,2.3904984211490058e-05,6.6667,6.4667
0.3828125,0.00041209125657129775,-4.001470773174638e-05,-1.3653555541313785e-05,1.9999628331425975e-05,6.6667,6.4667
0.38671875,0.0004736311222751201,-2.8786809576562122e-05,-1.44931841611351e-06,2.2440475756466028e-05,6.6667,6.4667
0.390625,0.00045993186610208286,-4.866504811169587e-06,1.902328936140995e-05,1.755878090638592e-05,6.6667,6.4667
0.39453125,0.00047997732558022427,3.401865841153599e-06,2.5369492666514095e-05,6.330882751201665e-06,6.6667,6.4667
0.3984375,0.0005532027483314259,-4.866504811169587e-06,1.755878090638592e-05,7.307221721217687e-06,6.6667,6.4667
0.40234375,0.0005444156976012818,-1.937487901121521e-06,1.4629763996337851e-05,8.77173017624172e-06,6.6667,6.4667
0.40625,0.0005156136979858092,1.4141594511329842e-05,2.976301803158619e-05,7.307221721217687e-06,6.6667,6.4667
0.41015625,0.000511708342105745,1.7070611421377907e-05,2.0487797816433986e-05,9.610184161135442e-07,6.6667,6.4667
0.4140625,0.0005336759689311055,1.951145884641796e-05,7.795391206225697e-06,-4.72979446097488e-07,6.6667,6.4667
0.41796875,0.0004970632575555047,-4.72979446097488e-07,2.0975967301441994e-05,2.913696356145588e-06,6.6667,6.4667
0.421875,0.000465789899922179,2.913696356145588e-06,2.2440475756466028e-05,-1.937487901121521e-06,6.6667,6.4667
0.42578125,0.0004555383407370108,2.0975967301441994e-05,3.318020442664227e-05,-6.3310132661936195e-06,6.6667,6.4667
0.4296875,0.0003867064433508812,3.4156543396658294e-05,5.71005091920348e-05,-2.9138268711375426e-06,6.6667,6.4667
0.43359375,0.00044528678155184254,4.391993309681851e-05,4.7825288976882595e-05,-8.771860691233675e-06,6.6667,6.4667
0.4375,0.0004902288847653926,5.270698382696271e-05,3.90382382467384e-05,-1.4629894511329806e-05,6.6667,6.4667
0.44140625,0.00043357071391165027,4.7825288976882595e-05,4.977796691691464e-05,-1.170087760128174e-05,6.6667,6.4667
0.4453125,0.0004277126800915541,2.1952306271458016e-05,3.5132882366674316e-05,-1.5118063996337817e-05,6.6667,6.4667
0.44921875,0.00044626312052185857,1.7070611421377907e-05,2.5369492666514095e-05,-1.4141725026321795e-05,6.6667,6.4667
0.453125,0.0004916933932204166,2.9274848546578178e-05,4.391993309681851e-05,-1.5118063996337817e-05,6.6667,6.4667
0.45703125,0.00047265478330510413,3.318020442664227e-05,3.0251187516594204e-05,-1.609440296635384e-05,6.6667,6.4667
0.4609375,0.00046383722198214695,1.2188916571297797e-05,2.0975967301441994e-05,-1.609440296635384e-05,6.6667,6.4667
0.46484375,0.00040037518893110553,1.2677086056305808e-05,3.659739082169834e-05,-2.146426730144196e-05,6.6667,6.4667
0.46875,0.0003520464099153124,8.642118888532846e-05,0.0001015544429205768,-2.2928775756465994e-05,6.6667,6.4667
0.47265625,0.0004579791881620508,8.007498558022432e-05,9.179105322041659e-05,-2.195243678644997e-05,6.6667,6.4667
0.4765625,0.0004804654950652323,1.5117933481345863e-05,-5.354674296177598e-06,-2.195243678644997e-05,6.6667,6.4667
0.48046875,0.0004443104425818265,1.4629763996337851e-05,-2.425657386129532e-06,-3.1715826486610186e-05,6.6667,6.4667
0.484375,0.00038328925695582514,-2.7810470606546103e-05,-2.146426730144196e-05,-3.9038368761730354e-05,6.6667,6.4667
0.48828125,0.00037450220622568093,-5.514796176699472e-05,-3.562118236667428e-05,-5.124260588693063e-05,6.6667,6.4667
0.4921875,0.0004272245106065461,-2.488145369649804e-05,-3.806202979171434e-05,-6.198233455710688e-05,6.6667,6.4667
0.49609375,0.0004272245106065461,-3.5133012881666264e-05,-6.689453999999997e-05,-6.835904845502402e-05,6.6667,6.4667
0.5,0.0004306416970016022,-5.173077537193864e-05,-6.637585992217897e-05,-7.665792970016021e-05,6.6667,6.4667
0.50390625,0.0003276074250720989,-3.318033494163422e-05,-5.6612470222018745e-05,-8.98385057953765e-05,6.6667,6.4667
0.5078125,0.0003149150184618906,-3.5133012881666264e-05,-6.933538742504003e-05,-0.00010497175983062485,6.6667,6.4667
0.51171875,0.00041209125657129775,-3.122765700160218e-05,-6.588769043717095e-05,-9.764921755550467e-05,6.6667,6.4667
0.515625,0.0003901236297459373,-4.72979446097488e-07,-3.073948751659417e-05,-8.690948888532842e-05,6.6667,6.4667
0.51953125,0.00033788949485008015,1.2188916571297797e-05,-4.2943724641794444e-05,-8.837399734035246e-05,6.6667,6.4667
0.5234375,0.00028123132399633785,-4.72979446097488e-07,-4.09910467017624e-05,-8.886216682536047e-05,6.6667,6.4667
0.52734375,0.0002924592221515221,-1.170087760128174e-05,-9.260030176241686e-06,-8.690948888532842e-05,6.6667,6.4667
0.53125,0.00028074315451132986,1.5117933481345863e-05,4.378204811169621e-06,-7.958694661020826e-05,6.6667,6.4667
0.53515625,0.00023290254498054477,2.7322170606546137e-05,4.378204811169621e-06,-8.007511609521628e-05,6.6667,6.4667
0.5390625,0.0002041005453650721,1.4629763996337851e-05,5.354543781185643e-06,-8.007511609521628e-05,6.6667,6.4667
0.54296875,0.000155741255756466,4.294359412680248e-05,1.365342502632183e-05,-7.568159073014417e-05,6.6667,6.4667
0.546875,0.000199188339922179,5.319515331197072e-05,-4.866504811169587e-06,-7.714609918516821e-05,6.6667,6.4667
0.55078125,0.00019772383146715496,5.71005091920348e-05,9.259899661249731e-06,-7.22644043350881e-05,6.6667,6.4667
0.5546875,0.00015476491678645,6.0029526102082876e-05,2.9274848546578178e-05,-6.7870878970016e-05,6.6667,6.4667
0.55859375,0.00010741247674067293,3.659739082169834e-05,1.7070611421377907e-05,-6.884721794003202e-05,6.6667,6.4667
0.5625,6.051769558709088e-05,2.0487797816433986e-05,1.8535119876401938e-05,-6.149416507209886e-05,6.6667,6.4667
0.56640625,8.495668043030443e-05,2.3904984211490058e-05,1.9999628331425975e-05,-5.514796176699472e-05,6.6667,6.4667
0.5703125,8.73975278553445e-05,3.4156543396658294e-05,9.610184161135442e-07,-5.4171622796978696e-05,6.6667,6.4667
0.57421875,6.10058650720989e-05,4.538444155184254e-05,1.902328936140995e-05,-5.319528382696267e-05,6.6667,6.4667
0.578125,-4.72979446097488e-07,3.562105185168232e-05,3.7085560306706354e-05,-5.563613125200272e-05,6.6667,6.4667
0.58203125,-4.1479216186770404e-05,4.440810258182652e-05,1.5117933481345863e-05,-5.465979228198671e-05,6.6667,6.4667
0.5859375,-2.4393284211490024e-05,5.124247537193867e-05,1.9999628331425975e-05,-4.5872741551842505e-05,6.6667,6.4667
0.58984375,-4.3783353261615755e-06,3.7573729791714366e-05,3.659739082169834e-05,-4.636091103685052e-05,6.6667,6.4667
0.59375,-9.748199661249696e-06,6.344671249713895e-05,2.829850957656216e-05,-5.563613125200272e-05,6.6667,6.4667
0.59765625,-0.00011131796313572899,6.884708742504007e-05,3.46447128816663e-05,-5.4171622796978696e-05,6.6667,6.4667
0.6015625,-0.00013328558996108947,4.831345846189061e-05,3.220386545662624e-05,-4.53845720668345e-05,6.6667,6.4667
0.60546875,-5.3683453311970684e-05,2.7322170606546137e-05,5.354543781185643e-06,-4.440823309681848e-05,6.6667,6.4667
0.609375,-7.714609918516821e-05,1.5117933481345863e-05,2.5369492666514095e-05,-4.5872741551842505e-05,6.6667,6.4667
0.61328125,-0.00011180613262073699,3.220386545662624e-05,3.7085560306706354e-05,-4.7825419491874556e-05,6.6667,6.4667
0.6171875,-0.00014109630172121765,4.7825288976882595e-05,4.0990916186770444e-05,-4.733725000686654e-05,6.6667,6.4667
0.62109375,-0.0001435371491462577,3.318020442664227e-05,4.1479085671778456e-05,-4.2455555156786426e-05,6.6667,6.4667
0.625,-0.00017722084361181047,4.245542464179448e-05,3.5132882366674316e-05,-5.0266266916914606e-05,6.6667,6.4667
0.62890625,-0.00020507701485008008,3.171569597161824e-05,3.90382382467384e-05,-4.733725000686654e-05,6.6667,6.4667
0.6328125,-0.00020019531999999999,2.7322170606546137e-05,3.4156543396658294e-05,-4.09910467017624e-05,6.6667,6.4667
0.63671875,-0.00024852409901579304,5.856501764705884e-05,3.0739357001602215e-05,-4.3431894126802455e-05,6.6667,6.4667
0.640625,-0.00022411562476539254,5.124247537193867e-05,4.34317636118105e-05,-4.3431894126802455e-05,6.6667,6.4667
0.64453125,-0.00021923392991531242,4.294359412680248e-05,2.5369492666514095e-05,-4.2943724641794444e-05,6.6667,6.4667
0.6484375,-0.00024461874313572895,2.2440475756466028e-05,2.7322170606546137e-05,-3.562118236667428e-05,6.6667,6.4667
0.65234375,-0.00027097989532616154,1.755878090638592e-05,4.294359412680248e-05,-3.5133012881666264e-05,6.6667,6.4667
0.65625,-0.0002680508784161135,4.34317636118105e-05,4.831345846189061e-05,-3.9038368761730354e-05,6.6667,6.4667
0.66015625,-0.00024364240416571296,5.71005091920348e-05,5.8076848162050824e-05,-3.5133012881666264e-05,6.6667,6.4667
0.6640625,-0.00026316918356603336,3.8550068761730395e-05,2.5369492666514095e-05,-3.65975213366903e-05,6.6667,6.4667
0.66796875,-0.0002739089122362096,3.171569597161824e-05,2.2440475756466028e-05,-3.9526538246738366e-05,6.6667,6.4667
0.671875,-0.0003007582339116503,4.538444155184254e-05,3.5132882366674316e-05,-3.22039959716182e-05,6.6667,6.4667
0.67578125,-0.00031491514897688256,4.34317636118105e-05,4.001457721675442e-05,-3.073948751659417e-05,6.6667,6.4667
0.6796875,-0.00031540331846189055,4.391993309681851e-05,5.270698382696271e-05,-2.9763148546578148e-05,6.6667,6.4667
0.68359375,-0.0003022227423666743,5.5636000737010774e-05,3.318020442664227e-05,-2.8298640091554114e-05,6.6667,6.4667
0.6875,-0.0002856249798764019,4.245542464179448e-05,2.976301803158619e-05,-2.9763148546578148e-05,6.6667,6.4667
0.69140625,-0.0003954936245960174,4.294359412680248e-05,5.66123397070268e-05,-3.22039959716182e-05,6.6667,6.4667
0.6953125,-0.0004135558955413138,4.7825288976882595e-05,4.684895000686658e-05,-3.65975213366903e-05,6.6667,6.4667
0.69921875,-0.00034618850661020825,4.440810258182652e-05,1.3165255541313818e-05,-3.610935185168229e-05,6.6667,6.4667
0.703125,-0.00039891081099107344,2.976301803158619e-05,3.220386545662624e-05,-3.415667391165024e-05,6.6667,6.4667
0.70703125,-0.0004155085734813458,3.90382382467384e-05,8.935020579537654e-05,-3.9038368761730354e-05,6.6667,6.4667
0.7109375,-0.00040818603120622564,5.417149228198674e-05,8.251583300526438e-05,-3.806202979171434e-05,6.6667,6.4667
0.71484375,-0.0003749905062256809,3.4156543396658294e-05,2.829850957656216e-05,-3.22039959716182e-05,6.6667,6.4667
0.71875,-0.0003974463025360494,2.3416814726482047e-05,4.7284893110553325e-07,-3.610935185168229e-05,6.6667,6.4667
0.72265625,-0.0004145322345113298,3.890035326161609e-06,9.610184161135442e-07,-4.050287721675439e-05,6.6667,6.4667
0.7265625,-0.0003862184043808652,-1.5118063996337817e-05,-5.842843781185608e-06,-3.073948751659417e-05,6.6667,6.4667
0.73046875,-0.0004052570142961776,-1.121270811627373e-05,-3.806202979171434e-05,-2.732230112153809e-05,6.6667,6.4667
0.734375,-0.00031345064052185854,4.7284893110553325e-07,-3.562118236667428e-05,-2.9763148546578148e-05,6.6667,6.4667
0.73828125,-0.0002680508784161135,-1.804708090638588e-05,-1.4629894511329806e-05,-3.415667391165024e-05,6.6667,6.4667
0.7421875,-0.00028660131884641795,3.401865841153599e-06,-7.307352236209642e-06,-3.806202979171434e-05,6.6667,6.4667
0.74609375,-0.0002753734206912337,4.378204811169621e-06,-1.937487901121521e-06,-3.65975213366903e-05,6.6667,6.4667
0.75,-0.00024364240416571296,-1.4141725026321795e-05,2.4255268711375773e-06,-3.806202979171434e-05,6.6667,6.4667
0.75390625,-0.00018600789434195466,7.307221721217687e-06,-1.5320553902477717e-08,-3.22039959716182e-05,6.6667,6.4667
0.7578125,-0.00014939518296635385,1.5606102966353874e-05,-7.795521721217652e-06,-3.073948751659417e-05,6.6667,6.4667
0.76171875,-0.0001254748782009613,2.7810340091554148e-05,8.77173017624172e-06,-3.5133012881666264e-05,6.6667,6.4667
0.765625,-0.00015476504730144196,3.318020442664227e-05,3.318020442664227e-05,-3.025131803158616e-05,6.6667,6.4667
0.76953125,-0.00014646616605630577,2.976301803158619e-05,2.3416814726482047e-05,-3.025131803158616e-05,6.6667,6.4667
0.7734375,-9.716104807049665e-05,3.562105185168232e-05,2.3416814726482047e-05,-3.318033494163422e-05,6.6667,6.4667
0.77734375,-6.689453999999997e-05,3.269203494163426e-05,4.440810258182652e-05,-2.732230112153809e-05,6.6667,6.4667
0.78125,-5.4171622796978696e-05,2.1952306271458016e-05,2.3904984211490058e-05,-2.683413163653008e-05,6.6667,6.4667
0.78515625,-0.0001210813528358892,1.9999628331425975e-05,1.902328936140995e-05,-3.415667391165024e-05,6.6667,6.4667
0.7890625,-0.00010253091240558478,1.5117933481345863e-05,2.829850957656216e-05,-3.562118236667428e-05,6.6667,6.4667
0.79296875,3.890035326161609e-06,1.7070611421377907e-05,2.1952306271458016e-05,-3.2692165456626215e-05,6.6667,6.4667
0.796875,1.4491879011215552e-06,3.659739082169834e-05,3.318020442664227e-05,-3.1715826486610186e-05,6.6667,6.4667
0.80078125,-4.9289927946898583e-05,5.075430588693066e-05,4.4896272066834534e-05,-2.8786809576562122e-05,6.6667,6.4667
0.8046875,-6.689453999999997e-05,4.1479085671778456e-05,5.319515331197072e-05,-3.1715826486610186e-05,6.6667,6.4667
0.80859375,-4.09910467017624e-05,4.7825288976882595e-05,3.90382382467384e-05,-3.366850442664224e-05,6.6667,6.4667
0.8125,-3.562118236667428e-05,4.7337119491874584e-05,1.8535119876401938e-05,-3.122765700160218e-05,6.6667,6.4667
0.81640625,-5.563613125200272e-05,4.7337119491874584e-05,8.283560691233709e-06,-3.025131803158616e-05,6.6667,6.4667
0.8203125,-5.90533176470588e-05,4.34317636118105e-05,7.795391206225697e-06,-3.2692165456626215e-05,6.6667,6.4667
0.82421875,-2.8786809576562122e-05,1.1212577601281776e-05,4.050274670176243e-05,-3.855019927672234e-05,6.6667,6.4667
0.828125,-1.951158936140992e-05,3.318020442664227e-05,4.440810258182652e-05,-3.415667391165024e-05,6.6667,6.4667
0.83203125,-2.536962318150605e-05,6.5887559922179e-05,4.9289797431906635e-05,-2.732230112153809e-05,6.6667,6.4667
0.8359375,9.259899661249731e-06,6.884708742504007e-05,6.051769558709088e-05,-2.9274979061570133e-05,6.6667,6.4667
0.83984375,-4.5872741551842505e-05,4.050274670176243e-05,4.391993309681851e-05,-2.9274979061570133e-05,6.6667,6.4667
0.84375,-0.00011864050541084913,3.1227526486610226e-05,2.976301803158619e-05,-3.122765700160218e-05,6.6667,6.4667
0.84765625,-1.121270811627373e-05,4.391993309681851e-05,3.3668373911650276e-05,-2.8298640091554114e-05,6.6667,6.4667
0.8515625,3.562105185168232e-05,2.6834001121538125e-05,2.829850957656216e-05,-3.415667391165024e-05,6.6667,6.4667
0.85546875,2.3416814726482047e-05,2.6834001121538125e-05,4.0990916186770444e-05,-3.806202979171434e-05,6.6667,6.4667
0.859375,-9.61148931105499e-07,2.829850957656216e-05,3.610922133669034e-05,-2.5857792666514058e-05,6.6667,6.4667
0.86328125,-2.4393284211490024e-05,1.7070611421377907e-05,4.7284893110553325e-07,-2.2440606271457983e-05,6.6667,6.4667
0.8671875,-1.3165386056305774e-05,2.7322170606546137e-05,1.951145884641796e-05,-2.4393284211490024e-05,6.6667,6.4667
0.87109375,-1.804708090638588e-05,5.5636000737010774e-05,2.6834001121538125e-05,-2.683413163653008e-05,6.6667,6.4667
0.875,1.4141594511329842e-05,4.977796691691464e-05,3.0739357001602215e-05,-3.025131803158616e-05,6.6667,6.4667
0.87890625,-2.5857792666514058e-05,4.636078052185856e-05,5.124247537193867e-05,-2.634596215152207e-05,6.6667,6.4667
0.8828125,-2.488145369649804e-05,4.245542464179448e-05,1.3165255541313818e-05,-3.366850442664224e-05,6.6667,6.4667
0.88671875,5.270698382696271e-05,2.0975967301441994e-05,4.34317636118105e-05,-3.562118236667428e-05,6.6667,6.4667
0.890625,5.514783125200276e-05,2.5857662151522106e-05,6.5887559922179e-05,-2.9274979061570133e-05,6.6667,6.4667
0.89453125,5.514783125200276e-05,3.3668373911650276e-05,4.391993309681851e-05,-3.025131803158616e-05,6.6667,6.4667
0.8984375,3.1227526486610226e-05,2.3904984211490058e-05,5.758867867704282e-05,-2.8298640091554114e-05,6.6667,6.4667
0.90234375,4.440810258182652e-05,2.6345831636530114e-05,4.1479085671778456e-05,-3.122765700160218e-05,6.6667,6.4667
0.90625,5.075430588693066e-05,3.90382382467384e-05,2.5857662151522106e-05,-2.732230112153809e-05,6.6667,6.4667
0.91015625,3.610922133669034e-05,4.636078052185856e-05,2.976301803158619e-05,-2.5857792666514058e-05,6.6667,6.4667
0.9140625,4.880162794689862e-05,3.952640773174641e-05,3.0251187516594204e-05,-3.366850442664224e-05,6.6667,6.4667
0.91796875,2.7322170606546137e-05,2.6345831636530114e-05,2.7810340091554148e-05,-3.318033494163422e-05,6.6667,6.4667
0.921875,9.862542601052873e-05,2.1464136786450005e-05,4.001457721675442e-05,-2.9274979061570133e-05,6.6667,6.4667
0.92578125,0.0001454896965712978,3.220386545662624e-05,2.7322170606546137e-05,-3.025131803158616e-05,6.6667,6.4667
0.9296875,0.0001313327815060655,4.294359412680248e-05,1.365342502632183e-05,-3.464484339665826e-05,6.6667,6.4667
0.93359375,0.00013914349326619364,5.124247537193867e-05,2.976301803158619e-05,-3.855019927672234e-05,6.6667,6.4667
0.9375,0.00014988322193636988,3.7085560306706354e-05,4.0990916186770444e-05,-3.562118236667428e-05,6.6667,6.4667
0.94140625,0.00017575620464179448,4.684895000686658e-05,5.905318713206685e-05,-3.610935185168229e-05,6.6667,6.4667
0.9453125,0.00015720576421149007,5.905318713206685e-05,5.8076848162050824e-05,-3.610935185168229e-05,6.6667,6.4667
0.94921875,0.0001367026458411536,2.829850957656216e-05,4.294359412680248e-05,-2.8786809576562122e-05,6.6667,6.4667
0.953125,0.00012205756129091327,2.0975967301441994e-05,4.391993309681851e-05,-3.708569082169831e-05,6.6667,6.4667
0.95703125,0.00011571135798580912,2.2440475756466028e-05,9.748069146257742e-06,-3.708569082169831e-05,6.6667,6.4667
0.9609375,0.00010985332416571298,1.2677086056305808e-05,4.7284893110553325e-07,-3.318033494163422e-05,6.6667,6.4667
0.96484375,0.00013279728996108952,2.9274848546578178e-05,2.7322170606546137e-05,-3.464484339665826e-05,6.6667,6.4667
0.96875,0.00017136267927672237,3.8550068761730395e-05,2.0975967301441994e-05,-3.073948751659417e-05,6.6667,6.4667
0.97265625,5.71005091920348e-05,2.829850957656216e-05,2.3904984211490058e-05,-3.855019927672234e-05,6.6667,6.4667
0.9765625,3.8550068761730395e-05,5.8076848162050824e-05,3.5132882366674316e-05,-3.415667391165024e-05,6.6667,6.4667
0.98046875,0.00012547474768596933,5.368332279697873e-05,2.292864524147404e-05,-2.634596215152207e-05,6.6667,6.4667
0.984375,7.90986466102083e-05,3.3668373911650276e-05,3.952640773174641e-05,-3.025131803158616e-05,6.6667,6.4667
0.98828125,6.344671249713895e-05,3.7573729791714366e-05,6.149403455710691e-05,-3.025131803158616e-05,6.6667,6.4667
0.9921875,6.640624000000002e-05,2.829850957656216e-05,3.562105185168232e-05,-3.073948751659417e-05,6.6667,6.4667
0.99609375,8.983837528038453e-05,3.952640773174641e-05,1.0724408116273763e-05,-3.65975213366903e-05,6.6667,6.4667
1.0,6.835891794003205e-05,2.976301803158619e-05,3.0251187516594204e-05,-3.9038368761730354e-05,6.6667,6.4667
1.00390625,3.318020442664227e-05,5.354543781185643e-06,4.245542464179448e-05,-3.9038368761730354e-05,6.6667,6.4667
1.0078125,3.8550068761730395e-05,2.292864524147404e-05,1.4629763996337851e-05,-4.09910467017624e-05,6.6667,6.4667
1.01171875,2.0975967301441994e-05,5.5636000737010774e-05,3.90382382467384e-05,-4.1479216186770404e-05,6.6667,6.4667
1.015625,7.03115958800641e-05,6.149403455710691e-05,5.612417022201878e-05,-4.636091103685052e-05,6.6667,6.4667
1.01953125,8.78856973403525e-05,2.6345831636530114e-05,1.9999628331425975e-05,-4.97780974319066e-05,6.6667,6.4667
1.0234375,5.954135661707486e-05,-1.5320553902477717e-08,1.4629763996337851e-05,-4.3431894126802455e-05,6.6667,6.4667
1.02734375,1.2677086056305808e-05,2.5369492666514095e-05,6.819052236209676e-06,-3.9038368761730354e-05,6.6667,6.4667
1.03125,4.378204811169621e-06,3.171569597161824e-05,1.755878090638592e-05,-4.1479216186770404e-05,6.6667,6.4667
1.03515625,5.856501764705884e-05,1.8046950391393927e-05,3.5132882366674316e-05,-4.53845720668345e-05,6.6667,6.4667
1.0390625,2.829850957656216e-05,1.3165255541313818e-05,3.659739082169834e-05,-4.3431894126802455e-05,6.6667,6.4667
1.04296875,3.220386545662624e-05,2.7810340091554148e-05,3.8550068761730395e-05,-5.0266266916914606e-05,6.6667,6.4667
1.046875,4.831345846189061e-05,4.7825288976882595e-05,8.283560691233709e-06,-4.9289927946898583e-05,6.6667,6.4667
1.05078125,3.1227526486610226e-05,3.610922133669034e-05,2.2440475756466028e-05,-4.2943724641794444e-05,6.6667,6.4667
1.0546875,6.442305146715498e-05,4.4896272066834534e-05,6.295854301213094e-05,-4.1479216186770404e-05,6.6667,6.4667
1.05859375,7.079976536507211e-05,4.977796691691464e-05,5.66123397070268e-05,-4.196738567177842e-05,6.6667,6.4667
1.0625,2.488132318150608e-05,2.5369492666514095e-05,4.050274670176243e-05,-4.392006361181047e-05,6.6667,6.4667
1.06640625,-2.9138268711375426e-06,3.7573729791714366e-05,4.34317636118105e-05,-4.2943724641794444e-05,6.6667,6.4667
1.0703125,2.7810340091554148e-05,4.245542464179448e-05,4.050274670176243e-05,-4.392006361181047e-05,6.6667,6.4667
1.07421875,6.539939043717099e-05,2.5857662151522106e-05,1.365342502632183e-05,-4.53845720668345e-05,6.6667,6.4667
1.078125,7.861047712520029e-05,3.7085560306706354e-05,1.8046950391393927e-05,-4.5872741551842505e-05,6.6667,6.4667
1.08203125,6.198220404211491e-05,3.562105185168232e-05,2.7322170606546137e-05,-4.2455555156786426e-05,6.6667,6.4667
1.0859375,-1.7070741936369862e-05,2.3416814726482047e-05,3.8550068761730395e-05,-3.9526538246738366e-05,6.6667,6.4667
1.08984375,2.6345831636530114e-05,5.026613640192266e-05,3.952640773174641e-05,-3.415667391165024e-05,6.6667,6.4667
1.09375,0.0001010662734355688,5.905318713206685e-05,4.9289797431906635e-05,-3.562118236667428e-05,6.6667,6.4667
1.09765625,5.417149228198674e-05,4.196725515678646e-05,6.393488198214696e-05,-4.001470773174638e-05,6.6667,6.4667
1.1015625,1.8535119876401938e-05,2.439315369649807e-05,3.8550068761730395e-05,-4.3431894126802455e-05,6.6667,6.4667
1.10546875,-1.3653555541313785e-05,3.1227526486610226e-05,3.46447128816663e-05,-4.489640258182648e-05,6.6667,6.4667
1.109375,6.884708742504007e-05,4.294359412680248e-05,2.7322170606546137e-05,-4.196738567177842e-05,6.6667,6.4667
1.11328125,0.0001015544429205768,2.7322170606546137e-05,-2.9138268711375426e-06,-4.09910467017624e-05,6.6667,6.4667
1.1171875,6.247037352712293e-05,5.354543781185643e-06,-1.44931841611351e-06,-4.636091103685052e-05,6.6667,6.4667
1.12109375,1.9999628331425975e-05,8.283560691233709e-06,3.890035326161609e-06,-4.196738567177842e-05,6.6667,6.4667
1.125,3.401865841153599e-06,3.269203494163426e-05,2.439315369649807e-05,-3.1715826486610186e-05,6.6667,6.4667
1.12890625,3.269203494163426e-05,3.90382382467384e-05,4.1479085671778456e-05,-3.5133012881666264e-05,6.6667,6.4667
1.1328125,3.7085560306706354e-05,2.878667906157017e-05,4.050274670176243e-05,-3.65975213366903e-05,6.6667,6.4667
1.13671875,2.5369492666514095e-05,1.5117933481345863e-05,3.90382382467384e-05,-3.366850442664224e-05,6.6667,6.4667
1.140625,-1.8535250391393893e-05,-1.5320553902477717e-08,3.610922133669034e-05,-3.2692165456626215e-05,6.6667,6.4667
1.14453125,-3.366850442664224e-05,9.748069146257742e-06,4.1479085671778456e-05,-3.464484339665826e-05,6.6667,6.4667
1.1484375,-1.2189047086289752e-05,2.878667906157017e-05,4.196725515678646e-05,-3.464484339665826e-05,6.6667,6.4667
1.15234375,3.401865841153599e-06,2.6345831636530114e-05,1.365342502632183e-05,-3.562118236667428e-05,6.6667,6.4667
1.15625,1.4141594511329842e-05,2.3904984211490058e-05,2.1952306271458016e-05,-3.610935185168229e-05,6.6667,6.4667
1.16015625,-4.09910467017624e-05,3.0251187516594204e-05,5.368332279697873e-05,-3.122765700160218e-05,6.6667,6.4667
1.1640625,-3.22039959716182e-05,2.878667906157017e-05,2.488132318150608e-05,-2.732230112153809e-05,6.6667,6.4667
1.16796875,3.171569597161824e-05,1.4629763996337851e-05,2.6345831636530114e-05,-2.9763148546578148e-05,6.6667,6.4667
1.171875,3.4156543396658294e-05,1.6582441936369896e-05,4.636078052185856e-05,-3.464484339665826e-05,6.6667,6.4667
1.17578125,1.5606102966353874e-05,3.3668373911650276e-05,4.001457721675442e-05,-3.464484339665826e-05,6.6667,6.4667
1.1796875,-3.122765700160218e-05,3.8550068761730395e-05,4.245542464179448e-05,-3.5133012881666264e-05,6.6667,6.4667
1.18359375,-2.195243678644997e-05,2.292864524147404e-05,3.5132882366674316e-05,-3.366850442664224e-05,6.6667,6.4667
1.1875,-2.146426730144196e-05,2.878667906157017e-05,8.77173017624172e-06,-2.634596215152207e-05,6.6667,6.4667
1.19140625,-3.415667391165024e-05,4.538444155184254e-05,1.755878090638592e-05,-2.195243678644997e-05,6.6667,6.4667
1.1953125,-1.3165386056305774e-05,3.5132882366674316e-05,3.5132882366674316e-05,-2.488145369649804e-05,6.6667,6.4667
1.19921875,-4.5872741551842505e-05,2.3416814726482047e-05,4.245542464179448e-05,-3.073948751659417e-05,6.6667,6.4667
1.203125,-1.8535250391393893e-05,3.7573729791714366e-05,2.6345831636530114e-05,-4.050287721675439e-05,6.6667,6.4667
1.20703125,2.2440475756466028e-05,2.976301803158619e-05,2.5369492666514095e-05,-4.5872741551842505e-05,6.6667,6.4667
1.2109375,2.913696356145588e-06,-1.937487901121521e-06,4.001457721675442e-05,-3.65975213366903e-05,6.6667,6.4667
1.21484375,-2.2440606271457983e-05,3.7085560306706354e-05,5.270698382696271e-05,-2.8298640091554114e-05,6.6667,6.4667
1.21875,-1.072453863126572e-05,7.51932907301442e-05,6.933525691004809e-05,-2.488145369649804e-05,6.6667,6.4667
1.22265625,4.7284893110553325e-07,2.976301803158619e-05,4.294359412680248e-05,-2.683413163653008e-05,6.6667,6.4667
1.2265625,-1.560623348134583e-05,1.1700747086289786e-05,2.439315369649807e-05,-2.8298640091554114e-05,6.6667,6.4667
1.23046875,4.378204811169621e-06,3.952640773174641e-05,3.610922133669034e-05,-2.488145369649804e-05,6.6667,6.4667
1.234375,-9.748199661249696e-06,3.7085560306706354e-05,4.636078052185856e-05,-3.122765700160218e-05,6.6667,6.4667
1.23828125,-3.318033494163422e-05,2.7810340091554148e-05,5.075430588693066e-05,-3.2692165456626215e-05,6.6667,6.4667
1.2421875,-1.7070741936369862e-05,1.8046950391393927e-05,3.3668373911650276e-05,-2.8786809576562122e-05,6.6667,6.4667
1.24609375,2.4255268711375773e-06,2.0487797816433986e-05,3.890035326161609e-06,-3.22039959716182e-05,6.6667,6.4667
1.25,9.259899661249731e-06,2.6345831636530114e-05,1.8046950391393927e-05,-3.1715826486610186e-05,6.6667,6.4667
1.25390625,-7.275257382009612e-05,2.9274848546578178e-05,3.806189927672238e-05,-3.464484339665826e-05,6.6667,6.4667
1.2578125,-7.421708227512015e-05,3.659739082169834e-05,4.831345846189061e-05,-2.8786809576562122e-05,6.6667,6.4667
1.26171875,-7.795521721217652e-06,2.3904984211490058e-05,4.636078052185856e-05,-2.8786809576562122e-05,6.6667,6.4667
1.265625,-1.999975884641793e-05,8.283560691233709e-06,2.2440475756466028e-05,-2.9763148546578148e-05,6.6667,6.4667
1.26953125,-4.09910467017624e-05,2.976301803158619e-05,3.1227526486610226e-05,-1.9023419876401904e-05,6.6667,6.4667
1.2734375,-4.001470773174638e-05,5.319515331197072e-05,3.269203494163426e-05,-2.3416945241474e-05,6.6667,6.4667
1.27734375,-7.795521721217652e-06,4.440810258182652e-05,5.319515331197072e-05,-2.9274979061570133e-05,6.6667,6.4667
1.28125,-4.53845720668345e-05,3.3668373911650276e-05,6.835891794003205e-05,-2.732230112153809e-05,6.6667,6.4667
1.28515625,-8.153962455024032e-05,4.196725515678646e-05,2.6345831636530114e-05,-2.7810470606546103e-05,6.6667,6.4667
1.2890625,-8.788582785534446e-05,2.878667906157017e-05,-2.2440606271457983e-05,-3.366850442664224e-05,6.6667,6.4667
1.29296875,-0.00010057823446555274,1.0236238631265752e-05,2.4255268711375773e-06,-3.415667391165024e-05,6.6667,6.4667
1.296875,-2.683413163653008e-05,1.9999628331425975e-05,4.245542464179448e-05,-2.732230112153809e-05,6.6667,6.4667
1.30078125,-9.61148931105499e-07,3.5132882366674316e-05,2.5369492666514095e-05,-2.5857792666514058e-05,6.6667,6.4667
1.3046875,-3.2692165456626215e-05,1.2677086056305808e-05,1.8046950391393927e-05,-2.536962318150605e-05,6.6667,6.4667
1.30859375,-7.714609918516821e-05,-2.2440606271457983e-05,1.3165255541313818e-05,-3.122765700160218e-05,6.6667,6.4667
1.3125,-6.0029656617074824e-05,2.0487797816433986e-05,1.8535119876401938e-05,-3.025131803158616e-05,6.6667,6.4667
1.31640625,-2.195243678644997e-05,5.758867867704282e-05,4.636078052185856e-05,-2.3905114726482013e-05,6.6667,6.4667
1.3203125,-5.85651481620508e-05,5.417149228198674e-05,2.439315369649807e-05,-2.488145369649804e-05,6.6667,6.4667
1.32421875,-6.884721794003202e-05,4.7825288976882595e-05,1.3165255541313818e-05,-2.536962318150605e-05,6.6667,6.4667
1.328125,-7.861060764019224e-05,2.6345831636530114e-05,1.7070611421377907e-05,-3.073948751659417e-05,6.6667,6.4667
1.33203125,-9.03266752803845e-05,2.7810340091554148e-05,2.1464136786450005e-05,-2.9763148546578148e-05,6.6667,6.4667
1.3359375,-5.90533176470588e-05,2.5857662151522106e-05,4.9289797431906635e-05,-2.732230112153809e-05,6.6667,6.4667
1.33984375,-4.09910467017624e-05,1.6094272451361885e-05,4.636078052185856e-05,-2.9763148546578148e-05,6.6667,6.4667
1.34375,-4.831358897688256e-05,4.866374296177632e-06,1.3165255541313818e-05,-2.732230112153809e-05,6.6667,6.4667
1.34765625,-0.0001249867087159533,9.748069146257742e-06,-2.9138268711375426e-06,-2.9763148546578148e-05,6.6667,6.4667
1.3515625,-0.00010155457343556876,2.9274848546578178e-05,1.4629763996337851e-05,-2.8786809576562122e-05,6.6667,6.4667
1.35546875,5.842713266193654e-06,3.7085560306706354e-05,3.4156543396658294e-05,-2.2440606271457983e-05,6.6667,6.4667
1.359375,-1.121270811627373e-05,4.4896272066834534e-05,1.902328936140995e-05,-2.2928775756465994e-05,6.6667,6.4667
1.36328125,-4.489640258182648e-05,4.636078052185856e-05,1.0236238631265752e-05,-2.0487928331425938e-05,6.6667,6.4667
1.3671875,-7.324074330510412e-05,9.748069146257742e-06,9.259899661249731e-06,-2.146426730144196e-05,6.6667,6.4667
1.37109375,-5.3683453311970684e-05,1.9999628331425975e-05,2.439315369649807e-05,-2.4393284211490024e-05,6.6667,6.4667
1.375,-2.4393284211490024e-05,4.0990916186770444e-05,3.220386545662624e-05,-2.488145369649804e-05,6.6667,6.4667
1.37890625,-4.09910467017624e-05,1.1212577601281776e-05,2.6834001121538125e-05,-2.9274979061570133e-05,6.6667,6.4667
1.3828125,-6.29586735271229e-05,1.5606102966353874e-05,2.3904984211490058e-05,-2.9274979061570133e-05,6.6667,6.4667
1.38671875,-0.00010253091240558478,3.318020442664227e-05,4.1479085671778456e-05,-2.8298640091554114e-05,6.6667,6.4667
1.390625,-3.025131803158616e-05,4.34317636118105e-05,4.7337119491874584e-05,-2.8786809576562122e-05,6.6667,6.4667
1.39453125,1.951145884641796e-05,4.440810258182652e-05,2.829850957656216e-05,-2.0487928331425938e-05,6.6667,6.4667
1.3984375,-1.755891142137787e-05,4.0990916186770444e-05,2.829850957656216e-05,-1.9023419876401904e-05,6.6667,6.4667
1.40234375,-5.4171622796978696e-05,1.951145884641796e-05,3.0251187516594204e-05,-2.2928775756465994e-05,6.6667,6.4667
1.40625,-6.34468430121309e-05,2.3416814726482047e-05,2.7322170606546137e-05,-1.5118063996337817e-05,6.6667,6.4667
1.41015625,-3.22039959716182e-05,3.7085560306706354e-05,2.7322170606546137e-05,-1.560623348134583e-05,6.6667,6.4667
1.4140625,-6.819182751201631e-06,3.7085560306706354e-05,2.2440475756466028e-05,-1.9023419876401904e-05,6.6667,6.4667
1.41796875,-6.3310132661936195e-06,5.2218814341954696e-05,2.2440475756466028e-05,-1.8535250391393893e-05,6.6667,6.4667
1.421875,-5.6612470222018745e-05,4.636078052185856e-05,3.7573729791714366e-05,-1.9023419876401904e-05,6.6667,6.4667
1.42578125,-7.372891279011213e-05,3.562105185168232e-05,2.976301803158619e-05,-1.5118063996337817e-05,6.6667,6.4667
1.4296875,-4.3431894126802455e-05,3.562105185168232e-05,2.2440475756466028e-05,-1.3165386056305774e-05,6.6667,6.4667
1.43359375,-1.560623348134583e-05,2.292864524147404e-05,4.831345846189061e-05,-9.260030176241686e-06,6.6667,6.4667
1.4375,1.7070611421377907e-05,2.439315369649807e-05,5.270698382696271e-05,-8.283691206225664e-06,6.6667,6.4667
1.44140625,-6.738270948500799e-05,2.9274848546578178e-05,3.269203494163426e-05,-1.3653555541313785e-05,6.6667,6.4667
1.4453125,-8.837399734035246e-05,1.9999628331425975e-05,2.829850957656216e-05,-1.2677216571297761e-05,6.6667,6.4667
1.44921875,2.7810340091554148e-05,1.8046950391393927e-05,3.171569597161824e-05,-1.121270811627373e-05,6.6667,6.4667
1.453125,3.4156543396658294e-05,4.391993309681851e-05,3.318020442664227e-05,-9.748199661249696e-06,6.6667,6.4667
1.45703125,7.795391206225697e-06,3.806189927672238e-05,3.4156543396658294e-05,-9.748199661249696e-06,6.6667,6.4667
1.4609375,-2.3416945241474e-05,1.755878090638592e-05,3.562105185168232e-05,-1.170087760128174e-05,6.6667,6.4667
1.46484375,-3.890165841153565e-06,4.684895000686658e-05,4.1479085671778456e-05,-7.795521721217652e-06,6.6667,6.4667
1.46875,-8.283691206225664e-06,4.9289797431906635e-05,4.245542464179448e-05,-1.170087760128174e-05,6.6667,6.4667
1.47265625,-3.366850442664224e-05,9.259899661249731e-06,2.5857662151522106e-05,-1.999975884641793e-05,6.6667,6.4667
1.4765625,-3.757386030670632e-05,1.4141594511329842e-05,2.1464136786450005e-05,-1.999975884641793e-05,6.6667,6.4667
1.48046875,-3.562118236667428e-05,2.7322170606546137e-05,3.7573729791714366e-05,-1.755891142137787e-05,6.6667,6.4667
1.484375,-4.866504811169587e-06,3.171569597161824e-05,2.878667906157017e-05,-1.7070741936369862e-05,6.6667,6.4667
1.48828125,8.283560691233709e-06,4.977796691691464e-05,1.9999628331425975e-05,-1.951158936140992e-05,6.6667,6.4667
1.4921875,1.951145884641796e-05,3.0739357001602215e-05,2.439315369649807e-05,-1.9023419876401904e-05,6.6667,6.4667
1.49609375,-2.2928775756465994e-05,1.1700747086289786e-05,3.4156543396658294e-05,-1.999975884641793e-05,6.6667,6.4667
1.5,-7.079989588006407e-05,3.610922133669034e-05,4.245542464179448e-05,-1.999975884641793e-05,6.6667,6.4667
1.50390625,-9.748199661249696e-06,4.001457721675442e-05,4.245542464179448e-05,-1.121270811627373e-05,6.6667,6.4667
1.5078125,3.659739082169834e-05,2.292864524147404e-05,2.292864524147404e-05,-9.260030176241686e-06,6.6667,6.4667
1.51171875,3.610922133669034e-05,2.439315369649807e-05,1.365342502632183e-05,-1.0236369146257707e-05,6.6667,6.4667
1.515625,-1.3165386056305774e-05,2.292864524147404e-05,2.3416814726482047e-05,-1.7070741936369862e-05,6.6667,6.4667
1.51953125,-3.757386030670632e-05,1.9999628331425975e-05,9.259899661249731e-06,-1.658257245136185e-05,6.6667,6.4667
1.5234375,-3.890165841153565e-06,1.4141594511329842e-05,1.365342502632183e-05,-1.121270811627373e-05,6.6667,6.4667
1.52734375,1.1212577601281776e-05,2.878667906157017e-05,3.4156543396658294e-05,-9.260030176241686e-06,6.6667,6.4667
1.53125,5.8076848162050824e-05,5.514783125200276e-05,4.196725515678646e-05,-5.842843781185608e-06,6.6667,6.4667
1.53515625,-9.61148931105499e-07,5.075430588693066e-05,3.3668373911650276e-05,-9.748199661249696e-06,6.6667,6.4667
1.5390625,-2.5857792666514058e-05,4.196725515678646e-05,1.8046950391393927e-05,-1.4629894511329806e-05,6.6667,6.4667
1.54296875,4.9289797431906635e-05,1.1700747086289786e-05,2.5369492666514095e-05,-1.2189047086289752e-05,6.6667,6.4667
1.546875,4.684895000686658e-05,2.6345831636530114e-05,4.391993309681851e-05,-7.795521721217652e-06,6.6667,6.4667
1.55078125,3.8550068761730395e-05,5.514783125200276e-05,2.878667906157017e-05,-6.3310132661936195e-06,6.6667,6.4667
1.5546875,2.439315369649807e-05,4.001457721675442e-05,4.391993309681851e-05,-6.819182751201631e-06,6.6667,6.4667
1.55859375,8.77173017624172e-06,3.269203494163426e-05,5.1730644856946685e-05,-1.3653555541313785e-05,6.6667,6.4667
1.5625,1.2677086056305808e-05,3.269203494163426e-05,2.439315369649807e-05,-1.4629894511329806e-05,6.6667,6.4667
1.56640625,2.292864524147404e-05,3.562105185168232e-05,4.050274670176243e-05,-7.795521721217652e-06,6.6667,6.4667
1.5703125,5.354543781185643e-06,3.220386545662624e-05,3.220386545662624e-05,-6.819182751201631e-06,6.6667,6.4667
1.57421875,9.259899661249731e-06,3.610922133669034e-05,2.488132318150608e-05,-3.890165841153565e-06,6.6667,6.4667
1.578125,6.491122095216298e-05,3.952640773174641e-05,3.610922133669034e-05,-4.3783353261615755e-06,6.6667,6.4667
1.58203125,7.079976536507211e-05,3.1227526486610226e-05,3.659739082169834e-05,-6.819182751201631e-06,6.6667,6.4667
1.5859375,5.71005091920348e-05,2.6345831636530114e-05,2.9274848546578178e-05,-4.866504811169587e-06,6.6667,6.4667
1.58984375,2.2440475756466028e-05,3.1227526486610226e-05,1.0724408116273763e-05,-1.072453863126572e-05,6.6667,6.4667
1.59375,2.292864524147404e-05,2.0487797816433986e-05,1.6094272451361885e-05,-1.3653555541313785e-05,6.6667,6.4667
1.59765625,8.251583300526438e-05,5.842713266193654e-06,3.8550068761730395e-05,-3.401996356145554e-06,6.6667,6.4667
1.6015625,6.442305146715498e-05,1.7070611421377907e-05,4.196725515678646e-05,-1.937487901121521e-06,6.6667,6.4667
1.60546875,4.880162794689862e-05,3.220386545662624e-05,2.5369492666514095e-05,-6.819182751201631e-06,6.6667,6.4667
1.609375,3.0739357001602215e-05,3.3668373911650276e-05,7.795391206225697e-06,-9.748199661249696e-06,6.6667,6.4667
1.61328125,3.4156543396658294e-05,3.171569597161824e-05,1.951145884641796e-05,-7.307352236209642e-06,6.6667,6.4667
1.6171875,5.465966176699475e-05,4.196725515678646e-05,4.440810258182652e-05,-3.401996356145554e-06,6.6667,6.4667
1.62109375,4.7337119491874584e-05,5.026613640192266e-05,5.026613640192266e-05,-5.842843781185608e-06,6.6667,6.4667
1.625,6.982342639505609e-05,3.269203494163426e-05,3.952640773174641e-05,-1.44931841611351e-06,6.6667,6.4667
1.62890625,2.976301803158619e-05,2.488132318150608e-05,3.318020442664227e-05,9.610184161135442e-07,6.6667,6.4667
1.6328125,4.7337119491874584e-05,4.391993309681851e-05,4.391993309681851e-05,-1.937487901121521e-06,6.6667,6.4667
1.63671875,0.00014011983223620968,5.612417022201878e-05,4.245542464179448e-05,-9.61148931105499e-07,6.6667,6.4667
1.640625,0.00010448345983062488,3.318020442664227e-05,3.7573729791714366e-05,-5.842843781185608e-06,6.6667,6.4667
1.64453125,7.763413815518427e-05,1.8535119876401938e-05,4.440810258182652e-05,-4.3783353261615755e-06,6.6667,6.4667
1.6484375,7.42169517601282e-05,3.318020442664227e-05,3.4156543396658294e-05,-1.937487901121521e-06,6.6667,6.4667
1.65234375,0.0001274274256260014,4.440810258182652e-05,3.952640773174641e-05,2.4255268711375773e-06,6.6667,6.4667
1.65625,0.00013767898481116962,4.391993309681851e-05,5.026613640192266e-05,4.378204811169621e-06,6.6667,6.4667
1.66015625,9.276739219043261e-05,3.5132882366674316e-05,4.0990916186770444e-05,9.610184161135442e-07,6.6667,6.4667
1.6640625,6.640624000000002e-05,2.5369492666514095e-05,2.1952306271458016e-05,-6.819182751201631e-06,6.6667,6.4667
1.66796875,3.659739082169834e-05,2.488132318150608e-05,5.354543781185643e-06,-1.4141725026321795e-05,6.6667,6.4667
1.671875,0.00012010488335088121,4.9289797431906635e-05,1.6582441936369896e-05,-2.425657386129532e-06,6.6667,6.4667
1.67578125,0.00016648098442664225,6.787074845502406e-05,4.880162794689862e-05,2.913696356145588e-06,6.6667,6.4667
1.6796875,0.0001586702726665141,4.391993309681851e-05,5.954135661707486e-05,1.937357386129566e-06,6.6667,6.4667
1.68359375,0.00012693925614099338,2.878667906157017e-05,3.269203494163426e-05,9.610184161135442e-07,6.6667,6.4667
1.6875,0.00011082966313572902,2.5369492666514095e-05,2.1464136786450005e-05,-4.3783353261615755e-06,6.6667,6.4667
1.69140625,0.00016599281494163425,2.6834001121538125e-05,3.220386545662624e-05,-4.866504811169587e-06,6.6667,6.4667
1.6953125,0.00016501647597161822,2.3904984211490058e-05,3.952640773174641e-05,-2.425657386129532e-06,6.6667,6.4667
1.69921875,0.0001284037645960174,1.8535119876401938e-05,4.050274670176243e-05,-1.44931841611351e-06,6.6667,6.4667
1.703125,0.00010253078189059284,3.0739357001602215e-05,1.5606102966353874e-05,-2.9138268711375426e-06,6.6667,6.4667
1.70703125,0.00012254573077592128,5.954135661707486e-05,2.9274848546578178e-05,-1.937487901121521e-06,6.6667,6.4667
1.7109375,0.00015232406936140994,4.245542464179448e-05,3.220386545662624e-05,-1.44931841611351e-06,6.6667,6.4667
1.71484375,0.00017331535721675442,1.4629763996337851e-05,9.259899661249731e-06,-4.72979446097488e-07,6.6667,6.4667
1.71875,0.00020605322330510416,1.5117933481345863e-05,2.2440475756466028e-05,-6.3310132661936195e-06,6.6667,6.4667
1.72265625,9.569640910048068e-05,-1.121270811627373e-05,2.292864524147404e-05,-7.795521721217652e-06,6.6667,6.4667
1.7265625,9.61845785854887e-05,-1.937487901121521e-06,3.890035326161609e-06,-2.425657386129532e-06,6.6667,6.4667
1.73046875,0.00019186579764705886,5.319515331197072e-05,1.3165255541313818e-05,-4.72979446097488e-07,6.6667,6.4667
1.734375,0.0001855195943419547,6.10058650720989e-05,2.5857662151522106e-05,-9.61148931105499e-07,6.6667,6.4667
1.73828125,0.00019821200095216298,4.050274670176243e-05,3.0251187516594204e-05,4.7284893110553325e-07,6.6667,6.4667
1.7421875,0.00016062295060654614,2.829850957656216e-05,1.755878090638592e-05,1.4491879011215552e-06,6.6667,6.4667
1.74609375,0.00016843366236667432,3.0739357001602215e-05,3.401865841153599e-06,4.7284893110553325e-07,6.6667,6.4667
1.75,0.00017136267927672237,3.90382382467384e-05,1.2188916571297797e-05,5.842713266193654e-06,6.6667,6.4667
1.75390625,0.00017233901824673838,4.001457721675442e-05,4.4896272066834534e-05,6.819052236209676e-06,6.6667,6.4667
1.7578125,0.0001816142384618906,2.292864524147404e-05,5.71005091920348e-05,2.4255268711375773e-06,6.6667,6.4667
1.76171875,0.0001410961712062257,2.913696356145588e-06,9.259899661249731e-06,-3.890165841153565e-06,6.6667,6.4667
1.765625,0.0001811260689768826,2.488132318150608e-05,-1.5118063996337817e-05,-2.425657386129532e-06,6.6667,6.4667
1.76953125,0.00023192620601052873,2.5857662151522106e-05,-6.819182751201631e-06,3.890035326161609e-06,6.6667,6.4667
1.7734375,0.00024168959571068896,1.8535119876401938e-05,1.937357386129566e-06,4.866374296177632e-06,6.6667,6.4667
1.77734375,0.0002041005453650721,3.659739082169834e-05,1.2677086056305808e-05,2.4255268711375773e-06,6.6667,6.4667
1.78125,0.00017282718773174643,1.6094272451361885e-05,7.795391206225697e-06,3.890035326161609e-06,6.6667,6.4667
1.78515625,0.00018991311970702678,-6.819182751201631e-06,9.748069146257742e-06,9.259899661249731e-06,6.6667,6.4667
1.7890625,0.00014695420502632182,2.7810340091554148e-05,3.5132882366674316e-05,6.819052236209676e-06,6.6667,6.4667
1.79296875,0.00016745732339665828,4.391993309681851e-05,3.610922133669034e-05,3.401865841153599e-06,6.6667,6.4667
1.796875,0.0001591584421515221,3.5132882366674316e-05,4.294359412680248e-05,3.890035326161609e-06,6.6667,6.4667
1.80078125,0.00013816715429617763,3.220386545662624e-05,4.831345846189061e-05,8.283560691233709e-06,6.6667,6.4667
1.8046875,0.00017429169618677045,2.3416814726482047e-05,4.636078052185856e-05,9.748069146257742e-06,6.6667,6.4667
1.80859375,0.0001718508487617304,3.3668373911650276e-05,5.2218814341954696e-05,6.819052236209676e-06,6.6667,6.4667
1.8125,0.00020556505382009614,5.026613640192266e-05,4.636078052185856e-05,1.1212577601281776e-05,6.6667,6.4667
1.81640625,0.0001508595609063859,3.46447128816663e-05,3.7573729791714366e-05,1.4141594511329842e-05,6.6667,6.4667
1.8203125,0.00012059305283588923,1.755878090638592e-05,1.8535119876401938e-05,4.866374296177632e-06,6.6667,6.4667
1.82421875,0.00017136267927672237,2.0975967301441994e-05,1.937357386129566e-06,9.610184161135442e-07,6.6667,6.4667
1.828125,0.00016745732339665828,3.171569597161824e-05,7.795391206225697e-06,4.866374296177632e-06,6.6667,6.4667
1.83203125,0.00016208745906157016,3.5132882366674316e-05,2.9274848546578178e-05,1.2677086056305808e-05,6.6667,6.4667
1.8359375,0.00013865532378118563,4.391993309681851e-05,4.0990916186770444e-05,2.0975967301441994e-05,6.6667,6.4667
1.83984375,0.00014793054399633786,5.2218814341954696e-05,2.292864524147404e-05,1.8046950391393927e-05,6.6667,6.4667
1.84375,0.00013963166275120166,4.538444155184254e-05,1.1700747086289786e-05,1.5117933481345863e-05,6.6667,6.4667
1.84765625,0.00011766403592584118,2.1464136786450005e-05,1.1700747086289786e-05,1.2677086056305808e-05,6.6667,6.4667
1.8515625,0.000110341493650721,1.4629763996337851e-05,-1.121270811627373e-05,1.365342502632183e-05,6.6667,6.4667
1.85546875,0.00011668769695582514,-1.44931841611351e-06,-4.001470773174638e-05,7.307221721217687e-06,6.6667,6.4667
1.859375,0.00014939505245136189,-3.610935185168229e-05,-4.2455555156786426e-05,1.1212577601281776e-05,6.6667,6.4667
1.86328125,0.00013914349326619364,-6.588769043717095e-05,-7.665792970016021e-05,2.1952306271458016e-05,6.6667,6.4667
1.8671875,0.0001284037645960174,-0.00012889206459601736,-0.00015085969142137788,2.7810340091554148e-05,6.6667,6.4667
1.87109375,9.862542601052873e-05,-0.00016696928442664225,-0.0001655047759716182,3.318020442664227e-05,6.6667,6.4667
1.875,6.738257897001604e-05,-0.00018893691125200274,-0.0001923540976470588,2.9274848546578178e-05,6.6667,6.4667
1.87890625,0.00016013478112153812,-0.00022069843837033644,-0.00023534352292057677,4.34317636118105e-05,6.6667,6.4667
1.8828125,0.0001679454928816663,-0.00028513681039139387,-0.00027195623429617763,5.075430588693066e-05,6.6667,6.4667
1.88671875,0.00014011983223620968,-0.00034033047279011214,-0.0003378896253650721,4.9289797431906635e-05,6.6667,6.4667
1.890625,0.00013035644253604946,-0.0003442358286701762,-0.0003828012179858091,5.270698382696271e-05,6.6667,6.4667
1.89453125,0.00012938010356603342,-0.0003569282352803845,-0.00038328938747081713,4.880162794689862e-05,6.6667,6.4667
1.8984375,0.00016062295060654614,-0.00036669162498054474,-0.0003691324724055848,5.66123397070268e-05,6.6667,6.4667
1.90234375,0.0001640401370016022,-0.0003535110488853284,-0.00038231304850080104,6.787074845502406e-05,6.6667,6.4667
1.90625,0.00016013478112153812,-0.0003271193861020828,-0.00036229809961547266,5.66123397070268e-05,6.6667,6.4667
1.91015625,0.00010350712086060884,-0.00030954528464179445,-0.00032516670816205075,5.856501764705884e-05,6.6667,6.4667
1.9140625,0.00010350712086060884,-0.0002646336920210574,-0.00030368725082169834,6.295854301213094e-05,6.6667,6.4667
1.91796875,0.0001689218318516823,-0.0002329026754955367,-0.00024461874313572895,4.7825288976882595e-05,6.6667,6.4667
1.921875,0.00016013478112153812,-0.0002060533538200961,-0.00021093504867017622,4.440810258182652e-05,6.6667,6.4667
1.92578125,9.569640910048068e-05,-0.00015769406421149002,-0.00018649606382696267,3.806189927672238e-05,6.6667,6.4667
1.9296875,8.398034146028841e-05,-0.00011522331901579306,-0.00015085969142137788,2.829850957656216e-05,6.6667,6.4667
1.93359375,0.00010985332416571298,-0.0001074126072556649,-0.0001249867087159533,2.488132318150608e-05,6.6667,6.4667
1.9375,4.977796691691464e-05,-7.616976021515219e-05,-8.007511609521628e-05,2.439315369649807e-05,6.6667,6.4667
1.94140625,-4.3783353261615755e-06,-1.3653555541313785e-05,-3.464484339665826e-05,2.1464136786450005e-05,6.6667,6.4667
1.9453125,-7.795521721217652e-06,-3.401996356145554e-06,-4.196738567177842e-05,1.2188916571297797e-05,6.6667,6.4667
1.94921875,-4.1479216186770404e-05,-1.937487901121521e-06,-2.195243678644997e-05,8.283560691233709e-06,6.6667,6.4667
1.953125,2.1464136786450005e-05,2.6834001121538125e-05,2.1464136786450005e-05,6.330882751201665e-06,6.6667,6.4667
1.95703125,6.5887559922179e-05,4.9289797431906635e-05,4.880162794689862e-05,7.795391206225697e-06,6.6667,6.4667
1.9609375,3.890035326161609e-06,9.081471425040057e-05,7.812230764019227e-05,1.1212577601281776e-05,6.6667,6.4667
1.96484375,-3.9038368761730354e-05,0.00011082966313572902,8.056315506523234e-05,5.354543781185643e-06,6.6667,6.4667
1.96875,-1.0236369146257707e-05,8.886203631036852e-05,8.78856973403525e-05,-5.842843781185608e-06,6.6667,6.4667
1.97265625,9.259899661249731e-06,0.00012547474768596933,0.00012352206974593728,9.610184161135442e-07,6.6667,6.4667
1.9765625,-4.001470773174638e-05,0.00014060800172121767,0.0001454896965712978,7.795391206225697e-06,6.6667,6.4667
1.98046875,-5.6612470222018745e-05,0.0001454896965712978,0.00015183589987640195,4.378204811169621e-06,6.6667,6.4667
1.984375,-8.935033631036849e-05,0.00015232406936140994,0.00015330040833142598,-3.401996356145554e-06,6.6667,6.4667
1.98828125,-8.349230249027235e-05,0.00014500152708628978,0.00015818210318150608,-6.819182751201631e-06,6.6667,6.4667
1.9921875,-5.954148713206682e-05,0.00014402518811627377,0.00016648098442664225,-4.3783353261615755e-06,6.6667,6.4667
1.99609375,-6.149416507209886e-05,0.00014695420502632182,0.00017087450979171435,-4.3783353261615755e-06,6.6667,6.4667
2.0,-3.610935185168229e-05,0.00017331535721675442,0.00017526803515678646,-5.354674296177598e-06,6.6667,6.4667
2.00390625,-0.00013719094584115356,0.00017429169618677045,0.00017331535721675442,-3.890165841153565e-06,6.6667,6.4667
2.0078125,-0.0001440253186312657,0.00015330040833142598,0.00015232406936140994,-6.3310132661936195e-06,6.6667,6.4667
2.01171875,-2.7810470606546103e-05,0.0001640401370016022,0.0001640401370016022,-9.260030176241686e-06,6.6667,6.4667
2.015625,-3.9526538246738366e-05,0.00019186579764705886,0.000199188339922179,-1.072453863126572e-05,6.6667,6.4667
2.01953125,-8.690948888532842e-05,0.0001894249502220188,0.00017966156052185857,-1.121270811627373e-05,6.6667,6.4667
2.0234375,-0.00011034162416571295,0.00015476491678645,0.00015720576421149007,-2.9138268711375426e-06,6.6667,6.4667
2.02734375,-6.247050404211488e-05,0.00015037139142137792,0.00016550464545662626,-4.72979446097488e-07,6.6667,6.4667
2.03125,-3.708569082169831e-05,0.00015037139142137792,0.00016452830648661023,-1.5320553902477717e-08,6.6667,6.4667
2.03515625,-3.708569082169831e-05,0.0001586702726665141,0.00016599281494163425,-9.61148931105499e-07,6.6667,6.4667
2.0390625,-3.122765700160218e-05,0.0001596466116365301,0.00014500152708628978,-5.354674296177598e-06,6.6667,6.4667
2.04296875,-5.0266266916914606e-05,0.0001191285443808652,0.00012498657820096134,-8.771860691233675e-06,6.6667,6.4667
2.046875,-9.61148931105499e-07,0.00014060800172121767,0.0001332854594460975,-1.072453863126572e-05,6.6667,6.4667
2.05078125,2.6834001121538125e-05,0.0001679454928816663,0.00014988322193636988,-1.44931841611351e-06,6.6667,6.4667
2.0546875,1.5606102966353874e-05,0.00015818210318150608,0.00016745732339665828,3.890035326161609e-06,6.6667,6.4667
2.05859375,-1.8535250391393893e-05,0.00016013478112153812,0.00016843366236667432,9.610184161135442e-07,6.6667,6.4667
2.0625,-4.684908052185853e-05,0.00013816715429617763,0.00013523813738612958,-2.425657386129532e-06,6.6667,6.4667
2.06640625,-7.307352236209642e-06,0.00012254573077592128,0.00012059305283588923,9.610184161135442e-07,6.6667,6.4667
2.0703125,-1.999975884641793e-05,0.00012205756129091327,0.00013865532378118563,2.4255268711375773e-06,6.6667,6.4667
2.07421875,-1.804708090638588e-05,0.0001240102392309453,0.00014060800172121767,1.937357386129566e-06,6.6667,6.4667
2.078125,-2.4393284211490024e-05,0.00013377362893110555,0.00013914349326619364,1.937357386129566e-06,6.6667,6.4667
2.08203125,-4.880175846189058e-05,0.00012889193408102543,0.00012693925614099338,-4.72979446097488e-07,6.6667,6.4667
2.0859375,-3.708569082169831e-05,0.00010936515468070498,0.00010790064622568095,-4.72979446097488e-07,6.6667,6.4667
2.08984375,-1.7070741936369862e-05,0.00010643613777065691,0.00011327051056076907,9.610184161135442e-07,6.6667,6.4667
2.09375,3.7085560306706354e-05,0.0001240102392309453,0.0001279155951110094,1.4491879011215552e-06,6.6667,6.4667
2.09765625,-5.319528382696267e-05,0.00012938010356603342,0.00012108122232089725,4.866374296177632e-06,6.6667,6.4667
2.1015625,-6.835904845502402e-05,0.00010643613777065691,9.520823961547266e-05,8.77173017624172e-06,6.6667,6.4667
2.10546875,3.806189927672238e-05,9.032654476539255e-05,8.886203631036852e-05,1.2677086056305808e-05,6.6667,6.4667
2.109375,1.7070611421377907e-05,0.00010008993446555277,0.00010204261240558482,1.0724408116273763e-05,6.6667,6.4667
2.11328125,9.748069146257742e-06,0.00010643613777065691,0.00010741247674067293,4.866374296177632e-06,6.6667,6.4667
2.1171875,3.890035326161609e-06,0.00011717586644083316,0.00011815220541084917,1.0236238631265752e-05,6.6667,6.4667
2.12109375,2.0975967301441994e-05,0.00011717586644083316,0.00011571135798580912,6.819052236209676e-06,6.6667,6.4667
2.125,1.4629763996337851e-05,7.812230764019227e-05,9.130288373540858e-05,1.4491879011215552e-06,6.6667,6.4667
2.12890625,9.259899661249731e-06,8.495668043030443e-05,9.71609175555047e-05,5.842713266193654e-06,6.6667,6.4667
2.1328125,2.3904984211490058e-05,0.00010545979880064089,0.00010741247674067293,1.0724408116273763e-05,6.6667,6.4667
2.13671875,-1.44931841611351e-06,0.00010350712086060884,9.179105322041659e-05,8.283560691233709e-06,6.6667,6.4667
2.140625,5.075430588693066e-05,9.61845785854887e-05,8.202766352025636e-05,5.354543781185643e-06,6.6667,6.4667
2.14453125,9.130288373540858e-05,9.179105322041659e-05,9.374373116044863e-05,4.866374296177632e-06,6.6667,6.4667
2.1484375,7.714596867017625e-05,0.00010838881571068896,9.911359549553675e-05,1.0724408116273763e-05,6.6667,6.4667
2.15234375,7.128793485008013e-05,8.935020579537654e-05,8.983837528038453e-05,1.0724408116273763e-05,6.6667,6.4667
2.15625,5.66123397070268e-05,7.90986466102083e-05,8.446851094529643e-05,2.913696356145588e-06,6.6667,6.4667
2.16015625,6.344671249713895e-05,7.616962970016024e-05,8.007498558022432e-05,5.354543781185643e-06,6.6667,6.4667
2.1640625,6.539939043717099e-05,7.324061279011216e-05,8.495668043030443e-05,6.819052236209676e-06,6.6667,6.4667
2.16796875,6.344671249713895e-05,8.30040024902724e-05,8.007498558022432e-05,4.866374296177632e-06,6.6667,6.4667
2.171875,5.270698382696271e-05,6.982342639505609e-05,6.982342639505609e-05,8.283560691233709e-06,6.6667,6.4667
2.17578125,3.220386545662624e-05,7.568146021515222e-05,8.251583300526438e-05,5.354543781185643e-06,6.6667,6.4667
2.1796875,3.4156543396658294e-05,8.983837528038453e-05,8.690935837033648e-05,1.3165255541313818e-05,6.6667,6.4667
2.18359375,7.372878227512018e-05,8.056315506523234e-05,7.665779918516825e-05,2.0487797816433986e-05,6.6667,6.4667
2.1875,8.153949403524835e-05,6.491122095216298e-05,6.393488198214696e-05,1.4629763996337851e-05,6.6667,6.4667
2.19140625,-9.61148931105499e-07,6.835891794003205e-05,5.124247537193867e-05,1.3165255541313818e-05,6.6667,6.4667
2.1953125,1.755878090638592e-05,7.665779918516825e-05,4.7337119491874584e-05,7.307221721217687e-06,6.6667,6.4667
2.19921875,9.179105322041659e-05,6.295854301213094e-05,7.665779918516825e-05,3.401865841153599e-06,6.6667,6.4667
2.203125,5.270698382696271e-05,4.831345846189061e-05,7.861047712520029e-05,4.866374296177632e-06,6.6667,6.4667
2.20703125,5.71005091920348e-05,8.398034146028841e-05,5.5636000737010774e-05,8.77173017624172e-06,6.6667,6.4667
2.2109375,5.417149228198674e-05,8.105132455024035e-05,5.905318713206685e-05,6.819052236209676e-06,6.6667,6.4667
2.21484375,7.226427382009615e-05,5.2218814341954696e-05,5.8076848162050824e-05,7.795391206225697e-06,6.6667,6.4667
2.21875,6.738257897001604e-05,6.247037352712293e-05,5.465966176699475e-05,1.1700747086289786e-05,6.6667,6.4667
2.22265625,2.878667906157017e-05,5.71005091920348e-05,6.539939043717099e-05,1.3165255541313818e-05,6.6667,6.4667
2.2265625,3.5132882366674316e-05,4.831345846189061e-05,6.0029526102082876e-05,7.795391206225697e-06,6.6667,6.4667
2.23046875,6.819052236209676e-06,7.03115958800641e-05,4.1479085671778456e-05,2.4255268711375773e-06,6.6667,6.4667
2.234375,8.544484991531244e-05,6.640624000000002e-05,5.954135661707486e-05,1.2188916571297797e-05,6.6667,6.4667
2.23828125,0.00014451335760128176,4.684895000686658e-05,7.226427382009615e-05,1.755878090638592e-05,6.6667,6.4667
2.2421875,9.61845785854887e-05,4.4896272066834534e-05,6.344671249713895e-05,8.283560691233709e-06,6.6667,6.4667
2.24609375,6.247037352712293e-05,5.612417022201878e-05,5.124247537193867e-05,9.259899661249731e-06,6.6667,6.4667
2.25,3.806189927672238e-05,6.442305146715498e-05,4.977796691691464e-05,1.7070611421377907e-05,6.6667,6.4667
2.25390625,7.47051212451362e-05,7.714596867017625e-05,5.612417022201878e-05,1.5117933481345863e-05,6.6667,6.4667
2.2578125,9.374373116044863e-05,8.446851094529643e-05,5.514783125200276e-05,1.3165255541313818e-05,6.6667,6.4667
2.26171875,8.105132455024035e-05,5.612417022201878e-05,5.5636000737010774e-05,1.1212577601281776e-05,6.6667,6.4667
2.265625,5.368332279697873e-05,4.7825288976882595e-05,3.806189927672238e-05,1.1212577601281776e-05,6.6667,6.4667
2.26953125,5.1730644856946685e-05,5.1730644856946685e-05,3.562105185168232e-05,1.9999628331425975e-05,6.6667,6.4667
2.2734375,8.495668043030443e-05,3.562105185168232e-05,5.2218814341954696e-05,1.6094272451361885e-05,6.6667,6.4667
2.27734375,9.813725652552073e-05,3.8550068761730395e-05,5.905318713206685e-05,3.401865841153599e-06,6.6667,6.4667
2.28125,0.00011082966313572902,5.075430588693066e-05,5.2218814341954696e-05,8.283560691233709e-06,6.6667,6.4667
2.28515625,2.1952306271458016e-05,6.442305146715498e-05,4.977796691691464e-05,1.1212577601281776e-05,6.6667,6.4667
2.2890625,-7.307352236209642e-06,6.539939043717099e-05,4.196725515678646e-05,8.77173017624172e-06,6.6667,6.4667
2.29296875,9.423190064545664e-05,5.612417022201878e-05,4.4896272066834534e-05,1.3165255541313818e-05,6.6667,6.4667
2.296875,7.958681609521631e-05,6.051769558709088e-05,6.149403455710691e-05,1.2188916571297797e-05,6.6667,6.4667
2.30078125,5.842713266193654e-06,6.295854301213094e-05,5.66123397070268e-05,1.6094272451361885e-05,6.6667,6.4667
2.3046875,-1.658257245136185e-05,4.880162794689862e-05,4.538444155184254e-05,1.8535119876401938e-05,6.6667,6.4667
2.30859375,-9.61148931105499e-07,4.684895000686658e-05,2.976301803158619e-05,1.5117933481345863e-05,6.6667,6.4667
2.3125,-9.61148931105499e-07,6.393488198214696e-05,3.220386545662624e-05,1.5606102966353874e-05,6.6667,6.4667
2.31640625,-3.401996356145554e-06,6.0029526102082876e-05,4.5872611036850557e-05,1.5606102966353874e-05,6.6667,6.4667
2.3203125,-7.795521721217652e-06,5.270698382696271e-05,4.538444155184254e-05,1.365342502632183e-05,6.6667,6.4667
2.32421875,-3.806202979171434e-05,5.417149228198674e-05,4.7825288976882595e-05,1.4629763996337851e-05,6.6667,6.4667
2.328125,2.7810340091554148e-05,5.1730644856946685e-05,6.051769558709088e-05,1.8046950391393927e-05,6.6667,6.4667
2.33203125,8.398034146028841e-05,4.5872611036850557e-05,4.9289797431906635e-05,1.755878090638592e-05,6.6667,6.4667
2.3359375,5.758867867704282e-05,4.831345846189061e-05,2.7322170606546137e-05,1.5606102966353874e-05,6.6667,6.4667
2.33984375,2.1464136786450005e-05,5.2218814341954696e-05,4.1479085671778456e-05,2.0975967301441994e-05,6.6667,6.4667
2.34375,2.7810340091554148e-05,5.270698382696271e-05,5.270698382696271e-05,2.488132318150608e-05,6.6667,6.4667
2.34765625,7.128793485008013e-05,4.880162794689862e-05,3.7573729791714366e-05,2.0487797816433986e-05,6.6667,6.4667
2.3515625,7.861047712520029e-05,4.831345846189061e-05,3.8550068761730395e-05,1.902328936140995e-05,6.6667,6.4667
2.35546875,7.275244330510416e-05,4.391993309681851e-05,5.514783125200276e-05,2.1464136786450005e-05,6.6667,6.4667
2.359375,3.7085560306706354e-05,3.46447128816663e-05,5.758867867704282e-05,1.7070611421377907e-05,6.6667,6.4667
2.36328125,3.0251187516594204e-05,4.684895000686658e-05,4.245542464179448e-05,1.3165255541313818e-05,6.6667,6.4667
2.3671875,4.538444155184254e-05,5.124247537193867e-05,3.90382382467384e-05,1.2188916571297797e-05,6.6667,6.4667
2.37109375,6.640624000000002e-05,2.7810340091554148e-05,3.5132882366674316e-05,1.2188916571297797e-05,6.6667,6.4667
2.375,0.00013426179841611355,4.245542464179448e-05,4.440810258182652e-05,1.8535119876401938e-05,6.6667,6.4667
2.37890625,6.539939043717099e-05,3.318020442664227e-05,5.465966176699475e-05,1.5606102966353874e-05,6.6667,6.4667
2.3828125,5.1730644856946685e-05,2.878667906157017e-05,4.196725515678646e-05,1.4141594511329842e-05,6.6667,6.4667
2.38671875,0.0001459778660563058,5.66123397070268e-05,5.2218814341954696e-05,1.8535119876401938e-05,6.6667,6.4667
2.390625,0.00013474996790112154,5.8076848162050824e-05,6.393488198214696e-05,1.9999628331425975e-05,6.6667,6.4667
2.39453125,0.00014011983223620968,4.4896272066834534e-05,4.684895000686658e-05,1.5117933481345863e-05,6.6667,6.4667
2.3984375,0.0001371908153261616,4.001457721675442e-05,2.829850957656216e-05,1.2188916571297797e-05,6.6667,6.4667
2.40234375,0.00015281223884641796,4.001457721675442e-05,1.902328936140995e-05,1.0724408116273763e-05,6.6667,6.4667
2.40625,0.00014841871348134585,4.4896272066834534e-05,2.5857662151522106e-05,1.1212577601281776e-05,6.6667,6.4667
2.41015625,0.00013426179841611355,4.538444155184254e-05,5.319515331197072e-05,1.8535119876401938e-05,6.6667,6.4667
2.4140625,0.00014890688296635387,6.640624000000002e-05,7.42169517601282e-05,1.8535119876401938e-05,6.6667,6.4667
2.41796875,0.00011717586644083316,6.884708742504007e-05,6.051769558709088e-05,2.3416814726482047e-05,6.6667,6.4667
2.421875,0.00015427674730144199,2.0975967301441994e-05,3.220386545662624e-05,2.9274848546578178e-05,6.6667,6.4667
2.42578125,0.0001777088825818265,3.1227526486610226e-05,2.292864524147404e-05,2.6345831636530114e-05,6.6667,6.4667
2.4296875,0.0001669691539116503,3.0739357001602215e-05,9.259899661249731e-06,2.0975967301441994e-05,6.6667,6.4667
2.43359375,0.00016257562854657816,6.330882751201665e-06,2.0487797816433986e-05,1.5117933481345863e-05,6.6667,6.4667
2.4375,0.00017136267927672237,1.7070611421377907e-05,3.562105185168232e-05,1.951145884641796e-05,6.6667,6.4667
2.44140625,0.00019235396713206685,2.7810340091554148e-05,2.6834001121538125e-05,1.951145884641796e-05,6.6667,6.4667
2.4453125,0.00018063789949187458,3.8550068761730395e-05,4.9289797431906635e-05,1.6094272451361885e-05,6.6667,6.4667
2.44921875,0.00018747227228198672,4.0990916186770444e-05,5.1730644856946685e-05,1.8046950391393927e-05,6.6667,6.4667
2.453125,0.00016745732339665828,3.0251187516594204e-05,2.292864524147404e-05,1.365342502632183e-05,6.6667,6.4667
2.45703125,0.0001630637980315862,3.806189927672238e-05,3.806189927672238e-05,1.1212577601281776e-05,6.6667,6.4667
2.4609375,0.0001635519675165942,4.196725515678646e-05,3.46447128816663e-05,1.6582441936369896e-05,6.6667,6.4667
2.46484375,0.00016843366236667432,3.806189927672238e-05,1.4629763996337851e-05,1.902328936140995e-05,6.6667,6.4667
2.46875,0.0002211864773403525,4.636078052185856e-05,-5.842843781185608e-06,2.0975967301441994e-05,6.6667,6.4667
2.47265625,0.00015281223884641796,4.245542464179448e-05,8.77173017624172e-06,1.755878090638592e-05,6.6667,6.4667
2.4765625,0.00012986827305104144,3.562105185168232e-05,3.5132882366674316e-05,1.902328936140995e-05,6.6667,6.4667
2.48046875,0.00018503142485694669,2.5857662151522106e-05,4.245542464179448e-05,2.9274848546578178e-05,6.6667,6.4667
2.484375,0.00017282718773174643,2.1464136786450005e-05,3.952640773174641e-05,2.5857662151522106e-05,6.6667,6.4667
2.48828125,0.00018844861125200276,3.7085560306706354e-05,2.0975967301441994e-05,2.1464136786450005e-05,6.6667,6.4667
2.4921875,0.00017282718773174643,5.075430588693066e-05,3.269203494163426e-05,2.7810340091554148e-05,6.6667,6.4667
2.49609375,0.00018503142485694669,4.4896272066834534e-05,3.806189927672238e-05,2.878667906157017e-05,6.6667,6.4667
2.5,0.00017136267927672237,4.0990916186770444e-05,3.562105185168232e-05,2.7322170606546137e-05,6.6667,6.4667
2.50390625,0.00012254573077592128,3.0251187516594204e-05,2.1464136786450005e-05,2.292864524147404e-05,6.6667,6.4667
2.5078125,0.0001230339002609293,2.3416814726482047e-05,1.0724408116273763e-05,2.2440475756466028e-05,6.6667,6.4667
2.51171875,0.00011864037489585719,2.439315369649807e-05,2.0487797816433986e-05,2.9274848546578178e-05,6.6667,6.4667
2.515625,0.0001811260689768826,3.806189927672238e-05,3.7573729791714366e-05,2.7322170606546137e-05,6.6667,6.4667
2.51953125,0.00020019518948500802,6.491122095216298e-05,4.440810258182652e-05,2.3904984211490058e-05,6.6667,6.4667
2.5234375,0.00016745732339665828,5.514783125200276e-05,3.562105185168232e-05,2.829850957656216e-05,6.6667,6.4667
2.52734375,0.00015671759472648205,4.7825288976882595e-05,3.610922133669034e-05,3.0739357001602215e-05,6.6667,6.4667
2.53125,0.0001415843406912337,4.636078052185856e-05,4.245542464179448e-05,3.220386545662624e-05,6.6667,6.4667
2.53515625,0.00016501647597161822,5.270698382696271e-05,5.905318713206685e-05,3.3668373911650276e-05,6.6667,6.4667
2.5390625,0.00014207251017624172,6.051769558709088e-05,6.0029526102082876e-05,2.5857662151522106e-05,6.6667,6.4667
2.54296875,0.00014744237451132981,6.738257897001604e-05,4.977796691691464e-05,2.5857662151522106e-05,6.6667,6.4667
2.546875,0.00015818210318150608,5.319515331197072e-05,4.391993309681851e-05,2.292864524147404e-05,6.6667,6.4667
2.55078125,0.0001454896965712978,3.659739082169834e-05,4.4896272066834534e-05,2.0487797816433986e-05,6.6667,6.4667
2.5546875,0.00014353701863126575,3.562105185168232e-05,4.34317636118105e-05,2.0487797816433986e-05,6.6667,6.4667
2.55859375,0.00014353701863126575,4.5872611036850557e-05,3.0251187516594204e-05,1.4629763996337851e-05,6.6667,6.4667
2.5625,0.0001635519675165942,4.4896272066834534e-05,2.2440475756466028e-05,1.7070611421377907e-05,6.6667,6.4667
2.56640625,8.78856973403525e-05,5.368332279697873e-05,2.829850957656216e-05,1.5606102966353874e-05,6.6667,6.4667
2.5703125,0.00011229417159075305,5.417149228198674e-05,2.3904984211490058e-05,1.4141594511329842e-05,6.6667,6.4667
2.57421875,0.0002128875960952163,4.9289797431906635e-05,1.8046950391393927e-05,2.0975967301441994e-05,6.6667,6.4667
2.578125,0.00017575620464179448,4.9289797431906635e-05,3.3668373911650276e-05,2.292864524147404e-05,6.6667,6.4667
2.58203125,0.0001410961712062257,3.4156543396658294e-05,3.5132882366674316e-05,2.0487797816433986e-05,6.6667,6.4667
2.5859375,0.00012596291717097735,3.806189927672238e-05,3.3668373911650276e-05,1.4629763996337851e-05,6.6667,6.4667
2.58984375,0.00015769393369649808,4.294359412680248e-05,4.1479085671778456e-05,1.1212577601281776e-05,6.6667,6.4667
2.59375,0.0001508595609063859,4.880162794689862e-05,3.562105185168232e-05,7.307221721217687e-06,6.6667,6.4667
2.59765625,0.00012156939180590525,6.393488198214696e-05,3.90382382467384e-05,7.307221721217687e-06,6.6667,6.4667
2.6015625,0.00011424684953078509,4.880162794689862e-05,3.269203494163426e-05,1.0236238631265752e-05,6.6667,6.4667
2.60546875,6.787074845502406e-05,3.46447128816663e-05,3.1227526486610226e-05,9.259899661249731e-06,6.6667,6.4667
2.609375,0.00011473501901579311,4.9289797431906635e-05,4.4896272066834534e-05,1.6582441936369896e-05,6.6667,6.4667
2.61328125,0.0001718508487617304,4.1479085671778456e-05,4.4896272066834534e-05,2.0487797816433986e-05,6.6667,6.4667
2.6171875,0.00015183589987640195,4.5872611036850557e-05,4.684895000686658e-05,1.2188916571297797e-05,6.6667,6.4667
2.62109375,9.61845785854887e-05,5.2218814341954696e-05,5.66123397070268e-05,9.748069146257742e-06,6.6667,6.4667
2.625,8.349217197528039e-05,5.2218814341954696e-05,5.368332279697873e-05,1.1212577601281776e-05,6.6667,6.4667
2.62890625,0.00013035644253604946,5.2218814341954696e-05,3.659739082169834e-05,9.748069146257742e-06,6.6667,6.4667
2.6328125,0.0001230339002609293,3.5132882366674316e-05,2.829850957656216e-05,1.1700747086289786e-05,6.6667,6.4667
2.63671875,0.00010497162931563287,3.220386545662624e-05,4.196725515678646e-05,1.6094272451361885e-05,6.6667,6.4667
2.640625,6.198220404211491e-05,3.610922133669034e-05,4.684895000686658e-05,1.0724408116273763e-05,6.6667,6.4667
2.64453125,4.684895000686658e-05,4.0990916186770444e-05,5.905318713206685e-05,1.365342502632183e-05,6.6667,6.4667
2.6484375,7.861047712520029e-05,4.245542464179448e-05,6.247037352712293e-05,1.755878090638592e-05,6.6667,6.4667
2.65234375,9.179105322041659e-05,6.344671249713895e-05,4.1479085671778456e-05,1.2677086056305808e-05,6.6667,6.4667
2.65625,0.00010790064622568095,6.491122095216298e-05,4.7337119491874584e-05,1.4141594511329842e-05,6.6667,6.4667
2.66015625,3.7573729791714366e-05,3.952640773174641e-05,5.612417022201878e-05,1.7070611421377907e-05,6.6667,6.4667
2.6640625,2.976301803158619e-05,5.758867867704282e-05,5.124247537193867e-05,1.951145884641796e-05,6.6667,6.4667
2.66796875,0.00010497162931563287,6.738257897001604e-05,4.294359412680248e-05,1.951145884641796e-05,6.6667,6.4667
2.671875,8.886203631036852e-05,6.0029526102082876e-05,5.319515331197072e-05,1.9999628331425975e-05,6.6667,6.4667
2.67578125,9.032654476539255e-05,6.491122095216298e-05,6.10058650720989e-05,2.3904984211490058e-05,6.6667,6.4667
2.6796875,7.958681609521631e-05,5.319515331197072e-05,4.636078052185856e-05,2.439315369649807e-05,6.6667,6.4667
2.68359375,6.442305146715498e-05,2.5369492666514095e-05,3.220386545662624e-05,1.7070611421377907e-05,6.6667,6.4667
2.6875,5.66123397070268e-05,2.7810340091554148e-05,2.7322170606546137e-05,1.902328936140995e-05,6.6667,6.4667
2.69140625,3.8550068761730395e-05,5.417149228198674e-05,3.220386545662624e-05,2.3904984211490058e-05,6.6667,6.4667
2.6953125,5.075430588693066e-05,5.5636000737010774e-05,4.050274670176243e-05,1.8046950391393927e-05,6.6667,6.4667
2.69921875,4.1479085671778456e-05,4.831345846189061e-05,4.636078052185856e-05,2.0975967301441994e-05,6.6667,6.4667
2.703125,7.763413815518427e-05,4.4896272066834534e-05,2.6834001121538125e-05,2.1464136786450005e-05,6.6667,6.4667
2.70703125,9.813725652552073e-05,5.612417022201878e-05,1.755878090638592e-05,1.8046950391393927e-05,6.6667,6.4667
2.7109375,6.247037352712293e-05,5.124247537193867e-05,3.0739357001602215e-05,2.0487797816433986e-05,6.6667,6.4667
2.71484375,1.902328936140995e-05,5.075430588693066e-05,4.050274670176243e-05,1.902328936140995e-05,6.6667,6.4667
2.71875,1.8535119876401938e-05,5.075430588693066e-05,3.806189927672238e-05,2.0487797816433986e-05,6.6667,6.4667
2.72265625,6.198220404211491e-05,4.636078052185856e-05,4.0990916186770444e-05,2.439315369649807e-05,6.6667,6.4667
2.7265625,3.659739082169834e-05,5.124247537193867e-05,4.34317636118105e-05,2.5857662151522106e-05,6.6667,6.4667
2.73046875,4.880162794689862e-05,7.861047712520029e-05,3.7085560306706354e-05,2.1464136786450005e-05,6.6667,6.4667
2.734375,4.7825288976882595e-05,8.30040024902724e-05,4.977796691691464e-05,1.6582441936369896e-05,6.6667,6.4667
2.73828125,3.659739082169834e-05,5.612417022201878e-05,5.270698382696271e-05,1.9999628331425975e-05,6.6667,6.4667
2.7421875,3.659739082169834e-05,4.636078052185856e-05,4.34317636118105e-05,2.3904984211490058e-05,6.6667,6.4667
2.74609375,4.1479085671778456e-05,4.34317636118105e-05,2.3416814726482047e-05,2.0975967301441994e-05,6.6667,6.4667
2.75,8.983837528038453e-05,5.465966176699475e-05,2.3416814726482047e-05,2.2440475756466028e-05,6.6667,6.4667
2.75390625,4.001457721675442e-05,4.050274670176243e-05,2.1464136786450005e-05,2.1952306271458016e-05,6.6667,6.4667
2.7578125,2.292864524147404e-05,4.1479085671778456e-05,1.6094272451361885e-05,1.902328936140995e-05,6.6667,6.4667
2.76171875,9.472007013046466e-05,6.10058650720989e-05,2.829850957656216e-05,2.1952306271458016e-05,6.6667,6.4667
2.765625,9.960176498054477e-05,6.442305146715498e-05,4.1479085671778456e-05,2.5857662151522106e-05,6.6667,6.4667
2.76953125,5.758867867704282e-05,5.66123397070268e-05,3.806189927672238e-05,2.3416814726482047e-05,6.6667,6.4667
2.7734375,5.270698382696271e-05,5.954135661707486e-05,3.220386545662624e-05,2.0975967301441994e-05,6.6667,6.4667
2.77734375,0.00010301895137560084,6.884708742504007e-05,5.075430588693066e-05,2.9274848546578178e-05,6.6667,6.4667
2.78125,7.763413815518427e-05,8.30040024902724e-05,8.593301940032045e-05,2.878667906157017e-05,6.6667,6.4667
2.78515625,4.5872611036850557e-05,8.349217197528039e-05,8.398034146028841e-05,2.0487797816433986e-05,6.6667,6.4667
2.7890625,6.295854301213094e-05,4.1479085671778456e-05,2.0975967301441994e-05,1.7070611421377907e-05,6.6667,6.4667
2.79296875,5.758867867704282e-05,2.1464136786450005e-05,-2.9138268711375426e-06,1.2188916571297797e-05,6.6667,6.4667
2.796875,0.00012986827305104144,4.880162794689862e-05,1.0236238631265752e-05,7.795391206225697e-06,6.6667,6.4667
2.80078125,0.00018307874691691464,7.079976536507211e-05,4.001457721675442e-05,5.354543781185643e-06,6.6667,6.4667
2.8046875,0.00016013478112153812,6.442305146715498e-05,3.562105185168232e-05,-9.61148931105499e-07,6.6667,6.4667
2.80859375,0.00014744237451132981,5.66123397070268e-05,2.1464136786450005e-05,-3.401996356145554e-06,6.6667,6.4667
2.8125,0.00016257562854657816,6.539939043717099e-05,4.7825288976882595e-05,9.610184161135442e-07,6.6667,6.4667
2.81640625,0.00020019518948500802,6.933525691004809e-05,4.34317636118105e-05,1.4491879011215552e-06,6.6667,6.4667
2.8203125,0.00019088945867704282,6.539939043717099e-05,4.5872611036850557e-05,7.795391206225697e-06,6.6667,6.4667
2.82421875,0.0001816142384618906,6.198220404211491e-05,6.491122095216298e-05,9.259899661249731e-06,6.6667,6.4667
2.828125,0.00017917339103685055,6.689440948500802e-05,3.8550068761730395e-05,4.378204811169621e-06,6.6667,6.4667
2.83203125,0.00018796044176699477,6.738257897001604e-05,4.440810258182652e-05,1.1212577601281776e-05,6.6667,6.4667
2.8359375,0.0002128875960952163,6.295854301213094e-05,5.026613640192266e-05,1.6094272451361885e-05,6.6667,6.4667
2.83984375,0.00022265098579537653,6.787074845502406e-05,4.831345846189061e-05,1.365342502632183e-05,6.6667,6.4667
2.84375,0.00022655634167544062,7.03115958800641e-05,5.417149228198674e-05,9.259899661249731e-06,6.6667,6.4667
2.84765625,0.00015427674730144199,5.758867867704282e-05,2.829850957656216e-05,6.819052236209676e-06,6.6667,6.4667
2.8515625,0.0001586702726665141,5.075430588693066e-05,3.46447128816663e-05,1.2188916571297797e-05,6.6667,6.4667
2.85546875,0.0002568228497459373,7.226427382009615e-05,5.66123397070268e-05,1.902328936140995e-05,6.6667,6.4667
2.859375,0.00023583156189059282,7.47051212451362e-05,4.7825288976882595e-05,1.951145884641796e-05,6.6667,6.4667
2.86328125,0.00018698410279697873,4.1479085671778456e-05,4.831345846189061e-05,1.8535119876401938e-05,6.6667,6.4667
2.8671875,0.00016941000133669033,2.976301803158619e-05,4.538444155184254e-05,1.755878090638592e-05,6.6667,6.4667
2.87109375,0.00021972196888532845,5.026613640192266e-05,4.538444155184254e-05,1.4629763996337851e-05,6.6667,6.4667
2.875,0.0002211864773403525,6.0029526102082876e-05,5.075430588693066e-05,1.902328936140995e-05,6.6667,6.4667
2.87890625,0.00020361237588006412,5.075430588693066e-05,4.538444155184254e-05,1.5606102966353874e-05,6.6667,6.4667
2.8828125,0.00023729607034561685,5.417149228198674e-05,4.7337119491874584e-05,1.8535119876401938e-05,6.6667,6.4667
2.88671875,0.00020995857918516825,4.9289797431906635e-05,4.196725515678646e-05,2.0975967301441994e-05,6.6667,6.4667
2.890625,0.00027244427326619363,4.831345846189061e-05,4.34317636118105e-05,1.365342502632183e-05,6.6667,6.4667
2.89453125,0.0003520464099153124,5.319515331197072e-05,4.001457721675442e-05,1.6582441936369896e-05,6.6667,6.4667
2.8984375,0.00032809559455710687,4.7337119491874584e-05,2.7322170606546137e-05,2.0975967301441994e-05,6.6667,6.4667
2.90234375,0.0003085688151567864,3.952640773174641e-05,2.292864524147404e-05,1.8046950391393927e-05,6.6667,6.4667
2.90625,0.00032907193352712296,4.391993309681851e-05,4.050274670176243e-05,2.3416814726482047e-05,6.6667,6.4667
2.91015625,0.00039061179923094533,4.831345846189061e-05,4.0990916186770444e-05,2.7810340091554148e-05,6.6667,6.4667
2.9140625,0.0004140439345113298,5.026613640192266e-05,3.7085560306706354e-05,2.1464136786450005e-05,6.6667,6.4667
2.91796875,0.0004311298664866102,3.806189927672238e-05,5.465966176699475e-05,2.1952306271458016e-05,6.6667,6.4667
2.921875,0.00041111491760128176,3.7573729791714366e-05,3.90382382467384e-05,2.439315369649807e-05,6.6667,6.4667
2.92578125,0.0003993988499610895,4.001457721675442e-05,2.5857662151522106e-05,2.0975967301441994e-05,6.6667,6.4667
2.9296875,0.0004330825444266423,3.0739357001602215e-05,3.269203494163426e-05,1.755878090638592e-05,6.6667,6.4667
2.93359375,0.0004770483086701762,3.8550068761730395e-05,2.9274848546578178e-05,1.7070611421377907e-05,6.6667,6.4667
2.9375,0.0005043857998306249,4.050274670176243e-05,4.0990916186770444e-05,2.5369492666514095e-05,6.6667,6.4667
2.94140625,0.00042234281575646604,3.610922133669034e-05,5.905318713206685e-05,2.829850957656216e-05,6.6667,6.4667
2.9453125,0.0004028160363561456,4.245542464179448e-05,5.026613640192266e-05,2.5369492666514095e-05,6.6667,6.4667
2.94921875,0.00048583535940032043,5.417149228198674e-05,3.952640773174641e-05,2.9274848546578178e-05,6.6667,6.4667
2.953125,0.0004731429527901122,5.270698382696271e-05,4.196725515678646e-05,3.46447128816663e-05,6.6667,6.4667
2.95703125,0.0004535856627969787,4.636078052185856e-05,3.562105185168232e-05,2.7810340091554148e-05,6.6667,6.4667
2.9609375,0.0004330825444266423,2.9274848546578178e-05,3.0251187516594204e-05,1.951145884641796e-05,6.6667,6.4667
2.96484375,0.000423319154726482,8.283560691233709e-06,3.0739357001602215e-05,1.9999628331425975e-05,6.6667,6.4667
2.96875,0.0004037923753261616,2.5369492666514095e-05,3.0739357001602215e-05,2.0975967301441994e-05,6.6667,6.4667
2.97265625,0.000377431223135729,4.636078052185856e-05,4.440810258182652e-05,2.2440475756466028e-05,6.6667,6.4667
2.9765625,0.00036034529116044865,3.5132882366674316e-05,5.465966176699475e-05,2.7810340091554148e-05,6.6667,6.4667
2.98046875,0.0003393540033051042,1.6582441936369896e-05,3.1227526486610226e-05,2.6834001121538125e-05,6.6667,6.4667
2.984375,0.00035790444373540853,2.6345831636530114e-05,2.488132318150608e-05,2.6834001121538125e-05,6.6667,6.4667
2.98828125,0.0003466765455802243,3.0251187516594204e-05,2.829850957656216e-05,2.5369492666514095e-05,6.6667,6.4667
2.9921875,0.0003652269860105288,3.806189927672238e-05,3.8550068761730395e-05,2.0487797816433986e-05,6.6667,6.4667
2.99609375,0.0003549754268253605,2.829850957656216e-05,5.465966176699475e-05,2.488132318150608e-05,6.6667,6.4667
3.0,0.00029978176442664226,2.1464136786450005e-05,4.0990916186770444e-05,2.1952306271458016e-05,6.6667,6.4667
3.00390625,0.00033788949485008015,3.171569597161824e-05,3.220386545662624e-05,2.0487797816433986e-05,6.6667,6.4667
3.0078125,0.0003227257302220188,1.8046950391393927e-05,3.318020442664227e-05,2.5857662151522106e-05,6.6667,6.4667
3.01171875,0.0003071043067017624,4.5872611036850557e-05,5.026613640192266e-05,2.9274848546578178e-05,6.6667,6.4667
3.015625,0.00029441190009155414,6.689440948500802e-05,6.491122095216298e-05,3.318020442664227e-05,6.6667,6.4667
3.01953125,0.00026072820562600136,5.514783125200276e-05,5.71005091920348e-05,3.4156543396658294e-05,6.6667,6.4667
3.0234375,0.0002612163751110094,4.831345846189061e-05,5.758867867704282e-05,3.4156543396658294e-05,6.6667,6.4667
3.02734375,0.0003002699339116503,3.0251187516594204e-05,6.051769558709088e-05,3.3668373911650276e-05,6.6667,6.4667
3.03125,0.00039207630768596936,3.952640773174641e-05,7.03115958800641e-05,3.171569597161824e-05,6.6667,6.4667
3.03515625,0.00038036024004577704,4.977796691691464e-05,5.954135661707486e-05,2.5369492666514095e-05,6.6667,6.4667
3.0390625,0.00043796423927672235,5.026613640192266e-05,5.270698382696271e-05,2.2440475756466028e-05,6.6667,6.4667
3.04296875,0.0005629661380315862,5.905318713206685e-05,5.612417022201878e-05,2.5857662151522106e-05,6.6667,6.4667
3.046875,0.0005829810869169146,4.684895000686658e-05,4.0990916186770444e-05,2.6834001121538125e-05,6.6667,6.4667
3.05078125,0.0006215769868253606,5.075430588693066e-05,4.1479085671778456e-05,2.829850957656216e-05,6.6667,6.4667
3.0546875,0.0006386629188006408,5.71005091920348e-05,4.0990916186770444e-05,2.878667906157017e-05,6.6667,6.4667
3.05859375,0.0006459854610757611,4.196725515678646e-05,5.319515331197072e-05,3.0739357001602215e-05,6.6667,6.4667
3.0625,0.0006542843423208972,4.538444155184254e-05,7.90986466102083e-05,2.878667906157017e-05,6.6667,6.4667
3.06640625,0.0006547725118059052,6.5887559922179e-05,6.393488198214696e-05,2.6345831636530114e-05,6.6667,6.4667
3.0703125,0.0006772283081162737,3.46447128816663e-05,4.7825288976882595e-05,3.46447128816663e-05,6.6667,6.4667
3.07421875,0.0006811336639963378,1.902328936140995e-05,5.417149228198674e-05,2.9274848546578178e-05,6.6667,6.4667
3.078125,0.0007260452566170748,4.9289797431906635e-05,6.933525691004809e-05,2.1464136786450005e-05,6.6667,6.4667
3.08203125,0.0007675701734355687,3.610922133669034e-05,4.831345846189061e-05,2.0487797816433986e-05,6.6667,6.4667
3.0859375,0.0007665938344655527,4.977796691691464e-05,2.6834001121538125e-05,1.7070611421377907e-05,6.6667,6.4667
3.08984375,0.0007558541057953765,5.319515331197072e-05,3.220386545662624e-05,2.1952306271458016e-05,6.6667,6.4667
3.09375,0.0007914904782009613,3.171569597161824e-05,3.610922133669034e-05,2.1952306271458016e-05,6.6667,6.4667
3.09765625,0.000825174172666514,3.90382382467384e-05,4.9289797431906635e-05,1.902328936140995e-05,6.6667,6.4667
3.1015625,0.0007841679359258412,4.880162794689862e-05,4.538444155184254e-05,2.1952306271458016e-05,6.6667,6.4667
3.10546875,0.0007622003091004807,4.977796691691464e-05,4.050274670176243e-05,1.902328936140995e-05,6.6667,6.4667
3.109375,0.0007460907160952163,5.124247537193867e-05,5.319515331197072e-05,1.8046950391393927e-05,6.6667,6.4667
3.11328125,0.0007519487499153124,5.514783125200276e-05,4.4896272066834534e-05,2.1952306271458016e-05,6.6667,6.4667
3.1171875,0.0007578067837354085,5.417149228198674e-05,4.391993309681851e-05,2.439315369649807e-05,6.6667,6.4667
3.12109375,0.000733398309485008,4.294359412680248e-05,3.90382382467384e-05,2.976301803158619e-05,6.6667,6.4667
3.125,0.00073291014,3.3668373911650276e-05,3.3668373911650276e-05,2.9274848546578178e-05,6.6667,6.4667
3.12890625,0.0006494026474708171,3.46447128816663e-05,3.562105185168232e-05,2.488132318150608e-05,6.6667,6.4667
3.1328125,0.0006708821048111695,4.0990916186770444e-05,2.829850957656216e-05,2.292864524147404e-05,6.6667,6.4667
3.13671875,0.0007612239701304646,4.7337119491874584e-05,3.3668373911650276e-05,2.5369492666514095e-05,6.6667,6.4667
3.140625,0.0006948024095765621,2.829850957656216e-05,5.026613640192266e-05,2.1952306271458016e-05,6.6667,6.4667
3.14453125,0.0006513553254108491,3.220386545662624e-05,4.245542464179448e-05,1.755878090638592e-05,6.6667,6.4667
3.1484375,0.0006049792243350881,3.1227526486610226e-05,2.9274848546578178e-05,1.9999628331425975e-05,6.6667,6.4667
3.15234375,0.0006176716309452964,3.318020442664227e-05,4.34317636118105e-05,2.3416814726482047e-05,6.6667,6.4667
3.15625,0.0006313403765255207,5.2218814341954696e-05,5.368332279697873e-05,2.829850957656216e-05,6.6667,6.4667
3.16015625,0.0005790757310368506,4.34317636118105e-05,5.2218814341954696e-05,2.488132318150608e-05,6.6667,6.4667
3.1640625,0.0005492973924513619,3.46447128816663e-05,4.831345846189061e-05,2.1952306271458016e-05,6.6667,6.4667
3.16796875,0.000513661020045777,3.7085560306706354e-05,2.7322170606546137e-05,2.2440475756466028e-05,6.6667,6.4667
3.171875,0.0005419748501762417,2.829850957656216e-05,2.5369492666514095e-05,2.3416814726482047e-05,6.6667,6.4667
3.17578125,0.0005419748501762417,4.0990916186770444e-05,4.050274670176243e-05,2.878667906157017e-05,6.6667,6.4667
3.1796875,0.0004897407152803845,5.417149228198674e-05,3.46447128816663e-05,2.878667906157017e-05,6.6667,6.4667
3.18359375,0.0004067213922362097,3.1227526486610226e-05,4.880162794689862e-05,3.171569597161824e-05,6.6667,6.4667
3.1875,0.00037547854519569696,3.318020442664227e-05,5.514783125200276e-05,3.4156543396658294e-05,6.6667,6.4667
3.19140625,0.0003959816635660334,4.050274670176243e-05,2.7810340091554148e-05,2.7810340091554148e-05,6.6667,6.4667
3.1953125,0.0003710850198306249,3.269203494163426e-05,3.46447128816663e-05,2.7322170606546137e-05,6.6667,6.4667
3.19921875,0.00032614291661707485,4.294359412680248e-05,5.026613640192266e-05,2.976301803158619e-05,6.6667,6.4667
3.203125,0.00023778423983062487,5.5636000737010774e-05,3.7085560306706354e-05,2.7322170606546137e-05,6.6667,6.4667
3.20703125,0.00018796044176699477,3.5132882366674316e-05,3.5132882366674316e-05,3.0251187516594204e-05,6.6667,6.4667
3.2109375,0.00016208745906157016,2.7322170606546137e-05,3.5132882366674316e-05,3.318020442664227e-05,6.6667,6.4667
3.21484375,0.00014256067966124974,5.368332279697873e-05,4.050274670176243e-05,3.220386545662624e-05,6.6667,6.4667
3.21875,0.00013767898481116962,7.128793485008013e-05,5.1730644856946685e-05,3.610922133669034e-05,6.6667,6.4667
3.22265625,-5.354674296177598e-06,5.954135661707486e-05,5.1730644856946685e-05,3.659739082169834e-05,6.6667,6.4667
3.2265625,-5.124260588693063e-05,4.294359412680248e-05,4.9289797431906635e-05,3.318020442664227e-05,6.6667,6.4667
3.23046875,-2.634596215152207e-05,4.196725515678646e-05,4.294359412680248e-05,3.269203494163426e-05,6.6667,6.4667
3.234375,-7.958694661020826e-05,4.684895000686658e-05,2.6834001121538125e-05,2.7810340091554148e-05,6.6667,6.4667
3.23828125,-0.0001079007767406729,5.319515331197072e-05,3.7573729791714366e-05,3.659739082169834e-05,6.6667,6.4667
3.2421875,-0.00019381860610208284,3.7573729791714366e-05,5.612417022201878e-05,4.4896272066834534e-05,6.6667,6.4667
3.24609375,-0.0002197220994003204,3.562105185168232e-05,6.149403455710691e-05,3.952640773174641e-05,6.6667,6.4667
3.25,-0.0002597519971709773,5.71005091920348e-05,5.758867867704282e-05,3.659739082169834e-05,6.6667,6.4667
3.25390625,-0.0003246785386770428,4.34317636118105e-05,2.3416814726482047e-05,3.5132882366674316e-05,6.6667,6.4667
3.2578125,-0.0003398423033051041,3.46447128816663e-05,1.2188916571297797e-05,2.7810340091554148e-05,6.6667,6.4667
3.26171875,-0.0004159967429663538,4.7337119491874584e-05,2.3416814726482047e-05,2.5857662151522106e-05,6.6667,6.4667
3.265625,-0.00042673647163653006,4.9289797431906635e-05,2.3904984211490058e-05,2.7322170606546137e-05,6.6667,6.4667
3.26953125,-0.000423807454726482,5.270698382696271e-05,3.90382382467384e-05,2.829850957656216e-05,6.6667,6.4667
3.2734375,-0.00048778816785534444,5.5636000737010774e-05,5.1730644856946685e-05,3.0739357001602215e-05,6.6667,6.4667
3.27734375,-0.0005698006413366903,5.026613640192266e-05,4.4896272066834534e-05,3.318020442664227e-05,6.6667,6.4667
3.28125,-0.0006376867103456168,3.8550068761730395e-05,3.318020442664227e-05,2.829850957656216e-05,6.6667,6.4667
3.28515625,-0.0006323168460105287,4.196725515678646e-05,2.488132318150608e-05,2.878667906157017e-05,6.6667,6.4667
3.2890625,-0.0006869918283314259,3.171569597161824e-05,2.7810340091554148e-05,3.171569597161824e-05,6.6667,6.4667
3.29296875,-0.0007592714227054245,3.318020442664227e-05,4.880162794689862e-05,3.1227526486610226e-05,6.6667,6.4667
3.296875,-0.0008427484046417944,4.831345846189061e-05,4.831345846189061e-05,3.3668373911650276e-05,6.6667,6.4667
3.30078125,-0.0008984302365255207,4.196725515678646e-05,4.050274670176243e-05,3.610922133669034e-05,6.6667,6.4667
3.3046875,-0.000916004337985809,4.294359412680248e-05,3.562105185168232e-05,4.050274670176243e-05,6.6667,6.4667
3.30859375,-0.0009086817957106889,3.952640773174641e-05,1.902328936140995e-05,3.952640773174641e-05,6.6667,6.4667
3.3125,-0.0008706045758800641,4.196725515678646e-05,3.562105185168232e-05,3.7085560306706354e-05,6.6667,6.4667
3.31640625,-0.0009247913887159533,3.5132882366674316e-05,5.417149228198674e-05,4.196725515678646e-05,6.6667,6.4667
3.3203125,-0.000957986913696498,3.4156543396658294e-05,4.440810258182652e-05,4.245542464179448e-05,6.6667,6.4667
3.32421875,-0.0009057527788006409,3.46447128816663e-05,2.7322170606546137e-05,4.538444155184254e-05,6.6667,6.4667
3.328125,-0.000862763353527123,2.0487797816433986e-05,2.0975967301441994e-05,4.196725515678646e-05,6.6667,6.4667
3.33203125,-0.0008647160314671549,4.440810258182652e-05,4.4896272066834534e-05,3.806189927672238e-05,6.6667,6.4667
3.3359375,-0.0008725572538200961,5.270698382696271e-05,5.075430588693066e-05,4.245542464179448e-05,6.6667,6.4667
3.33984375,-0.0008329850149416343,4.1479085671778456e-05,5.417149228198674e-05,4.294359412680248e-05,6.6667,6.4667
3.34375,-0.0008442129130968184,4.245542464179448e-05,4.294359412680248e-05,4.245542464179448e-05,6.6667,6.4667
3.34765625,-0.0008481182689768826,3.46447128816663e-05,3.0251187516594204e-05,4.245542464179448e-05,6.6667,6.4667
3.3515625,-0.0008451892520668345,2.439315369649807e-05,4.196725515678646e-05,4.050274670176243e-05,6.6667,6.4667
3.35546875,-0.0008593461671320668,3.610922133669034e-05,5.124247537193867e-05,4.34317636118105e-05,6.6667,6.4667
3.359375,-0.0007597595921904326,5.66123397070268e-05,5.1730644856946685e-05,4.391993309681851e-05,6.6667,6.4667
3.36328125,-0.0007250690481620507,4.977796691691464e-05,4.1479085671778456e-05,4.34317636118105e-05,6.6667,6.4667
3.3671875,-0.0007597595921904326,3.562105185168232e-05,3.562105185168232e-05,4.538444155184254e-05,6.6667,6.4667
3.37109375,-0.0007685466429205767,4.050274670176243e-05,3.3668373911650276e-05,3.952640773174641e-05,6.6667,6.4667
3.375,-0.0007597595921904326,4.538444155184254e-05,4.5872611036850557e-05,3.90382382467384e-05,6.6667,6.4667
3.37890625,-0.0007221400312520026,5.905318713206685e-05,6.5887559922179e-05,4.1479085671778456e-05,6.6667,6.4667
3.3828125,-0.0007319034209521629,5.612417022201878e-05,5.612417022201878e-05,4.050274670176243e-05,6.6667,6.4667
3.38671875,-0.0007240927091920348,4.4896272066834534e-05,6.442305146715498e-05,4.1479085671778456e-05,6.6667,6.4667
3.390625,-0.0007314152514671548,4.294359412680248e-05,6.491122095216298e-05,3.220386545662624e-05,6.6667,6.4667
3.39453125,-0.0007260453871320668,4.9289797431906635e-05,4.34317636118105e-05,3.171569597161824e-05,6.6667,6.4667
3.3984375,-0.0006825983029663538,4.7337119491874584e-05,4.7337119491874584e-05,3.7085560306706354e-05,6.6667,6.4667
3.40234375,-0.0006845509809063859,3.5132882366674316e-05,4.440810258182652e-05,3.610922133669034e-05,6.6667,6.4667
3.40625,-0.000644032913650721,4.001457721675442e-05,4.34317636118105e-05,3.8550068761730395e-05,6.6667,6.4667
3.41015625,-0.0006689295573861295,4.391993309681851e-05,4.5872611036850557e-05,4.050274670176243e-05,6.6667,6.4667
3.4140625,-0.0006757639301762417,4.636078052185856e-05,3.5132882366674316e-05,3.562105185168232e-05,6.6667,6.4667
3.41796875,-0.0005532028788464179,4.196725515678646e-05,3.610922133669034e-05,3.5132882366674316e-05,6.6667,6.4667
3.421875,-0.0005644307770016022,3.3668373911650276e-05,3.659739082169834e-05,4.0990916186770444e-05,6.6667,6.4667
3.42578125,-0.0006059556938200961,3.952640773174641e-05,2.7322170606546137e-05,3.952640773174641e-05,6.6667,6.4667
3.4296875,-0.0006069320327901122,5.075430588693066e-05,2.7810340091554148e-05,3.610922133669034e-05,6.6667,6.4667
3.43359375,-0.000555643726271458,5.66123397070268e-05,4.001457721675442e-05,3.4156543396658294e-05,6.6667,6.4667
3.4375,-0.0005522265398764019,6.247037352712293e-05,4.977796691691464e-05,3.562105185168232e-05,6.6667,6.4667
3.44140625,-0.00060009766,4.7337119491874584e-05,4.7337119491874584e-05,3.610922133669034e-05,6.6667,6.4667
3.4453125,-0.0005824930479468986,3.5132882366674316e-05,3.5132882366674316e-05,3.220386545662624e-05,6.6667,6.4667
3.44921875,-0.0006157190835202564,3.269203494163426e-05,3.0739357001602215e-05,3.0739357001602215e-05,6.6667,6.4667
3.453125,-0.0005615017600915541,2.7810340091554148e-05,3.7085560306706354e-05,3.0251187516594204e-05,6.6667,6.4667
3.45703125,-0.0004907171847653925,4.1479085671778456e-05,4.684895000686658e-05,3.5132882366674316e-05,6.6667,6.4667
3.4609375,-0.0005673597939116502,4.0990916186770444e-05,4.4896272066834534e-05,3.46447128816663e-05,6.6667,6.4667
3.46484375,-0.0006206007783703364,3.269203494163426e-05,3.7085560306706354e-05,2.829850957656216e-05,6.6667,6.4667
3.46875,-0.0005790758615518425,4.391993309681851e-05,2.9274848546578178e-05,3.171569597161824e-05,6.6667,6.4667
3.47265625,-0.0005512502009063859,3.3668373911650276e-05,2.2440475756466028e-05,2.829850957656216e-05,6.6667,6.4667
3.4765625,-0.0005634544380315862,3.90382382467384e-05,2.976301803158619e-05,2.0975967301441994e-05,6.6667,6.4667
3.48046875,-0.0005463685060563058,3.610922133669034e-05,4.050274670176243e-05,2.878667906157017e-05,6.6667,6.4667
3.484375,-0.0006064438633051042,2.488132318150608e-05,3.4156543396658294e-05,2.976301803158619e-05,6.6667,6.4667
3.48828125,-0.0006059556938200961,2.5857662151522106e-05,3.4156543396658294e-05,2.3416814726482047e-05,6.6667,6.4667
3.4921875,-0.0005395341332661936,2.0975967301441994e-05,3.7085560306706354e-05,2.292864524147404e-05,6.6667,6.4667
3.49609375,-0.0005248890487159533,4.4896272066834534e-05,4.34317636118105e-05,2.5857662151522106e-05,6.6667,6.4667
3.5,-0.0005185428454108492,4.5872611036850557e-05,4.34317636118105e-05,2.6345831636530114e-05,6.6667,6.4667
3.50390625,-0.0006152309140352483,2.2440475756466028e-05,4.050274670176243e-05,2.488132318150608e-05,6.6667,6.4667
3.5078125,-0.0005927446071320667,3.46447128816663e-05,2.2440475756466028e-05,2.439315369649807e-05,6.6667,6.4667
3.51171875,-0.0004750957612451362,3.952640773174641e-05,8.283560691233709e-06,2.5857662151522106e-05,6.6667,6.4667
3.515625,-0.0004916935237354085,3.0251187516594204e-05,3.7573729791714366e-05,2.6834001121538125e-05,6.6667,6.4667
3.51953125,-0.0005390459637811855,2.5857662151522106e-05,4.440810258182652e-05,2.5857662151522106e-05,6.6667,6.4667
3.5234375,-0.0005532028788464179,2.2440475756466028e-05,2.6345831636530114e-05,2.6345831636530114e-05,6.6667,6.4667
3.52734375,-0.000517078336955825,1.7070611421377907e-05,2.0487797816433986e-05,2.3904984211490058e-05,6.6667,6.4667
3.53125,-0.0005239127097459372,2.488132318150608e-05,2.9274848546578178e-05,2.3416814726482047e-05,6.6667,6.4667
3.53515625,-0.0005449039976012818,3.659739082169834e-05,4.684895000686658e-05,2.829850957656216e-05,6.6667,6.4667
3.5390625,-0.0005429513196612497,2.829850957656216e-05,4.7825288976882595e-05,2.9274848546578178e-05,6.6667,6.4667
3.54296875,-0.0005654071159716181,2.878667906157017e-05,3.5132882366674316e-05,2.6834001121538125e-05,6.6667,6.4667
3.546875,-0.0005776113530968184,2.7322170606546137e-05,3.269203494163426e-05,2.439315369649807e-05,6.6667,6.4667
3.55078125,-0.0005912800986770428,2.829850957656216e-05,3.3668373911650276e-05,2.292864524147404e-05,6.6667,6.4667
3.5546875,-0.0005922564376470588,4.1479085671778456e-05,4.34317636118105e-05,2.1464136786450005e-05,6.6667,6.4667
3.55859375,-0.000646473761075761,4.001457721675442e-05,4.0990916186770444e-05,2.1952306271458016e-05,6.6667,6.4667
3.5625,-0.0007153056584618905,3.659739082169834e-05,2.7810340091554148e-05,2.0975967301441994e-05,6.6667,6.4667
3.56640625,-0.0006196244394003203,3.90382382467384e-05,1.4629763996337851e-05,1.902328936140995e-05,6.6667,6.4667
3.5703125,-0.0005849338953719386,2.2440475756466028e-05,9.259899661249731e-06,2.1952306271458016e-05,6.6667,6.4667
3.57421875,-0.0005810285394918745,1.6094272451361885e-05,3.0739357001602215e-05,2.439315369649807e-05,6.6667,6.4667
3.578125,-0.0005810285394918745,1.0724408116273763e-05,2.7322170606546137e-05,2.2440475756466028e-05,6.6667,6.4667
3.58203125,-0.0005434394891462577,2.5369492666514095e-05,1.8046950391393927e-05,2.5369492666514095e-05,6.6667,6.4667
3.5859375,-0.0005019450829205768,3.0739357001602215e-05,3.171569597161824e-05,2.7322170606546137e-05,6.6667,6.4667
3.58984375,-0.00046579003043717096,1.7070611421377907e-05,1.8535119876401938e-05,2.3904984211490058e-05,6.6667,6.4667
3.59375,-0.00037987220107576103,3.1227526486610226e-05,1.2188916571297797e-05,2.1464136786450005e-05,6.6667,6.4667
3.59765625,-0.0004384525392767223,2.7322170606546137e-05,2.439315369649807e-05,2.1464136786450005e-05,6.6667,6.4667
3.6015625,-0.0004589556576470588,2.5857662151522106e-05,3.1227526486610226e-05,2.5857662151522106e-05,6.6667,6.4667
3.60546875,-0.0003486293540352483,3.318020442664227e-05,2.5369492666514095e-05,2.5369492666514095e-05,6.6667,6.4667
3.609375,-0.00033837779485008007,9.748069146257742e-06,1.6582441936369896e-05,2.2440475756466028e-05,6.6667,6.4667
3.61328125,-0.000334960608455024,1.3165255541313818e-05,2.5857662151522106e-05,2.6345831636530114e-05,6.6667,6.4667
3.6171875,-0.00032272586073701074,3.659739082169834e-05,2.3904984211490058e-05,2.7810340091554148e-05,6.6667,6.4667
3.62109375,-0.0003007582339116503,3.562105185168232e-05,1.755878090638592e-05,3.0739357001602215e-05,6.6667,6.4667
3.625,-0.00028708948833142594,3.562105185168232e-05,2.488132318150608e-05,3.0739357001602215e-05,6.6667,6.4667
3.62890625,-0.00028757765781643393,3.269203494163426e-05,2.6345831636530114e-05,2.6834001121538125e-05,6.6667,6.4667
3.6328125,-0.000245595082105745,2.6345831636530114e-05,1.7070611421377907e-05,2.2440475756466028e-05,6.6667,6.4667
3.63671875,-0.00027342074275120166,1.1700747086289786e-05,1.0724408116273763e-05,2.0975967301441994e-05,6.6667,6.4667
3.640625,-0.00020800603176012816,1.365342502632183e-05,2.292864524147404e-05,2.6345831636530114e-05,6.6667,6.4667
3.64453125,-0.0001303565730510414,1.4629763996337851e-05,2.439315369649807e-05,2.7322170606546137e-05,6.6667,6.4667
3.6484375,-0.00011131796313572899,1.0236238631265752e-05,1.755878090638592e-05,2.976301803158619e-05,6.6667,6.4667
3.65234375,-6.637585992217897e-05,2.1952306271458016e-05,2.1952306271458016e-05,2.829850957656216e-05,6.6667,6.4667
3.65625,-1.755891142137787e-05,3.8550068761730395e-05,2.6345831636530114e-05,2.5369492666514095e-05,6.6667,6.4667
3.66015625,7.079976536507211e-05,2.0975967301441994e-05,1.7070611421377907e-05,2.9274848546578178e-05,6.6667,6.4667
3.6640625,8.690935837033648e-05,1.5606102966353874e-05,2.7322170606546137e-05,2.6345831636530114e-05,6.6667,6.4667
3.66796875,0.00011082966313572902,3.0739357001602215e-05,2.0975967301441994e-05,2.3416814726482047e-05,6.6667,6.4667
3.671875,0.00012156939180590525,2.976301803158619e-05,1.8046950391393927e-05,2.6345831636530114e-05,6.6667,6.4667
3.67578125,0.00010594796828564891,3.806189927672238e-05,4.636078052185856e-05,2.7322170606546137e-05,6.6667,6.4667
3.6796875,0.00012986827305104144,2.9274848546578178e-05,3.0251187516594204e-05,2.5369492666514095e-05,6.6667,6.4667
3.68359375,0.00013865532378118563,2.913696356145588e-06,9.748069146257742e-06,2.6834001121538125e-05,6.6667,6.4667
3.6875,0.00018356691640192266,1.0236238631265752e-05,2.3416814726482047e-05,2.9274848546578178e-05,6.6667,6.4667
3.69140625,0.00016062295060654614,2.9274848546578178e-05,2.5857662151522106e-05,2.7322170606546137e-05,6.6667,6.4667
3.6953125,0.00013963166275120166,3.4156543396658294e-05,2.439315369649807e-05,2.488132318150608e-05,6.6667,6.4667
3.69921875,0.00012889193408102543,2.976301803158619e-05,3.171569597161824e-05,2.5857662151522106e-05,6.6667,6.4667
3.703125,6.295854301213094e-05,4.538444155184254e-05,3.90382382467384e-05,2.1952306271458016e-05,6.6667,6.4667
3.70703125,4.538444155184254e-05,5.905318713206685e-05,4.440810258182652e-05,1.9999628331425975e-05,6.6667,6.4667
3.7109375,1.6582441936369896e-05,4.196725515678646e-05,4.245542464179448e-05,2.5369492666514095e-05,6.6667,6.4667
3.71484375,2.6834001121538125e-05,3.220386545662624e-05,4.0990916186770444e-05,2.6345831636530114e-05,6.6667,6.4667
3.71875,6.330882751201665e-06,2.0975967301441994e-05,2.439315369649807e-05,2.3904984211490058e-05,6.6667,6.4667
3.72265625,-2.0487928331425938e-05,5.354543781185643e-06,1.3165255541313818e-05,2.3904984211490058e-05,6.6667,6.4667
3.7265625,-1.121270811627373e-05,4.7284893110553325e-07,1.5606102966353874e-05,2.292864524147404e-05,6.6667,6.4667
3.73046875,-6.34468430121309e-05,2.2440475756466028e-05,2.5369492666514095e-05,2.0975967301441994e-05,6.6667,6.4667
3.734375,2.913696356145588e-06,3.269203494163426e-05,3.318020442664227e-05,2.6345831636530114e-05,6.6667,6.4667
3.73828125,6.0029526102082876e-05,2.3416814726482047e-05,2.5857662151522106e-05,2.9274848546578178e-05,6.6667,6.4667
3.7421875,-5.354674296177598e-06,1.3165255541313818e-05,1.4141594511329842e-05,2.7810340091554148e-05,6.6667,6.4667
3.74609375,-5.0266266916914606e-05,1.365342502632183e-05,9.259899661249731e-06,2.6345831636530114e-05,6.6667,6.4667
3.75,-4.2943724641794444e-05,2.1952306271458016e-05,1.365342502632183e-05,2.5369492666514095e-05,6.6667,6.4667
3.75390625,1.4491879011215552e-06,2.829850957656216e-05,1.5606102966353874e-05,2.6834001121538125e-05,6.6667,6.4667
3.7578125,-5.842843781185608e-06,3.171569597161824e-05,3.46447128816663e-05,2.5857662151522106e-05,6.6667,6.4667
3.76171875,-5.354674296177598e-06,2.292864524147404e-05,4.684895000686658e-05,2.439315369649807e-05,6.6667,6.4667
3.765625,-2.8298640091554114e-05,8.283560691233709e-06,3.269203494163426e-05,2.5369492666514095e-05,6.6667,6.4667
3.76953125,-4.53845720668345e-05,3.401865841153599e-06,3.806189927672238e-05,2.439315369649807e-05,6.6667,6.4667
3.7734375,-9.260030176241686e-06,1.1212577601281776e-05,3.220386545662624e-05,2.488132318150608e-05,6.6667,6.4667
3.77734375,2.0487797816433986e-05,3.0251187516594204e-05,2.1464136786450005e-05,2.0975967301441994e-05,6.6667,6.4667
3.78125,4.4896272066834534e-05,3.171569597161824e-05,3.0251187516594204e-05,1.951145884641796e-05,6.6667,6.4667
3.78515625,-5.0266266916914606e-05,1.4141594511329842e-05,2.2440475756466028e-05,2.0975967301441994e-05,6.6667,6.4667
3.7890625,-5.8076978677042786e-05,2.878667906157017e-05,1.902328936140995e-05,2.1464136786450005e-05,6.6667,6.4667
3.79296875,6.051769558709088e-05,4.5872611036850557e-05,2.7810340091554148e-05,2.439315369649807e-05,6.6667,6.4667
3.796875,5.270698382696271e-05,3.46447128816663e-05,2.976301803158619e-05,2.1952306271458016e-05,6.6667,6.4667
3.80078125,3.7085560306706354e-05,3.0739357001602215e-05,3.1227526486610226e-05,2.439315369649807e-05,6.6667,6.4667
3.8046875,4.001457721675442e-05,3.171569597161824e-05,3.171569597161824e-05,2.9274848546578178e-05,6.6667,6.4667
3.80859375,3.806189927672238e-05,2.5857662151522106e-05,1.755878090638592e-05,2.878667906157017e-05,6.6667,6.4667
3.8125,7.42169517601282e-05,2.5857662151522106e-05,1.8046950391393927e-05,2.488132318150608e-05,6.6667,6.4667
3.81640625,0.00011131783262073704,3.171569597161824e-05,4.391993309681851e-05,2.829850957656216e-05,6.6667,6.4667
3.8203125,8.593301940032045e-05,3.5132882366674316e-05,4.684895000686658e-05,2.9274848546578178e-05,6.6667,6.4667
3.82421875,9.862542601052873e-05,2.6834001121538125e-05,2.3904984211490058e-05,2.5857662151522106e-05,6.6667,6.4667
3.828125,0.0001459778660563058,3.0251187516594204e-05,1.3165255541313818e-05,2.9274848546578178e-05,6.6667,6.4667
3.83203125,0.00014744237451132981,3.90382382467384e-05,1.902328936140995e-05,2.3416814726482047e-05,6.6667,6.4667
3.8359375,0.00016745732339665828,3.7085560306706354e-05,2.439315369649807e-05,2.0487797816433986e-05,6.6667,6.4667
3.83984375,0.00014646603554131383,1.9999628331425975e-05,2.878667906157017e-05,2.488132318150608e-05,6.6667,6.4667
3.84375,7.42169517601282e-05,1.365342502632183e-05,2.6834001121538125e-05,2.3904984211490058e-05,6.6667,6.4667
3.84765625,0.00014695420502632182,1.9999628331425975e-05,1.3165255541313818e-05,2.439315369649807e-05,6.6667,6.4667
3.8515625,0.00019186579764705886,3.0739357001602215e-05,2.7322170606546137e-05,2.829850957656216e-05,6.6667,6.4667
3.85546875,0.0002041005453650721,4.7337119491874584e-05,4.977796691691464e-05,3.3668373911650276e-05,6.6667,6.4667
3.859375,0.00018503142485694669,3.3668373911650276e-05,3.3668373911650276e-05,3.269203494163426e-05,6.6667,6.4667
3.86328125,0.00014011983223620968,1.365342502632183e-05,2.2440475756466028e-05,3.269203494163426e-05,6.6667,6.4667
3.8671875,0.00015671759472648205,2.0487797816433986e-05,2.6345831636530114e-05,3.3668373911650276e-05,6.6667,6.4667
3.87109375,0.00016941000133669033,2.488132318150608e-05,2.3416814726482047e-05,3.0251187516594204e-05,6.6667,6.4667
3.875,0.00022167464682536052,1.5606102966353874e-05,3.0251187516594204e-05,3.0251187516594204e-05,6.6667,6.4667
3.87890625,0.00013474996790112154,2.9274848546578178e-05,4.4896272066834534e-05,3.0251187516594204e-05,6.6667,6.4667
3.8828125,0.00011522318850080111,3.8550068761730395e-05,4.684895000686658e-05,3.46447128816663e-05,6.6667,6.4667
3.88671875,0.0002163047824902724,2.5369492666514095e-05,4.636078052185856e-05,3.90382382467384e-05,6.6667,6.4667
3.890625,0.00019235396713206685,3.46447128816663e-05,4.1479085671778456e-05,3.90382382467384e-05,6.6667,6.4667
3.89453125,0.00018844861125200276,5.026613640192266e-05,4.294359412680248e-05,4.196725515678646e-05,6.6667,6.4667
3.8984375,0.00018796044176699477,4.440810258182652e-05,3.5132882366674316e-05,3.90382382467384e-05,6.6667,6.4667
3.90234375,0.0001811260689768826,2.6345831636530114e-05,2.9274848546578178e-05,3.8550068761730395e-05,6.6667,6.4667
3.90625,0.0001513477303913939,6.330882751201665e-06,2.5857662151522106e-05,3.269203494163426e-05,6.6667,6.4667
3.91015625,0.00011424684953078509,2.1464136786450005e-05,2.6834001121538125e-05,2.7810340091554148e-05,6.6667,6.4667
3.9140625,0.00014793054399633786,3.0739357001602215e-05,3.46447128816663e-05,3.46447128816663e-05,6.6667,6.4667
3.91796875,0.00011961671386587322,2.7810340091554148e-05,4.245542464179448e-05,3.46447128816663e-05,6.6667,6.4667
3.921875,0.00010399529034561686,3.318020442664227e-05,3.5132882366674316e-05,3.0251187516594204e-05,6.6667,6.4667
3.92578125,0.00013767898481116962,3.562105185168232e-05,2.6345831636530114e-05,3.318020442664227e-05,6.6667,6.4667
3.9296875,0.00014402518811627377,3.7573729791714366e-05,2.829850957656216e-05,3.806189927672238e-05,6.6667,6.4667
3.93359375,0.00011278234107576106,3.952640773174641e-05,2.439315369649807e-05,3.5132882366674316e-05,6.6667,6.4667
3.9375,6.982342639505609e-05,4.294359412680248e-05,2.1464136786450005e-05,3.318020442664227e-05,6.6667,6.4667
3.94140625,5.270698382696271e-05,4.977796691691464e-05,2.0975967301441994e-05,3.0251187516594204e-05,6.6667,6.4667
3.9453125,2.5857662151522106e-05,4.391993309681851e-05,1.4629763996337851e-05,2.7322170606546137e-05,6.6667,6.4667
3.94921875,1.1700747086289786e-05,2.1464136786450005e-05,3.269203494163426e-05,2.3904984211490058e-05,6.6667,6.4667
3.953125,-4.53845720668345e-05,2.6834001121538125e-05,3.90382382467384e-05,2.0975967301441994e-05,6.6667,6.4667
3.95703125,-6.442318198214692e-05,3.610922133669034e-05,2.6834001121538125e-05,2.3416814726482047e-05,6.6667,6.4667
3.9609375,-5.612430073701074e-05,3.562105185168232e-05,2.6345831636530114e-05,2.6834001121538125e-05,6.6667,6.4667
3.96484375,-5.954148713206682e-05,2.7322170606546137e-05,2.5369492666514095e-05,2.7810340091554148e-05,6.6667,6.4667
3.96875,-8.283691206225664e-06,2.292864524147404e-05,1.8535119876401938e-05,2.7322170606546137e-05,6.6667,6.4667
3.97265625,-9.374386167544058e-05,3.0739357001602215e-05,9.748069146257742e-06,2.3416814726482047e-05,6.6667,6.4667
3.9765625,-0.000112294302105745,4.245542464179448e-05,3.1227526486610226e-05,2.5369492666514095e-05,6.6667,6.4667
3.98046875,-4.7825419491874556e-05,4.7337119491874584e-05,4.538444155184254e-05,2.9274848546578178e-05,6.6667,6.4667
3.984375,-9.667287858548866e-05,2.976301803158619e-05,3.3668373911650276e-05,2.7810340091554148e-05,6.6667,6.4667
3.98828125,-9.716104807049665e-05,6.819052236209676e-06,3.318020442664227e-05,2.7322170606546137e-05,6.6667,6.4667
3.9921875,-8.739765837033644e-05,2.1952306271458016e-05,3.610922133669034e-05,2.9274848546578178e-05,6.6667,6.4667
3.99609375,-5.3683453311970684e-05,5.1730644856946685e-05,4.7337119491874584e-05,3.46447128816663e-05,6.6667,6.4667
4.0,-8.056328558022428e-05,4.0990916186770444e-05,5.270698382696271e-05,2.9274848546578178e-05,6.6667,6.4667
4.00390625,-0.00014939518296635385,1.8046950391393927e-05,1.9999628331425975e-05,2.5369492666514095e-05,6.6667,6.4667
4.0078125,-0.0001928422671320668,8.283560691233709e-06,5.354543781185643e-06,3.3668373911650276e-05,6.6667,6.4667
4.01171875,-0.0002524294548958571,1.2188916571297797e-05,1.4141594511329842e-05,3.4156543396658294e-05,6.6667,6.4667
4.015625,-0.00021093504867017622,2.488132318150608e-05,1.0236238631265752e-05,3.610922133669034e-05,6.6667,6.4667
4.01953125,-0.00015476504730144196,2.5857662151522106e-05,1.8046950391393927e-05,3.3668373911650276e-05,6.6667,6.4667
4.0234375,-0.00021386406558022427,1.2677086056305808e-05,4.001457721675442e-05,2.9274848546578178e-05,6.6667,6.4667
4.02734375,-0.0002690272173861296,8.283560691233709e-06,3.4156543396658294e-05,3.318020442664227e-05,6.6667,6.4667
4.03125,-0.00023094999755550466,2.7322170606546137e-05,2.6345831636530114e-05,3.220386545662624e-05,6.6667,6.4667
4.03515625,-0.00018112619949187456,5.2218814341954696e-05,3.318020442664227e-05,3.0251187516594204e-05,6.6667,6.4667
4.0390625,-0.0002231392857953765,4.684895000686658e-05,2.7322170606546137e-05,3.269203494163426e-05,6.6667,6.4667
4.04296875,-0.0002231392857953765,2.0487797816433986e-05,2.488132318150608e-05,3.318020442664227e-05,6.6667,6.4667
4.046875,-0.00023583169240558478,2.3416814726482047e-05,3.3668373911650276e-05,3.269203494163426e-05,6.6667,6.4667
4.05078125,-0.00025340579386587316,2.878667906157017e-05,3.8550068761730395e-05,2.829850957656216e-05,6.6667,6.4667
4.0546875,-0.00021239955712520025,3.269203494163426e-05,3.4156543396658294e-05,3.0251187516594204e-05,6.6667,6.4667
4.05859375,-0.0001874724027969787,3.1227526486610226e-05,3.46447128816663e-05,3.3668373911650276e-05,6.6667,6.4667
4.0625,-0.00018844874176699472,2.878667906157017e-05,3.8550068761730395e-05,3.0739357001602215e-05,6.6667,6.4667
4.06640625,-0.00025731114974593725,2.976301803158619e-05,3.4156543396658294e-05,2.829850957656216e-05,6.6667,6.4667
4.0703125,-0.00022899731961547261,3.4156543396658294e-05,2.7322170606546137e-05,2.6834001121538125e-05,6.6667,6.4667
4.07421875,-0.00016696928442664225,5.075430588693066e-05,2.9274848546578178e-05,2.878667906157017e-05,6.6667,6.4667
4.078125,-0.00018698423331197067,5.368332279697873e-05,3.952640773174641e-05,3.610922133669034e-05,6.6667,6.4667
4.08203125,-0.00019333043661707482,3.562105185168232e-05,3.562105185168232e-05,3.806189927672238e-05,6.6667,6.4667
4.0859375,-0.0002856249798764019,1.9999628331425975e-05,3.171569597161824e-05,3.1227526486610226e-05,6.6667,6.4667
4.08984375,-0.00026853904790112153,2.0487797816433986e-05,3.269203494163426e-05,3.269203494163426e-05,6.6667,6.4667
