timestamp,TP9,AF7,AF8,TP10,Valence,Arousal
0.0,-1.3680576844434284e-05,-4.19938971389334e-05,-4.981525633630886e-05,-5.810589708552683e-05,6.2667,4.1333
0.00390625,-2.7349906149385845e-05,-4.54112294651713e-05,-4.1512582726787225e-05,-5.420725034714276e-05,6.2667,4.1333
0.0078125,-3.320990911726559e-05,-4.0537921042191214e-05,-4.687923842221715e-05,-4.8347247379263006e-05,6.2667,4.1333
0.01171875,-2.7349906149385845e-05,-3.0273891203173887e-05,-3.5159232486457637e-05,-3.809525040054933e-05,6.2667,4.1333
0.015625,-1.2212567887388445e-05,-3.174190016021974e-05,-3.126058574807356e-05,-2.784325342183567e-05,6.2667,4.1333
0.01953125,-8.795235561150548e-06,-3.271656184481576e-05,-3.0767238475623714e-05,-3.271656184481576e-05,6.2667,4.1333
0.0234375,-1.0744558930342577e-05,-2.4907235507743963e-05,-4.0537921042191214e-05,-5.176457970550089e-05,6.2667,4.1333
0.02734375,9.754470054169246e-07,-1.6123247486076166e-05,-3.906991208514536e-05,-5.323258866254674e-05,6.2667,4.1333
0.03125,-7.32722660410468e-06,-2.4413888235294136e-05,-3.857656481269552e-05,-5.7624582673380644e-05,6.2667,4.1333
0.03515625,-3.0767238475623714e-05,-3.5159232486457637e-05,-4.9321909063859024e-05,-4.785390010681317e-05,6.2667,4.1333
0.0390625,-3.174190016021974e-05,-3.126058574807356e-05,-3.955122649729154e-05,-2.4907235507743963e-05,6.2667,4.1333
0.04296875,-2.3932573823147948e-05,-2.97925767910277e-05,-3.0273891203173887e-05,-2.832456783398186e-05,6.2667,4.1333
0.046875,-1.0263244518196387e-05,-2.3932573823147948e-05,-3.174190016021974e-05,-2.0021894224460227e-05,6.2667,4.1333
0.05078125,-1.4672236362249293e-06,-1.856591812771802e-05,-3.320990911726559e-05,-2.9352325932707967e-06,6.2667,4.1333
0.0546875,-1.318722957198446e-05,-2.4413888235294136e-05,-3.126058574807356e-05,-3.5159232486457637e-05,6.2667,4.1333
0.05859375,-1.856591812771802e-05,-3.5159232486457637e-05,-2.4413888235294136e-05,-6.05485677271687e-05,6.2667,4.1333
0.0625,-2.685655887693599e-05,-3.6133894171053655e-05,-4.3461906095979256e-05,-4.492991505302511e-05,6.2667,4.1333
0.06640625,-3.0273891203173887e-05,-2.7349906149385845e-05,-5.323258866254674e-05,-3.5159232486457637e-05,6.2667,4.1333
0.0703125,-2.4413888235294136e-05,-2.8817915106431684e-05,-3.955122649729154e-05,-4.4436567780575275e-05,6.2667,4.1333
0.07421875,-2.5400582780193814e-05,-3.857656481269552e-05,-4.0537921042191214e-05,-5.468856475928893e-05,6.2667,4.1333
0.078125,-1.1719220614938592e-05,-2.5400582780193814e-05,-2.832456783398186e-05,-4.0537921042191214e-05,6.2667,4.1333
0.08203125,-9.859092240787675e-07,-1.123790620279243e-05,-1.46552385290303e-05,-2.5881897192339975e-05,6.2667,4.1333
0.0859375,-1.856591812771802e-05,-2.099655590905624e-05,-1.0263244518196387e-05,-3.857656481269552e-05,6.2667,4.1333
0.08984375,-2.5400582780193814e-05,-3.0273891203173887e-05,-4.884555962462826e-06,-3.5652579758907464e-05,6.2667,4.1333
0.09375,-1.709790917067218e-05,-3.223524743266958e-05,-2.051524149691005e-05,-2.1983250453955917e-05,6.2667,4.1333
0.09765625,-3.174190016021974e-05,-2.784325342183567e-05,-3.271656184481576e-05,-2.3932573823147948e-05,6.2667,4.1333
0.1015625,-4.296855882352942e-05,-3.5159232486457637e-05,-2.97925767910277e-05,-2.929922951857787e-05,6.2667,4.1333
0.10546875,-3.0273891203173887e-05,-3.809525040054933e-05,-3.712058871595332e-05,-4.1512582726787225e-05,6.2667,4.1333
0.109375,-2.5400582780193814e-05,-3.271656184481576e-05,-3.662724144350349e-05,-3.418457080186161e-05,6.2667,4.1333
0.11328125,-2.2957912138551932e-05,-3.0767238475623714e-05,-2.929922951857787e-05,-2.1489903181506093e-05,6.2667,4.1333
0.1171875,-1.904723253986421e-05,-2.1489903181506093e-05,-3.6133894171053655e-05,-4.39552533684291e-05,6.2667,4.1333
0.12109375,-2.4413888235294136e-05,-2.2957912138551932e-05,-4.296855882352942e-05,-5.7624582673380644e-05,6.2667,4.1333
0.125,-2.637524446478983e-05,-3.223524743266958e-05,-3.174190016021974e-05,-4.39552533684291e-05,6.2667,4.1333
0.12890625,-4.4436567780575275e-05,-3.174190016021974e-05,-3.5159232486457637e-05,-3.5652579758907464e-05,6.2667,4.1333
0.1328125,-5.273924139009691e-05,-4.39552533684291e-05,-4.492991505302511e-05,-2.637524446478983e-05,6.2667,4.1333
0.13671875,-3.955122649729154e-05,-4.54112294651713e-05,-2.929922951857787e-05,-9.288582833600372e-06,6.2667,4.1333
0.140625,-2.637524446478983e-05,-4.1512582726787225e-05,-2.5400582780193814e-05,-9.288582833600372e-06,6.2667,4.1333
0.14453125,-3.126058574807356e-05,-4.19938971389334e-05,-3.0273891203173887e-05,-2.784325342183567e-05,6.2667,4.1333
0.1484375,-4.3461906095979256e-05,-3.955122649729154e-05,-4.687923842221715e-05,-5.7624582673380644e-05,6.2667,4.1333
0.15234375,-3.223524743266958e-05,-3.320990911726559e-05,-4.785390010681317e-05,-6.104191499961854e-05,6.2667,4.1333
0.15625,-2.3932573823147948e-05,-2.784325342183567e-05,-3.3691223529411784e-05,-4.19938971389334e-05,6.2667,4.1333
0.16015625,-3.5159232486457637e-05,-3.5652579758907464e-05,-4.737258569466698e-05,-4.101923545433739e-05,6.2667,4.1333
0.1640625,-3.3691223529411784e-05,-3.3691223529411784e-05,-4.4436567780575275e-05,-3.955122649729154e-05,6.2667,4.1333
0.16796875,-2.784325342183567e-05,-2.8817915106431684e-05,-2.4907235507743963e-05,-2.1489903181506093e-05,6.2667,4.1333
0.171875,-2.929922951857787e-05,-3.174190016021974e-05,-1.7579223582818342e-05,-2.929922951857787e-05,6.2667,4.1333
0.17578125,-3.857656481269552e-05,-3.4677918074311445e-05,-2.97925767910277e-05,-4.639792401007096e-05,6.2667,4.1333
0.1796875,-3.712058871595332e-05,-3.271656184481576e-05,-3.3691223529411784e-05,-3.0767238475623714e-05,6.2667,4.1333
0.18359375,-2.929922951857787e-05,-3.223524743266958e-05,-3.126058574807356e-05,-1.8072570855268196e-05,6.2667,4.1333
0.1875,-2.7349906149385845e-05,-3.662724144350349e-05,-4.639792401007096e-05,-2.832456783398186e-05,6.2667,4.1333
0.19140625,-4.0537921042191214e-05,-4.0537921042191214e-05,-4.687923842221715e-05,-5.176457970550089e-05,6.2667,4.1333
0.1953125,-4.687923842221715e-05,-4.492991505302511e-05,-3.4677918074311445e-05,-4.785390010681317e-05,6.2667,4.1333
0.19921875,-2.5881897192339975e-05,-4.004457376974137e-05,-2.4907235507743963e-05,-2.1983250453955917e-05,6.2667,4.1333
0.203125,-2.784325342183567e-05,-3.857656481269552e-05,-2.3932573823147948e-05,-3.126058574807356e-05,6.2667,4.1333
0.20703125,-3.906991208514536e-05,-3.809525040054933e-05,-2.1983250453955917e-05,-4.785390010681317e-05,6.2667,4.1333
0.2109375,-3.4677918074311445e-05,-3.0273891203173887e-05,-3.320990911726559e-05,-4.296855882352942e-05,6.2667,4.1333
0.21484375,-2.4413888235294136e-05,-1.8072570855268196e-05,-4.0537921042191214e-05,-2.7349906149385845e-05,6.2667,4.1333
0.21875,-1.6604561898222327e-05,-1.4161891256580474e-05,-3.5159232486457637e-05,-2.4413888235294136e-05,6.2667,4.1333
0.22265625,-2.3439226550698124e-05,-2.246456486610211e-05,-4.296855882352942e-05,-4.39552533684291e-05,6.2667,4.1333
0.2265625,-3.5652579758907464e-05,-2.5881897192339975e-05,-3.3691223529411784e-05,-5.9092591630426497e-05,6.2667,4.1333
0.23046875,-3.5159232486457637e-05,-2.8817915106431684e-05,-1.4161891256580474e-05,-4.785390010681317e-05,6.2667,4.1333
0.234375,-6.845912191958518e-06,-2.685655887693599e-05,-2.099655590905624e-05,-1.318722957198446e-05,6.2667,4.1333
0.23828125,-2.099655590905624e-05,-3.223524743266958e-05,-4.9321909063859024e-05,-2.8817915106431684e-05,6.2667,4.1333
0.2421875,-4.981525633630886e-05,-3.5652579758907464e-05,-5.859924435797667e-05,-4.3461906095979256e-05,6.2667,4.1333
0.24609375,-4.54112294651713e-05,-2.637524446478983e-05,-4.0537921042191214e-05,-2.637524446478983e-05,6.2667,4.1333
0.25,-3.320990911726559e-05,-2.685655887693599e-05,-3.0273891203173887e-05,-3.4677918074311445e-05,6.2667,4.1333
0.25390625,-2.929922951857787e-05,-3.0767238475623714e-05,-2.929922951857787e-05,-4.737258569466698e-05,6.2667,4.1333
0.2578125,-2.784325342183567e-05,-2.637524446478983e-05,-1.8072570855268196e-05,-3.0273891203173887e-05,6.2667,4.1333
0.26171875,-1.5629900213626315e-05,-2.099655590905624e-05,-4.403241550316636e-06,-3.418457080186161e-05,6.2667,4.1333
0.265625,-2.784325342183567e-05,-2.637524446478983e-05,-1.709790917067218e-05,-4.737258569466698e-05,6.2667,4.1333
0.26953125,-3.5652579758907464e-05,-2.1983250453955917e-05,-2.051524149691005e-05,-2.5400582780193814e-05,6.2667,4.1333
0.2734375,-3.955122649729154e-05,-2.929922951857787e-05,-1.5136552941176489e-05,-3.5159232486457637e-05,6.2667,4.1333
0.27734375,-5.6649920988784625e-05,-4.004457376974137e-05,-3.0767238475623714e-05,-5.420725034714276e-05,6.2667,4.1333
0.28125,-6.69019179674983e-05,-3.418457080186161e-05,-4.4436567780575275e-05,-3.712058871595332e-05,6.2667,4.1333
0.28515625,-5.0296570748455036e-05,-2.4413888235294136e-05,-3.271656184481576e-05,-1.0263244518196387e-05,6.2667,4.1333
0.2890625,-2.1983250453955917e-05,-2.3439226550698124e-05,-3.857656481269552e-05,-1.2705915159838269e-05,6.2667,4.1333
0.29296875,-1.3680576844434284e-05,-3.271656184481576e-05,-4.3461906095979256e-05,-4.1512582726787225e-05,6.2667,4.1333
0.296875,-1.856591812771802e-05,-4.4436567780575275e-05,-4.296855882352942e-05,-5.323258866254674e-05,6.2667,4.1333
0.30078125,-3.0767238475623714e-05,-4.1512582726787225e-05,-3.906991208514536e-05,-3.857656481269552e-05,6.2667,4.1333
0.3046875,-4.004457376974137e-05,-3.662724144350349e-05,-1.1719220614938592e-05,-5.078991802090488e-05,6.2667,4.1333
0.30859375,-4.39552533684291e-05,-3.662724144350349e-05,3.418117647058807e-06,-5.273924139009691e-05,6.2667,4.1333
0.3125,-4.54112294651713e-05,-3.418457080186161e-05,-2.246456486610211e-05,-3.126058574807356e-05,6.2667,4.1333
0.31640625,-5.1271232433051055e-05,-3.6133894171053655e-05,-6.299123836881056e-05,-2.3439226550698124e-05,6.2667,4.1333
0.3203125,-3.809525040054933e-05,-3.3691223529411784e-05,-4.882856179140918e-05,-1.0744558930342577e-05,6.2667,4.1333
0.32421875,-2.3932573823147948e-05,-3.418457080186161e-05,-2.929922951857787e-05,-7.32722660410468e-06,6.2667,4.1333
0.328125,-3.857656481269552e-05,-3.857656481269552e-05,-3.126058574807356e-05,-3.126058574807356e-05,6.2667,4.1333
0.33203125,-2.4413888235294136e-05,-3.0767238475623714e-05,-1.3680576844434284e-05,-4.1512582726787225e-05,6.2667,4.1333
0.3359375,-2.1489903181506093e-05,-2.5881897192339975e-05,-2.8817915106431684e-05,-3.809525040054933e-05,6.2667,4.1333
0.33984375,-4.8347247379263006e-05,-2.4907235507743963e-05,-4.9321909063859024e-05,-3.712058871595332e-05,6.2667,4.1333
0.34375,-4.492991505302511e-05,-2.637524446478983e-05,-4.1512582726787225e-05,-2.784325342183567e-05,6.2667,4.1333
0.34765625,-3.223524743266958e-05,-3.0273891203173887e-05,-1.1719220614938592e-05,-2.1983250453955917e-05,6.2667,4.1333
0.3515625,-3.0273891203173887e-05,-2.637524446478983e-05,1.6594099679560515e-05,-2.8817915106431684e-05,6.2667,4.1333
0.35546875,-3.174190016021974e-05,-2.8817915106431684e-05,-2.441885320820944e-06,-3.126058574807356e-05,6.2667,4.1333
0.359375,-3.5159232486457637e-05,-3.906991208514536e-05,-5.420725034714276e-05,-3.955122649729154e-05,6.2667,4.1333
0.36328125,-3.174190016021974e-05,-3.174190016021974e-05,-7.178725925078204e-05,-3.6133894171053655e-05,6.2667,4.1333
0.3671875,-1.8072570855268196e-05,-2.4413888235294136e-05,-4.590457673762113e-05,-2.637524446478983e-05,6.2667,4.1333
0.37109375,-1.2705915159838269e-05,-3.418457080186161e-05,-2.2957912138551932e-05,-2.246456486610211e-05,6.2667,4.1333
0.375,-2.685655887693599e-05,-3.4677918074311445e-05,-2.685655887693599e-05,-1.7579223582818342e-05,6.2667,4.1333
0.37890625,-3.126058574807356e-05,-2.784325342183567e-05,-2.4907235507743963e-05,-2.832456783398186e-05,6.2667,4.1333
0.3828125,-2.97925767910277e-05,-2.929922951857787e-05,-3.418457080186161e-05,-3.906991208514536e-05,6.2667,4.1333
0.38671875,-3.857656481269552e-05,-3.760190312809951e-05,-3.3691223529411784e-05,-4.1512582726787225e-05,6.2667,4.1333
0.390625,-4.981525633630886e-05,-3.857656481269552e-05,-2.784325342183567e-05,-3.712058871595332e-05,6.2667,4.1333
0.39453125,-5.224589411764707e-05,-3.906991208514536e-05,-3.418457080186161e-05,-3.3691223529411784e-05,6.2667,4.1333
0.3984375,-3.857656481269552e-05,-3.955122649729154e-05,-2.5881897192339975e-05,-3.320990911726559e-05,6.2667,4.1333
0.40234375,-2.637524446478983e-05,-3.0273891203173887e-05,-4.1512582726787225e-05,-3.5652579758907464e-05,6.2667,4.1333
0.40625,-1.8072570855268196e-05,-2.637524446478983e-05,-5.6649920988784625e-05,-3.174190016021974e-05,6.2667,4.1333
0.41015625,-2.8817915106431684e-05,-3.5159232486457637e-05,-5.9092591630426497e-05,-3.3691223529411784e-05,6.2667,4.1333
0.4140625,-4.590457673762113e-05,-4.590457673762113e-05,-4.981525633630886e-05,-3.174190016021974e-05,6.2667,4.1333
0.41796875,-5.323258866254674e-05,-5.1271232433051055e-05,-4.882856179140918e-05,-3.223524743266958e-05,6.2667,4.1333
0.421875,-5.7131235400930816e-05,-4.4436567780575275e-05,-4.981525633630886e-05,-2.685655887693599e-05,6.2667,4.1333
0.42578125,-4.639792401007096e-05,-3.0767238475623714e-05,-2.5881897192339975e-05,-7.32722660410468e-06,6.2667,4.1333
0.4296875,-3.4677918074311445e-05,-3.320990911726559e-05,1.4567614175631148e-06,-1.7579223582818342e-05,6.2667,4.1333
0.43359375,-2.4413888235294136e-05,-3.809525040054933e-05,1.9501086900129394e-06,-4.4436567780575275e-05,6.2667,4.1333
0.4375,-1.3680576844434284e-05,-3.3691223529411784e-05,-3.418457080186161e-05,-5.224589411764707e-05,6.2667,4.1333
0.44140625,-6.845912191958518e-06,-2.4413888235294136e-05,-2.97925767910277e-05,-4.1512582726787225e-05,6.2667,4.1333
0.4453125,-1.46552385290303e-05,-1.8072570855268196e-05,-2.051524149691005e-05,-4.590457673762113e-05,6.2667,4.1333
0.44921875,-3.5652579758907464e-05,-3.6133894171053655e-05,-2.1983250453955917e-05,-2.637524446478983e-05,6.2667,4.1333
0.453125,-4.590457673762113e-05,-4.2487244411383244e-05,-2.2957912138551932e-05,-7.820573876554533e-06,6.2667,4.1333
0.45703125,-4.8347247379263006e-05,-3.3691223529411784e-05,-2.051524149691005e-05,-2.685655887693599e-05,6.2667,4.1333
0.4609375,-4.8347247379263006e-05,-4.19938971389334e-05,-2.5400582780193814e-05,-4.39552533684291e-05,6.2667,4.1333
0.46484375,-3.6133894171053655e-05,-3.3691223529411784e-05,-4.8347247379263006e-05,-4.19938971389334e-05,6.2667,4.1333
0.46875,-2.637524446478983e-05,-2.832456783398186e-05,-6.05485677271687e-05,-5.468856475928893e-05,6.2667,4.1333
0.47265625,-2.832456783398186e-05,-3.320990911726559e-05,-6.104191499961854e-05,-5.224589411764707e-05,6.2667,4.1333
0.4765625,-5.224589411764707e-05,-4.3461906095979256e-05,-5.0296570748455036e-05,-3.857656481269552e-05,6.2667,4.1333
0.48046875,-6.299123836881056e-05,-4.54112294651713e-05,-5.615657371633479e-05,-4.004457376974137e-05,6.2667,4.1333
0.484375,-4.0537921042191214e-05,-3.5159232486457637e-05,-4.004457376974137e-05,-2.5881897192339975e-05,6.2667,4.1333
0.48828125,-4.0537921042191214e-05,-3.223524743266958e-05,-2.3932573823147948e-05,-1.6604561898222327e-05,6.2667,4.1333
0.4921875,-5.1271232433051055e-05,-3.712058871595332e-05,-2.685655887693599e-05,-2.1983250453955917e-05,6.2667,4.1333
0.49609375,-4.54112294651713e-05,-4.1512582726787225e-05,-5.176457970550089e-05,-3.4677918074311445e-05,6.2667,4.1333
0.5,-3.955122649729154e-05,-4.492991505302511e-05,-6.445924732585642e-05,-5.518191203173877e-05,6.2667,4.1333
0.50390625,-3.955122649729154e-05,-4.19938971389334e-05,-4.39552533684291e-05,-5.567525930418861e-05,6.2667,4.1333
0.5078125,-2.3932573823147948e-05,-3.126058574807356e-05,-2.051524149691005e-05,-3.223524743266958e-05,6.2667,4.1333
0.51171875,-1.46552385290303e-05,-3.223524743266958e-05,3.418117647058807e-06,-2.5881897192339975e-05,6.2667,4.1333
0.515625,-2.051524149691005e-05,-3.0273891203173887e-05,-1.5136552941176489e-05,-2.3932573823147948e-05,6.2667,4.1333
0.51953125,-3.320990911726559e-05,-2.685655887693599e-05,-4.639792401007096e-05,-1.856591812771802e-05,6.2667,4.1333
0.5234375,-3.760190312809951e-05,-2.7349906149385845e-05,-4.639792401007096e-05,-2.5400582780193814e-05,6.2667,4.1333
0.52734375,-2.5881897192339975e-05,-2.5400582780193814e-05,-3.4677918074311445e-05,-2.5400582780193814e-05,6.2667,4.1333
0.53125,-3.0273891203173887e-05,-2.0021894224460227e-05,-3.857656481269552e-05,-1.123790620279243e-05,6.2667,4.1333
0.53515625,-4.492991505302511e-05,-3.5159232486457637e-05,-2.3439226550698124e-05,-2.4413888235294136e-05,6.2667,4.1333
0.5390625,-3.5652579758907464e-05,-3.712058871595332e-05,-1.9540579812314036e-05,-4.639792401007096e-05,6.2667,4.1333
0.54296875,-1.6123247486076166e-05,-1.6604561898222327e-05,-4.8347247379263006e-05,-4.0537921042191214e-05,6.2667,4.1333
0.546875,-1.8072570855268196e-05,-2.2957912138551932e-05,-4.590457673762113e-05,-4.0537921042191214e-05,6.2667,4.1333
0.55078125,-4.004457376974137e-05,-3.5652579758907464e-05,-2.4413888235294136e-05,-4.882856179140918e-05,6.2667,4.1333
0.5546875,-4.1512582726787225e-05,-3.271656184481576e-05,-1.2705915159838269e-05,-2.685655887693599e-05,6.2667,4.1333
0.55859375,-2.8817915106431684e-05,-2.3439226550698124e-05,-7.32722660410468e-06,-1.9605709086747823e-06,6.2667,4.1333
0.5625,-3.0273891203173887e-05,-2.4413888235294136e-05,-1.6123247486076166e-05,-1.8072570855268196e-05,6.2667,4.1333
0.56640625,-3.5159232486457637e-05,-3.6133894171053655e-05,-4.0537921042191214e-05,-3.418457080186161e-05,6.2667,4.1333
0.5703125,-4.981525633630886e-05,-5.078991802090488e-05,-5.0296570748455036e-05,-3.223524743266958e-05,6.2667,4.1333
0.57421875,-3.662724144350349e-05,-3.760190312809951e-05,-3.4677918074311445e-05,-2.832456783398186e-05,6.2667,4.1333
0.578125,-1.4672236362249293e-06,-2.3932573823147948e-05,-2.929922951857787e-05,-3.5652579758907464e-05,6.2667,4.1333
0.58203125,-1.5136552941176489e-05,-4.101923545433739e-05,-3.6133894171053655e-05,-4.687923842221715e-05,6.2667,4.1333
0.5859375,-4.004457376974137e-05,-3.6133894171053655e-05,-2.685655887693599e-05,-2.5400582780193814e-05,6.2667,4.1333
0.58984375,-3.809525040054933e-05,-1.904723253986421e-05,-1.46552385290303e-05,-8.795235561150548e-06,6.2667,4.1333
0.59375,-2.5400582780193814e-05,-2.246456486610211e-05,-9.769897245746563e-06,-2.5881897192339975e-05,6.2667,4.1333
0.59765625,-3.5159232486457637e-05,-4.19938971389334e-05,-2.97925767910277e-05,-5.7131235400930816e-05,6.2667,4.1333
0.6015625,-4.39552533684291e-05,-3.712058871595332e-05,-4.19938971389334e-05,-6.104191499961854e-05,6.2667,4.1333
0.60546875,-3.0273891203173887e-05,-1.904723253986421e-05,-2.637524446478983e-05,-3.906991208514536e-05,6.2667,4.1333
0.609375,-1.6123247486076166e-05,-1.3680576844434284e-05,-2.685655887693599e-05,-3.418457080186161e-05,6.2667,4.1333
0.61328125,-1.856591812771802e-05,-2.685655887693599e-05,-2.5400582780193814e-05,-3.418457080186161e-05,6.2667,4.1333
0.6171875,-4.004457376974137e-05,-4.4436567780575275e-05,-3.418457080186161e-05,-3.857656481269552e-05,6.2667,4.1333
0.62109375,-4.8347247379263006e-05,-3.271656184481576e-05,-4.0537921042191214e-05,-4.882856179140918e-05,6.2667,4.1333
0.625,-4.004457376974137e-05,-2.3439226550698124e-05,-3.760190312809951e-05,-2.8817915106431684e-05,6.2667,4.1333
0.62890625,-4.737258569466698e-05,-4.1512582726787225e-05,-4.004457376974137e-05,-1.709790917067218e-05,6.2667,4.1333
0.6328125,-5.859924435797667e-05,-4.492991505302511e-05,-3.4677918074311445e-05,-2.5881897192339975e-05,6.2667,4.1333
0.63671875,-4.54112294651713e-05,-3.955122649729154e-05,-2.0021894224460227e-05,-2.5400582780193814e-05,6.2667,4.1333
0.640625,-3.126058574807356e-05,-4.004457376974137e-05,-3.3691223529411784e-05,-3.5652579758907464e-05,6.2667,4.1333
0.64453125,-2.929922951857787e-05,-3.809525040054933e-05,-5.078991802090488e-05,-4.785390010681317e-05,6.2667,4.1333
0.6484375,-2.784325342183567e-05,-3.223524743266958e-05,-4.39552533684291e-05,-4.1512582726787225e-05,6.2667,4.1333
0.65234375,-1.856591812771802e-05,-2.5881897192339975e-05,-1.123790620279243e-05,-2.8817915106431684e-05,6.2667,4.1333
0.65625,-3.418457080186161e-05,-3.712058871595332e-05,-6.352564919508666e-06,-3.712058871595332e-05,6.2667,4.1333
0.66015625,-5.468856475928893e-05,-4.19938971389334e-05,-1.856591812771802e-05,-3.126058574807356e-05,6.2667,4.1333
0.6640625,-5.1271232433051055e-05,-3.857656481269552e-05,-3.0273891203173887e-05,-2.8817915106431684e-05,6.2667,4.1333
0.66796875,-5.224589411764707e-05,-3.5159232486457637e-05,-4.687923842221715e-05,-3.0273891203173887e-05,6.2667,4.1333
0.671875,-4.3461906095979256e-05,-2.929922951857787e-05,-5.1271232433051055e-05,-3.857656481269552e-05,6.2667,4.1333
0.67578125,-3.6133894171053655e-05,-3.3691223529411784e-05,-4.296855882352942e-05,-5.810589708552683e-05,6.2667,4.1333
0.6796875,-5.323258866254674e-05,-4.54112294651713e-05,-4.3461906095979256e-05,-4.639792401007096e-05,6.2667,4.1333
0.68359375,-5.420725034714276e-05,-4.1512582726787225e-05,-1.7579223582818342e-05,-4.54112294651713e-05,6.2667,4.1333
0.6875,-3.5159232486457637e-05,-2.4907235507743963e-05,4.820997329671002e-07,-4.687923842221715e-05,6.2667,4.1333
0.69140625,-2.3439226550698124e-05,-2.051524149691005e-05,-2.8817915106431684e-05,-1.5136552941176489e-05,6.2667,4.1333
0.6953125,-2.97925767910277e-05,-2.7349906149385845e-05,-4.3461906095979256e-05,-1.4161891256580474e-05,6.2667,4.1333
0.69921875,-4.2487244411383244e-05,-3.418457080186161e-05,-2.97925767910277e-05,-3.0767238475623714e-05,6.2667,4.1333
0.703125,-4.737258569466698e-05,-3.4677918074311445e-05,-2.5881897192339975e-05,-3.857656481269552e-05,6.2667,4.1333
0.70703125,-4.101923545433739e-05,-2.784325342183567e-05,-3.126058574807356e-05,-2.7349906149385845e-05,6.2667,4.1333
0.7109375,-4.687923842221715e-05,-2.3932573823147948e-05,-2.4907235507743963e-05,-1.318722957198446e-05,6.2667,4.1333
0.71484375,-5.224589411764707e-05,-4.004457376974137e-05,-2.3439226550698124e-05,-2.832456783398186e-05,6.2667,4.1333
0.71875,-3.6133894171053655e-05,-3.6133894171053655e-05,-2.4907235507743963e-05,-3.662724144350349e-05,6.2667,4.1333
0.72265625,-3.174190016021974e-05,-2.4413888235294136e-05,-2.4413888235294136e-05,-2.7349906149385845e-05,6.2667,4.1333
0.7265625,-2.97925767910277e-05,-1.856591812771802e-05,-3.223524743266958e-05,-2.5400582780193814e-05,6.2667,4.1333
0.73046875,-3.5159232486457637e-05,-2.4413888235294136e-05,-2.3439226550698124e-05,-3.809525040054933e-05,6.2667,4.1333
0.734375,-3.712058871595332e-05,-3.0767238475623714e-05,-2.099655590905624e-05,-4.19938971389334e-05,6.2667,4.1333
0.73828125,-2.784325342183567e-05,-2.929922951857787e-05,-3.5159232486457637e-05,-3.126058574807356e-05,6.2667,4.1333
0.7421875,-3.6133894171053655e-05,-3.662724144350349e-05,-3.760190312809951e-05,-3.662724144350349e-05,6.2667,4.1333
0.74609375,-4.54112294651713e-05,-2.8817915106431684e-05,-4.101923545433739e-05,-5.810589708552683e-05,6.2667,4.1333
0.75,-4.9321909063859024e-05,-2.2957912138551932e-05,-3.662724144350349e-05,-5.468856475928893e-05,6.2667,4.1333
0.75390625,-5.273924139009691e-05,-2.1489903181506093e-05,-3.0767238475623714e-05,-2.784325342183567e-05,6.2667,4.1333
0.7578125,-4.296855882352942e-05,-3.174190016021974e-05,-2.784325342183567e-05,-3.0273891203173887e-05,6.2667,4.1333
0.76171875,-3.3691223529411784e-05,-3.712058871595332e-05,-3.760190312809951e-05,-2.8817915106431684e-05,6.2667,4.1333
0.765625,-2.7349906149385845e-05,-2.784325342183567e-05,-3.6133894171053655e-05,-2.051524149691005e-05,6.2667,4.1333
0.76953125,-3.223524743266958e-05,-2.784325342183567e-05,-2.4413888235294136e-05,-3.174190016021974e-05,6.2667,4.1333
0.7734375,-4.39552533684291e-05,-3.320990911726559e-05,-3.0273891203173887e-05,-2.929922951857787e-05,6.2667,4.1333
0.77734375,-4.2487244411383244e-05,-3.662724144350349e-05,-3.223524743266958e-05,-1.9540579812314036e-05,6.2667,4.1333
0.78125,-3.809525040054933e-05,-2.685655887693599e-05,-1.7579223582818342e-05,-3.5159232486457637e-05,6.2667,4.1333
0.78515625,-3.662724144350349e-05,-2.3932573823147948e-05,-2.3439226550698124e-05,-4.639792401007096e-05,6.2667,4.1333
0.7890625,-4.1512582726787225e-05,-2.4907235507743963e-05,-3.0767238475623714e-05,-4.492991505302511e-05,6.2667,4.1333
0.79296875,-5.078991802090488e-05,-3.223524743266958e-05,-2.1489903181506093e-05,-3.4677918074311445e-05,6.2667,4.1333
0.796875,-4.8347247379263006e-05,-2.8817915106431684e-05,-1.8072570855268196e-05,-2.5881897192339975e-05,6.2667,4.1333
0.80078125,-3.5652579758907464e-05,-2.2957912138551932e-05,-2.099655590905624e-05,-2.929922951857787e-05,6.2667,4.1333
0.8046875,-3.0273891203173887e-05,-2.4907235507743963e-05,-1.856591812771802e-05,-3.418457080186161e-05,6.2667,4.1333
0.80859375,-3.320990911726559e-05,-1.9540579812314036e-05,-7.32722660410468e-06,-3.418457080186161e-05,6.2667,4.1333
0.8125,-2.5400582780193814e-05,-2.1983250453955917e-05,-8.301888288700724e-06,-2.1489903181506093e-05,6.2667,4.1333
0.81640625,-2.8817915106431684e-05,-3.126058574807356e-05,-1.8072570855268196e-05,-1.1719220614938592e-05,6.2667,4.1333
0.8203125,-4.54112294651713e-05,-3.0273891203173887e-05,-3.418457080186161e-05,-3.712058871595332e-05,6.2667,4.1333
0.82421875,-4.39552533684291e-05,-2.832456783398186e-05,-2.685655887693599e-05,-4.882856179140918e-05,6.2667,4.1333
0.828125,-4.101923545433739e-05,-2.3932573823147948e-05,-2.1489903181506093e-05,-2.7349906149385845e-05,6.2667,4.1333
0.83203125,-4.785390010681317e-05,-8.301888288700724e-06,-1.904723253986421e-05,-2.5881897192339975e-05,6.2667,4.1333
0.8359375,-4.492991505302511e-05,9.754470054169246e-07,-5.37790323491265e-06,-2.97925767910277e-05,6.2667,4.1333
0.83984375,-4.0537921042191214e-05,-2.3439226550698124e-05,-9.769897245746563e-06,-1.5629900213626315e-05,6.2667,4.1333
0.84375,-4.39552533684291e-05,-5.615657371633479e-05,-2.099655590905624e-05,-2.3439226550698124e-05,6.2667,4.1333
0.84765625,-3.712058871595332e-05,-5.468856475928893e-05,-2.685655887693599e-05,-2.7349906149385845e-05,6.2667,4.1333
0.8515625,-3.809525040054933e-05,-4.4436567780575275e-05,-3.955122649729154e-05,-2.2957912138551932e-05,6.2667,4.1333
0.85546875,-5.567525930418861e-05,-5.420725034714276e-05,-6.543390901045244e-05,-2.97925767910277e-05,6.2667,4.1333
0.859375,-6.201657668421455e-05,-6.348458564126041e-05,-7.276192093537805e-05,-3.712058871595332e-05,6.2667,4.1333
0.86328125,-4.981525633630886e-05,-5.323258866254674e-05,-5.371390307469292e-05,-2.5881897192339975e-05,6.2667,4.1333
0.8671875,-3.6133894171053655e-05,-5.078991802090488e-05,-3.126058574807356e-05,4.392779331654822e-06,6.2667,4.1333
0.87109375,-5.957390604257269e-05,-6.250992395666439e-05,-3.906991208514536e-05,4.392779331654822e-06,6.2667,4.1333
0.875,-7.178725925078204e-05,-6.836992692454414e-05,-4.981525633630886e-05,-2.3439226550698124e-05,6.2667,4.1333
0.87890625,-4.882856179140918e-05,-5.859924435797667e-05,-4.8347247379263006e-05,-2.97925767910277e-05,6.2667,4.1333
0.8828125,-4.39552533684291e-05,-4.8347247379263006e-05,-4.492991505302511e-05,-2.0021894224460227e-05,6.2667,4.1333
0.88671875,-4.2487244411383244e-05,-4.492991505302511e-05,-2.929922951857787e-05,-3.0767238475623714e-05,6.2667,4.1333
0.890625,-3.857656481269552e-05,-4.492991505302511e-05,-2.3932573823147948e-05,-3.906991208514536e-05,6.2667,4.1333
0.89453125,-4.8347247379263006e-05,-5.176457970550089e-05,-2.685655887693599e-05,-3.712058871595332e-05,6.2667,4.1333
0.8984375,-4.639792401007096e-05,-4.8347247379263006e-05,-2.4907235507743963e-05,-3.809525040054933e-05,6.2667,4.1333
0.90234375,-4.492991505302511e-05,-4.737258569466698e-05,-2.5881897192339975e-05,-2.685655887693599e-05,6.2667,4.1333
0.90625,-5.7131235400930816e-05,-5.615657371633479e-05,-3.418457080186161e-05,-3.4677918074311445e-05,6.2667,4.1333
0.91015625,-6.201657668421455e-05,-5.7131235400930816e-05,-3.3691223529411784e-05,-3.5159232486457637e-05,6.2667,4.1333
0.9140625,-6.348458564126041e-05,-5.7131235400930816e-05,-1.7579223582818342e-05,-4.884555962462826e-06,6.2667,4.1333
0.91796875,-6.396590005340658e-05,-5.176457970550089e-05,-2.1489903181506093e-05,-9.769897245746563e-06,6.2667,4.1333
0.921875,-5.468856475928893e-05,-4.3461906095979256e-05,-3.857656481269552e-05,-2.099655590905624e-05,6.2667,4.1333
0.92578125,-5.273924139009691e-05,-3.662724144350349e-05,-4.54112294651713e-05,-1.3680576844434284e-05,6.2667,4.1333
0.9296875,-5.371390307469292e-05,-2.929922951857787e-05,-4.39552533684291e-05,-3.0273891203173887e-05,6.2667,4.1333
0.93359375,-4.687923842221715e-05,-3.906991208514536e-05,-3.126058574807356e-05,-3.857656481269552e-05,6.2667,4.1333
0.9375,-5.176457970550089e-05,-5.420725034714276e-05,-3.662724144350349e-05,-3.3691223529411784e-05,6.2667,4.1333
0.94140625,-4.4436567780575275e-05,-4.3461906095979256e-05,-3.5159232486457637e-05,-3.809525040054933e-05,6.2667,4.1333
0.9453125,-3.4677918074311445e-05,-4.1512582726787225e-05,-2.3932573823147948e-05,-3.0767238475623714e-05,6.2667,4.1333
0.94921875,-3.955122649729154e-05,-4.0537921042191214e-05,-2.929922951857787e-05,-1.6123247486076166e-05,6.2667,4.1333
0.953125,-4.39552533684291e-05,-4.19938971389334e-05,-3.955122649729154e-05,-3.6133894171053655e-05,6.2667,4.1333
0.95703125,-4.101923545433739e-05,-5.518191203173877e-05,-4.590457673762113e-05,-5.810589708552683e-05,6.2667,4.1333
0.9609375,-4.1512582726787225e-05,-4.8347247379263006e-05,-5.078991802090488e-05,-4.296855882352942e-05,6.2667,4.1333
0.96484375,-4.54112294651713e-05,-3.5159232486457637e-05,-4.0537921042191214e-05,-1.5629900213626315e-05,6.2667,4.1333
0.96875,-5.078991802090488e-05,-2.929922951857787e-05,-2.1983250453955917e-05,-1.1719220614938592e-05,6.2667,4.1333
0.97265625,-4.492991505302511e-05,-4.296855882352942e-05,-3.5159232486457637e-05,-2.3932573823147948e-05,6.2667,4.1333
0.9765625,-3.6133894171053655e-05,-4.101923545433739e-05,-4.39552533684291e-05,-2.5881897192339975e-05,6.2667,4.1333
0.98046875,-4.492991505302511e-05,-3.126058574807356e-05,-2.1983250453955917e-05,-1.8072570855268196e-05,6.2667,4.1333
0.984375,-3.955122649729154e-05,-2.929922951857787e-05,-1.0744558930342577e-05,-2.099655590905624e-05,6.2667,4.1333
0.98828125,-2.4413888235294136e-05,-2.5881897192339975e-05,-2.637524446478983e-05,-8.795235561150548e-06,6.2667,4.1333
0.9921875,-9.288582833600372e-06,-3.3691223529411784e-05,-2.97925767910277e-05,-1.5136552941176489e-05,6.2667,4.1333
0.99609375,-1.9540579812314036e-05,-4.39552533684291e-05,-2.4907235507743963e-05,-4.737258569466698e-05,6.2667,4.1333
1.0,-3.0767238475623714e-05,-3.6133894171053655e-05,-2.8817915106431684e-05,-4.687923842221715e-05,6.2667,4.1333
1.00390625,-2.2957912138551932e-05,-3.320990911726559e-05,-2.4907235507743963e-05,-4.9321909063859024e-05,6.2667,4.1333
1.0078125,-3.5652579758907464e-05,-5.078991802090488e-05,-3.809525040054933e-05,-4.687923842221715e-05,6.2667,4.1333
1.01171875,-4.639792401007096e-05,-4.981525633630886e-05,-4.39552533684291e-05,-1.9540579812314036e-05,6.2667,4.1333
1.015625,-4.1512582726787225e-05,-3.857656481269552e-05,-4.101923545433739e-05,-1.6123247486076166e-05,6.2667,4.1333
1.01953125,-4.19938971389334e-05,-4.737258569466698e-05,-3.0273891203173887e-05,-1.318722957198446e-05,6.2667,4.1333
1.0234375,-4.737258569466698e-05,-5.0296570748455036e-05,-1.5629900213626315e-05,-9.769897245746563e-06,6.2667,4.1333
1.02734375,-4.296855882352942e-05,-2.4907235507743963e-05,8.784773342488733e-06,-2.441885320820944e-06,6.2667,4.1333
1.03125,-2.784325342183567e-05,-3.223524743266958e-05,1.1227443984130588e-05,-7.32722660410468e-06,6.2667,4.1333
1.03515625,-3.320990911726559e-05,-7.031925029373619e-05,-6.006725331502252e-05,-2.637524446478983e-05,6.2667,4.1333
1.0390625,-3.712058871595332e-05,-6.982590302128634e-05,-8.20392562294957e-05,-2.4413888235294136e-05,6.2667,4.1333
1.04296875,-2.2957912138551932e-05,-6.05485677271687e-05,-5.0296570748455036e-05,-1.318722957198446e-05,6.2667,4.1333
1.046875,-3.0767238475623714e-05,-6.982590302128634e-05,-3.0767238475623714e-05,-1.1719220614938592e-05,6.2667,4.1333
1.05078125,-4.54112294651713e-05,-5.859924435797667e-05,-4.492991505302511e-05,-3.320990911726559e-05,6.2667,4.1333
1.0546875,-3.223524743266958e-05,-5.7624582673380644e-05,-7.617925326161593e-05,-5.078991802090488e-05,6.2667,4.1333
1.05859375,-1.8072570855268196e-05,-5.615657371633479e-05,-5.518191203173877e-05,-1.3680576844434284e-05,6.2667,4.1333
1.0625,-3.4677918074311445e-05,-6.05485677271687e-05,-5.468856475928893e-05,6.342102700846851e-06,6.2667,4.1333
1.06640625,-5.176457970550089e-05,-6.836992692454414e-05,-6.250992395666439e-05,-2.637524446478983e-05,6.2667,4.1333
1.0703125,-5.371390307469292e-05,-6.787657965209431e-05,-5.273924139009691e-05,-4.4436567780575275e-05,6.2667,4.1333
1.07421875,-4.492991505302511e-05,-6.006725331502252e-05,-5.7131235400930816e-05,-3.223524743266958e-05,6.2667,4.1333
1.078125,-3.955122649729154e-05,-5.0296570748455036e-05,-6.299123836881056e-05,-6.352564919508666e-06,6.2667,4.1333
1.08203125,-3.760190312809951e-05,-3.320990911726559e-05,-4.2487244411383244e-05,-7.32722660410468e-06,6.2667,4.1333
1.0859375,-3.760190312809951e-05,-2.3932573823147948e-05,-2.0021894224460227e-05,-2.685655887693599e-05,6.2667,4.1333
1.08984375,-4.1512582726787225e-05,-5.420725034714276e-05,-3.955122649729154e-05,-5.859924435797667e-05,6.2667,4.1333
1.09375,-4.2487244411383244e-05,-6.348458564126041e-05,-3.955122649729154e-05,-5.957390604257269e-05,6.2667,4.1333
1.09765625,-4.19938971389334e-05,-5.518191203173877e-05,-2.5881897192339975e-05,-2.97925767910277e-05,6.2667,4.1333
1.1015625,-4.101923545433739e-05,-5.468856475928893e-05,-3.6133894171053655e-05,-2.051524149691005e-05,6.2667,4.1333
1.10546875,-4.0537921042191214e-05,-4.785390010681317e-05,-6.69019179674983e-05,-3.906991208514536e-05,6.2667,4.1333
1.109375,-4.3461906095979256e-05,-5.7131235400930816e-05,-7.276192093537805e-05,-5.224589411764707e-05,6.2667,4.1333
1.11328125,-5.371390307469292e-05,-5.420725034714276e-05,-6.006725331502252e-05,-4.981525633630886e-05,6.2667,4.1333
1.1171875,-5.371390307469292e-05,-5.6649920988784625e-05,-6.445924732585642e-05,-3.5159232486457637e-05,6.2667,4.1333
1.12109375,-4.4436567780575275e-05,-4.8347247379263006e-05,-4.54112294651713e-05,-7.820573876554533e-06,6.2667,4.1333
1.125,-4.296855882352942e-05,-5.323258866254674e-05,-3.857656481269552e-05,-2.5400582780193814e-05,6.2667,4.1333
1.12890625,-4.492991505302511e-05,-5.567525930418861e-05,-3.174190016021974e-05,-3.0767238475623714e-05,6.2667,4.1333
1.1328125,-4.687923842221715e-05,-3.857656481269552e-05,-1.0263244518196387e-05,-1.6604561898222327e-05,6.2667,4.1333
1.13671875,-4.9321909063859024e-05,-5.567525930418861e-05,-2.5881897192339975e-05,-4.3461906095979256e-05,6.2667,4.1333
1.140625,-4.3461906095979256e-05,-5.224589411764707e-05,-6.445924732585642e-05,-5.518191203173877e-05,6.2667,4.1333
1.14453125,-2.929922951857787e-05,-3.0273891203173887e-05,-5.6649920988784625e-05,-3.809525040054933e-05,6.2667,4.1333
1.1484375,-2.832456783398186e-05,-3.126058574807356e-05,-3.320990911726559e-05,-1.9540579812314036e-05,6.2667,4.1333
1.15234375,-4.785390010681317e-05,-5.273924139009691e-05,-4.54112294651713e-05,-2.7349906149385845e-05,6.2667,4.1333
1.15625,-5.9092591630426497e-05,-6.787657965209431e-05,-4.981525633630886e-05,-4.4436567780575275e-05,6.2667,4.1333
1.16015625,-4.639792401007096e-05,-6.348458564126041e-05,-5.224589411764707e-05,-5.420725034714276e-05,6.2667,4.1333
1.1640625,-4.737258569466698e-05,-6.592725628290227e-05,-4.8347247379263006e-05,-4.737258569466698e-05,6.2667,4.1333
1.16796875,-6.787657965209431e-05,-6.885124133669033e-05,-4.0537921042191214e-05,-2.4907235507743963e-05,6.2667,4.1333
1.171875,-5.518191203173877e-05,-5.7624582673380644e-05,-5.810589708552683e-05,-2.051524149691005e-05,6.2667,4.1333
1.17578125,-3.760190312809951e-05,-4.3461906095979256e-05,-6.104191499961854e-05,-3.955122649729154e-05,6.2667,4.1333
1.1796875,-4.3461906095979256e-05,-5.9092591630426497e-05,-3.760190312809951e-05,-5.957390604257269e-05,6.2667,4.1333
1.18359375,-3.5159232486457637e-05,-5.371390307469292e-05,-2.8817915106431684e-05,-4.785390010681317e-05,6.2667,4.1333
1.1875,-3.955122649729154e-05,-4.004457376974137e-05,-3.6133894171053655e-05,-2.4907235507743963e-05,6.2667,4.1333
1.19140625,-4.590457673762113e-05,-6.006725331502252e-05,-4.3461906095979256e-05,-3.5652579758907464e-05,6.2667,4.1333
1.1953125,-4.54112294651713e-05,-5.567525930418861e-05,-4.492991505302511e-05,-3.271656184481576e-05,6.2667,4.1333
1.19921875,-6.152322941176472e-05,-5.176457970550089e-05,-4.981525633630886e-05,-1.5629900213626315e-05,6.2667,4.1333
1.203125,-6.836992692454414e-05,-5.7624582673380644e-05,-4.737258569466698e-05,-2.5400582780193814e-05,6.2667,4.1333
1.20703125,-5.859924435797667e-05,-4.492991505302511e-05,-4.590457673762113e-05,-1.9540579812314036e-05,6.2667,4.1333
1.2109375,-5.420725034714276e-05,-5.0296570748455036e-05,-5.567525930418861e-05,-3.418457080186161e-05,6.2667,4.1333
1.21484375,-4.882856179140918e-05,-6.201657668421455e-05,-5.518191203173877e-05,-5.078991802090488e-05,6.2667,4.1333
1.21875,-3.6133894171053655e-05,-4.8347247379263006e-05,-4.590457673762113e-05,-2.832456783398186e-05,6.2667,4.1333
1.22265625,-3.809525040054933e-05,-4.492991505302511e-05,-3.760190312809951e-05,-3.662724144350349e-05,6.2667,4.1333
1.2265625,-5.567525930418861e-05,-6.05485677271687e-05,-3.271656184481576e-05,-2.8817915106431684e-05,6.2667,4.1333
1.23046875,-6.640857069504845e-05,-6.201657668421455e-05,-3.662724144350349e-05,5.367441016250836e-06,6.2667,4.1333
1.234375,-5.7624582673380644e-05,-5.810589708552683e-05,-5.468856475928893e-05,8.29142607003888e-06,6.2667,4.1333
1.23828125,-4.54112294651713e-05,-5.468856475928893e-05,-3.223524743266958e-05,7.810111657892718e-06,6.2667,4.1333
1.2421875,-4.54112294651713e-05,-6.250992395666439e-05,-3.223524743266958e-05,-6.352564919508666e-06,6.2667,4.1333
1.24609375,-5.224589411764707e-05,-5.7624582673380644e-05,-5.810589708552683e-05,-4.0537921042191214e-05,6.2667,4.1333
1.25,-5.224589411764707e-05,-5.078991802090488e-05,-6.250992395666439e-05,-3.760190312809951e-05,6.2667,4.1333
1.25390625,-4.882856179140918e-05,-5.518191203173877e-05,-4.639792401007096e-05,-2.0021894224460227e-05,6.2667,4.1333
1.2578125,-5.323258866254674e-05,-6.495259459830626e-05,-2.97925767910277e-05,-1.46552385290303e-05,6.2667,4.1333
1.26171875,-4.9321909063859024e-05,-5.518191203173877e-05,-2.2957912138551932e-05,-2.099655590905624e-05,6.2667,4.1333
1.265625,-5.420725034714276e-05,-5.810589708552683e-05,-2.3932573823147948e-05,-3.418457080186161e-05,6.2667,4.1333
1.26953125,-6.445924732585642e-05,-4.882856179140918e-05,-2.246456486610211e-05,-3.0767238475623714e-05,6.2667,4.1333
1.2734375,-5.7624582673380644e-05,-5.0296570748455036e-05,-3.662724144350349e-05,-1.709790917067218e-05,6.2667,4.1333
1.27734375,-4.4436567780575275e-05,-7.715391494621195e-05,-5.957390604257269e-05,-2.2957912138551932e-05,6.2667,4.1333
1.28125,-4.785390010681317e-05,-6.836992692454414e-05,-6.299123836881056e-05,-3.955122649729154e-05,6.2667,4.1333
1.28515625,-5.615657371633479e-05,-4.8347247379263006e-05,-4.981525633630886e-05,-3.3691223529411784e-05,6.2667,4.1333
1.2890625,-5.078991802090488e-05,-4.39552533684291e-05,-3.223524743266958e-05,-2.1489903181506093e-05,6.2667,4.1333
1.29296875,-5.7131235400930816e-05,-6.05485677271687e-05,-1.9540579812314036e-05,-1.123790620279243e-05,6.2667,4.1333
1.296875,-5.9092591630426497e-05,-6.299123836881056e-05,-3.3691223529411784e-05,-8.795235561150548e-06,6.2667,4.1333
1.30078125,-4.54112294651713e-05,-3.5159232486457637e-05,-6.543390901045244e-05,-1.4161891256580474e-05,6.2667,4.1333
1.3046875,-4.1512582726787225e-05,-3.271656184481576e-05,-6.006725331502252e-05,-2.0021894224460227e-05,6.2667,4.1333
1.30859375,-4.3461906095979256e-05,-3.955122649729154e-05,-4.9321909063859024e-05,-4.9321909063859024e-05,6.2667,4.1333
1.3125,-4.1512582726787225e-05,-3.3691223529411784e-05,-4.785390010681317e-05,-5.273924139009691e-05,6.2667,4.1333
1.31640625,-4.882856179140918e-05,-3.662724144350349e-05,-4.9321909063859024e-05,-4.296855882352942e-05,6.2667,4.1333
1.3203125,-5.0296570748455036e-05,-5.323258866254674e-05,-5.957390604257269e-05,-5.9092591630426497e-05,6.2667,4.1333
1.32421875,-4.3461906095979256e-05,-4.737258569466698e-05,-5.224589411764707e-05,-4.296855882352942e-05,6.2667,4.1333
1.328125,-4.54112294651713e-05,-3.712058871595332e-05,-3.4677918074311445e-05,-2.0021894224460227e-05,6.2667,4.1333
1.33203125,-5.078991802090488e-05,-4.0537921042191214e-05,-2.97925767910277e-05,-1.1247539482724278e-08,6.2667,4.1333
1.3359375,-5.1271232433051055e-05,-4.54112294651713e-05,-3.0767238475623714e-05,2.0986093690394427e-05,6.2667,4.1333
1.33984375,-4.981525633630886e-05,-3.906991208514536e-05,-2.832456783398186e-05,4.392779331654822e-06,6.2667,4.1333
1.34375,-4.54112294651713e-05,-2.3932573823147948e-05,-3.5159232486457637e-05,-2.929922951857787e-05,6.2667,4.1333
1.34765625,-4.3461906095979256e-05,-3.809525040054933e-05,-3.955122649729154e-05,-5.518191203173877e-05,6.2667,4.1333
1.3515625,-4.2487244411383244e-05,-4.3461906095979256e-05,-2.4413888235294136e-05,-4.2487244411383244e-05,6.2667,4.1333
1.35546875,-5.1271232433051055e-05,-4.54112294651713e-05,-1.2212567887388445e-05,-3.174190016021974e-05,6.2667,4.1333
1.359375,-5.615657371633479e-05,-4.39552533684291e-05,-2.832456783398186e-05,-4.639792401007096e-05,6.2667,4.1333
1.36328125,-3.662724144350349e-05,-3.0767238475623714e-05,-3.126058574807356e-05,-3.4677918074311445e-05,6.2667,4.1333
1.3671875,-3.174190016021974e-05,-2.8817915106431684e-05,-2.4907235507743963e-05,1.9501086900129394e-06,6.2667,4.1333
1.37109375,-5.420725034714276e-05,-5.273924139009691e-05,-3.271656184481576e-05,-3.428579865720621e-06,6.2667,4.1333
1.375,-6.299123836881056e-05,-5.810589708552683e-05,-3.906991208514536e-05,-3.5159232486457637e-05,6.2667,4.1333
1.37890625,-4.54112294651713e-05,-2.685655887693599e-05,-4.101923545433739e-05,-3.809525040054933e-05,6.2667,4.1333
1.3828125,-3.906991208514536e-05,-2.051524149691005e-05,-4.785390010681317e-05,-3.418457080186161e-05,6.2667,4.1333
1.38671875,-3.0767238475623714e-05,-3.0767238475623714e-05,-3.320990911726559e-05,-4.54112294651713e-05,6.2667,4.1333
1.390625,-2.3932573823147948e-05,-2.0021894224460227e-05,-8.301888288700724e-06,-3.857656481269552e-05,6.2667,4.1333
1.39453125,-4.2487244411383244e-05,-2.3932573823147948e-05,-2.0021894224460227e-05,-3.320990911726559e-05,6.2667,4.1333
1.3984375,-4.687923842221715e-05,-3.271656184481576e-05,-3.906991208514536e-05,-3.0767238475623714e-05,6.2667,4.1333
1.40234375,-4.3461906095979256e-05,-2.2957912138551932e-05,-4.687923842221715e-05,-5.859217647058841e-06,6.2667,4.1333
1.40625,-3.6133894171053655e-05,-2.0021894224460227e-05,-5.420725034714276e-05,-2.441885320820944e-06,6.2667,4.1333
1.41015625,-3.418457080186161e-05,-1.46552385290303e-05,-3.126058574807356e-05,-1.318722957198446e-05,6.2667,4.1333
1.4140625,-4.296855882352942e-05,-1.709790917067218e-05,-2.3439226550698124e-05,-1.3680576844434284e-05,6.2667,4.1333
1.41796875,-4.4436567780575275e-05,-1.856591812771802e-05,-2.1983250453955917e-05,-2.97925767910277e-05,6.2667,4.1333
1.421875,-4.639792401007096e-05,-2.97925767910277e-05,-3.712058871595332e-05,-4.492991505302511e-05,6.2667,4.1333
1.42578125,-5.078991802090488e-05,-3.760190312809951e-05,-3.3691223529411784e-05,-4.687923842221715e-05,6.2667,4.1333
1.4296875,-3.5159232486457637e-05,-2.784325342183567e-05,-1.4672236362249293e-06,-3.6133894171053655e-05,6.2667,4.1333
1.43359375,-3.126058574807356e-05,-1.856591812771802e-05,-1.0263244518196387e-05,-1.5629900213626315e-05,6.2667,4.1333
1.4375,-3.955122649729154e-05,-1.318722957198446e-05,-1.904723253986421e-05,-9.288582833600372e-06,6.2667,4.1333
1.44140625,-4.54112294651713e-05,-2.5881897192339975e-05,-1.2705915159838269e-05,-2.832456783398186e-05,6.2667,4.1333
1.4453125,-3.955122649729154e-05,-3.418457080186161e-05,-1.4161891256580474e-05,-4.687923842221715e-05,6.2667,4.1333
1.44921875,-3.0767238475623714e-05,-2.4413888235294136e-05,-7.32722660410468e-06,-3.4677918074311445e-05,6.2667,4.1333
1.453125,-2.5400582780193814e-05,-1.709790917067218e-05,-1.2705915159838269e-05,-1.6123247486076166e-05,6.2667,4.1333
1.45703125,-4.54112294651713e-05,-2.099655590905624e-05,-2.929922951857787e-05,-7.820573876554533e-06,6.2667,4.1333
1.4609375,-6.006725331502252e-05,-3.0767238475623714e-05,-2.7349906149385845e-05,-3.126058574807356e-05,6.2667,4.1333
1.46484375,-4.1512582726787225e-05,-3.174190016021974e-05,-1.709790917067218e-05,-3.4677918074311445e-05,6.2667,4.1333
1.46875,-2.4413888235294136e-05,-2.2957912138551932e-05,-2.099655590905624e-05,6.8354499732967035e-06,6.2667,4.1333
1.47265625,-1.9540579812314036e-05,-1.3680576844434284e-05,-2.1489903181506093e-05,-8.301888288700724e-06,6.2667,4.1333
1.4765625,-4.8347247379263006e-05,-3.271656184481576e-05,-3.0273891203173887e-05,-4.737258569466698e-05,6.2667,4.1333
1.48046875,-5.078991802090488e-05,-3.6133894171053655e-05,-3.126058574807356e-05,-4.54112294651713e-05,6.2667,4.1333
1.484375,-3.4677918074311445e-05,-1.5136552941176489e-05,-2.4907235507743963e-05,-2.5881897192339975e-05,6.2667,4.1333
1.48828125,-2.685655887693599e-05,-3.428579865720621e-06,-1.3680576844434284e-05,-1.3680576844434284e-05,6.2667,4.1333
1.4921875,-3.0767238475623714e-05,-1.318722957198446e-05,-1.2705915159838269e-05,-1.904723253986421e-05,6.2667,4.1333
1.49609375,-4.3461906095979256e-05,-2.637524446478983e-05,-2.4907235507743963e-05,-4.925619516289145e-07,6.2667,4.1333
1.5,-3.320990911726559e-05,-2.099655590905624e-05,-1.2705915159838269e-05,5.848755428397027e-06,6.2667,4.1333
1.50390625,-6.845912191958518e-06,-1.904723253986421e-05,-3.909894277866812e-06,-1.6604561898222327e-05,6.2667,4.1333
1.5078125,-1.2705915159838269e-05,-4.004457376974137e-05,-1.5136552941176489e-05,-2.0021894224460227e-05,6.2667,4.1333
1.51171875,-3.223524743266958e-05,-2.637524446478983e-05,-1.0744558930342577e-05,-1.2705915159838269e-05,6.2667,4.1333
1.515625,-2.2957912138551932e-05,-9.769897245746563e-06,-1.2212567887388445e-05,-2.4413888235294136e-05,6.2667,4.1333
1.51953125,-2.3932573823147948e-05,-3.3691223529411784e-05,-2.5881897192339975e-05,-3.418457080186161e-05,6.2667,4.1333
1.5234375,-4.981525633630886e-05,-5.7131235400930816e-05,-3.712058871595332e-05,-1.4161891256580474e-05,6.2667,4.1333
1.52734375,-2.5881897192339975e-05,-3.5159232486457637e-05,-2.3932573823147948e-05,1.0734096711680762e-05,6.2667,4.1333
1.53125,2.2454102647440293e-05,-4.0537921042191214e-05,-2.1983250453955917e-05,1.9036770321202397e-05,6.2667,4.1333
1.53515625,3.899432059204997e-06,-7.276192093537805e-05,-3.126058574807356e-05,2.5390120561532e-05,6.2667,4.1333
1.5390625,-2.051524149691005e-05,-8.496324128328375e-05,-4.3461906095979256e-05,1.7087446952010366e-05,6.2667,4.1333
1.54296875,-2.5881897192339975e-05,-0.00010351791187151904,-7.617925326161593e-05,-4.884555962462826e-06,6.2667,4.1333
1.546875,-1.7579223582818342e-05,-0.00013672860630960557,-0.00012159126804760817,-8.795235561150548e-06,6.2667,4.1333
1.55078125,1.415142903791866e-05,-0.00016063789973296713,-0.00014844861224536505,2.1972788235294102e-05,6.2667,4.1333
1.5546875,3.222478521400776e-05,-0.0002050752528343633,-0.00018749524393072402,4.1502120508125414e-05,6.2667,4.1333
1.55859375,4.881809957274737e-05,-0.0002304645880750744,-0.0002109352558022431,5.908212941176469e-05,6.2667,4.1333
1.5625,8.592744074921796e-05,-0.00024169124673838405,-0.00023094590248722057,7.079010248722054e-05,6.2667,4.1333
1.56640625,0.00011864478791485464,-0.0002573219322728313,-0.0002490192586633097,4.931144684519719e-05,6.2667,4.1333
1.5703125,0.00011864478791485464,-0.00028074991128404665,-0.0002729405849469749,2.1972788235294102e-05,6.2667,4.1333
1.57421875,0.00010741812925154494,-0.00030760725548180357,-0.0003115179350804913,4.2476782192721426e-05,6.2667,4.1333
1.578125,0.00012353012919813836,-0.00030810060275425347,-0.0003134672584496834,5.9563443823910856e-05,6.2667,4.1333
1.58203125,0.00013475678786144805,-0.00029735525850308993,-0.0003046832704280156,3.759144090943769e-05,6.2667,4.1333
1.5859375,0.00013475678786144805,-0.0002968739440909438,-0.00030321526147096973,1.56194379949645e-05,6.2667,4.1333
1.58984375,0.00015624747636377504,-0.00028954593216601814,-0.000299304581872282,1.5126090722514674e-05,6.2667,4.1333
1.59375,0.00017430879967956052,-0.00027099126157778287,-0.00029588724954604414,1.9036770321202397e-05,6.2667,4.1333
1.59765625,0.00019139546131074995,-0.00025146192930495154,-0.00027538325558861676,9.266087754634924e-06,6.2667,4.1333
1.6015625,0.00020214080556191344,-0.00023290725871671623,-0.0002621952406958114,1.1227443984130588e-05,6.2667,4.1333
1.60546875,0.00018066214991989011,-0.00021337792644388493,-0.0002573219322728313,9.759435027084748e-06,6.2667,4.1333
1.609375,0.00015869014700541691,-0.00020165792050812542,-0.0002539045999465934,-3.955122649729154e-05,6.2667,4.1333
1.61328125,0.00012987144657816428,-0.0001889632528877699,-0.00024852591139085985,-8.935523529411766e-05,6.2667,4.1333
1.6171875,0.00012792212320897225,-0.00017333256735332263,-0.00021971924382391088,-8.935523529411766e-05,6.2667,4.1333
1.62109375,0.00013475678786144805,-0.00015625793858243687,-0.00018797655834287022,-6.885124133669033e-05,6.2667,4.1333
1.625,0.00013330081176470587,-0.00013184326502632183,-0.00016405523205920502,-7.178725925078204e-05,6.2667,4.1333
1.62890625,0.00012303678192568856,-0.00011133927106889449,-0.00015916989077592125,-6.982590302128634e-05,6.2667,4.1333
1.6328125,0.00011327813221942471,-9.424057657740139e-05,-0.00015332192066834515,-6.934458860914015e-05,6.2667,4.1333
1.63671875,0.00010302613524071102,-7.178725925078204e-05,-0.00013770326799420157,-8.838057360952165e-05,6.2667,4.1333
1.640625,7.17767970321202e-05,-6.738323237964447e-05,-0.00012842593270008393,-9.71765944914931e-05,6.2667,4.1333
1.64453125,4.686877620355534e-05,-6.396590005340658e-05,-0.00010059392681773098,-0.00010401125914396887,6.2667,4.1333
1.6484375,3.0263428984512072e-05,-3.809525040054933e-05,-8.496324128328375e-05,-0.0001254899147859922,6.2667,4.1333
1.65234375,2.928876729991606e-05,-1.6604561898222327e-05,-7.324323534752423e-05,-0.00011817393572137027,6.2667,4.1333
1.65625,3.222478521400776e-05,2.4314231021591294e-06,-4.492991505302511e-05,-8.593790296787976e-05,6.2667,4.1333
1.66015625,2.6846096658274175e-05,1.1227443984130588e-05,-2.832456783398186e-05,-7.9103238315404e-05,6.2667,4.1333
1.6640625,2.147944096284425e-05,1.56194379949645e-05,-2.8817915106431684e-05,-8.106459454489968e-05,6.2667,4.1333
1.66796875,1.8543423048752542e-05,3.466745585564962e-05,-1.856591812771802e-05,-6.738323237964447e-05,6.2667,4.1333
1.671875,4.392779331654822e-06,3.514877026779581e-05,-9.769897245746563e-06,-8.20392562294957e-05,6.2667,4.1333
1.67578125,-2.832456783398186e-05,2.2454102647440293e-05,-5.37790323491265e-06,-0.00011084592379644464,6.2667,4.1333
1.6796875,-4.981525633630886e-05,2.9782114572365884e-05,9.754470054169246e-07,-0.0001049859208285649,6.2667,4.1333
1.68359375,-4.9321909063859024e-05,4.2476782192721426e-05,1.0734096711680762e-05,-8.448192687113757e-05,6.2667,4.1333
1.6875,-4.1512582726787225e-05,4.736212347600516e-05,2.3922111604486133e-05,-7.422992989242391e-05,6.2667,4.1333
1.69140625,-4.687923842221715e-05,4.4426105561913456e-05,1.7568761364156527e-05,-7.812857663080797e-05,6.2667,4.1333
1.6953125,-5.859924435797667e-05,4.589411451895932e-05,1.7087446952010366e-05,-8.007790000000001e-05,6.2667,4.1333
1.69921875,-5.078991802090488e-05,5.126077021438922e-05,2.733944393072403e-05,-6.201657668421455e-05,6.2667,4.1333
1.703125,-5.859924435797667e-05,4.686877620355534e-05,2.3922111604486133e-05,-4.39552533684291e-05,6.2667,4.1333
1.70703125,-7.9103238315404e-05,4.1502120508125414e-05,3.319944689860378e-05,-5.273924139009691e-05,6.2667,4.1333
1.7109375,-8.692459751277944e-05,3.905944986648353e-05,4.637542893110549e-05,-6.495259459830626e-05,6.2667,4.1333
1.71484375,-7.617925326161593e-05,4.003411155107955e-05,5.272877917143509e-05,-6.05485677271687e-05,6.2667,4.1333
1.71875,-6.250992395666439e-05,4.637542893110549e-05,5.6639458770122814e-05,-5.420725034714276e-05,6.2667,4.1333
1.72265625,-6.348458564126041e-05,5.2235431898985235e-05,3.905944986648353e-05,-6.348458564126041e-05,6.2667,4.1333
1.7265625,-7.324323534752423e-05,4.0527458823529395e-05,2.342876433203631e-05,-7.520459157701992e-05,6.2667,4.1333
1.73046875,-8.154590895704587e-05,3.709809363698784e-05,1.9036770321202397e-05,-7.12939119783322e-05,6.2667,4.1333
1.734375,-6.885124133669033e-05,3.417410858319979e-05,2.2947449919890118e-05,-5.1271232433051055e-05,6.2667,4.1333
1.73828125,-6.05485677271687e-05,3.759144090943769e-05,2.5871434973678163e-05,-4.882856179140918e-05,6.2667,4.1333
1.7421875,-6.738323237964447e-05,3.759144090943769e-05,2.3922111604486133e-05,-5.323258866254674e-05,6.2667,4.1333
1.74609375,-6.445924732585642e-05,4.4426105561913456e-05,3.856610259403371e-05,-1.8072570855268196e-05,6.2667,4.1333
1.75,-5.810589708552683e-05,5.7120773182269005e-05,4.295809660486762e-05,-8.301888288700724e-06,6.2667,4.1333
1.75390625,-7.666056767376212e-05,4.4919452834363284e-05,2.6364782246128014e-05,-4.39552533684291e-05,6.2667,4.1333
1.7578125,-8.252057064164188e-05,2.9782114572365884e-05,2.9782114572365884e-05,-6.250992395666439e-05,6.2667,4.1333
1.76171875,-5.371390307469292e-05,4.295809660486762e-05,5.077945580224306e-05,-4.1512582726787225e-05,6.2667,4.1333
1.765625,-4.54112294651713e-05,3.808478818188752e-05,5.322212644388492e-05,-1.123790620279243e-05,6.2667,4.1333
1.76953125,-6.104191499961854e-05,2.4896773289082148e-05,3.514877026779581e-05,-1.6604561898222327e-05,6.2667,4.1333
1.7734375,-8.398857959868773e-05,2.0011432005798412e-05,2.5390120561532e-05,-3.4677918074311445e-05,6.2667,4.1333
1.77734375,-9.27846004806592e-05,1.7087446952010366e-05,2.342876433203631e-05,-4.9321909063859024e-05,6.2667,4.1333
1.78125,-6.885124133669033e-05,1.953011759365222e-05,2.3922111604486133e-05,-6.495259459830626e-05,6.2667,4.1333
1.78515625,-5.7624582673380644e-05,2.8314105615320045e-05,3.0263428984512072e-05,-5.078991802090488e-05,6.2667,4.1333
1.7890625,-5.859924435797667e-05,2.880745288776987e-05,3.0263428984512072e-05,-3.6133894171053655e-05,6.2667,4.1333
1.79296875,-6.934458860914015e-05,1.2202105668726601e-05,2.2947449919890118e-05,-5.176457970550089e-05,6.2667,4.1333
1.796875,-6.543390901045244e-05,1.953011759365222e-05,3.125012352941175e-05,-3.4677918074311445e-05,6.2667,4.1333
1.80078125,-5.273924139009691e-05,3.417410858319979e-05,2.8314105615320045e-05,-1.3680576844434284e-05,6.2667,4.1333
1.8046875,-5.078991802090488e-05,1.8543423048752542e-05,2.147944096284425e-05,-3.418457080186161e-05,6.2667,4.1333
1.80859375,-6.05485677271687e-05,2.4314231021591294e-06,1.6594099679560515e-05,-4.639792401007096e-05,6.2667,4.1333
1.8125,-6.299123836881056e-05,3.418117647058807e-06,6.8354499732967035e-06,-2.4907235507743963e-05,6.2667,4.1333
1.81640625,-4.785390010681317e-05,-1.9605709086747823e-06,1.367011462577247e-05,-1.123790620279243e-05,6.2667,4.1333
1.8203125,-4.296855882352942e-05,9.754470054169246e-07,1.806210863660638e-05,-2.5400582780193814e-05,6.2667,4.1333
1.82421875,-4.9321909063859024e-05,9.266087754634924e-06,3.899432059204997e-06,-3.955122649729154e-05,6.2667,4.1333
1.828125,-5.224589411764707e-05,3.899432059204997e-06,-3.909894277866812e-06,-4.737258569466698e-05,6.2667,4.1333
1.83203125,-3.955122649729154e-05,4.874093743801012e-06,-3.428579865720621e-06,-4.004457376974137e-05,6.2667,4.1333
1.8359375,-3.857656481269552e-05,5.367441016250836e-06,-1.4672236362249293e-06,-3.6133894171053655e-05,6.2667,4.1333
1.83984375,-5.371390307469292e-05,-6.352564919508666e-06,-6.845912191958518e-06,-3.418457080186161e-05,6.2667,4.1333
1.84375,-5.420725034714276e-05,-1.1719220614938592e-05,-5.37790323491265e-06,-2.97925767910277e-05,6.2667,4.1333
1.84765625,-5.078991802090488e-05,-9.288582833600372e-06,1.4567614175631148e-06,-2.685655887693599e-05,6.2667,4.1333
1.8515625,-4.4436567780575275e-05,-2.9352325932707967e-06,1.9036770321202397e-05,-4.1512582726787225e-05,6.2667,4.1333
1.85546875,-3.223524743266958e-05,-5.859217647058841e-06,2.5871434973678163e-05,-4.9321909063859024e-05,6.2667,4.1333
1.859375,-1.6123247486076166e-05,1.1708758396276777e-05,2.1972788235294102e-05,-2.4413888235294136e-05,6.2667,4.1333
1.86328125,-1.6604561898222327e-05,1.6594099679560515e-05,9.759435027084748e-06,-1.123790620279243e-05,6.2667,4.1333
1.8671875,-4.737258569466698e-05,-6.845912191958518e-06,-5.37790323491265e-06,-2.832456783398186e-05,6.2667,4.1333
1.87109375,-5.273924139009691e-05,-9.288582833600372e-06,2.4314231021591294e-06,-2.929922951857787e-05,6.2667,4.1333
1.875,-3.857656481269552e-05,-5.37790323491265e-06,1.1227443984130588e-05,-1.318722957198446e-05,6.2667,4.1333
1.87890625,-3.712058871595332e-05,5.848755428397027e-06,1.0252782299534572e-05,-2.685655887693599e-05,6.2667,4.1333
1.8828125,-3.6133894171053655e-05,-3.428579865720621e-06,-7.820573876554533e-06,-3.809525040054933e-05,6.2667,4.1333
1.88671875,-4.004457376974137e-05,-2.2957912138551932e-05,-2.246456486610211e-05,-3.223524743266958e-05,6.2667,4.1333
1.890625,-2.832456783398186e-05,-1.0263244518196387e-05,-9.769897245746563e-06,-3.857656481269552e-05,6.2667,4.1333
1.89453125,-1.46552385290303e-05,-1.9605709086747823e-06,-1.7579223582818342e-05,-3.955122649729154e-05,6.2667,4.1333
1.8984375,-2.8817915106431684e-05,-2.2957912138551932e-05,-1.8072570855268196e-05,-2.3932573823147948e-05,6.2667,4.1333
1.90234375,-4.590457673762113e-05,-3.6133894171053655e-05,-2.832456783398186e-05,-2.4413888235294136e-05,6.2667,4.1333
1.90625,-4.737258569466698e-05,-3.0767238475623714e-05,-4.639792401007096e-05,-4.590457673762113e-05,6.2667,4.1333
1.91015625,-2.5400582780193814e-05,-1.318722957198446e-05,-2.246456486610211e-05,-3.662724144350349e-05,6.2667,4.1333
1.9140625,-2.8817915106431684e-05,-4.3461906095979256e-05,-2.832456783398186e-05,-6.845912191958518e-06,6.2667,4.1333
1.91796875,-3.126058574807356e-05,-7.86219239032578e-05,-7.764726221866179e-05,-1.5629900213626315e-05,6.2667,4.1333
1.921875,-2.3932573823147948e-05,-6.299123836881056e-05,-7.080056470588236e-05,-2.1983250453955917e-05,6.2667,4.1333
1.92578125,-2.5881897192339975e-05,-5.7624582673380644e-05,-6.006725331502252e-05,-1.2705915159838269e-05,6.2667,4.1333
1.9296875,-1.5629900213626315e-05,-7.178725925078204e-05,-6.299123836881056e-05,-1.7579223582818342e-05,6.2667,4.1333
1.93359375,4.874093743801012e-06,-6.250992395666439e-05,-4.0537921042191214e-05,-3.428579865720621e-06,6.2667,4.1333
1.9375,6.8354499732967035e-06,-9.179790593575953e-05,-6.934458860914015e-05,4.874093743801012e-06,6.2667,4.1333
1.94140625,-8.301888288700724e-06,-0.00010547926810101472,-7.666056767376212e-05,-4.884555962462826e-06,6.2667,4.1333
1.9453125,-1.318722957198446e-05,-0.00011328859443808653,-8.350726518654156e-05,1.56194379949645e-05,6.2667,4.1333
1.94921875,-9.769897245746563e-06,-0.00012646457647058824,-9.912591786068515e-05,3.368076131074997e-05,6.2667,4.1333
1.953125,-1.1719220614938592e-05,-0.00013281792671091783,-9.521523826199741e-05,5.467810254062712e-05,6.2667,4.1333
1.95703125,-8.795235561150548e-06,-0.00014501924705882354,-0.00010303659745937286,7.470078208590826e-05,6.2667,4.1333
1.9609375,-1.709790917067218e-05,-0.00014258860927748531,-0.0001084032531548028,8.105413232623786e-05,6.2667,4.1333
1.96484375,-2.8817915106431684e-05,-0.00014014593863584344,-9.961926513313497e-05,8.837011139085982e-05,6.2667,4.1333
1.96875,-3.5652579758907464e-05,-0.0001289072471122301,-8.007790000000001e-05,8.886345866330966e-05,6.2667,4.1333
1.97265625,-3.857656481269552e-05,-9.912591786068515e-05,-5.9092591630426497e-05,8.300345569542988e-05,6.2667,4.1333
1.9765625,-3.4677918074311445e-05,-7.276192093537805e-05,-3.857656481269552e-05,7.275145871671623e-05,6.2667,4.1333
1.98046875,-4.882856179140918e-05,-6.445924732585642e-05,-1.856591812771802e-05,6.444878510719459e-05,6.2667,4.1333
1.984375,-6.495259459830626e-05,-3.906991208514536e-05,4.392779331654822e-06,7.128344975967039e-05,6.2667,4.1333
1.98828125,-6.592725628290227e-05,7.810111657892718e-06,3.612343195239182e-05,8.397811738002591e-05,6.2667,4.1333
1.9921875,-7.422992989242391e-05,2.4896773289082148e-05,5.7120773182269005e-05,7.8611461684596e-05,6.2667,4.1333
1.99609375,-9.375926216525522e-05,4.3944791149767265e-05,6.981544080262451e-05,6.200611446555273e-05,6.2667,4.1333
2.0,-0.00010596058251316091,7.030878807507437e-05,9.325545267414355e-05,4.1502120508125414e-05,6.2667,4.1333
2.00390625,-0.00011084592379644464,8.300345569542988e-05,0.00011375944663157087,2.342876433203631e-05,6.2667,4.1333
2.0078125,-0.00011768058844892042,0.00010497545860990305,0.00013280746449225602,2.2947449919890118e-05,6.2667,4.1333
2.01171875,-0.00011426325612268254,0.0001469701410696574,0.00016991680566872663,2.1972788235294102e-05,6.2667,4.1333
2.015625,-0.00010206193577477685,0.00016258879374380096,0.0002026341528343633,-9.859092240787675e-07,6.2667,4.1333
2.01953125,-0.00012159126804760817,0.00015575412909132522,0.0002070261468451972,-2.4907235507743963e-05,6.2667,4.1333
2.0234375,-0.00013232457943846798,0.00017919414096284424,0.00021874615278095672,-3.857656481269552e-05,6.2667,4.1333
2.02734375,-0.00011962991181811247,0.00018993948521400772,0.0002294914970321202,-4.39552533684291e-05,6.2667,4.1333
2.03125,-0.00012256592973220416,0.0001816368116044861,0.00020849415580224303,-3.418457080186161e-05,6.2667,4.1333
2.03515625,-0.00012403393868925,0.0001982421588235294,0.00019628080259403367,-2.4907235507743963e-05,6.2667,4.1333
2.0390625,-0.00012061660636301213,0.00021141814085603105,0.00021336746422522315,-3.857656481269552e-05,6.2667,4.1333
2.04296875,-0.00011133927106889449,0.00021044347917143505,0.00022313814679179061,-5.615657371633479e-05,6.2667,4.1333
2.046875,-0.0001137699088502327,0.0002109368264438849,0.00021679682941176467,-6.934458860914015e-05,6.2667,4.1333
2.05078125,-0.00012304724414435034,0.00021874615278095672,0.00023241548208590825,-7.422992989242391e-05,6.2667,4.1333
2.0546875,-0.00010547926810101472,0.00021336746422522315,0.0002265554791180285,-6.152322941176472e-05,6.2667,4.1333
2.05859375,-9.131659152361335e-05,0.00020409012893110546,0.00021532882045471882,-6.006725331502252e-05,6.2667,4.1333
2.0625,-0.00010206193577477685,0.00020995013189898526,0.0002265554791180285,-5.9092591630426497e-05,6.2667,4.1333
2.06640625,-0.00010059392681773098,0.00021825280550850687,0.00023535149999999997,-5.567525930418861e-05,6.2667,4.1333
2.0703125,-9.473392384985124e-05,0.00020507682347600513,0.00022021416173800256,-5.9092591630426497e-05,6.2667,4.1333
2.07421875,-9.179790593575953e-05,0.0001787007936903944,0.00019677414986648352,-7.471124430457009e-05,6.2667,4.1333
2.078125,-8.887392088197147e-05,0.00017041015294117642,0.00020946881748683903,-7.031925029373619e-05,6.2667,4.1333
2.08203125,-8.496324128328375e-05,0.0001874968145723659,0.00022167013783474477,-4.9321909063859024e-05,6.2667,4.1333
2.0859375,-9.326591489280538e-05,0.000185054143930724,0.0002026341528343633,-5.9092591630426497e-05,6.2667,4.1333
2.08984375,-9.473392384985124e-05,0.00018066214991989011,0.00019725546427862967,-6.934458860914015e-05,6.2667,4.1333
2.09375,-8.496324128328375e-05,0.00019433147922484165,0.00020116614387731744,-7.080056470588236e-05,6.2667,4.1333
2.09765625,-7.373658261997408e-05,0.00018310482056153199,0.00018944613794155793,-7.56859059891661e-05,6.2667,4.1333
2.1015625,-6.299123836881056e-05,0.0001655248116578927,0.00016747413502708473,-6.836992692454414e-05,6.2667,4.1333
2.10546875,-5.9092591630426497e-05,0.00015672879077592125,0.00014989412612344545,-4.687923842221715e-05,6.2667,4.1333
2.109375,-5.6649920988784625e-05,0.00016649947334248873,0.00015624747636377504,-4.39552533684291e-05,6.2667,4.1333
2.11328125,-5.567525930418861e-05,0.00016063947037460894,0.0001621074793316548,-6.348458564126041e-05,6.2667,4.1333
2.1171875,-4.687923842221715e-05,0.00013719945850308995,0.00015869014700541691,-6.592725628290227e-05,6.2667,4.1333
2.12109375,-4.2487244411383244e-05,0.0001352501351338979,0.00015527281467917902,-4.39552533684291e-05,6.2667,4.1333
2.125,-5.468856475928893e-05,0.0001367181440909437,0.00013817412018768594,-4.639792401007096e-05,6.2667,4.1333
2.12890625,-6.445924732585642e-05,0.00012353012919813836,0.00012792212320897225,-6.934458860914015e-05,6.2667,4.1333
2.1328125,-6.201657668421455e-05,0.00011327813221942471,0.00011961944959945065,-7.471124430457009e-05,6.2667,4.1333
2.13671875,-4.590457673762113e-05,0.00011572080286106659,0.00011327813221942471,-6.396590005340658e-05,6.2667,4.1333
2.140625,-3.662724144350349e-05,0.00010644346756694891,0.00010350744965285724,-6.543390901045244e-05,6.2667,4.1333
2.14453125,-3.174190016021974e-05,9.911545564202333e-05,0.0001005834645990692,-6.250992395666439e-05,6.2667,4.1333
2.1484375,-3.809525040054933e-05,9.08127820325017e-05,0.00010936745262073696,-5.7131235400930816e-05,6.2667,4.1333
2.15234375,-3.857656481269552e-05,8.348477010757607e-05,0.00010009011732661934,-5.9092591630426497e-05,6.2667,4.1333
2.15625,-3.320990911726559e-05,7.51941293583581e-05,7.909277609674216e-05,-5.323258866254674e-05,6.2667,4.1333
2.16015625,-3.418457080186161e-05,6.005679109636071e-05,6.591679406424047e-05,-5.518191203173877e-05,6.2667,4.1333
2.1640625,-3.5159232486457637e-05,5.126077021438922e-05,4.833678516060118e-05,-6.445924732585642e-05,6.2667,4.1333
2.16796875,-2.4413888235294136e-05,4.881809957274737e-05,4.5400767246509475e-05,-5.420725034714276e-05,6.2667,4.1333
2.171875,-1.3680576844434284e-05,4.295809660486762e-05,2.880745288776987e-05,-4.39552533684291e-05,6.2667,4.1333
2.17578125,-1.6604561898222327e-05,3.564211754024566e-05,1.5126090722514674e-05,-5.6649920988784625e-05,6.2667,4.1333
2.1796875,-9.769897245746563e-06,3.222478521400776e-05,3.564211754024566e-05,-6.299123836881056e-05,6.2667,4.1333
2.18359375,-5.37790323491265e-06,2.3922111604486133e-05,3.368076131074997e-05,-6.006725331502252e-05,6.2667,4.1333
2.1875,-2.0021894224460227e-05,9.759435027084748e-06,5.367441016250836e-06,-5.224589411764707e-05,6.2667,4.1333
2.19140625,-2.099655590905624e-05,1.4644776310368485e-05,7.316764385442866e-06,-4.004457376974137e-05,6.2667,4.1333
2.1953125,-1.6123247486076166e-05,1.367011462577247e-05,7.810111657892718e-06,-4.492991505302511e-05,6.2667,4.1333
2.19921875,-2.685655887693599e-05,-1.9605709086747823e-06,-4.884555962462826e-06,-5.371390307469292e-05,6.2667,4.1333
2.203125,-3.955122649729154e-05,-2.441885320820944e-06,-1.9605709086747823e-06,-4.737258569466698e-05,6.2667,4.1333
2.20703125,-3.5159232486457637e-05,-1.4672236362249293e-06,5.367441016250836e-06,-3.906991208514536e-05,6.2667,4.1333
2.2109375,-2.832456783398186e-05,-4.884555962462826e-06,4.874093743801012e-06,-4.39552533684291e-05,6.2667,4.1333
2.21484375,-3.271656184481576e-05,-1.856591812771802e-05,1.4567614175631148e-06,-5.7624582673380644e-05,6.2667,4.1333
2.21875,-2.929922951857787e-05,-3.0767238475623714e-05,8.784773342488733e-06,-6.738323237964447e-05,6.2667,4.1333
2.22265625,-2.3439226550698124e-05,-1.123790620279243e-05,-1.7579223582818342e-05,-8.057124727244984e-05,6.2667,4.1333
2.2265625,-1.46552385290303e-05,1.4567614175631148e-06,-3.418457080186161e-05,-6.69019179674983e-05,6.2667,4.1333
2.23046875,-9.288582833600372e-06,-1.123790620279243e-05,-2.4907235507743963e-05,-4.590457673762113e-05,6.2667,4.1333
2.234375,-1.904723253986421e-05,-1.9540579812314036e-05,-2.4907235507743963e-05,-4.3461906095979256e-05,6.2667,4.1333
2.23828125,-1.9540579812314036e-05,-2.5881897192339975e-05,-2.099655590905624e-05,-4.39552533684291e-05,6.2667,4.1333
2.2421875,-6.845912191958518e-06,-1.6604561898222327e-05,-6.845912191958518e-06,-4.101923545433739e-05,6.2667,4.1333
2.24609375,-6.352564919508666e-06,-1.3680576844434284e-05,-2.3932573823147948e-05,-5.078991802090488e-05,6.2667,4.1333
2.25,-1.9540579812314036e-05,-2.0021894224460227e-05,-4.3461906095979256e-05,-4.9321909063859024e-05,6.2667,4.1333
2.25390625,-3.126058574807356e-05,-2.2957912138551932e-05,-4.101923545433739e-05,-4.2487244411383244e-05,6.2667,4.1333
2.2578125,-2.7349906149385845e-05,-2.4413888235294136e-05,-4.8347247379263006e-05,-5.7624582673380644e-05,6.2667,4.1333
2.26171875,-2.246456486610211e-05,-2.4413888235294136e-05,-5.078991802090488e-05,-6.201657668421455e-05,6.2667,4.1333
2.265625,-1.2212567887388445e-05,-1.2212567887388445e-05,-3.955122649729154e-05,-3.712058871595332e-05,6.2667,4.1333
2.26953125,4.820997329671002e-07,-1.3680576844434284e-05,-2.3932573823147948e-05,-2.8817915106431684e-05,6.2667,4.1333
2.2734375,-1.0744558930342577e-05,-3.418457080186161e-05,-2.1983250453955917e-05,-5.176457970550089e-05,6.2667,4.1333
2.27734375,-2.4907235507743963e-05,-4.004457376974137e-05,-3.712058871595332e-05,-6.05485677271687e-05,6.2667,4.1333
2.28125,-2.7349906149385845e-05,-3.271656184481576e-05,-4.19938971389334e-05,-5.371390307469292e-05,6.2667,4.1333
2.28515625,-2.2957912138551932e-05,-2.0021894224460227e-05,-3.5159232486457637e-05,-4.882856179140918e-05,6.2667,4.1333
2.2890625,-1.856591812771802e-05,-2.2957912138551932e-05,-2.929922951857787e-05,-4.39552533684291e-05,6.2667,4.1333
2.29296875,-2.1983250453955917e-05,-3.320990911726559e-05,-2.246456486610211e-05,-3.760190312809951e-05,6.2667,4.1333
2.296875,-1.709790917067218e-05,-3.0273891203173887e-05,-1.7579223582818342e-05,-2.8817915106431684e-05,6.2667,4.1333
2.30078125,-1.6604561898222327e-05,-2.7349906149385845e-05,-1.8072570855268196e-05,-3.857656481269552e-05,6.2667,4.1333
2.3046875,-2.051524149691005e-05,-2.97925767910277e-05,-8.301888288700724e-06,-5.615657371633479e-05,6.2667,4.1333
2.30859375,-1.5136552941176489e-05,-2.4907235507743963e-05,-8.301888288700724e-06,-6.104191499961854e-05,6.2667,4.1333
2.3125,-1.2705915159838269e-05,-2.685655887693599e-05,-3.0273891203173887e-05,-6.006725331502252e-05,6.2667,4.1333
2.31640625,-1.9540579812314036e-05,-2.929922951857787e-05,-3.809525040054933e-05,-4.54112294651713e-05,6.2667,4.1333
2.3203125,-1.2705915159838269e-05,-2.637524446478983e-05,-4.0537921042191214e-05,-2.8817915106431684e-05,6.2667,4.1333
2.32421875,-2.9352325932707967e-06,-3.271656184481576e-05,-4.9321909063859024e-05,-3.4677918074311445e-05,6.2667,4.1333
2.328125,-1.2212567887388445e-05,-3.126058574807356e-05,-3.662724144350349e-05,-4.785390010681317e-05,6.2667,4.1333
2.33203125,-2.051524149691005e-05,-3.0273891203173887e-05,-2.051524149691005e-05,-5.323258866254674e-05,6.2667,4.1333
2.3359375,-3.662724144350349e-05,-3.0273891203173887e-05,-2.929922951857787e-05,-7.178725925078204e-05,6.2667,4.1333
2.33984375,-4.39552533684291e-05,-3.662724144350349e-05,-4.1512582726787225e-05,-7.715391494621195e-05,6.2667,4.1333
2.34375,-3.5652579758907464e-05,-3.6133894171053655e-05,-3.712058871595332e-05,-5.859924435797667e-05,6.2667,4.1333
2.34765625,-3.174190016021974e-05,-3.320990911726559e-05,-4.590457673762113e-05,-4.296855882352942e-05,6.2667,4.1333
2.3515625,-2.3932573823147948e-05,-2.784325342183567e-05,-4.981525633630886e-05,-6.006725331502252e-05,6.2667,4.1333
2.35546875,-1.5136552941176489e-05,-1.9540579812314036e-05,-4.4436567780575275e-05,-6.69019179674983e-05,6.2667,4.1333
2.359375,-1.318722957198446e-05,-2.97925767910277e-05,-5.224589411764707e-05,-4.0537921042191214e-05,6.2667,4.1333
2.36328125,-1.5136552941176489e-05,-4.4436567780575275e-05,-5.1271232433051055e-05,-3.857656481269552e-05,6.2667,4.1333
2.3671875,-1.6123247486076166e-05,-4.737258569466698e-05,-4.101923545433739e-05,-4.492991505302511e-05,6.2667,4.1333
2.37109375,-2.051524149691005e-05,-4.737258569466698e-05,-3.906991208514536e-05,-3.809525040054933e-05,6.2667,4.1333
2.375,-2.5400582780193814e-05,-3.712058871595332e-05,-3.320990911726559e-05,-2.3932573823147948e-05,6.2667,4.1333
2.37890625,-2.3439226550698124e-05,-4.0537921042191214e-05,-3.857656481269552e-05,-2.784325342183567e-05,6.2667,4.1333
2.3828125,-1.709790917067218e-05,-4.981525633630886e-05,-4.639792401007096e-05,-4.4436567780575275e-05,6.2667,4.1333
2.38671875,-1.709790917067218e-05,-4.2487244411383244e-05,-4.296855882352942e-05,-5.323258866254674e-05,6.2667,4.1333
2.390625,-2.2957912138551932e-05,-4.19938971389334e-05,-4.101923545433739e-05,-4.737258569466698e-05,6.2667,4.1333
2.39453125,-3.174190016021974e-05,-4.0537921042191214e-05,-3.6133894171053655e-05,-4.981525633630886e-05,6.2667,4.1333
2.3984375,-2.97925767910277e-05,-3.906991208514536e-05,-3.0273891203173887e-05,-6.152322941176472e-05,6.2667,4.1333
2.40234375,-1.7579223582818342e-05,-3.5652579758907464e-05,-3.3691223529411784e-05,-6.543390901045244e-05,6.2667,4.1333
2.40625,-2.7349906149385845e-05,-3.3691223529411784e-05,-3.857656481269552e-05,-6.592725628290227e-05,6.2667,4.1333
2.41015625,-4.492991505302511e-05,-3.955122649729154e-05,-4.687923842221715e-05,-6.396590005340658e-05,6.2667,4.1333
2.4140625,-3.5652579758907464e-05,-3.662724144350349e-05,-4.2487244411383244e-05,-5.9092591630426497e-05,6.2667,4.1333
2.41796875,-3.0273891203173887e-05,-2.929922951857787e-05,-4.0537921042191214e-05,-5.371390307469292e-05,6.2667,4.1333
2.421875,-3.174190016021974e-05,-3.418457080186161e-05,-3.955122649729154e-05,-4.0537921042191214e-05,6.2667,4.1333
2.42578125,-2.1983250453955917e-05,-4.54112294651713e-05,-4.101923545433739e-05,-3.662724144350349e-05,6.2667,4.1333
2.4296875,-1.709790917067218e-05,-4.9321909063859024e-05,-5.7624582673380644e-05,-5.273924139009691e-05,6.2667,4.1333
2.43359375,-2.4413888235294136e-05,-5.176457970550089e-05,-4.981525633630886e-05,-7.178725925078204e-05,6.2667,4.1333
2.4375,-3.662724144350349e-05,-5.859924435797667e-05,-4.004457376974137e-05,-8.350726518654156e-05,6.2667,4.1333
2.44140625,-4.3461906095979256e-05,-4.687923842221715e-05,-3.5652579758907464e-05,-7.373658261997408e-05,6.2667,4.1333
2.4453125,-4.101923545433739e-05,-3.5652579758907464e-05,-2.929922951857787e-05,-4.785390010681317e-05,6.2667,4.1333
2.44921875,-3.223524743266958e-05,-2.8817915106431684e-05,-2.784325342183567e-05,-4.2487244411383244e-05,6.2667,4.1333
2.453125,-2.832456783398186e-05,-2.1983250453955917e-05,-3.662724144350349e-05,-5.957390604257269e-05,6.2667,4.1333
2.45703125,-3.0767238475623714e-05,-3.0273891203173887e-05,-5.1271232433051055e-05,-6.201657668421455e-05,6.2667,4.1333
2.4609375,-3.223524743266958e-05,-4.687923842221715e-05,-5.468856475928893e-05,-6.006725331502252e-05,6.2667,4.1333
2.46484375,-2.832456783398186e-05,-4.8347247379263006e-05,-4.785390010681317e-05,-7.031925029373619e-05,6.2667,4.1333
2.46875,-2.7349906149385845e-05,-3.955122649729154e-05,-3.320990911726559e-05,-5.957390604257269e-05,6.2667,4.1333
2.47265625,-2.784325342183567e-05,-4.4436567780575275e-05,-2.1489903181506093e-05,-5.1271232433051055e-05,6.2667,4.1333
2.4765625,-1.9540579812314036e-05,-4.39552533684291e-05,-3.662724144350349e-05,-5.567525930418861e-05,6.2667,4.1333
2.48046875,-1.4161891256580474e-05,-3.320990911726559e-05,-5.078991802090488e-05,-4.492991505302511e-05,6.2667,4.1333
2.484375,-2.1983250453955917e-05,-3.418457080186161e-05,-4.590457673762113e-05,-4.4436567780575275e-05,6.2667,4.1333
2.48828125,-3.0767238475623714e-05,-4.785390010681317e-05,-6.006725331502252e-05,-6.348458564126041e-05,6.2667,4.1333
2.4921875,-2.8817915106431684e-05,-4.590457673762113e-05,-6.250992395666439e-05,-6.201657668421455e-05,6.2667,4.1333
2.49609375,-2.1489903181506093e-05,-3.809525040054933e-05,-4.981525633630886e-05,-4.296855882352942e-05,6.2667,4.1333
2.5,-1.709790917067218e-05,-4.882856179140918e-05,-5.615657371633479e-05,-3.3691223529411784e-05,6.2667,4.1333
2.50390625,-2.051524149691005e-05,-4.590457673762113e-05,-5.567525930418861e-05,-3.4677918074311445e-05,6.2667,4.1333
2.5078125,-3.223524743266958e-05,-3.3691223529411784e-05,-3.418457080186161e-05,-2.832456783398186e-05,6.2667,4.1333
2.51171875,-3.5652579758907464e-05,-4.19938971389334e-05,-2.685655887693599e-05,-3.955122649729154e-05,6.2667,4.1333
2.515625,-1.709790917067218e-05,-4.981525633630886e-05,-4.687923842221715e-05,-5.957390604257269e-05,6.2667,4.1333
2.51953125,1.9501086900129394e-06,-6.592725628290227e-05,-5.957390604257269e-05,-4.2487244411383244e-05,6.2667,4.1333
2.5234375,-6.352564919508666e-06,-0.0001084032531548028,-9.570858553444725e-05,-3.0273891203173887e-05,6.2667,4.1333
2.52734375,-5.37790323491265e-06,-0.0001386779296787976,-0.00014844861224536505,-3.126058574807356e-05,6.2667,4.1333
2.53125,2.4314231021591294e-06,-0.00016405523205920502,-0.00018066057927824825,-3.0273891203173887e-05,6.2667,4.1333
2.53515625,7.316764385442866e-06,-0.00018652058224612802,-0.00020702457620355534,-2.1489903181506093e-05,6.2667,4.1333
2.5390625,1.8543423048752542e-05,-0.000216301911497673,-0.00022607259406424047,-2.4413888235294136e-05,6.2667,4.1333
2.54296875,2.0011432005798412e-05,-0.00025146192930495154,-0.00024755124970626385,-3.809525040054933e-05,6.2667,4.1333
2.546875,2.4896773289082148e-05,-0.0002778259262302586,-0.0002758766028610666,-2.1983250453955917e-05,6.2667,4.1333
2.55078125,4.100877323567556e-05,-0.0002939379261768521,-0.0002954059351338979,4.874093743801012e-06,6.2667,4.1333
2.5546875,5.322212644388492e-05,-0.000320795270374609,-0.0003266552733424887,2.8314105615320045e-05,6.2667,4.1333
2.55859375,6.103145278095672e-05,-0.0003539939319523918,-0.00034618460561532,2.733944393072403e-05,6.2667,4.1333
2.5625,7.714345272755014e-05,-0.00037499127318226894,-0.00036913127021438925,1.6594099679560515e-05,6.2667,4.1333
2.56640625,9.667278500038144e-05,-0.000397456623369192,-0.000398431285053788,2.9782114572365884e-05,6.2667,4.1333
2.5703125,0.000111316775989929,-0.0004160112939574273,-0.00042675663820859077,3.661677922484168e-05,6.2667,4.1333
2.57421875,0.00012303678192568856,-0.0004433499525673304,-0.00045262728786144805,2.0986093690394427e-05,6.2667,4.1333
2.578125,0.00013378212617685205,-0.0004609299614709697,-0.00046972598235294117,2.880745288776987e-05,6.2667,4.1333
2.58203125,0.00013817412018768594,-0.000479484632059205,-0.0004907112907225147,3.905944986648353e-05,6.2667,4.1333
2.5859375,0.00013475678786144805,-0.0004936473086366063,-0.0004926726469520104,3.417410858319979e-05,6.2667,4.1333
2.58984375,0.00013573144954604407,-0.0004999886260166323,-0.00048828065294117645,3.466745585564962e-05,6.2667,4.1333
2.59375,0.00014403412315556568,-0.0005131766409094378,-0.0004897366290379186,2.4403426016632324e-05,6.2667,4.1333
2.59765625,0.0001494128117112993,-0.000501949982246128,-0.0004995073116044861,5.848755428397027e-06,6.2667,4.1333
2.6015625,0.00015233679676508732,-0.000480459293743801,-0.0005087846468986038,8.784773342488733e-06,6.2667,4.1333
2.60546875,0.00016405680270084683,-0.0004965712936903944,-0.0005229473234760052,1.5126090722514674e-05,6.2667,4.1333
2.609375,0.00016161413205920496,-0.0004965712936903944,-0.0005165939732356755,1.611278526741435e-05,6.2667,4.1333
2.61328125,0.00015331145844968335,-0.0004745992907759212,-0.0004887619673533227,-2.441885320820944e-06,6.2667,4.1333
2.6171875,0.00015819679973296707,-0.0004667899644388494,-0.000479484632059205,-1.123790620279243e-05,6.2667,4.1333
2.62109375,0.00015575412909132522,-0.0004521459734493019,-0.0004770419614175631,-4.884555962462826e-06,6.2667,4.1333
2.625,0.00015185548235294112,-0.00044042596751354236,-0.00047314331467917907,2.4314231021591294e-06,6.2667,4.1333
2.62890625,0.00014305946147096966,-0.0004145432850003815,-0.0004555633057755398,-6.845912191958518e-06,6.2667,4.1333
2.6328125,0.0001425781470588235,-0.00040331662633707175,-0.0004379832968719005,-3.418457080186161e-05,6.2667,4.1333
2.63671875,0.00014842611716639958,-0.00039989929401083385,-0.000429187275989929,-3.712058871595332e-05,6.2667,4.1333
2.640625,0.0001494128117112993,-0.00036523262347600515,-0.0004018486173800259,-3.4677918074311445e-05,6.2667,4.1333
2.64453125,0.00014891946443884943,-0.00034569125834287023,-0.00037352326422522314,-4.54112294651713e-05,6.2667,4.1333
2.6484375,0.00014452747042801553,-0.0003183525997329671,-0.000343260620561532,-4.1512582726787225e-05,6.2667,4.1333
2.65234375,0.00013719945850308995,-0.0002968739440909438,-0.0003261619260700389,-4.9321909063859024e-05,6.2667,4.1333
2.65625,0.00012694746152437625,-0.00027977524959945066,-0.00031640327636377506,-6.738323237964447e-05,6.2667,4.1333
2.66015625,0.0001240234764705882,-0.00025096858203250174,-0.0002968739440909438,-6.152322941176472e-05,6.2667,4.1333
2.6640625,0.00011961944959945065,-0.0002358312437705043,-0.00027391524663157086,-6.104191499961854e-05,6.2667,4.1333
2.66796875,9.814079395742732e-05,-0.0002089738995727474,-0.00025585392331578543,-7.56859059891661e-05,6.2667,4.1333
2.671875,7.22581114442664e-05,-0.00018797655834287022,-0.00024608324074921795,-7.959658558785382e-05,6.2667,4.1333
2.67578125,4.736212347600516e-05,-0.00016796591165789274,-0.00021727657318226903,-7.226857366292822e-05,6.2667,4.1333
2.6796875,4.2476782192721426e-05,-0.00014795526497291523,-0.00019579791754024568,-7.715391494621195e-05,6.2667,4.1333
2.68359375,4.4919452834363284e-05,-0.0001396525913633936,-0.0001889632528877699,-9.71765944914931e-05,6.2667,4.1333
2.6875,2.733944393072403e-05,-0.00010693524419775692,-0.00014942327392996108,-0.00010303659745937286,6.2667,4.1333
2.69140625,1.415142903791866e-05,-8.98485825665675e-05,-0.00012403393868925,-0.00010010057954528116,6.2667,4.1333
2.6953125,-7.32722660410468e-06,-0.00010010057954528116,-0.00012842593270008393,-0.00010693524419775692,6.2667,4.1333
2.69921875,-3.0767238475623714e-05,-7.86219239032578e-05,-0.00010987126211184863,-0.00011035257652399482,6.2667,4.1333
2.703125,-2.8817915106431684e-05,-6.495259459830626e-05,-8.64312502403296e-05,-0.00010351791187151904,6.2667,4.1333
2.70703125,-4.101923545433739e-05,-5.273924139009691e-05,-7.178725925078204e-05,-0.00010790990588235294,6.2667,4.1333
2.7109375,-6.348458564126041e-05,-3.174190016021974e-05,-6.495259459830626e-05,-0.0001137699088502327,6.2667,4.1333
2.71484375,-7.56859059891661e-05,-3.906991208514536e-05,-6.201657668421455e-05,-0.00010790990588235294,6.2667,4.1333
2.71875,-8.692459751277944e-05,-3.3691223529411784e-05,-7.178725925078204e-05,-0.0001084032531548028,6.2667,4.1333
2.72265625,-9.131659152361335e-05,-1.7579223582818342e-05,-5.323258866254674e-05,-0.0001084032531548028,6.2667,4.1333
2.7265625,-8.398857959868773e-05,9.754470054169246e-07,-3.174190016021974e-05,-0.00010107524122987717,6.2667,4.1333
2.73046875,-8.935523529411766e-05,1.56194379949645e-05,-3.4677918074311445e-05,-0.00010107524122987717,6.2667,4.1333
2.734375,-9.815125617608912e-05,2.1972788235294102e-05,-1.8072570855268196e-05,-8.935523529411766e-05,6.2667,4.1333
2.73828125,-9.570858553444725e-05,2.342876433203631e-05,-9.859092240787675e-07,-7.373658261997408e-05,6.2667,4.1333
2.7421875,-9.570858553444725e-05,1.0734096711680762e-05,-1.9605709086747823e-06,-8.301391791409171e-05,6.2667,4.1333
2.74609375,-9.375926216525522e-05,2.733944393072403e-05,1.953011759365222e-05,-7.86219239032578e-05,6.2667,4.1333
2.75,-9.229125320820937e-05,4.4919452834363284e-05,3.417410858319979e-05,-7.520459157701992e-05,6.2667,4.1333
2.75390625,-0.00010303659745937286,4.4426105561913456e-05,3.709809363698784e-05,-8.350726518654156e-05,6.2667,4.1333
2.7578125,-0.00011962991181811247,4.198343492027158e-05,3.319944689860378e-05,-8.789925919737546e-05,6.2667,4.1333
2.76171875,-0.00011817393572137027,3.808478818188752e-05,3.466745585564962e-05,-8.593790296787976e-05,6.2667,4.1333
2.765625,-0.00010449257355611505,5.126077021438922e-05,3.319944689860378e-05,-7.373658261997408e-05,6.2667,4.1333
2.76953125,-0.00010303659745937286,6.444878510719459e-05,3.0756776256961896e-05,-7.031925029373619e-05,6.2667,4.1333
2.7734375,-0.00010059392681773098,6.151276719310289e-05,4.198343492027158e-05,-7.226857366292822e-05,6.2667,4.1333
2.77734375,-9.473392384985124e-05,6.591679406424047e-05,4.100877323567556e-05,-5.615657371633479e-05,6.2667,4.1333
2.78125,-0.00010206193577477685,6.981544080262451e-05,3.466745585564962e-05,-4.2487244411383244e-05,6.2667,4.1333
2.78515625,-0.00011426325612268254,6.249946173800257e-05,4.2476782192721426e-05,-5.7131235400930816e-05,6.2667,4.1333
2.7890625,-0.00011084592379644464,6.298077615014876e-05,3.661677922484168e-05,-7.86219239032578e-05,6.2667,4.1333
2.79296875,-0.00010107524122987717,6.542344679179063e-05,3.514877026779581e-05,-6.738323237964447e-05,6.2667,4.1333
2.796875,-9.815125617608912e-05,6.200611446555273e-05,5.7614120454718825e-05,-5.810589708552683e-05,6.2667,4.1333
2.80078125,-9.229125320820937e-05,5.7120773182269005e-05,5.7614120454718825e-05,-6.592725628290227e-05,6.2667,4.1333
2.8046875,-9.131659152361335e-05,6.103145278095672e-05,3.905944986648353e-05,-6.006725331502252e-05,6.2667,4.1333
2.80859375,-8.252057064164188e-05,6.542344679179063e-05,3.125012352941175e-05,-5.859924435797667e-05,6.2667,4.1333
2.8125,-8.057124727244984e-05,5.419678812848093e-05,3.0263428984512072e-05,-6.445924732585642e-05,6.2667,4.1333
2.81640625,-9.375926216525522e-05,5.126077021438922e-05,3.417410858319979e-05,-6.640857069504845e-05,6.2667,4.1333
2.8203125,-8.448192687113757e-05,5.908212941176469e-05,5.6639458770122814e-05,-5.078991802090488e-05,6.2667,4.1333
2.82421875,-7.178725925078204e-05,5.6639458770122814e-05,5.7614120454718825e-05,-3.712058871595332e-05,6.2667,4.1333
2.828125,-7.617925326161593e-05,5.126077021438922e-05,4.833678516060118e-05,-4.004457376974137e-05,6.2667,4.1333
2.83203125,-8.057124727244984e-05,6.200611446555273e-05,4.736212347600516e-05,-4.590457673762113e-05,6.2667,4.1333
2.8359375,-7.422992989242391e-05,5.467810254062712e-05,3.709809363698784e-05,-5.1271232433051055e-05,6.2667,4.1333
2.83984375,-6.885124133669033e-05,4.198343492027158e-05,2.9782114572365884e-05,-5.0296570748455036e-05,6.2667,4.1333
2.84375,-7.226857366292822e-05,4.686877620355534e-05,2.0986093690394427e-05,-5.420725034714276e-05,6.2667,4.1333
2.84765625,-7.178725925078204e-05,4.2476782192721426e-05,3.222478521400776e-05,-6.982590302128634e-05,6.2667,4.1333
2.8515625,-7.666056767376212e-05,3.222478521400776e-05,3.954076427862972e-05,-6.836992692454414e-05,6.2667,4.1333
2.85546875,-7.471124430457009e-05,3.222478521400776e-05,3.2706099626153954e-05,-4.54112294651713e-05,6.2667,4.1333
2.859375,-6.104191499961854e-05,3.368076131074997e-05,4.100877323567556e-05,-2.4907235507743963e-05,6.2667,4.1333
2.86328125,-5.1271232433051055e-05,4.637542893110549e-05,3.856610259403371e-05,-2.8817915106431684e-05,6.2667,4.1333
2.8671875,-5.1271232433051055e-05,4.784343788815135e-05,2.5390120561532e-05,-5.0296570748455036e-05,6.2667,4.1333
2.87109375,-6.05485677271687e-05,3.564211754024566e-05,2.4403426016632324e-05,-4.3461906095979256e-05,6.2667,4.1333
2.875,-5.615657371633479e-05,3.222478521400776e-05,3.661677922484168e-05,-3.0767238475623714e-05,6.2667,4.1333
2.87890625,-5.6649920988784625e-05,1.953011759365222e-05,3.759144090943769e-05,-3.906991208514536e-05,6.2667,4.1333
2.8828125,-6.543390901045244e-05,1.611278526741435e-05,3.0756776256961896e-05,-4.2487244411383244e-05,6.2667,4.1333
2.88671875,-6.006725331502252e-05,1.8543423048752542e-05,3.514877026779581e-05,-3.712058871595332e-05,6.2667,4.1333
2.890625,-4.9321909063859024e-05,1.56194379949645e-05,1.4644776310368485e-05,-3.174190016021974e-05,6.2667,4.1333
2.89453125,-4.101923545433739e-05,2.3922111604486133e-05,-1.6123247486076166e-05,-2.0021894224460227e-05,6.2667,4.1333
2.8984375,-4.101923545433739e-05,2.733944393072403e-05,-2.2957912138551932e-05,-1.4161891256580474e-05,6.2667,4.1333
2.90234375,-3.0273891203173887e-05,3.125012352941175e-05,-9.288582833600372e-06,-2.1983250453955917e-05,6.2667,4.1333
2.90625,-3.6133894171053655e-05,1.953011759365222e-05,4.392779331654822e-06,-3.906991208514536e-05,6.2667,4.1333
2.91015625,-4.9321909063859024e-05,5.848755428397027e-06,9.754470054169246e-07,-3.906991208514536e-05,6.2667,4.1333
2.9140625,-4.590457673762113e-05,8.29142607003888e-06,-1.904723253986421e-05,-3.126058574807356e-05,6.2667,4.1333
2.91796875,-4.8347247379263006e-05,-1.9605709086747823e-06,-2.246456486610211e-05,-4.981525633630886e-05,6.2667,4.1333
2.921875,-4.004457376974137e-05,-1.123790620279243e-05,-1.318722957198446e-05,-4.19938971389334e-05,6.2667,4.1333
2.92578125,-2.7349906149385845e-05,-1.4672236362249293e-06,-2.2957912138551932e-05,-2.97925767910277e-05,6.2667,4.1333
2.9296875,-3.418457080186161e-05,2.4314231021591294e-06,-2.051524149691005e-05,-2.97925767910277e-05,6.2667,4.1333
2.93359375,-4.54112294651713e-05,-1.2705915159838269e-05,-1.856591812771802e-05,-3.223524743266958e-05,6.2667,4.1333
2.9375,-3.174190016021974e-05,-2.0021894224460227e-05,-2.784325342183567e-05,-4.4436567780575275e-05,6.2667,4.1333
2.94140625,-1.6123247486076166e-05,-2.051524149691005e-05,-2.3439226550698124e-05,-4.639792401007096e-05,6.2667,4.1333
2.9453125,-2.0021894224460227e-05,-2.784325342183567e-05,-1.5629900213626315e-05,-4.785390010681317e-05,6.2667,4.1333
2.94921875,-2.5881897192339975e-05,-4.785390010681317e-05,-1.5629900213626315e-05,-5.0296570748455036e-05,6.2667,4.1333
2.953125,-7.820573876554533e-06,-5.567525930418861e-05,-4.19938971389334e-05,-5.7131235400930816e-05,6.2667,4.1333
2.95703125,2.2947449919890118e-05,-5.371390307469292e-05,-6.982590302128634e-05,-5.9092591630426497e-05,6.2667,4.1333
2.9609375,3.466745585564962e-05,-6.006725331502252e-05,-8.301391791409171e-05,-5.323258866254674e-05,6.2667,4.1333
2.96484375,4.980479411764705e-05,-7.86219239032578e-05,-9.229125320820937e-05,-5.371390307469292e-05,6.2667,4.1333
2.96875,8.105413232623786e-05,-9.326591489280538e-05,-0.00010596058251316091,-5.0296570748455036e-05,6.2667,4.1333
2.97265625,9.569812331578543e-05,-0.00011475660339513237,-0.00013428593566796367,-5.7624582673380644e-05,6.2667,4.1333
2.9765625,0.00011717677895780877,-0.00012061660636301213,-0.00013331127398336768,-6.152322941176472e-05,6.2667,4.1333
2.98046875,0.0001342754734493019,-0.00014112060032043947,-0.0001582072619516289,-7.031925029373619e-05,6.2667,4.1333
2.984375,0.00013573144954604407,-0.00017772456136415656,-0.00021141657021438924,-7.764726221866179e-05,6.2667,4.1333
2.98828125,0.00014061679082932784,-0.00019824058818188753,-0.00023680590545510034,-6.445924732585642e-05,6.2667,4.1333
2.9921875,0.00015283014403753712,-0.00021679525877012283,-0.0002348565820859083,-4.882856179140918e-05,6.2667,4.1333
2.99609375,0.00015819679973296707,-0.00022948992639047836,-0.000239741923369192,-4.737258569466698e-05,6.2667,4.1333
3.0,0.00015966480869001294,-0.000216301911497673,-0.00023290725871671623,-3.809525040054933e-05,6.2667,4.1333
3.00390625,0.00016600612607003886,-0.0002050752528343633,-0.00021971924382391088,-3.5652579758907464e-05,6.2667,4.1333
3.0078125,0.00015331145844968335,-0.000216301911497673,-0.00023193259703212024,-5.1271232433051055e-05,6.2667,4.1333
3.01171875,0.00014500878484016168,-0.0002075179234760052,-0.00023143924975967042,-6.006725331502252e-05,6.2667,4.1333
3.015625,0.0001401354764171816,-0.0001889632528877699,-0.00020604991451895932,-5.420725034714276e-05,6.2667,4.1333
3.01953125,0.00013280746449225602,-0.00018602723497367817,-0.00017772456136415656,-3.271656184481576e-05,6.2667,4.1333
3.0234375,0.00013133945553521015,-0.0001977472409094377,-0.00018016723200579843,-3.223524743266958e-05,6.2667,4.1333
3.02734375,0.0001284154704814221,-0.00020996059411764706,-0.0001967725792248417,-2.5881897192339975e-05,6.2667,4.1333
3.03125,0.00013231411721980618,-0.00020360724387731747,-0.00019482325585564963,-1.4161891256580474e-05,6.2667,4.1333
3.03515625,0.0001166954645456626,-0.0001943299085831998,-0.00018652058224612802,-2.8817915106431684e-05,6.2667,4.1333
3.0390625,0.00010497545860990305,-0.00018797655834287022,-0.00017724324695201038,-3.0767238475623714e-05,6.2667,4.1333
3.04296875,0.00010203944069581138,-0.00016894057334248877,-0.00017577523799496453,-2.784325342183567e-05,6.2667,4.1333
3.046875,9.37487999465934e-05,-0.0001430699236896315,-0.0001572326002670329,-3.0273891203173887e-05,6.2667,4.1333
3.05078125,8.691413529411761e-05,-0.0001298939416571298,-0.00012500860037384604,-1.5629900213626315e-05,6.2667,4.1333
3.0546875,7.128344975967039e-05,-0.00015284060625619898,-0.0001308686033417258,-4.884555962462826e-06,6.2667,4.1333
3.05859375,5.467810254062712e-05,-0.000153815267940795,-0.0001308686033417258,-1.3680576844434284e-05,6.2667,4.1333
3.0625,5.7120773182269005e-05,-0.00011817393572137027,-0.00011621257949187458,-2.0021894224460227e-05,6.2667,4.1333
3.06640625,5.467810254062712e-05,-0.00010254325018692302,-0.00012403393868925,-1.6123247486076166e-05,6.2667,4.1333
3.0703125,3.514877026779581e-05,-0.00010742859147020676,-0.00013476725008010988,-2.2957912138551932e-05,6.2667,4.1333
3.07421875,1.6594099679560515e-05,-9.815125617608912e-05,-0.00012403393868925,-3.5652579758907464e-05,6.2667,4.1333
3.078125,1.9501086900129394e-06,-8.496324128328375e-05,-9.71765944914931e-05,-3.223524743266958e-05,6.2667,4.1333
3.08203125,-4.884555962462826e-06,-7.715391494621195e-05,-8.154590895704587e-05,-2.2957912138551932e-05,6.2667,4.1333
3.0859375,-8.301888288700724e-06,-4.981525633630886e-05,-5.0296570748455036e-05,-2.0021894224460227e-05,6.2667,4.1333
3.08984375,-2.4907235507743963e-05,-3.3691223529411784e-05,-3.906991208514536e-05,-2.4413888235294136e-05,6.2667,4.1333
3.09375,-4.101923545433739e-05,-5.518191203173877e-05,-5.7624582673380644e-05,-3.418457080186161e-05,6.2667,4.1333
3.09765625,-5.7131235400930816e-05,-4.687923842221715e-05,-5.0296570748455036e-05,-4.4436567780575275e-05,6.2667,4.1333
3.1015625,-6.934458860914015e-05,-2.832456783398186e-05,-4.54112294651713e-05,-5.420725034714276e-05,6.2667,4.1333
3.10546875,-6.885124133669033e-05,-2.1489903181506093e-05,-4.3461906095979256e-05,-5.9092591630426497e-05,6.2667,4.1333
3.109375,-6.69019179674983e-05,4.392779331654822e-06,-1.856591812771802e-05,-5.1271232433051055e-05,6.2667,4.1333
3.11328125,-5.9092591630426497e-05,1.56194379949645e-05,-2.441885320820944e-06,-3.223524743266958e-05,6.2667,4.1333
3.1171875,-7.422992989242391e-05,-1.9605709086747823e-06,-2.441885320820944e-06,-1.5629900213626315e-05,6.2667,4.1333
3.12109375,-9.765790890363927e-05,-2.9352325932707967e-06,-1.4672236362249293e-06,-2.246456486610211e-05,6.2667,4.1333
3.125,-0.00010547926810101472,1.2202105668726601e-05,3.418117647058807e-06,-4.981525633630886e-05,6.2667,4.1333
3.12890625,-0.0001049859208285649,2.342876433203631e-05,2.0986093690394427e-05,-4.785390010681317e-05,6.2667,4.1333
3.1328125,-0.00011718724117647059,4.003411155107955e-05,3.0263428984512072e-05,-3.906991208514536e-05,6.2667,4.1333
3.13671875,-0.00012646457647058824,4.637542893110549e-05,2.6846096658274175e-05,-4.590457673762113e-05,6.2667,4.1333
3.140625,-0.00010206193577477685,5.028610852979321e-05,4.5400767246509475e-05,-3.809525040054933e-05,6.2667,4.1333
3.14453125,-9.668324721904326e-05,5.467810254062712e-05,5.467810254062712e-05,-2.97925767910277e-05,6.2667,4.1333
3.1484375,-0.00012061660636301213,5.8588782139314844e-05,3.905944986648353e-05,-4.590457673762113e-05,6.2667,4.1333
3.15234375,-0.0001274512710154879,5.467810254062712e-05,3.808478818188752e-05,-5.1271232433051055e-05,6.2667,4.1333
3.15625,-0.00012842593270008393,5.322212644388492e-05,4.2476782192721426e-05,-4.39552533684291e-05,6.2667,4.1333
3.16015625,-0.00012842593270008393,5.809543486686502e-05,4.4919452834363284e-05,-3.174190016021974e-05,6.2667,4.1333
3.1640625,-0.00012304724414435034,6.005679109636071e-05,4.3451443877317444e-05,-1.123790620279243e-05,6.2667,4.1333
3.16796875,-0.00012012325909056229,5.419678812848093e-05,4.100877323567556e-05,-8.301888288700724e-06,6.2667,4.1333
3.171875,-0.00011718724117647059,5.565276422522313e-05,5.370344085603111e-05,-2.7349906149385845e-05,6.2667,4.1333
3.17578125,-0.00011768058844892042,5.7614120454718825e-05,6.249946173800257e-05,-3.760190312809951e-05,6.2667,4.1333
3.1796875,-0.0001137699088502327,5.370344085603111e-05,6.249946173800257e-05,-3.6133894171053655e-05,6.2667,4.1333
3.18359375,-0.00010987126211184863,5.7120773182269005e-05,5.7120773182269005e-05,-3.418457080186161e-05,6.2667,4.1333
3.1875,-0.00010645392978561075,6.493009951934078e-05,6.737277016098267e-05,-4.9321909063859024e-05,6.2667,4.1333
3.19140625,-0.00010889660042725262,6.005679109636071e-05,8.056078505378804e-05,-5.0296570748455036e-05,6.2667,4.1333
3.1953125,-0.00011231393275349051,6.053810550850687e-05,7.128344975967039e-05,-2.4413888235294136e-05,6.2667,4.1333
3.19921875,-0.00010645392978561075,6.981544080262451e-05,7.323277312886241e-05,-7.820573876554533e-06,6.2667,4.1333
3.203125,-0.000101568588502327,6.200611446555273e-05,7.56754437705043e-05,-2.4413888235294136e-05,6.2667,4.1333
3.20703125,-9.86325705882353e-05,5.908212941176469e-05,7.323277312886241e-05,-4.590457673762113e-05,6.2667,4.1333
3.2109375,-9.179790593575953e-05,5.8588782139314844e-05,7.56754437705043e-05,-3.906991208514536e-05,6.2667,4.1333
3.21484375,-8.887392088197147e-05,6.298077615014876e-05,7.958612336919203e-05,-1.8072570855268196e-05,6.2667,4.1333
3.21875,-9.034192983901733e-05,6.151276719310289e-05,9.71661322728313e-05,-9.288582833600372e-06,6.2667,4.1333
3.22265625,-9.326591489280538e-05,5.517144981307695e-05,9.911545564202333e-05,-1.709790917067218e-05,6.2667,4.1333
3.2265625,-9.08232442511635e-05,4.881809957274737e-05,9.667278500038144e-05,-1.46552385290303e-05,6.2667,4.1333
3.23046875,-8.057124727244984e-05,5.419678812848093e-05,6.444878510719459e-05,-1.1247539482724278e-08,6.2667,4.1333
3.234375,-8.106459454489968e-05,5.6146111497672986e-05,1.367011462577247e-05,1.9501086900129394e-06,6.2667,4.1333
3.23828125,-7.812857663080797e-05,5.6146111497672986e-05,9.754470054169246e-07,3.899432059204997e-06,6.2667,4.1333
3.2421875,-7.080056470588236e-05,5.7614120454718825e-05,3.418117647058807e-06,-1.2705915159838269e-05,6.2667,4.1333
3.24609375,-6.885124133669033e-05,5.126077021438922e-05,3.418117647058807e-06,-2.3932573823147948e-05,6.2667,4.1333
3.25,-6.495259459830626e-05,4.0527458823529395e-05,1.1227443984130588e-05,-5.37790323491265e-06,6.2667,4.1333
3.25390625,-5.7131235400930816e-05,4.5400767246509475e-05,2.5871434973678163e-05,6.8354499732967035e-06,6.2667,4.1333
3.2578125,-6.05485677271687e-05,5.028610852979321e-05,2.6846096658274175e-05,-6.845912191958518e-06,6.2667,4.1333
3.26171875,-6.05485677271687e-05,3.368076131074997e-05,1.4644776310368485e-05,-1.9540579812314036e-05,6.2667,4.1333
3.265625,-5.420725034714276e-05,2.4896773289082148e-05,1.611278526741435e-05,-2.1489903181506093e-05,6.2667,4.1333
3.26953125,-5.224589411764707e-05,1.953011759365222e-05,5.848755428397027e-06,-2.1983250453955917e-05,6.2667,4.1333
3.2734375,-4.4436567780575275e-05,7.810111657892718e-06,-6.845912191958518e-06,-1.46552385290303e-05,6.2667,4.1333
3.27734375,-2.3439226550698124e-05,-8.795235561150548e-06,1.0252782299534572e-05,-1.0263244518196387e-05,6.2667,4.1333
3.28125,-1.3680576844434284e-05,-1.7579223582818342e-05,9.754470054169246e-07,-1.2212567887388445e-05,6.2667,4.1333
3.28515625,-4.925619516289145e-07,-2.099655590905624e-05,-2.832456783398186e-05,-1.709790917067218e-05,6.2667,4.1333
3.2890625,1.1227443984130588e-05,-3.906991208514536e-05,-3.223524743266958e-05,-3.4677918074311445e-05,6.2667,4.1333
3.29296875,2.782075834287019e-05,-4.737258569466698e-05,-2.929922951857787e-05,-3.5652579758907464e-05,6.2667,4.1333
3.296875,5.126077021438922e-05,-7.56859059891661e-05,-6.201657668421455e-05,-2.637524446478983e-05,6.2667,4.1333
3.30078125,7.22581114442664e-05,-9.326591489280538e-05,-9.912591786068515e-05,-3.662724144350349e-05,6.2667,4.1333
3.3046875,8.642078802166779e-05,-9.570858553444725e-05,-0.00012940059438467993,-4.1512582726787225e-05,6.2667,4.1333
3.30859375,0.0001088861382085908,-0.00011768058844892042,-0.00014844861224536505,-5.518191203173877e-05,6.2667,4.1333
3.3125,0.00013036479385061415,-0.00013720992072175175,-0.00016454857933165484,-7.12939119783322e-05,6.2667,4.1333
3.31640625,0.00014061679082932784,-0.00015137259729915313,-0.00016258722310215915,-7.031925029373619e-05,6.2667,4.1333
3.3203125,0.00015869014700541691,-0.00016405523205920502,-0.00017382591462577248,-5.957390604257269e-05,6.2667,4.1333
3.32421875,0.00017186612903791865,-0.00017382591462577248,-0.0002021392349202716,-3.809525040054933e-05,6.2667,4.1333
3.328125,0.00016113281764705879,-0.00018163524096284427,-0.00020263258219272145,-3.712058871595332e-05,6.2667,4.1333
3.33203125,0.00014842611716639958,-0.00018407791160448615,-0.00018846990561532007,-4.4436567780575275e-05,6.2667,4.1333
3.3359375,0.00015086878780804148,-0.00018114189369039445,-0.00018407791160448615,-4.3461906095979256e-05,6.2667,4.1333
3.33984375,0.00015672879077592125,-0.00016942188775463492,-0.00017869922304875255,-4.3461906095979256e-05,6.2667,4.1333
3.34375,0.00015185548235294112,-0.00016210590869001297,-0.00016113124700541695,-4.590457673762113e-05,6.2667,4.1333
3.34765625,0.00013573144954604407,-0.00017235790566872664,-0.0001674725643854429,-3.662724144350349e-05,6.2667,4.1333
3.3515625,0.00012987144657816428,-0.00016454857933165484,-0.00016894057334248877,-2.784325342183567e-05,6.2667,4.1333
3.35546875,0.00012597279983978023,-0.0001460059416037232,-0.00016600455542839705,-3.0273891203173887e-05,6.2667,4.1333
3.359375,0.00011181012326237885,-0.00014356327096208134,-0.00018797655834287022,-3.271656184481576e-05,6.2667,4.1333
3.36328125,0.0001005834645990692,-0.00013672860630960557,-0.00018260990264744027,-3.3691223529411784e-05,6.2667,4.1333
3.3671875,0.00010986079989318681,-0.00012940059438467993,-0.00014892992665751126,-2.0021894224460227e-05,6.2667,4.1333
3.37109375,0.00011034211430533298,-0.0001289072471122301,-0.0001298939416571298,-1.709790917067218e-05,6.2667,4.1333
3.375,9.764744668497747e-05,-0.0001084032531548028,-0.00011718724117647059,-1.8072570855268196e-05,6.2667,4.1333
3.37890625,9.569812331578543e-05,-9.08232442511635e-05,-0.00010547926810101472,-1.9540579812314036e-05,6.2667,4.1333
3.3828125,8.592744074921796e-05,-8.106459454489968e-05,-0.0001049859208285649,-2.4907235507743963e-05,6.2667,4.1333
3.38671875,7.22581114442664e-05,-7.080056470588236e-05,-9.424057657740139e-05,-3.174190016021974e-05,6.2667,4.1333
3.390625,6.395543783474477e-05,-6.152322941176472e-05,-6.543390901045244e-05,-2.3439226550698124e-05,6.2667,4.1333
3.39453125,5.419678812848093e-05,-4.882856179140918e-05,-4.882856179140918e-05,-1.2705915159838269e-05,6.2667,4.1333
3.3984375,4.003411155107955e-05,-4.687923842221715e-05,-4.4436567780575275e-05,-2.3439226550698124e-05,6.2667,4.1333
3.40234375,2.4403426016632324e-05,-4.0537921042191214e-05,-5.371390307469292e-05,-2.637524446478983e-05,6.2667,4.1333
3.40625,1.0734096711680762e-05,-1.856591812771802e-05,-5.567525930418861e-05,-2.0021894224460227e-05,6.2667,4.1333
3.41015625,-5.859217647058841e-06,3.899432059204997e-06,-3.126058574807356e-05,-1.2212567887388445e-05,6.2667,4.1333
3.4140625,-1.7579223582818342e-05,7.316764385442866e-06,-4.925619516289145e-07,-1.709790917067218e-05,6.2667,4.1333
3.41796875,-3.320990911726559e-05,1.1227443984130588e-05,8.29142607003888e-06,-4.0537921042191214e-05,6.2667,4.1333
3.421875,-4.2487244411383244e-05,1.806210863660638e-05,-9.859092240787675e-07,-4.2487244411383244e-05,6.2667,4.1333
3.42578125,-4.4436567780575275e-05,3.1731437941557915e-05,-1.1247539482724278e-08,-3.760190312809951e-05,6.2667,4.1333
3.4296875,-6.592725628290227e-05,4.2476782192721426e-05,2.2947449919890118e-05,-4.590457673762113e-05,6.2667,4.1333
3.43359375,-7.959658558785382e-05,4.637542893110549e-05,3.125012352941175e-05,-3.6133894171053655e-05,6.2667,4.1333
3.4375,-8.789925919737546e-05,5.126077021438922e-05,3.808478818188752e-05,-2.3932573823147948e-05,6.2667,4.1333
3.44140625,-0.00010351791187151904,3.759144090943769e-05,4.589411451895932e-05,-2.637524446478983e-05,6.2667,4.1333
3.4453125,-0.00010790990588235294,3.661677922484168e-05,4.1502120508125414e-05,-2.8817915106431684e-05,6.2667,4.1333
3.44921875,-0.0001137699088502327,4.589411451895932e-05,4.003411155107955e-05,-2.97925767910277e-05,6.2667,4.1333
3.453125,-0.00012256592973220416,5.126077021438922e-05,4.784343788815135e-05,-2.784325342183567e-05,6.2667,4.1333
3.45703125,-0.0001269579237430381,4.784343788815135e-05,6.151276719310289e-05,-3.712058871595332e-05,6.2667,4.1333
3.4609375,-0.0001298939416571298,5.077945580224306e-05,6.542344679179063e-05,-4.101923545433739e-05,6.2667,4.1333
3.46484375,-0.00012842593270008393,6.103145278095672e-05,6.689145574883648e-05,-2.784325342183567e-05,6.2667,4.1333
3.46875,-0.00013037525606927596,6.298077615014876e-05,6.053810550850687e-05,-2.784325342183567e-05,6.2667,4.1333
3.47265625,-0.00013720992072175175,5.322212644388492e-05,4.3944791149767265e-05,-3.6133894171053655e-05,6.2667,4.1333
3.4765625,-0.00014062725304798962,4.686877620355534e-05,5.028610852979321e-05,-3.126058574807356e-05,6.2667,4.1333
3.48046875,-0.00013818458240634778,3.808478818188752e-05,4.881809957274737e-05,-1.0744558930342577e-05,6.2667,4.1333
3.484375,-0.00014501924705882354,4.3944791149767265e-05,4.2476782192721426e-05,-5.859217647058841e-06,6.2667,4.1333
3.48828125,-0.00015576459130998703,6.347412342259858e-05,4.686877620355534e-05,-2.784325342183567e-05,6.2667,4.1333
3.4921875,-0.00014698060328831924,5.7614120454718825e-05,5.565276422522313e-05,-3.712058871595332e-05,6.2667,4.1333
3.49609375,-0.00012842593270008393,4.881809957274737e-05,4.881809957274737e-05,-2.099655590905624e-05,6.2667,4.1333
3.5,-0.00012256592973220416,5.908212941176469e-05,4.637542893110549e-05,-7.820573876554533e-06,6.2667,4.1333
3.50390625,-0.00012793258542763408,4.980479411764705e-05,5.322212644388492e-05,-9.288582833600372e-06,6.2667,4.1333
3.5078125,-0.0001289072471122301,3.905944986648353e-05,4.1502120508125414e-05,-2.0021894224460227e-05,6.2667,4.1333
3.51171875,-0.00013574191176470588,3.2706099626153954e-05,3.514877026779581e-05,-1.2212567887388445e-05,6.2667,4.1333
3.515625,-0.00013379258839551385,3.856610259403371e-05,4.5400767246509475e-05,-1.123790620279243e-05,6.2667,4.1333
3.51953125,-0.00012598326205844206,3.1731437941557915e-05,4.0527458823529395e-05,-2.929922951857787e-05,6.2667,4.1333
3.5234375,-0.00011670592676432441,1.8543423048752542e-05,3.612343195239182e-05,-4.3461906095979256e-05,6.2667,4.1333
3.52734375,-0.00011279524716563669,2.5390120561532e-05,4.0527458823529395e-05,-4.0537921042191214e-05,6.2667,4.1333
3.53125,-0.00011962991181811247,2.733944393072403e-05,3.612343195239182e-05,-3.271656184481576e-05,6.2667,4.1333
3.53515625,-0.00011914859740596628,1.6594099679560515e-05,2.342876433203631e-05,-3.6133894171053655e-05,6.2667,4.1333
3.5390625,-0.00011768058844892042,1.9501086900129394e-06,1.6594099679560515e-05,-3.223524743266958e-05,6.2667,4.1333
3.54296875,-0.0001210979207751583,1.0734096711680762e-05,2.2947449919890118e-05,-2.3932573823147948e-05,6.2667,4.1333
3.546875,-0.00011231393275349051,1.0252782299534572e-05,2.782075834287019e-05,-2.246456486610211e-05,6.2667,4.1333
3.55078125,-0.00010937791483939881,-4.925619516289145e-07,3.1731437941557915e-05,-2.7349906149385845e-05,6.2667,4.1333
3.5546875,-0.00010790990588235294,5.848755428397027e-06,2.342876433203631e-05,-2.4907235507743963e-05,6.2667,4.1333
3.55859375,-0.00010059392681773098,8.29142607003888e-06,2.2947449919890118e-05,-1.5136552941176489e-05,6.2667,4.1333
3.5625,-9.961926513313497e-05,-9.769897245746563e-06,2.0011432005798412e-05,-2.246456486610211e-05,6.2667,4.1333
3.56640625,-9.765790890363927e-05,-1.6604561898222327e-05,2.880745288776987e-05,-2.637524446478983e-05,6.2667,4.1333
3.5703125,-8.545658855573359e-05,4.820997329671002e-07,2.9782114572365884e-05,-2.1983250453955917e-05,6.2667,4.1333
3.57421875,-8.350726518654156e-05,-8.301888288700724e-06,1.4644776310368485e-05,-2.97925767910277e-05,6.2667,4.1333
3.578125,-9.229125320820937e-05,-1.7579223582818342e-05,2.0504779278248236e-05,-2.3932573823147948e-05,6.2667,4.1333
3.58203125,-8.692459751277944e-05,-7.820573876554533e-06,9.759435027084748e-06,-1.0263244518196387e-05,6.2667,4.1333
3.5859375,-7.666056767376212e-05,-7.32722660410468e-06,-2.3932573823147948e-05,-1.8072570855268196e-05,6.2667,4.1333
3.58984375,-7.226857366292822e-05,-4.884555962462826e-06,-3.712058871595332e-05,-2.5881897192339975e-05,6.2667,4.1333
3.59375,-7.373658261997408e-05,-1.856591812771802e-05,-2.1983250453955917e-05,-1.4161891256580474e-05,6.2667,4.1333
3.59765625,-7.959658558785382e-05,-3.126058574807356e-05,-1.5629900213626315e-05,2.4314231021591294e-06,6.2667,4.1333
3.6015625,-7.86219239032578e-05,-2.3932573823147948e-05,-1.709790917067218e-05,-1.1247539482724278e-08,6.2667,4.1333
3.60546875,-7.226857366292822e-05,-1.709790917067218e-05,-7.820573876554533e-06,-1.7579223582818342e-05,6.2667,4.1333
3.609375,-7.226857366292822e-05,-1.9605709086747823e-06,9.754470054169246e-07,-3.223524743266958e-05,6.2667,4.1333
3.61328125,-7.617925326161593e-05,-1.9605709086747823e-06,-9.859092240787675e-07,-3.662724144350349e-05,6.2667,4.1333
3.6171875,-7.666056767376212e-05,-1.5136552941176489e-05,9.754470054169246e-07,-3.0273891203173887e-05,6.2667,4.1333
3.62109375,-6.445924732585642e-05,-1.3680576844434284e-05,-1.0744558930342577e-05,-1.123790620279243e-05,6.2667,4.1333
3.625,-5.615657371633479e-05,-6.352564919508666e-06,-1.904723253986421e-05,6.342102700846851e-06,6.2667,4.1333
3.62890625,-5.859924435797667e-05,-1.1247539482724278e-08,-1.904723253986421e-05,-1.0744558930342577e-05,6.2667,4.1333
3.6328125,-6.348458564126041e-05,-5.37790323491265e-06,-2.929922951857787e-05,-3.662724144350349e-05,6.2667,4.1333
3.63671875,-6.006725331502252e-05,-2.246456486610211e-05,-3.418457080186161e-05,-2.637524446478983e-05,6.2667,4.1333
3.640625,-5.176457970550089e-05,-3.126058574807356e-05,-3.271656184481576e-05,-4.403241550316636e-06,6.2667,4.1333
3.64453125,-5.957390604257269e-05,-2.5400582780193814e-05,-2.099655590905624e-05,-4.925619516289145e-07,6.2667,4.1333
3.6484375,-6.299123836881056e-05,-2.2957912138551932e-05,-5.37790323491265e-06,-1.318722957198446e-05,6.2667,4.1333
3.65234375,-6.006725331502252e-05,-1.3680576844434284e-05,-1.9605709086747823e-06,-2.7349906149385845e-05,6.2667,4.1333
3.65625,-5.6649920988784625e-05,-2.3932573823147948e-05,-2.051524149691005e-05,-2.832456783398186e-05,6.2667,4.1333
3.66015625,-5.1271232433051055e-05,-1.904723253986421e-05,-3.0273891203173887e-05,-2.4413888235294136e-05,6.2667,4.1333
3.6640625,-4.687923842221715e-05,-3.428579865720621e-06,-2.051524149691005e-05,-2.929922951857787e-05,6.2667,4.1333
3.66796875,-5.1271232433051055e-05,-1.46552385290303e-05,-2.832456783398186e-05,-3.223524743266958e-05,6.2667,4.1333
3.671875,-5.273924139009691e-05,-3.0273891203173887e-05,-4.101923545433739e-05,-3.4677918074311445e-05,6.2667,4.1333
3.67578125,-4.8347247379263006e-05,-2.832456783398186e-05,-2.97925767910277e-05,-2.5881897192339975e-05,6.2667,4.1333
3.6796875,-5.273924139009691e-05,-1.46552385290303e-05,-1.2212567887388445e-05,-5.859217647058841e-06,6.2667,4.1333
3.68359375,-4.639792401007096e-05,-1.7579223582818342e-05,8.29142607003888e-06,-6.352564919508666e-06,6.2667,4.1333
3.6875,-4.8347247379263006e-05,-2.97925767910277e-05,-1.1719220614938592e-05,-2.246456486610211e-05,6.2667,4.1333
3.69140625,-4.687923842221715e-05,-2.8817915106431684e-05,-3.223524743266958e-05,-1.9540579812314036e-05,6.2667,4.1333
3.6953125,-4.19938971389334e-05,-2.4907235507743963e-05,-2.8817915106431684e-05,-1.5136552941176489e-05,6.2667,4.1333
3.69921875,-4.1512582726787225e-05,-3.5652579758907464e-05,-4.54112294651713e-05,-2.1489903181506093e-05,6.2667,4.1333
3.703125,-4.4436567780575275e-05,-3.662724144350349e-05,-5.273924139009691e-05,-1.709790917067218e-05,6.2667,4.1333
3.70703125,-4.737258569466698e-05,-3.5652579758907464e-05,-4.004457376974137e-05,-2.051524149691005e-05,6.2667,4.1333
3.7109375,-4.9321909063859024e-05,-3.4677918074311445e-05,-3.174190016021974e-05,-2.7349906149385845e-05,6.2667,4.1333
3.71484375,-4.8347247379263006e-05,-2.3932573823147948e-05,-4.0537921042191214e-05,-2.637524446478983e-05,6.2667,4.1333
3.71875,-5.1271232433051055e-05,-2.637524446478983e-05,-5.1271232433051055e-05,-2.3932573823147948e-05,6.2667,4.1333
3.72265625,-5.078991802090488e-05,-3.955122649729154e-05,-3.809525040054933e-05,-1.904723253986421e-05,6.2667,4.1333
3.7265625,-4.687923842221715e-05,-4.004457376974137e-05,-2.099655590905624e-05,-2.832456783398186e-05,6.2667,4.1333
3.73046875,-5.1271232433051055e-05,-4.737258569466698e-05,-2.051524149691005e-05,-3.0273891203173887e-05,6.2667,4.1333
3.734375,-4.785390010681317e-05,-6.299123836881056e-05,-2.3932573823147948e-05,-2.685655887693599e-05,6.2667,4.1333
3.73828125,-4.8347247379263006e-05,-5.224589411764707e-05,-3.320990911726559e-05,-3.3691223529411784e-05,6.2667,4.1333
3.7421875,-4.9321909063859024e-05,-5.371390307469292e-05,-4.0537921042191214e-05,-2.637524446478983e-05,6.2667,4.1333
3.74609375,-4.737258569466698e-05,-6.934458860914015e-05,-3.955122649729154e-05,-2.246456486610211e-05,6.2667,4.1333
3.75,-4.590457673762113e-05,-6.69019179674983e-05,-3.6133894171053655e-05,-3.5652579758907464e-05,6.2667,4.1333
3.75390625,-4.590457673762113e-05,-6.299123836881056e-05,-4.785390010681317e-05,-4.101923545433739e-05,6.2667,4.1333
3.7578125,-4.882856179140918e-05,-6.104191499961854e-05,-4.8347247379263006e-05,-2.685655887693599e-05,6.2667,4.1333
3.76171875,-5.1271232433051055e-05,-6.982590302128634e-05,-4.296855882352942e-05,-2.7349906149385845e-05,6.2667,4.1333
3.765625,-4.3461906095979256e-05,-7.031925029373619e-05,-4.296855882352942e-05,-3.662724144350349e-05,6.2667,4.1333
3.76953125,-4.19938971389334e-05,-5.810589708552683e-05,-3.712058871595332e-05,-3.6133894171053655e-05,6.2667,4.1333
3.7734375,-4.8347247379263006e-05,-6.640857069504845e-05,-2.4413888235294136e-05,-2.099655590905624e-05,6.2667,4.1333
3.77734375,-3.809525040054933e-05,-7.471124430457009e-05,-2.1489903181506093e-05,-8.301888288700724e-06,6.2667,4.1333
3.78125,-3.5159232486457637e-05,-6.396590005340658e-05,-2.784325342183567e-05,-7.32722660410468e-06,6.2667,4.1333
3.78515625,-3.5159232486457637e-05,-5.224589411764707e-05,-3.0767238475623714e-05,-8.301888288700724e-06,6.2667,4.1333
3.7890625,-3.418457080186161e-05,-5.859924435797667e-05,-4.39552533684291e-05,-1.856591812771802e-05,6.2667,4.1333
3.79296875,-3.5652579758907464e-05,-5.7131235400930816e-05,-4.8347247379263006e-05,-2.3932573823147948e-05,6.2667,4.1333
3.796875,-2.8817915106431684e-05,-5.078991802090488e-05,-4.3461906095979256e-05,-2.4907235507743963e-05,6.2667,4.1333
3.80078125,-2.8817915106431684e-05,-5.468856475928893e-05,-2.5400582780193814e-05,-2.1983250453955917e-05,6.2667,4.1333
3.8046875,-3.223524743266958e-05,-5.567525930418861e-05,-2.1983250453955917e-05,-2.929922951857787e-05,6.2667,4.1333
3.80859375,-2.97925767910277e-05,-3.3691223529411784e-05,-3.223524743266958e-05,-2.1983250453955917e-05,6.2667,4.1333
3.8125,-3.418457080186161e-05,-1.709790917067218e-05,-3.4677918074311445e-05,-9.288582833600372e-06,6.2667,4.1333
3.81640625,-3.6133894171053655e-05,-3.4677918074311445e-05,-5.1271232433051055e-05,-1.0744558930342577e-05,6.2667,4.1333
3.8203125,-3.0767238475623714e-05,-3.6133894171053655e-05,-6.05485677271687e-05,-1.709790917067218e-05,6.2667,4.1333
3.82421875,-3.0273891203173887e-05,-3.3691223529411784e-05,-5.176457970550089e-05,-1.5136552941176489e-05,6.2667,4.1333
3.828125,-2.3439226550698124e-05,-2.97925767910277e-05,-3.662724144350349e-05,-1.856591812771802e-05,6.2667,4.1333
3.83203125,-2.1489903181506093e-05,-2.246456486610211e-05,-2.4907235507743963e-05,-2.2957912138551932e-05,6.2667,4.1333
3.8359375,-3.0273891203173887e-05,-2.1983250453955917e-05,-3.6133894171053655e-05,-2.5881897192339975e-05,6.2667,4.1333
3.83984375,-2.7349906149385845e-05,-8.301888288700724e-06,-6.934458860914015e-05,-3.955122649729154e-05,6.2667,4.1333
3.84375,-2.637524446478983e-05,1.0734096711680762e-05,-7.226857366292822e-05,-2.929922951857787e-05,6.2667,4.1333
3.84765625,-3.0273891203173887e-05,1.7568761364156527e-05,-5.323258866254674e-05,-1.5136552941176489e-05,6.2667,4.1333
3.8515625,-3.0273891203173887e-05,-1.1247539482724278e-08,-5.567525930418861e-05,-3.3691223529411784e-05,6.2667,4.1333
3.85546875,-3.223524743266958e-05,-1.2705915159838269e-05,-4.492991505302511e-05,-4.492991505302511e-05,6.2667,4.1333
3.859375,-2.97925767910277e-05,7.810111657892718e-06,-4.296855882352942e-05,-3.662724144350349e-05,6.2667,4.1333
3.86328125,-2.2957912138551932e-05,2.0011432005798412e-05,-3.662724144350349e-05,-3.418457080186161e-05,6.2667,4.1333
3.8671875,-3.223524743266958e-05,1.1708758396276777e-05,-4.1512582726787225e-05,-3.320990911726559e-05,6.2667,4.1333
3.87109375,-3.223524743266958e-05,1.611278526741435e-05,-5.323258866254674e-05,-3.809525040054933e-05,6.2667,4.1333
3.875,-3.174190016021974e-05,2.782075834287019e-05,-4.1512582726787225e-05,-4.492991505302511e-05,6.2667,4.1333
3.87890625,-3.3691223529411784e-05,2.342876433203631e-05,-5.1271232433051055e-05,-4.296855882352942e-05,6.2667,4.1333
3.8828125,-3.809525040054933e-05,2.2454102647440293e-05,-6.250992395666439e-05,-3.4677918074311445e-05,6.2667,4.1333
3.88671875,-3.223524743266958e-05,1.2202105668726601e-05,-5.176457970550089e-05,-3.809525040054933e-05,6.2667,4.1333
3.890625,-2.8817915106431684e-05,1.2695452941176454e-05,-5.1271232433051055e-05,-3.0273891203173887e-05,6.2667,4.1333
3.89453125,-3.857656481269552e-05,2.147944096284425e-05,-5.6649920988784625e-05,-2.099655590905624e-05,6.2667,4.1333
3.8984375,-3.223524743266958e-05,2.5871434973678163e-05,-4.2487244411383244e-05,-1.904723253986421e-05,6.2667,4.1333
3.90234375,-3.3691223529411784e-05,1.367011462577247e-05,-4.0537921042191214e-05,-2.4907235507743963e-05,6.2667,4.1333
3.90625,-3.320990911726559e-05,-7.32722660410468e-06,-5.0296570748455036e-05,-4.004457376974137e-05,6.2667,4.1333
3.91015625,-2.1489903181506093e-05,4.392779331654822e-06,-4.981525633630886e-05,-4.590457673762113e-05,6.2667,4.1333
3.9140625,-2.099655590905624e-05,1.415142903791866e-05,-5.615657371633479e-05,-3.906991208514536e-05,6.2667,4.1333
3.91796875,-3.955122649729154e-05,-7.32722660410468e-06,-5.468856475928893e-05,-3.857656481269552e-05,6.2667,4.1333
3.921875,-3.712058871595332e-05,4.874093743801012e-06,-1.6604561898222327e-05,-3.174190016021974e-05,6.2667,4.1333
3.92578125,-2.5881897192339975e-05,7.810111657892718e-06,-1.5629900213626315e-05,-2.1489903181506093e-05,6.2667,4.1333
3.9296875,-3.0767238475623714e-05,-7.820573876554533e-06,-4.004457376974137e-05,-2.929922951857787e-05,6.2667,4.1333
3.93359375,-1.904723253986421e-05,-2.2957912138551932e-05,-4.4436567780575275e-05,-4.296855882352942e-05,6.2667,4.1333
3.9375,-2.1489903181506093e-05,-3.955122649729154e-05,-5.567525930418861e-05,-4.19938971389334e-05,6.2667,4.1333
3.94140625,-2.685655887693599e-05,-3.174190016021974e-05,-4.737258569466698e-05,-2.784325342183567e-05,6.2667,4.1333
3.9453125,-3.0273891203173887e-05,-1.5136552941176489e-05,-5.323258866254674e-05,-2.2957912138551932e-05,6.2667,4.1333
3.94921875,-2.685655887693599e-05,-1.46552385290303e-05,-6.982590302128634e-05,-3.0273891203173887e-05,6.2667,4.1333
3.953125,-1.7579223582818342e-05,-2.1489903181506093e-05,-5.371390307469292e-05,-1.709790917067218e-05,6.2667,4.1333
3.95703125,-1.9540579812314036e-05,-2.929922951857787e-05,-3.320990911726559e-05,-1.6604561898222327e-05,6.2667,4.1333
3.9609375,-2.929922951857787e-05,-3.760190312809951e-05,-4.004457376974137e-05,-3.0767238475623714e-05,6.2667,4.1333
3.96484375,-1.8072570855268196e-05,-1.709790917067218e-05,-3.857656481269552e-05,-2.3439226550698124e-05,6.2667,4.1333
3.96875,-7.32722660410468e-06,-2.3439226550698124e-05,-3.320990911726559e-05,-1.5629900213626315e-05,6.2667,4.1333
3.97265625,-2.637524446478983e-05,-4.101923545433739e-05,-4.981525633630886e-05,-2.2957912138551932e-05,6.2667,4.1333
3.9765625,-4.101923545433739e-05,-2.97925767910277e-05,-5.9092591630426497e-05,-3.906991208514536e-05,6.2667,4.1333
3.98046875,-3.418457080186161e-05,-1.856591812771802e-05,-4.492991505302511e-05,-3.712058871595332e-05,6.2667,4.1333
3.984375,-3.955122649729154e-05,-3.5652579758907464e-05,-4.296855882352942e-05,-3.3691223529411784e-05,6.2667,4.1333
3.98828125,-4.296855882352942e-05,-5.224589411764707e-05,-5.957390604257269e-05,-4.54112294651713e-05,6.2667,4.1333
3.9921875,-3.5652579758907464e-05,-4.882856179140918e-05,-5.615657371633479e-05,-4.004457376974137e-05,6.2667,4.1333
3.99609375,-2.3932573823147948e-05,-5.518191203173877e-05,-5.176457970550089e-05,-4.3461906095979256e-05,6.2667,4.1333
4.0,-1.5136552941176489e-05,-5.7624582673380644e-05,-6.495259459830626e-05,-5.859924435797667e-05,6.2667,4.1333
4.00390625,-1.1719220614938592e-05,-6.640857069504845e-05,-6.348458564126041e-05,-5.224589411764707e-05,6.2667,4.1333
4.0078125,-1.6604561898222327e-05,-5.567525930418861e-05,-5.810589708552683e-05,-3.809525040054933e-05,6.2667,4.1333
