timestamp,TP9,AF7,AF8,TP10,Valence,Arousal
0.0,6.540461235217834e-05,4.540598781719703e-05,4.0014061943999504e-05,7.805150246433314e-06,3.25,2.75
0.00390625,7.322147843289857e-05,5.613278214694449e-05,-7.828581915007134e-06,-5.860101040665185e-06,3.25,2.75
0.0078125,4.4920999775692495e-05,9.260114370946937e-06,-1.980196708628867e-06,1.5108499577325204e-05,3.25,2.75
0.01171875,5.3194325189593467e-05,6.321657413595901e-06,1.9282363317312416e-06,2.050042545052274e-05,3.25,2.75
0.015625,7.518995930724051e-05,1.1713583286793422e-05,-2.465184750133403e-06,1.1713583286793422e-05,3.25,2.75
0.01953125,4.3437506942855076e-05,-4.8901249576561056e-06,1.610700436865808e-05,3.171220782177474e-05,3.25,2.75
0.0234375,5.858625106279099e-05,-2.637224232547483e-05,-1.0282050830853635e-05,3.710413369497226e-05,3.25,2.75
0.02734375,8.837022255283449e-05,-5.47012496910047e-05,-6.83379722697794e-05,3.222572457160308e-05,3.25,2.75
0.03125,0.0001025204618814375,-7.518486226749055e-05,-8.251674030670623e-05,2.8802279572747507e-05,3.25,2.75
0.03515625,0.00012206262708323808,-8.006327139085973e-05,-0.0001196040611276416,2.392387044937831e-05,3.25,2.75
0.0390625,0.00011815419404287796,-0.00011620914483710985,-0.00015526494653238717,3.416567673762124e-05,3.25,2.75
0.04296875,0.00010155048579842844,-0.00015574993457389172,-0.00014256967132829777,4.1497554776836916e-05,3.25,2.75
0.046875,0.00010545891883878855,-0.000177717039983215,-0.00015329646565804522,4.734593998321519e-05,3.25,2.75
0.05078125,0.00012157763904173356,-0.00018114048498207058,-0.00017917200410772857,5.1739361065079847e-05,3.25,2.75
0.0546875,0.00013427291424582296,-0.00019186727931181803,-0.00023973845187914847,4.5890975858701575e-05,3.25,2.75
0.05859375,0.00012939450512245378,-0.00021725782971999686,-0.00025682714816510253,5.613278214694449e-05,3.25,2.75
0.0625,0.00011473074904402239,-0.00024364688491950858,-0.0002553436553322651,5.564779410543995e-05,3.25,2.75
0.06640625,0.00010106549775692392,-0.0002885510718211642,-0.0002958829498603799,5.222434910658438e-05,3.25,2.75
0.0703125,9.179366755169004e-05,-0.00027976422965743483,-0.00028515615553063243,8.006836843060972e-05,3.25,2.75
0.07421875,0.00011570072512703148,-0.0002416784040451666,-0.0002753708085755702,5.564779410543995e-05,3.25,2.75
0.078125,0.00013524289032883205,-0.0002538886912077515,-0.00029539796181887534,3.416567673762124e-05,3.25,2.75
0.08203125,0.00012157763904173356,-0.00027246088032654303,-0.0003120016700633249,4.6375963900206115e-05,3.25,2.75
0.0859375,0.00011033732796215775,-0.0002944279857358663,-0.0003061247561486228,6.200969606164656e-05,3.25,2.75
0.08984375,0.00012057913425040067,-0.00030272983985809107,-0.0002890360598626687,8.200832059662786e-05,3.25,2.75
0.09375,0.00013278942141298555,-0.00026609897837033634,-0.0003012463470252536,5.710275822995358e-05,3.25,2.75
0.09765625,0.00011130730404516682,-0.00027194736357671466,-0.0002983364187762263,6.443463626916926e-05,3.25,2.75
0.1015625,8.640174167849252e-05,-0.0002787942535744258,-0.00027830926553292125,6.9798033434043e-05,3.25,2.75
0.10546875,8.740024646982542e-05,-0.0002548586672907606,-0.00029100454073701065,6.785808126802485e-05,3.25,2.75
0.109375,8.10383445136188e-05,-0.000256342160123598,-0.00029294449290302884,8.740024646982542e-05,3.25,2.75
0.11328125,9.12801508018617e-05,-0.0002538886912077515,-0.000286611119655146,7.567494734874506e-05,3.25,2.75
0.1171875,0.00010155048579842844,-0.00022555968384222163,-0.00023192158579842822,6.834306930952937e-05,3.25,2.75
0.12109375,8.397680147096983e-05,-0.00021337792538796054,-0.00023386153796444638,5.467781802243088e-05,3.25,2.75
0.125,8.055335647211424e-05,-0.00021825633451132972,-0.0002548586672907606,5.858625106279099e-05,3.25,2.75
0.12890625,9.22786555931946e-05,-0.00021971129863584333,-0.00021677284167849231,7.712991147325869e-05,3.25,2.75
0.1328125,7.176651430838495e-05,-0.0002441318729610131,-0.0001943207482276645,7.273649039139403e-05,3.25,2.75
0.13671875,8.446178951247438e-05,-0.0002265581886335545,-0.00022019628667734788,7.273649039139403e-05,3.25,2.75
0.140625,0.00010788385904631124,-0.0001904123151873044,-0.0002602505931639581,6.149617931181822e-05,3.25,2.75
0.14453125,6.9798033434043e-05,-0.00019089730322880894,-0.00023583001883878835,5.370784193942179e-05,3.25,2.75
0.1484375,4.6375963900206115e-05,-0.00018356542518959326,-0.00019774419322652007,5.467781802243088e-05,3.25,2.75
0.15234375,7.079653822537588e-05,-0.00015868839153124274,-0.0002031075903913938,4.9314420857557153e-05,3.25,2.75
0.15625,6.588960039368288e-05,-0.00016747523369497206,-0.0001840789419394216,6.931304539253846e-05,3.25,2.75
0.16015625,3.074223173876565e-05,-0.0001606283436972609,-0.00012645095112535275,7.322147843289857e-05,3.25,2.75
0.1640625,4.6375963900206115e-05,-0.0001479330684931715,-0.00016259682457160285,6.688810518501574e-05,3.25,2.75
0.16796875,5.710275822995358e-05,-0.0001669902456534675,-0.00018601889410543976,7.809988755626775e-05,3.25,2.75
0.171875,5.370784193942179e-05,-0.00013866123828793763,-0.0001679602217364766,5.9071239104295524e-05,3.25,2.75
0.17578125,6.1011191270313684e-05,-0.00012302750612649718,-0.00018114048498207058,3.904408586099042e-05,3.25,2.75
0.1796875,5.270933714808892e-05,-0.00015232648957503613,-0.0001620833078217745,5.467781802243088e-05,3.25,2.75
0.18359375,7.031155018387133e-05,-0.00012548097504234368,-0.00017723205194171044,5.3194325189593467e-05,3.25,2.75
0.1875,6.882805735103391e-05,-0.00011669413287861438,-0.00017138366673533214,4.440748302586415e-05,3.25,2.75
0.19140625,2.2925365658045436e-05,-0.00015965836761425183,-0.00012399748220950628,8.006836843060972e-05,3.25,2.75
0.1953125,2.0985413492027276e-05,-0.0001269359391668573,-9.763695571831834e-05,8.788523451132994e-05,3.25,2.75
0.19921875,6.394964822766474e-05,-5.567122577401377e-05,-8.691016138857088e-05,4.4920999775692495e-05,3.25,2.75
0.203125,7.322147843289857e-05,-5.030782860914004e-05,-0.00010545382179903858,4.1497554776836916e-05,3.25,2.75
0.20703125,4.4920999775692495e-05,-8.200322355687789e-05,-9.275854659494916e-05,5.761627497978192e-05,3.25,2.75
0.2109375,4.3437506942855076e-05,-8.300172834821078e-05,-9.130358247043553e-05,5.028439694056622e-05,3.25,2.75
0.21484375,5.370784193942179e-05,-5.079281665064459e-05,-0.00010009042463416484,3.5620640862134845e-05,3.25,2.75
0.21875,3.513565282063031e-05,-4.591440752727539e-05,-6.930794835278849e-05,4.880090410772881e-05,3.25,2.75
0.22265625,3.3680688696116685e-05,-6.154813968871585e-05,-4.542941948577085e-05,5.9071239104295524e-05,3.25,2.75
0.2265625,4.734593998321519e-05,-7.566985030899509e-05,-6.251811577172493e-05,5.125437302357531e-05,3.25,2.75
0.23046875,5.858625106279099e-05,-5.664120185702286e-05,-7.469987422598601e-05,2.8317291531242957e-05,3.25,2.75
0.234375,3.61056289036394e-05,-2.1493833202105633e-05,-3.8097541446555165e-05,3.61056289036394e-05,3.25,2.75
0.23828125,5.270933714808892e-05,2.195538957503635e-05,-1.0767038872358171e-05,3.271071261310762e-05,3.25,2.75
0.2421875,6.24946841031511e-05,3.0257243697261117e-05,-1.4675471912718287e-05,1.9016932617685314e-05,3.25,2.75
0.24609375,3.465066477912577e-05,2.050042545052274e-05,4.8666932890822774e-06,3.171220782177474e-05,3.25,2.75
0.25,5.810126302128645e-05,4.0014061943999504e-05,-4.405136916151562e-06,3.896717206073205e-06,3.25,2.75
0.25390625,6.297967214465563e-05,6.737309322652029e-05,3.411729164568669e-06,-1.270699103837633e-05,3.25,2.75
0.2578125,3.222572457160308e-05,6.200969606164656e-05,7.518995930724051e-05,2.050042545052274e-05,3.25,2.75
0.26171875,3.710413369497226e-05,8.543176559548346e-05,0.00010058050971541936,2.050042545052274e-05,3.25,2.75
0.265625,3.319570065461215e-05,0.00011033732796215775,8.397680147096983e-05,7.805150246433314e-06,3.25,2.75
0.26953125,2.050042545052274e-05,0.00012448756729076078,0.00010739887100480672,6.321657413595901e-06,3.25,2.75
0.2734375,1.0230090453956008e-05,0.00012400257924925626,0.00013378792620431844,4.7327220721763295e-07,3.25,2.75
0.27734375,2.392387044937831e-05,0.00014305975640955228,0.00012254761512474262,-1.0767038872358171e-05,3.25,2.75
0.28125,2.8802279572747507e-05,0.00016796531877622656,0.00011618571316853601,-2.443229015945667e-05,3.25,2.75
0.28515625,3.896717206073205e-06,0.0001586649598626689,0.00014257476836804773,-1.6615424078736445e-05,3.25,2.75
0.2890625,1.0715078495460559e-05,0.00018993242418554983,0.00016748033073472201,-2.0523857119096553e-05,3.25,2.75
0.29296875,9.745102412451472e-06,0.00021238451763637767,0.00016796531877622656,-2.637224232547483e-05,3.25,2.75
0.296875,-1.4161955162889944e-05,0.00016696681398489368,0.0001694202829007402,-2.0038869077592017e-05,3.25,2.75
0.30078125,-9.283546039520758e-06,0.00016748033073472201,0.0001635718976943619,-4.055101036240166e-05,3.25,2.75
0.3046875,9.58260248722169e-07,0.00019871926634927915,0.00019920425439078364,-3.224915624017689e-05,3.25,2.75
0.30859375,-1.0282050830853635e-05,0.000210929553511864,0.00021044456547035945,-2.882571124132132e-05,3.25,2.75
0.3125,-1.710041212024098e-05,0.00022898822588082718,0.00017429869202410938,-4.785435969329355e-05,3.25,2.75
0.31640625,-2.1008845160601097e-05,0.00020799109655451298,0.00020359767547264835,-2.346231407644759e-05,3.25,2.75
0.3203125,-2.882571124132132e-05,0.00019481083330891903,0.00019626579743343262,-1.270699103837633e-05,3.25,2.75
0.32421875,-2.540226624246575e-05,0.00021874641959258422,0.00016893529485923566,-1.9068892994582937e-05,3.25,2.75
0.328125,-1.9068892994582937e-05,0.00023483661108720543,0.00021580796263523318,-1.7585400161745525e-05,3.25,2.75
0.33203125,-2.637224232547483e-05,0.0002206863717586024,0.0002568322452048525,-1.9068892994582937e-05,3.25,2.75
0.3359375,-3.567260123903247e-05,0.00021483798655222414,0.00024313846520943017,-1.1252026913862713e-05,3.25,2.75
0.33984375,-2.785573515831224e-05,0.00022898822588082718,0.00020944606067902662,-2.540226624246575e-05,3.25,2.75
0.34375,-1.5160459954222821e-05,0.00021383948176089125,0.00019529582135042358,-2.2977326034943052e-05,3.25,2.75
0.34765625,-2.4917278200961205e-05,0.00020653613242999937,0.00020605114438849482,-2.443229015945667e-05,3.25,2.75
0.3515625,-3.955250557106879e-05,0.00018747895526970333,0.0002211713598001069,9.58260248722169e-07,3.25,2.75
0.35546875,-2.785573515831224e-05,0.00019774929026627005,0.0002211713598001069,5.836669372091364e-06,3.25,2.75
0.359375,1.2198571328297972e-05,0.00023289665892118727,0.00018405551027084776,-4.542941948577085e-05,3.25,2.75
0.36328125,8.7751263294424e-06,0.00021483798655222414,0.0001782071250644695,-2.9310699282825864e-05,3.25,2.75
0.3671875,-3.615758928053701e-05,0.00018747895526970333,0.00023144169479667368,8.29013828793785e-06,3.25,2.75
0.37109375,-7.3435938735025984e-06,0.00020702112047150392,0.0002206863717586024,-1.3191979079880866e-05,3.25,2.75
0.375,1.365353545281158e-05,0.00020847608459601753,0.0001972643022247655,-2.4917278200961205e-05,3.25,2.75
0.37890625,-2.9310699282825864e-05,0.0001938408572259099,0.00023192668283817823,-1.4666799588005262e-06,3.25,2.75
0.3828125,-3.8582529488059705e-05,0.00019432584526741446,0.000210929553511864,2.9267411230641188e-06,3.25,2.75
0.38671875,-1.3191979079880866e-05,0.000210929553511864,0.00016405688573586648,-1.4675471912718287e-05,3.25,2.75
0.390625,-9.283546039520758e-06,0.0001982342783077746,0.0001909024002685589,-1.173701495536725e-05,3.25,2.75
0.39453125,-3.615758928053701e-05,0.00015036310574044413,0.00021383948176089125,8.29013828793785e-06,3.25,2.75
0.3984375,-4.0066022320897117e-05,0.00016014845269550634,0.0001796620891889831,1.0230090453956008e-05,3.25,2.75
0.40234375,-2.1978821243610177e-05,0.00018944743614404528,0.00016063344073701088,-2.465184750133403e-06,3.25,2.75
0.40625,-2.2463809285114713e-05,0.00020214271134813468,0.00017869211310597404,-3.920148874647026e-06,3.25,2.75
0.41015625,-5.860101040665185e-06,0.00018796394331120788,0.00016893529485923566,-4.8901249576561056e-06,3.25,2.75
0.4140625,-8.798557998016214e-06,0.00017039025898374927,0.00018650897918669426,1.0715078495460559e-05,3.25,2.75
0.41796875,-2.1978821243610177e-05,0.0001445147205340659,0.00017429869202410938,9.260114370946937e-06,3.25,2.75
0.421875,2.9267411230641188e-06,0.00015478505553063259,0.000132304433371481,-1.4675471912718287e-05,3.25,2.75
0.42578125,-9.816919172959898e-07,0.0001694202829007402,0.00016648182594338916,1.0715078495460559e-05,3.25,2.75
0.4296875,1.4432482902267055e-06,0.00016111842877851543,0.0001635718976943619,-1.980196708628867e-06,3.25,2.75
0.43359375,-1.4666799588005262e-06,0.00013866633532768762,0.00016796531877622656,-3.4351608331424827e-06,3.25,2.75
0.4375,-2.6857230366979365e-05,0.00012109265100022901,0.00016696681398489368,1.6591992410162618e-05,3.25,2.75
0.44140625,-1.4161955162889944e-05,0.0001371828424948502,0.00015527004357213716,2.0985413492027276e-05,3.25,2.75
0.4453125,6.321657413595901e-06,0.00013378792620431844,0.0001410912755352103,9.260114370946937e-06,3.25,2.75
0.44921875,4.8666932890822774e-06,0.0001283960003311209,0.00011863918208438252,-2.9501727916379465e-06,3.25,2.75
0.453125,1.610700436865808e-05,0.00015378655073929973,0.00012009414620889614,1.1228595245288886e-05,3.25,2.75
0.45703125,8.7751263294424e-06,0.00011912417012588704,0.00013524289032883205,2.392387044937831e-05,3.25,2.75
0.4609375,-2.3947302117952125e-05,8.446178951247438e-05,0.00014596968465857953,1.610700436865808e-05,3.25,2.75
0.46484375,-1.5645447995727365e-05,0.00011279079687800424,0.0001171842179598689,1.610700436865808e-05,3.25,2.75
0.46875,5.3516813305868284e-06,0.0001274260242481118,0.0001332744094544901,2.3410353699549973e-05,3.25,2.75
0.47265625,1.1228595245288886e-05,0.0001274260242481118,0.0001557550316136417,1.2683559369802509e-05,3.25,2.75
0.4765625,-3.4351608331424827e-06,7.909839234760065e-05,0.00011863918208438252,1.2683559369802509e-05,3.25,2.75
0.48046875,-3.920148874647026e-06,8.591675363698798e-05,0.00012109265100022901,1.0230090453956008e-05,3.25,2.75
0.484375,5.3516813305868284e-06,9.958200492408647e-05,0.00014257476836804773,1.610700436865808e-05,3.25,2.75
0.48828125,-1.0767038872358171e-05,8.788523451132994e-05,0.0001332744094544901,2.24403776165409e-05,3.25,2.75
0.4921875,-8.798557998016214e-06,8.934019863584355e-05,0.00011570072512703148,1.6591992410162618e-05,3.25,2.75
0.49609375,-1.6615424078736445e-05,7.12815262668804e-05,0.00011473074904402239,1.6591992410162618e-05,3.25,2.75
0.5,-1.6615424078736445e-05,6.737309322652029e-05,0.00010448894275577947,2.195538957503635e-05,3.25,2.75
0.50390625,7.320162204928777e-06,6.931304539253846e-05,0.00011130730404516682,2.731878673991008e-05,3.25,2.75
0.5078125,3.896717206073205e-06,5.858625106279099e-05,0.00013378792620431844,2.392387044937831e-05,3.25,2.75
0.51171875,9.745102412451472e-06,6.882805735103391e-05,0.00010058050971541936,1.3168547411307046e-05,3.25,2.75
0.515625,4.381705247577742e-06,8.446178951247438e-05,8.688672971999707e-05,1.5108499577325204e-05,3.25,2.75
0.51953125,-1.0282050830853635e-05,8.688672971999707e-05,0.00011912417012588704,2.977225565575658e-05,3.25,2.75
0.5234375,2.9267411230641188e-06,6.052620322880915e-05,8.249330863813241e-05,1.9016932617685314e-05,3.25,2.75
0.52734375,1.0230090453956008e-05,5.125437302357531e-05,5.222434910658438e-05,1.1228595245288886e-05,3.25,2.75
0.53125,1.9282363317312416e-06,6.443463626916926e-05,9.179366755169004e-05,3.074223173876565e-05,3.25,2.75
0.53515625,-6.858605831998055e-06,5.564779410543995e-05,0.00010936735187914865,3.5620640862134845e-05,3.25,2.75
0.5390625,-4.967038757914536e-07,6.1011191270313684e-05,8.349181342946528e-05,2.780377478141463e-05,3.25,2.75
0.54296875,2.0985413492027276e-05,6.200969606164656e-05,5.710275822995358e-05,1.6591992410162618e-05,3.25,2.75
0.546875,1.365353545281158e-05,5.3194325189593467e-05,6.200969606164656e-05,2.4893846532387385e-05,3.25,2.75
0.55078125,-8.798557998016214e-06,5.125437302357531e-05,8.300682538796076e-05,2.6833798698405545e-05,3.25,2.75
0.5546875,9.745102412451472e-06,7.419145451590765e-05,6.1011191270313684e-05,7.805150246433314e-06,3.25,2.75
0.55859375,9.260114370946937e-06,5.810126302128645e-05,6.834306930952937e-05,2.977225565575658e-05,3.25,2.75
0.5625,-4.8901249576561056e-06,4.0499049985504044e-05,7.61599353902496e-05,3.8559097819485884e-05,3.25,2.75
0.56640625,-2.9501727916379465e-06,5.076938498207076e-05,3.952907390249497e-05,2.050042545052274e-05,3.25,2.75
0.5703125,-6.858605831998055e-06,5.222434910658438e-05,5.516280606393542e-05,2.1470401533531813e-05,3.25,2.75
0.57421875,-1.3191979079880866e-05,4.0014061943999504e-05,8.885521059433901e-05,2.6348810656901008e-05,3.25,2.75
0.578125,-2.9501727916379465e-06,5.028439694056622e-05,7.909839234760065e-05,2.537883457389192e-05,3.25,2.75
0.58203125,-1.0282050830853635e-05,3.12272197802702e-05,5.028439694056622e-05,2.6833798698405545e-05,3.25,2.75
0.5859375,-2.0523857119096553e-05,2.050042545052274e-05,5.222434910658438e-05,3.222572457160308e-05,3.25,2.75
0.58984375,1.9282363317312416e-06,6.931304539253846e-05,5.516280606393542e-05,2.050042545052274e-05,3.25,2.75
0.59375,4.7327220721763295e-07,7.518995930724051e-05,5.1739361065079847e-05,2.6348810656901008e-05,3.25,2.75
0.59765625,-3.920148874647026e-06,5.858625106279099e-05,6.931304539253846e-05,3.6619145653467724e-05,3.25,2.75
0.6015625,1.4623511535820667e-05,6.1011191270313684e-05,7.225150234988948e-05,2.537883457389192e-05,3.25,2.75
0.60546875,2.780377478141463e-05,9.276364363469915e-05,4.8315916066224275e-05,1.9016932617685314e-05,3.25,2.75
0.609375,4.8666932890822774e-06,8.837022255283449e-05,5.1739361065079847e-05,3.8559097819485884e-05,3.25,2.75
0.61328125,-1.367696712138541e-05,3.513565282063031e-05,6.588960039368288e-05,6.149617931181822e-05,3.25,2.75
0.6171875,1.2683559369802509e-05,5.661777018844904e-05,5.3194325189593467e-05,4.4920999775692495e-05,3.25,2.75
0.62109375,4.295251890135054e-05,4.540598781719703e-05,4.6375963900206115e-05,2.780377478141463e-05,3.25,2.75
0.625,4.3922494984359616e-05,-1.4675471912718287e-05,9.745102412451472e-06,2.9287267614252044e-05,3.25,2.75
0.62890625,5.613278214694449e-05,-1.61304360372319e-05,-1.807038820325006e-05,2.0985413492027276e-05,3.25,2.75
0.6328125,6.640311714351122e-05,-6.006464685587843e-05,-9.283546039520758e-06,3.12272197802702e-05,3.25,2.75
0.63671875,8.152333255512334e-05,-8.691016138857088e-05,-2.9310699282825864e-05,4.246753085984599e-05,3.25,2.75
0.640625,0.00012057913425040067,-9.618199159380474e-05,-8.542666855573347e-05,3.12272197802702e-05,3.25,2.75
0.64453125,0.00014548469661707496,-0.00012645095112535275,-0.00013378282916456845,2.977225565575658e-05,3.25,2.75
0.6484375,0.00015427153878080427,-0.00018601889410543976,-0.00019383576018615995,2.195538957503635e-05,3.25,2.75
0.65234375,0.00020896107263752208,-0.00019626070039368266,-0.00025585717208209343,-2.2463809285114713e-05,3.25,2.75
0.65625,0.0002753759056153202,-0.00020847098755626754,-0.00026561399032883185,-2.346231407644759e-05,3.25,2.75
0.66015625,0.0002802543147386894,-0.00025779712424811157,-0.00028709610769665057,-5.860101040665185e-06,3.25,2.75
0.6640625,0.0002768308697398338,-0.00025243372708323784,-0.0003129716461463339,-1.710041212024098e-05,3.25,2.75
0.66796875,0.00029685802298313893,-0.00025194873904173335,-0.0003017313350667581,-3.176416819867236e-05,3.25,2.75
0.671875,0.0003002814679819945,-0.0002729458683680475,-0.0002680389305363545,-2.8340723199816784e-05,3.25,2.75
0.67578125,0.0002905246497352561,-0.00025779712424811157,-0.00022216476755168986,-2.97956873243304e-05,3.25,2.75
0.6796875,0.000311008262311742,-0.00023679999492179742,-0.00022313474363469893,-5.909467077286935e-05,3.25,2.75
0.68359375,0.00030612985318837274,-0.0002128644086381322,-0.0002499802581673914,-7.030645314412136e-05,3.25,2.75
0.6875,0.00027831436257267126,-0.00018798737497978168,-0.00023240657383993276,-6.054963489738297e-05,3.25,2.75
0.69140625,0.0002871012047364005,-0.00016647672890363917,-0.00019626070039368266,-6.982146510261681e-05,3.25,2.75
0.6953125,0.00027292243669947366,-0.0001591733795727473,-0.00017235364281834126,-7.760980247501325e-05,3.25,2.75
0.69921875,0.00026022716149538426,-0.00012839090329137094,-0.00014159969524528868,-7.372989814297693e-05,3.25,2.75
0.703125,0.00027098248453345553,-6.542804402075217e-05,-8.542666855573347e-05,-8.006327139085973e-05,3.25,2.75
0.70703125,0.00028758619277790507,-5.860968273136481e-05,-5.030782860914004e-05,-8.83651255130845e-05,3.25,2.75
0.7109375,0.00028513272386205857,-5.079281665064459e-05,-4.736937165178901e-05,-9.421351071946279e-05,3.25,2.75
0.71484375,0.00025731723324635703,1.365353545281158e-05,-1.980196708628867e-06,-9.81219437598229e-05,3.25,2.75
0.71875,0.00022604976892347616,4.3437506942855076e-05,5.028439694056622e-05,-8.103324747386883e-05,3.25,2.75
0.72265625,0.0002006592185152973,3.904408586099042e-05,6.200969606164656e-05,-7.566985030899509e-05,3.25,2.75
0.7265625,0.00019626579743343262,6.394964822766474e-05,6.052620322880915e-05,-8.982008963759813e-05,3.25,2.75
0.73046875,0.00018796394331120788,9.470359580071729e-05,9.61870886335547e-05,-8.054825943236429e-05,3.25,2.75
0.734375,0.0001811455820218205,9.909701688258195e-05,0.00012939450512245378,-7.07914411856259e-05,3.25,2.75
0.73828125,0.00018066059398031596,0.00011667070121004056,0.00012497255533226533,-7.127642922713043e-05,3.25,2.75
0.7421875,0.00016796531877622656,0.0001420897803265432,0.00014890814161593055,-7.127642922713043e-05,3.25,2.75
0.74609375,0.00016160341682001995,0.00014548469661707496,0.00015769498377965984,-6.882296031128393e-05,3.25,2.75
0.75,0.00013818134728618307,0.00012888098837262544,0.00017723714898146043,-5.079281665064459e-05,3.25,2.75
0.75390625,0.00014305975640955228,0.00014793816553292145,0.00019529582135042358,-6.10631516472113e-05,3.25,2.75
0.7578125,0.00014987811769893961,0.0001909024002685589,0.0001845690270206761,-6.203312773022038e-05,3.25,2.75
0.76171875,0.0001332744094544901,0.0001996892424322882,0.00018993242418554983,-4.885286448462643e-05,3.25,2.75
0.765625,0.00012400257924925626,0.00017284372789959577,0.00018944743614404528,-4.2005974486915277e-05,3.25,2.75
0.76953125,0.00010009552167391481,0.00015527004357213716,0.0001996892424322882,-3.0280675365834944e-05,3.25,2.75
0.7734375,0.00010203547383993298,0.00015330156269779518,0.00019335586918440542,-4.152098644541074e-05,3.25,2.75
0.77734375,9.22786555931946e-05,0.00014354474445105682,0.0002075061085130084,-3.8582529488059705e-05,3.25,2.75
0.78125,6.49196243106738e-05,0.00014157626357671487,0.00020605114438849482,-2.346231407644759e-05,3.25,2.75
0.78515625,7.419145451590765e-05,0.00017332871594110031,0.00019578080939192813,-2.0523857119096553e-05,3.25,2.75
0.7890625,6.882805735103391e-05,0.00017626717289845133,0.00021629295067673773,-1.9068892994582937e-05,3.25,2.75
0.79296875,4.8315916066224275e-05,0.00014939312965743507,0.00021286950567788216,-1.0767038872358171e-05,3.25,2.75
0.796875,3.6619145653467724e-05,0.00014793816553292145,0.0002040826635141529,-4.405136916151562e-06,3.25,2.75
0.80078125,3.271071261310762e-05,0.0001445147205340659,0.0001869939672281988,-5.375112999160641e-06,3.25,2.75
0.8046875,1.5108499577325204e-05,0.00013963631141069668,0.00016696681398489368,-5.860101040665185e-06,3.25,2.75
0.80859375,7.320162204928777e-06,0.000132304433371481,0.00018602399114518974,4.381705247577742e-06,3.25,2.75
0.8125,1.804695653467624e-05,0.00012109265100022901,0.0002133544937193867,1.365353545281158e-05,3.25,2.75
0.81640625,2.4132243732357918e-06,0.00012448756729076078,0.0002118995295948731,1.2683559369802509e-05,3.25,2.75
0.8203125,-7.3435938735025984e-06,0.00012303260316624714,0.00020359767547264835,1.5622016327153544e-05,3.25,2.75
0.82421875,-9.283546039520758e-06,0.00012448756729076078,0.0001938408572259099,1.9016932617685314e-05,3.25,2.75
0.828125,-2.1008845160601097e-05,0.00012254761512474262,0.00016990527094224472,1.9016932617685314e-05,3.25,2.75
0.83203125,-2.346231407644759e-05,0.00010691388296330216,0.00018747895526970333,2.001543740901819e-05,3.25,2.75
0.8359375,-2.6857230366979365e-05,9.812704079957287e-05,0.00020896107263752208,2.050042545052274e-05,3.25,2.75
0.83984375,-3.3704120364690506e-05,9.909701688258195e-05,0.00018505401506218062,2.8317291531242957e-05,3.25,2.75
0.84375,-3.955250557106879e-05,0.00010397542600595113,0.00018066059398031596,3.758912173647681e-05,3.25,2.75
0.84765625,-3.615758928053701e-05,9.470359580071729e-05,0.00019578080939192813,3.171220782177474e-05,3.25,2.75
0.8515625,-3.321913232318597e-05,0.00011033732796215775,0.000191872376351568,2.6833798698405545e-05,3.25,2.75
0.85546875,-3.515908448920413e-05,0.00012548607208209367,0.00019335586918440542,3.12272197802702e-05,3.25,2.75
0.859375,-2.3947302117952125e-05,8.837022255283449e-05,0.0002006592185152973,4.540598781719703e-05,3.25,2.75
0.86328125,-3.567260123903247e-05,5.076938498207076e-05,0.0001811455820218205,4.880090410772881e-05,3.25,2.75
0.8671875,-4.885286448462643e-05,5.125437302357531e-05,0.00017917710114747856,4.8315916066224275e-05,3.25,2.75
0.87109375,-4.297595056992436e-05,5.125437302357531e-05,0.00017626717289845133,4.7830928024719735e-05,3.25,2.75
0.875,-3.467409644769959e-05,6.149617931181822e-05,0.00015769498377965984,3.952907390249497e-05,3.25,2.75
0.87890625,-1.710041212024098e-05,7.322147843289857e-05,0.00015427153878080427,3.6619145653467724e-05,3.25,2.75
0.8828125,-2.2463809285114713e-05,6.004121518730461e-05,0.00015672500769665077,3.952907390249497e-05,3.25,2.75
0.88671875,-2.882571124132132e-05,4.1497554776836916e-05,0.00016305838094453356,4.3922494984359616e-05,3.25,2.75
0.890625,-2.4917278200961205e-05,6.1011191270313684e-05,0.00015769498377965984,4.440748302586415e-05,3.25,2.75
0.89453125,-1.9068892994582937e-05,8.200832059662786e-05,0.00016063344073701088,4.246753085984599e-05,3.25,2.75
0.8984375,-1.1252026913862713e-05,7.079653822537588e-05,0.00014305975640955228,4.101256673533238e-05,3.25,2.75
0.90234375,-2.7370747116807704e-05,5.467781802243088e-05,0.00012254761512474262,3.5620640862134845e-05,3.25,2.75
0.90625,-4.0066022320897117e-05,5.076938498207076e-05,0.00012157763904173356,3.513565282063031e-05,3.25,2.75
0.91015625,-3.567260123903247e-05,4.0499049985504044e-05,0.0001259710601235982,4.246753085984599e-05,3.25,2.75
0.9140625,-2.346231407644759e-05,2.392387044937831e-05,0.00012448756729076078,4.5890975858701575e-05,3.25,2.75
0.91796875,-9.283546039520758e-06,3.8559097819485884e-05,0.00010397542600595113,4.101256673533238e-05,3.25,2.75
0.921875,-1.4666799588005262e-06,5.810126302128645e-05,7.370646647440309e-05,3.416567673762124e-05,3.25,2.75
0.92578125,-5.375112999160641e-06,5.222434910658438e-05,6.931304539253846e-05,3.271071261310762e-05,3.25,2.75
0.9296875,-1.9068892994582937e-05,4.440748302586415e-05,8.055335647211424e-05,3.12272197802702e-05,3.25,2.75
0.93359375,-1.8555376244754605e-05,4.295251890135054e-05,8.300682538796076e-05,3.465066477912577e-05,3.25,2.75
0.9375,-1.4675471912718287e-05,3.222572457160308e-05,8.152333255512334e-05,4.101256673533238e-05,3.25,2.75
0.94140625,-1.61304360372319e-05,2.050042545052274e-05,6.297967214465563e-05,3.8559097819485884e-05,3.25,2.75
0.9453125,-1.5160459954222821e-05,2.001543740901819e-05,7.079653822537588e-05,3.758912173647681e-05,3.25,2.75
0.94921875,-3.4351608331424827e-06,2.8317291531242957e-05,8.640174167849252e-05,4.0499049985504044e-05,3.25,2.75
0.953125,9.260114370946937e-06,4.686095194171065e-05,7.370646647440309e-05,3.8074109777981344e-05,3.25,2.75
0.95703125,1.4432482902267055e-06,3.8074109777981344e-05,6.640311714351122e-05,3.5620640862134845e-05,3.25,2.75
0.9609375,-1.171583428691747e-08,2.8802279572747507e-05,5.9071239104295524e-05,2.977225565575658e-05,3.25,2.75
0.96484375,4.7327220721763295e-07,5.1739361065079847e-05,6.540461235217834e-05,1.1228595245288886e-05,3.25,2.75
0.96875,-6.858605831998055e-06,5.270933714808892e-05,6.588960039368288e-05,2.2925365658045436e-05,3.25,2.75
0.97265625,1.4432482902267055e-06,1.1228595245288886e-05,3.3680688696116685e-05,3.8559097819485884e-05,3.25,2.75
0.9765625,-1.173701495536725e-05,3.411729164568669e-06,3.513565282063031e-05,3.8074109777981344e-05,3.25,2.75
0.98046875,-3.273414428168144e-05,3.61056289036394e-05,5.661777018844904e-05,4.8315916066224275e-05,3.25,2.75
0.984375,-3.761255340505063e-05,4.8315916066224275e-05,6.882805735103391e-05,4.880090410772881e-05,3.25,2.75
0.98828125,-3.6642577322041545e-05,5.564779410543995e-05,8.055335647211424e-05,4.686095194171065e-05,3.25,2.75
0.9921875,-3.076566340733948e-05,7.567494734874506e-05,9.958200492408647e-05,4.8315916066224275e-05,3.25,2.75
0.99609375,-3.567260123903247e-05,7.664492343175414e-05,0.0001059439068802931,5.761627497978192e-05,3.25,2.75
1.0,-5.030782860914004e-05,8.10383445136188e-05,9.667207667505926e-05,5.810126302128645e-05,3.25,2.75
1.00390625,-7.07914411856259e-05,7.958338038910517e-05,9.86120288410774e-05,6.588960039368288e-05,3.25,2.75
1.0078125,-7.030645314412136e-05,5.858625106279099e-05,0.00010300544992294206,7.712991147325869e-05,3.25,2.75
1.01171875,-5.763970664835573e-05,7.470497126573599e-05,0.00013036448120546285,8.982518667734811e-05,3.25,2.75
1.015625,-6.83379722697794e-05,7.322147843289857e-05,0.00012888098837262544,9.667207667505926e-05,3.25,2.75
1.01953125,-8.006327139085973e-05,6.882805735103391e-05,0.00011960915816739159,9.421860775921275e-05,3.25,2.75
1.0234375,-8.006327139085973e-05,8.006836843060972e-05,0.0001274260242481118,0.00010058050971541936,3.25,2.75
1.02734375,-7.566985030899509e-05,9.276364363469915e-05,0.00012939450512245378,0.00010349043796444661,3.25,2.75
1.03125,-7.663982639200417e-05,0.00010300544992294206,0.00013963631141069668,0.00010936735187914865,3.25,2.75
1.03515625,-8.300172834821078e-05,0.00010106549775692392,0.000132304433371481,0.0001122772801281759,3.25,2.75
1.0390625,-9.469849876096732e-05,0.00010545891883878855,0.00013036448120546285,0.00012057913425040067,3.25,2.75
1.04296875,-9.32435346364537e-05,0.00010058050971541936,0.00012939450512245378,0.0001274260242481118,3.25,2.75
1.046875,-8.788013747157997e-05,0.0001059439068802931,0.00013669785445334564,0.00012987949316395833,3.25,2.75
1.05078125,-9.130358247043553e-05,0.00010936735187914865,0.00015136161053177705,0.00012448756729076078,3.25,2.75
1.0546875,-7.07914411856259e-05,0.00012497255533226533,0.00013621286641184112,0.00011130730404516682,3.25,2.75
1.05859375,-5.909467077286935e-05,0.000132304433371481,0.00011521573708552693,0.00011130730404516682,3.25,2.75
1.0625,-5.47012496910047e-05,9.958200492408647e-05,0.00010058050971541936,0.00011424576100251787,3.25,2.75
1.06640625,-2.7370747116807704e-05,8.397680147096983e-05,8.788523451132994e-05,0.00010985233992065321,3.25,2.75
1.0703125,-2.7370747116807704e-05,8.885521059433901e-05,8.349181342946528e-05,0.00010788385904631124,3.25,2.75
1.07421875,-4.055101036240166e-05,7.664492343175414e-05,7.176651430838495e-05,0.00010155048579842844,3.25,2.75
1.078125,-4.3945926652933436e-05,7.419145451590765e-05,6.737309322652029e-05,0.00010300544992294206,3.25,2.75
1.08203125,-3.467409644769959e-05,8.349181342946528e-05,5.564779410543995e-05,0.00010203547383993298,3.25,2.75
1.0859375,-1.61304360372319e-05,7.761489951476323e-05,3.5620640862134845e-05,9.373361971770821e-05,3.25,2.75
1.08984375,3.896717206073205e-06,6.49196243106738e-05,2.537883457389192e-05,9.179366755169004e-05,3.25,2.75
1.09375,1.7076980451667168e-05,6.931304539253846e-05,2.195538957503635e-05,8.200832059662786e-05,3.25,2.75
1.09765625,1.610700436865808e-05,8.152333255512334e-05,2.780377478141463e-05,7.909839234760065e-05,3.25,2.75
1.1015625,2.586382261539647e-05,6.297967214465563e-05,1.365353545281158e-05,8.10383445136188e-05,3.25,2.75
1.10546875,4.0014061943999504e-05,6.1011191270313684e-05,-4.8901249576561056e-06,7.712991147325869e-05,3.25,2.75
1.109375,4.0014061943999504e-05,6.540461235217834e-05,-1.4666799588005262e-06,6.931304539253846e-05,3.25,2.75
1.11328125,4.979940889906169e-05,5.076938498207076e-05,1.4432482902267055e-06,6.346466018616019e-05,3.25,2.75
1.1171875,6.394964822766474e-05,7.322147843289857e-05,3.896717206073205e-06,6.540461235217834e-05,3.25,2.75
1.12109375,7.031155018387133e-05,8.200832059662786e-05,4.381705247577742e-06,6.688810518501574e-05,3.25,2.75
1.125,7.809988755626775e-05,6.931304539253846e-05,-1.980196708628867e-06,6.588960039368288e-05,3.25,2.75
1.12890625,8.446178951247438e-05,6.540461235217834e-05,4.8666932890822774e-06,6.052620322880915e-05,3.25,2.75
1.1328125,8.49467775539789e-05,6.540461235217834e-05,6.835174163424241e-06,5.710275822995358e-05,3.25,2.75
1.13671875,9.324863167620367e-05,5.810126302128645e-05,8.7751263294424e-06,5.810126302128645e-05,3.25,2.75
1.140625,9.667207667505926e-05,4.295251890135054e-05,1.2198571328297972e-05,5.810126302128645e-05,3.25,2.75
1.14453125,8.788523451132994e-05,4.295251890135054e-05,1.2198571328297972e-05,5.613278214694449e-05,3.25,2.75
1.1484375,0.00010106549775692392,6.297967214465563e-05,2.2925365658045436e-05,5.3194325189593467e-05,3.25,2.75
1.15234375,0.00011473074904402239,6.540461235217834e-05,4.101256673533238e-05,5.467781802243088e-05,3.25,2.75
1.15625,0.00010985233992065321,5.613278214694449e-05,4.0014061943999504e-05,5.028439694056622e-05,3.25,2.75
1.16015625,0.00011618571316853601,5.858625106279099e-05,3.3680688696116685e-05,5.028439694056622e-05,3.25,2.75
1.1640625,0.00012497255533226533,5.1739361065079847e-05,2.8317291531242957e-05,5.3194325189593467e-05,3.25,2.75
1.16796875,0.00011424576100251787,3.6619145653467724e-05,2.001543740901819e-05,5.125437302357531e-05,3.25,2.75
1.171875,0.00010155048579842844,4.979940889906169e-05,2.9287267614252044e-05,4.6375963900206115e-05,3.25,2.75
1.17578125,0.00011424576100251787,5.028439694056622e-05,2.392387044937831e-05,4.101256673533238e-05,3.25,2.75
1.1796875,0.00012548607208209367,4.3437506942855076e-05,2.9267411230641188e-06,4.0499049985504044e-05,3.25,2.75
1.18359375,0.00012694103620660728,4.8315916066224275e-05,6.835174163424241e-06,4.295251890135054e-05,3.25,2.75
1.1875,0.00012888098837262544,4.979940889906169e-05,8.7751263294424e-06,4.1982542818341456e-05,3.25,2.75
1.19140625,0.00011960915816739159,4.440748302586415e-05,1.0230090453956008e-05,3.710413369497226e-05,3.25,2.75
1.1953125,0.00012400257924925626,2.586382261539647e-05,1.610700436865808e-05,4.101256673533238e-05,3.25,2.75
1.19921875,0.0001347579022873275,2.4408858490882848e-05,1.2198571328297972e-05,4.686095194171065e-05,3.25,2.75
1.203125,0.00012206262708323808,3.6619145653467724e-05,1.4432482902267055e-06,4.4920999775692495e-05,3.25,2.75
1.20703125,0.00010448894275577947,5.3194325189593467e-05,3.5620640862134845e-05,4.3922494984359616e-05,3.25,2.75
1.2109375,0.00012157763904173356,8.688672971999707e-05,6.540461235217834e-05,3.222572457160308e-05,3.25,2.75
1.21484375,0.00014745317749141694,5.467781802243088e-05,1.7076980451667168e-05,2.3410353699549973e-05,3.25,2.75
1.21875,0.0001508766224902725,-9.816919172959898e-07,-3.3704120364690506e-05,2.4893846532387385e-05,3.25,2.75
1.22265625,0.00015672500769665077,-3.4351608331424827e-06,-5.47012496910047e-05,2.2925365658045436e-05,3.25,2.75
1.2265625,0.0001635718976943619,1.365353545281158e-05,-4.4459443402761775e-05,1.4138523494316132e-05,3.25,2.75
1.23046875,0.00016063344073701088,1.4138523494316132e-05,-3.615758928053701e-05,1.2683559369802509e-05,3.25,2.75
1.234375,0.00015624001965514623,5.3516813305868284e-06,-3.955250557106879e-05,1.610700436865808e-05,3.25,2.75
1.23828125,0.0001508766224902725,-1.171583428691747e-08,-2.443229015945667e-05,9.745102412451472e-06,3.25,2.75
1.2421875,0.00015184659857328157,8.29013828793785e-06,-2.3947302117952125e-05,6.321657413595901e-06,3.25,2.75
1.24609375,0.00015527004357213716,2.195538957503635e-05,-1.0767038872358171e-05,1.0230090453956008e-05,3.25,2.75
1.25,0.00014402973249256134,1.3168547411307046e-05,2.4132243732357918e-06,1.3168547411307046e-05,3.25,2.75
1.25390625,0.0001469681894499124,1.4623511535820667e-05,5.3516813305868284e-06,1.610700436865808e-05,3.25,2.75
1.2578125,0.00014793816553292145,2.8802279572747507e-05,1.4432482902267055e-06,2.050042545052274e-05,3.25,2.75
1.26171875,0.00014305975640955228,3.171220782177474e-05,-1.61304360372319e-05,2.1470401533531813e-05,3.25,2.75
1.265625,0.00011863918208438252,2.1470401533531813e-05,-5.127780469214912e-05,2.001543740901819e-05,3.25,2.75
1.26953125,0.00010009552167391481,2.9267411230641188e-06,-0.00010739377396505674,1.9530449367513653e-05,3.25,2.75
1.2734375,9.764205275806832e-05,-1.9068892994582937e-05,-0.00014353964741130684,1.9016932617685314e-05,3.25,2.75
1.27734375,9.276364363469915e-05,-2.97956873243304e-05,-0.00017087014998550383,1.8531944576180777e-05,3.25,2.75
1.28125,9.667207667505926e-05,-2.2977326034943052e-05,-0.0002031075903913938,1.6591992410162618e-05,3.25,2.75
1.28515625,9.276364363469915e-05,-1.8555376244754605e-05,-0.00021874132255283427,1.4138523494316132e-05,3.25,2.75
1.2890625,9.470359580071729e-05,-1.8555376244754605e-05,-0.00021922631059433881,1.7076980451667168e-05,3.25,2.75
1.29296875,0.00010155048579842844,-2.2463809285114713e-05,-0.00020604604734874484,1.7076980451667168e-05,3.25,2.75
1.296875,0.0001025204618814375,-3.615758928053701e-05,-0.00020213761430838473,1.7076980451667168e-05,3.25,2.75
1.30078125,0.00019041741222705437,4.0499049985504044e-05,-0.0001547799584908826,2.9287267614252044e-05,3.25,2.75
1.3046875,-0.00027733928944991215,-0.000362297782838178,-0.0005971461097596703,-7.828581915007134e-06,3.25,2.75
1.30859375,-0.0005624837291462577,-0.0007504879170000763,-0.001,-3.321913232318597e-05,3.25,2.75
1.3125,-0.00015378145369954974,-0.0005253678796169985,-0.0009501888752666514,-1.171583428691747e-08,3.25,2.75
1.31640625,1.4138523494316132e-05,-0.0003876883332463568,-0.0009643391145952543,1.6591992410162618e-05,3.25,2.75
1.3203125,9.909701688258195e-05,-0.00029100454073701065,-0.0009687325356771191,2.4893846532387385e-05,3.25,2.75
1.32421875,0.00015769498377965984,-0.00020456255451590743,-0.0009687325356771191,2.780377478141463e-05,3.25,2.75
1.328125,0.00018747895526970333,-0.00015574993457389172,-0.0009638541265537499,2.8317291531242957e-05,3.25,2.75
1.33203125,0.00019235736439307253,-0.00012254251808499264,-0.0009731259567589837,2.780377478141463e-05,3.25,2.75
1.3359375,0.00021286950567788216,-8.982008963759813e-05,-0.0009291917459403372,2.6348810656901008e-05,3.25,2.75
1.33984375,0.00022604976892347616,-5.909467077286935e-05,-0.000784151792822156,2.392387044937831e-05,3.25,2.75
1.34375,0.00021238451763637767,-4.297595056992436e-05,-0.0006601374977386128,2.9287267614252044e-05,3.25,2.75
1.34765625,0.00022214133588311603,-4.2005974486915277e-05,-0.0005766339684748606,2.9287267614252044e-05,3.25,2.75
1.3515625,0.00022362482871595346,-3.6642577322041545e-05,-0.0004819186568398565,2.8317291531242957e-05,3.25,2.75
1.35546875,0.000210929553511864,-1.9068892994582937e-05,-0.0003955051993270771,3.222572457160308e-05,3.25,2.75
1.359375,0.0001996892424322882,-4.967038757914536e-07,-0.0003364222443884946,2.977225565575658e-05,3.25,2.75
1.36328125,0.000191872376351568,1.2198571328297972e-05,-0.0002822176985732814,2.586382261539647e-05,3.25,2.75
1.3671875,0.0001869939672281988,2.3410353699549973e-05,-0.000224104719717708,2.780377478141463e-05,3.25,2.75
1.37109375,0.00018747895526970333,2.780377478141463e-05,-0.00017235364281834126,3.222572457160308e-05,3.25,2.75
1.375,0.000191872376351568,3.758912173647681e-05,-0.00012399748220950628,2.8317291531242957e-05,3.25,2.75
1.37890625,0.0001821155581048296,3.12272197802702e-05,-8.151823551537336e-05,2.3410353699549973e-05,3.25,2.75
1.3828125,0.00017772213702296497,1.1228595245288886e-05,-5.518623773250924e-05,2.8317291531242957e-05,3.25,2.75
1.38671875,0.00017235873985809122,1.7561968493171704e-05,-3.273414428168144e-05,3.416567673762124e-05,3.25,2.75
1.390625,0.00016014845269550634,3.758912173647681e-05,3.411729164568669e-06,3.319570065461215e-05,3.25,2.75
1.39453125,0.00015478505553063259,4.540598781719703e-05,3.3680688696116685e-05,3.0257243697261117e-05,3.25,2.75
1.3984375,0.00015378655073929973,3.904408586099042e-05,6.737309322652029e-05,3.12272197802702e-05,3.25,2.75
1.40234375,0.00015769498377965984,4.6375963900206115e-05,9.12801508018617e-05,2.8317291531242957e-05,3.25,2.75
1.40625,0.00014890814161593055,4.3437506942855076e-05,9.764205275806832e-05,2.24403776165409e-05,3.25,2.75
1.41015625,0.00013378792620431844,4.1982542818341456e-05,0.00010739887100480672,2.6348810656901008e-05,3.25,2.75
1.4140625,0.00013669785445334564,4.979940889906169e-05,0.000132304433371481,3.171220782177474e-05,3.25,2.75
1.41796875,0.00013621286641184112,5.222434910658438e-05,0.0001508766224902725,3.271071261310762e-05,3.25,2.75
1.421875,0.0001274260242481118,4.8315916066224275e-05,0.00016063344073701088,3.074223173876565e-05,3.25,2.75
1.42578125,0.0001283960003311209,4.1497554776836916e-05,0.0001694202829007402,2.731878673991008e-05,3.25,2.75
1.4296875,0.00013133445728847191,3.6619145653467724e-05,0.00017626717289845133,3.0257243697261117e-05,3.25,2.75
1.43359375,0.00012791101228961635,4.1982542818341456e-05,0.00019432584526741446,3.222572457160308e-05,3.25,2.75
1.4375,0.00012157763904173356,4.979940889906169e-05,0.0002045676515556574,3.8074109777981344e-05,3.25,2.75
1.44140625,0.00012548607208209367,4.101256673533238e-05,0.0002133544937193867,3.465066477912577e-05,3.25,2.75
1.4453125,0.00012157763904173356,3.8074109777981344e-05,0.00021726292675974685,2.3410353699549973e-05,3.25,2.75
1.44921875,0.0001235175912077517,4.9314420857557153e-05,0.00022653475696498066,2.8802279572747507e-05,3.25,2.75
1.453125,0.00011473074904402239,6.052620322880915e-05,0.0002358351158785383,3.222572457160308e-05,3.25,2.75
1.45703125,0.00010839737579613958,5.858625106279099e-05,0.00024265347716792568,3.3680688696116685e-05,3.25,2.75
1.4609375,0.0001122772801281759,4.734593998321519e-05,0.00024753188629129486,3.513565282063031e-05,3.25,2.75
1.46484375,0.00010739887100480672,5.419282998092633e-05,0.00023974354891889845,3.319570065461215e-05,3.25,2.75
1.46875,0.00010349043796444661,5.467781802243088e-05,0.00024656191020828576,3.61056289036394e-05,3.25,2.75
1.47265625,9.667207667505926e-05,5.1739361065079847e-05,0.0002719524606164646,3.12272197802702e-05,3.25,2.75
1.4765625,0.00011033732796215775,5.710275822995358e-05,0.0002744059295323111,2.586382261539647e-05,3.25,2.75
1.48046875,0.00011570072512703148,5.710275822995358e-05,0.00026268063041123076,3.074223173876565e-05,3.25,2.75
1.484375,0.0001059439068802931,6.24946841031511e-05,0.0002621956423697262,3.319570065461215e-05,3.25,2.75
1.48828125,0.0001059439068802931,5.028439694056622e-05,0.0002680440275761045,3.0257243697261117e-05,3.25,2.75
1.4921875,0.00010009552167391481,4.540598781719703e-05,0.0002841627477790495,2.8802279572747507e-05,3.25,2.75
1.49609375,0.0001025204618814375,6.1011191270313684e-05,0.00029343457798428334,2.6833798698405545e-05,3.25,2.75
1.5,0.00010203547383993298,6.1011191270313684e-05,0.00028661621669489603,2.2925365658045436e-05,3.25,2.75
1.50390625,9.079516276035718e-05,5.270933714808892e-05,0.0002739209414908066,2.9287267614252044e-05,3.25,2.75
1.5078125,8.982518667734811e-05,5.710275822995358e-05,0.00027098248453345553,3.074223173876565e-05,3.25,2.75
1.51171875,0.00010058050971541936,6.149617931181822e-05,0.00027976932669718485,2.977225565575658e-05,3.25,2.75
1.515625,0.00010349043796444661,6.297967214465563e-05,0.0002631656184527353,3.465066477912577e-05,3.25,2.75
1.51953125,9.909701688258195e-05,6.004121518730461e-05,0.00025243882412298785,2.8317291531242957e-05,3.25,2.75
1.5234375,9.86120288410774e-05,4.979940889906169e-05,0.0002587721973708707,2.780377478141463e-05,3.25,2.75
1.52734375,8.788523451132994e-05,5.3194325189593467e-05,0.00026952752040894194,3.222572457160308e-05,3.25,2.75
1.53125,7.858487559777231e-05,5.3194325189593467e-05,0.0002714674725749601,2.731878673991008e-05,3.25,2.75
1.53515625,9.470359580071729e-05,2.9287267614252044e-05,0.0002392300321690701,2.8802279572747507e-05,3.25,2.75
1.5390625,0.00010642889492179764,3.319570065461215e-05,0.0002304431900053408,2.0985413492027276e-05,3.25,2.75
1.54296875,9.909701688258195e-05,5.370784193942179e-05,0.00022947321392233168,1.1228595245288886e-05,3.25,2.75
1.546875,9.179366755169004e-05,5.370784193942179e-05,0.00022753326175631354,1.2198571328297972e-05,3.25,2.75
1.55078125,0.00010448894275577947,7.031155018387133e-05,0.0002304431900053408,1.0715078495460559e-05,3.25,2.75
1.5546875,0.00010888236383764413,9.61870886335547e-05,0.00024022853696040294,7.320162204928777e-06,3.25,2.75
1.55859375,0.00010155048579842844,7.958338038910517e-05,0.00025389378824750144,4.8666932890822774e-06,3.25,2.75
1.5625,9.12801508018617e-05,5.710275822995358e-05,0.00024216848912642113,1.2683559369802509e-05,3.25,2.75
1.56640625,7.322147843289857e-05,5.076938498207076e-05,0.00023241167087968272,1.5108499577325204e-05,3.25,2.75
1.5703125,8.837022255283449e-05,5.661777018844904e-05,0.00023095670675516913,1.2683559369802509e-05,3.25,2.75
1.57421875,0.00010788385904631124,6.49196243106738e-05,0.00022410981675745795,1.610700436865808e-05,3.25,2.75
1.578125,9.909701688258195e-05,6.052620322880915e-05,0.00022265485263294436,1.7561968493171704e-05,3.25,2.75
1.58203125,9.909701688258195e-05,5.955622714580008e-05,0.0002118995295948731,1.5108499577325204e-05,3.25,2.75
1.5859375,0.00010203547383993298,4.734593998321519e-05,0.00020896107263752208,1.8531944576180777e-05,3.25,2.75
1.58984375,9.958200492408647e-05,4.3922494984359616e-05,0.0002143529985107196,1.9530449367513653e-05,3.25,2.75
1.59375,9.764205275806832e-05,3.61056289036394e-05,0.0001938408572259099,1.610700436865808e-05,3.25,2.75
1.59765625,0.00010839737579613958,3.465066477912577e-05,0.00018944743614404528,1.804695653467624e-05,3.25,2.75
1.6015625,0.00010300544992294206,3.710413369497226e-05,0.00019138738831006344,1.9016932617685314e-05,3.25,2.75
1.60546875,0.00010448894275577947,4.0499049985504044e-05,0.00017381370398260483,1.9530449367513653e-05,3.25,2.75
1.609375,0.0001259710601235982,4.880090410772881e-05,0.00016502686181887554,2.050042545052274e-05,3.25,2.75
1.61328125,0.0001347579022873275,5.125437302357531e-05,0.0001811455820218205,2.1470401533531813e-05,3.25,2.75
1.6171875,0.00014157626357671487,5.613278214694449e-05,0.00019335586918440542,2.731878673991008e-05,3.25,2.75
1.62109375,0.00013278942141298555,5.419282998092633e-05,0.00018796394331120788,3.171220782177474e-05,3.25,2.75
1.625,0.00011815419404287796,4.246753085984599e-05,0.00016748033073472201,2.6833798698405545e-05,3.25,2.75
1.62890625,0.00012939450512245378,4.101256673533238e-05,0.00015672500769665077,2.4408858490882848e-05,3.25,2.75
1.6328125,0.00012694103620660728,4.1497554776836916e-05,0.00016160341682001995,2.537883457389192e-05,3.25,2.75
1.63671875,0.00012206262708323808,4.295251890135054e-05,0.00017381370398260483,2.2925365658045436e-05,3.25,2.75
1.640625,0.0001235175912077517,4.440748302586415e-05,0.00016648182594338916,2.4408858490882848e-05,3.25,2.75
1.64453125,0.00011130730404516682,3.319570065461215e-05,0.0001410912755352103,2.6348810656901008e-05,3.25,2.75
1.6484375,9.61870886335547e-05,3.513565282063031e-05,0.00013818134728618307,2.4893846532387385e-05,3.25,2.75
1.65234375,0.00010106549775692392,4.686095194171065e-05,0.00014257476836804773,2.2925365658045436e-05,3.25,2.75
1.65625,0.0001137607729610133,4.0499049985504044e-05,0.00014305975640955228,2.6833798698405545e-05,3.25,2.75
1.66015625,0.0001025204618814375,3.8559097819485884e-05,0.0001469681894499124,2.586382261539647e-05,3.25,2.75
1.6640625,0.00010788385904631124,3.6619145653467724e-05,0.0001308494692469674,2.24403776165409e-05,3.25,2.75
1.66796875,0.00013133445728847191,1.7076980451667168e-05,0.00012448756729076078,2.780377478141463e-05,3.25,2.75
1.671875,0.00015136161053177705,3.8074109777981344e-05,0.0001332744094544901,3.12272197802702e-05,3.25,2.75
1.67578125,0.00015917847661249724,5.076938498207076e-05,0.0001332744094544901,2.8317291531242957e-05,3.25,2.75
1.6796875,0.00015233158661478611,2.195538957503635e-05,0.0001235175912077517,2.8802279572747507e-05,3.25,2.75
1.68359375,0.00016014845269550634,1.6591992410162618e-05,0.00011863918208438252,3.319570065461215e-05,3.25,2.75
1.6875,0.00016748033073472201,4.101256673533238e-05,0.00011473074904402239,3.3680688696116685e-05,3.25,2.75
1.69140625,0.00016990527094224472,5.516280606393542e-05,0.00011863918208438252,3.6619145653467724e-05,3.25,2.75
1.6953125,0.0001586649598626689,4.0499049985504044e-05,0.00014596968465857953,3.513565282063031e-05,3.25,2.75
1.69921875,0.00016405688573586648,3.222572457160308e-05,0.00014257476836804773,2.731878673991008e-05,3.25,2.75
1.703125,0.00019774929026627005,6.321657413595901e-06,8.885521059433901e-05,2.977225565575658e-05,3.25,2.75
1.70703125,0.0002075061085130084,1.7076980451667168e-05,8.591675363698798e-05,3.271071261310762e-05,3.25,2.75
1.7109375,0.00022507979284046704,4.6375963900206115e-05,0.00014012129945220123,2.195538957503635e-05,3.25,2.75
1.71484375,0.0002568322452048525,3.5620640862134845e-05,0.00014060628749370578,5.3516813305868284e-06,3.25,2.75
1.71875,0.0002841627477790495,4.1982542818341456e-05,0.00013621286641184112,7.320162204928777e-06,3.25,2.75
1.72265625,0.0003100382862287329,4.880090410772881e-05,0.00014596968465857953,2.2925365658045436e-05,3.25,2.75
1.7265625,0.00031834014035095765,5.1739361065079847e-05,0.00014548469661707496,1.804695653467624e-05,3.25,2.75
1.73046875,0.000333003896429389,7.273649039139403e-05,0.000164541873777371,1.3168547411307046e-05,3.25,2.75
1.734375,0.00034324570271763197,7.567494734874506e-05,0.00017478368006561393,2.24403776165409e-05,3.25,2.75
1.73828125,0.00034960760467383855,6.640311714351122e-05,0.00016796531877622656,2.8802279572747507e-05,3.25,2.75
1.7421875,0.00036230287987792795,6.540461235217834e-05,0.0001782071250644695,3.0257243697261117e-05,3.25,2.75
1.74609375,0.00036521280812695523,6.004121518730461e-05,0.0001821155581048296,3.0257243697261117e-05,3.25,2.75
1.75,0.00037351466224917995,6.004121518730461e-05,0.00018747895526970333,3.319570065461215e-05,3.25,2.75
1.75390625,0.0003700912172503244,6.737309322652029e-05,0.00019432584526741446,3.8559097819485884e-05,3.25,2.75
1.7578125,0.00037693810724803554,7.958338038910517e-05,0.00019287088114290087,3.758912173647681e-05,3.25,2.75
1.76171875,0.000403783621780728,7.176651430838495e-05,0.00018650897918669426,3.758912173647681e-05,3.25,2.75
1.765625,0.00041796238981765485,4.686095194171065e-05,0.00018796394331120788,4.0499049985504044e-05,3.25,2.75
1.76953125,0.00042187082285801493,4.295251890135054e-05,0.00019675078547493717,4.440748302586415e-05,3.25,2.75
1.7734375,0.0004140539567772947,5.810126302128645e-05,0.0001796620891889831,4.8315916066224275e-05,3.25,2.75
1.77734375,0.00040478212657206084,6.24946841031511e-05,0.00017626717289845133,5.370784193942179e-05,3.25,2.75
1.78125,0.00040232865765621435,5.3194325189593467e-05,0.00018017560593881144,5.3194325189593467e-05,3.25,2.75
1.78515625,0.0004106305117784391,5.125437302357531e-05,0.00015672500769665077,5.222434910658438e-05,3.25,2.75
1.7890625,0.0004052671146135654,4.7830928024719735e-05,0.0001572099957381553,6.24946841031511e-05,3.25,2.75
1.79296875,0.00040478212657206084,4.4920999775692495e-05,0.00018066059398031596,6.1011191270313684e-05,3.25,2.75
1.796875,0.0004106305117784391,4.4920999775692495e-05,0.00018017560593881144,5.1739361065079847e-05,3.25,2.75
1.80078125,0.0003935418154924851,3.074223173876565e-05,0.00016405688573586648,5.370784193942179e-05,3.25,2.75
1.8046875,0.0003969652604913406,3.271071261310762e-05,0.00015624001965514623,6.346466018616019e-05,3.25,2.75
1.80859375,0.00038866340636911585,3.758912173647681e-05,0.00014402973249256134,6.785808126802485e-05,3.25,2.75
1.8125,0.0003676662770428017,2.977225565575658e-05,0.0001347579022873275,7.225150234988948e-05,3.25,2.75
1.81640625,0.0003833000092042421,3.171220782177474e-05,0.00013524289032883205,7.567494734874506e-05,3.25,2.75
1.8203125,0.00037351466224917995,3.3680688696116685e-05,0.00012888098837262544,7.518995930724051e-05,3.25,2.75
1.82421875,0.0003540010257557032,2.4408858490882848e-05,0.00011082231600366227,7.761489951476323e-05,3.25,2.75
1.828125,0.000357395942046235,2.6833798698405545e-05,0.0001122772801281759,7.470497126573599e-05,3.25,2.75
1.83203125,0.00036521280812695523,3.222572457160308e-05,0.0001274260242481118,7.273649039139403e-05,3.25,2.75
1.8359375,0.0003700912172503244,2.0985413492027276e-05,0.00012206262708323808,7.079653822537588e-05,3.25,2.75
1.83984375,0.0003613043750865951,2.2925365658045436e-05,0.00010839737579613958,6.24946841031511e-05,3.25,2.75
1.84375,0.0003530025209643703,2.8802279572747507e-05,9.715706471656378e-05,6.443463626916926e-05,3.25,2.75
1.84765625,0.00033739731751125364,1.1713583286793422e-05,0.00010936735187914865,7.225150234988948e-05,3.25,2.75
1.8515625,0.0003383672935942628,1.4138523494316132e-05,0.00011570072512703148,7.470497126573599e-05,3.25,2.75
1.85546875,0.00034812411184100114,2.8802279572747507e-05,0.00010106549775692392,7.518995930724051e-05,3.25,2.75
1.859375,0.00034179073859311827,1.9016932617685314e-05,0.00010009552167391481,7.322147843289857e-05,3.25,2.75
1.86328125,0.00033445886055390265,1.8531944576180777e-05,0.00010448894275577947,7.858487559777231e-05,3.25,2.75
1.8671875,0.0003334888844708935,2.537883457389192e-05,9.61870886335547e-05,8.397680147096983e-05,3.25,2.75
1.87109375,0.000344215678800641,2.537883457389192e-05,8.688672971999707e-05,8.006836843060972e-05,3.25,2.75
1.875,0.00034470066684214555,1.5622016327153544e-05,8.249330863813241e-05,7.470497126573599e-05,3.25,2.75
1.87890625,0.00034618415967498296,1.2683559369802509e-05,9.22786555931946e-05,7.419145451590765e-05,3.25,2.75
1.8828125,0.00034909408792401024,2.4408858490882848e-05,0.00011130730404516682,7.761489951476323e-05,3.25,2.75
1.88671875,0.00037499815508201735,2.9287267614252044e-05,0.00010203547383993298,8.152333255512334e-05,3.25,2.75
1.890625,0.00042965916023041134,3.710413369497226e-05,9.570210059205015e-05,8.300682538796076e-05,3.25,2.75
1.89453125,0.0004618966006363014,3.171220782177474e-05,0.00011279079687800424,8.300682538796076e-05,3.25,2.75
1.8984375,0.0004897406199603267,2.780377478141463e-05,0.00012009414620889614,8.200832059662786e-05,3.25,2.75
1.90234375,0.0005209795555748838,3.12272197802702e-05,0.00011327578491950879,8.543176559548346e-05,3.25,2.75
1.90625,0.0005351297949034869,2.24403776165409e-05,0.00010497393079728402,8.688672971999707e-05,3.25,2.75
1.91015625,0.000561033862061494,2.001543740901819e-05,9.86120288410774e-05,8.10383445136188e-05,3.25,2.75
1.9140625,0.000574214125307088,2.6833798698405545e-05,0.00011082231600366227,8.055335647211424e-05,3.25,2.75
1.91796875,0.0005888493526771956,4.3922494984359616e-05,0.00011327578491950879,7.664492343175414e-05,3.25,2.75
1.921875,0.0005947262665918976,4.1497554776836916e-05,0.00010691388296330216,7.712991147325869e-05,3.25,2.75
1.92578125,0.0006069080250461587,2.780377478141463e-05,0.00010739887100480672,7.712991147325869e-05,3.25,2.75
1.9296875,0.000647932307615778,2.3410353699549973e-05,0.00010691388296330216,7.664492343175414e-05,3.25,2.75
1.93359375,0.0006816247121461816,1.610700436865808e-05,0.00012303260316624714,7.909839234760065e-05,3.25,2.75
1.9375,0.0006928650232257574,2.9287267614252044e-05,0.0001371828424948502,7.419145451590765e-05,3.25,2.75
1.94140625,0.0006957749514747846,3.465066477912577e-05,0.00012157763904173356,7.322147843289857e-05,3.25,2.75
1.9453125,0.0007109236955947205,4.246753085984599e-05,9.570210059205015e-05,7.079653822537588e-05,3.25,2.75
1.94921875,0.0007226489947158008,4.0014061943999504e-05,9.812704079957287e-05,6.588960039368288e-05,3.25,2.75
1.953125,0.000736799234044404,3.12272197802702e-05,0.00011618571316853601,6.540461235217834e-05,3.25,2.75
1.95703125,0.0007426476192507822,4.6375963900206115e-05,0.00012939450512245378,6.588960039368288e-05,3.25,2.75
1.9609375,0.0007162870927595943,4.9314420857557153e-05,0.00012400257924925626,6.882805735103391e-05,3.25,2.75
1.96484375,0.0007089837434287023,3.8074109777981344e-05,0.00011912417012588704,7.079653822537588e-05,3.25,2.75
1.96875,0.0007192255497169453,3.12272197802702e-05,0.00012057913425040067,7.176651430838495e-05,3.25,2.75
1.97265625,0.0006996833845151448,2.6348810656901008e-05,0.00012303260316624714,7.176651430838495e-05,3.25,2.75
1.9765625,0.0006738078460654613,2.731878673991008e-05,0.00012109265100022901,6.737309322652029e-05,3.25,2.75
1.98046875,0.0006552641856549937,3.222572457160308e-05,0.00011424576100251787,6.24946841031511e-05,3.25,2.75
1.984375,0.0006391454654520487,1.7561968493171704e-05,0.00011521573708552693,6.1011191270313684e-05,3.25,2.75
1.98828125,0.0006147248911268789,5.3516813305868284e-06,0.00010545891883878855,5.9071239104295524e-05,3.25,2.75
1.9921875,0.0006103314700450143,3.222572457160308e-05,0.00010106549775692392,5.661777018844904e-05,3.25,2.75
1.99609375,0.0005991196876737623,4.1497554776836916e-05,0.00010788385904631124,5.222434910658438e-05,3.25,2.75
2.0,0.0005732156205157551,1.9530449367513653e-05,0.00012888098837262544,5.222434910658438e-05,3.25,2.75
2.00390625,0.0005717606563912414,3.5620640862134845e-05,0.00011279079687800424,5.222434910658438e-05,3.25,2.75
2.0078125,0.0005668822472678723,4.1982542818341456e-05,5.270933714808892e-05,4.9314420857557153e-05,3.25,2.75
2.01171875,0.0005434316490257116,2.0985413492027276e-05,3.319570065461215e-05,4.1982542818341456e-05,3.25,2.75
2.015625,0.0005200095794918747,2.1470401533531813e-05,5.564779410543995e-05,3.465066477912577e-05,3.25,2.75
2.01953125,0.0004980424740825515,2.24403776165409e-05,6.737309322652029e-05,3.513565282063031e-05,3.25,2.75
2.0234375,0.00047068344280003064,4.7830928024719735e-05,5.761627497978192e-05,3.416567673762124e-05,3.25,2.75
2.02734375,0.000449201325432212,2.6833798698405545e-05,5.3194325189593467e-05,2.8802279572747507e-05,3.25,2.75
2.03125,0.0004365060502281225,1.0715078495460559e-05,6.49196243106738e-05,2.731878673991008e-05,3.25,2.75
2.03515625,0.0004028136456977189,3.319570065461215e-05,7.61599353902496e-05,2.392387044937831e-05,3.25,2.75
2.0390625,0.0003940268035339896,3.513565282063031e-05,7.809988755626775e-05,1.2198571328297972e-05,3.25,2.75
2.04296875,0.00040184366961470985,2.9287267614252044e-05,6.149617931181822e-05,1.3168547411307046e-05,3.25,2.75
2.046875,0.00039060335853513404,3.171220782177474e-05,5.564779410543995e-05,1.5622016327153544e-05,3.25,2.75
2.05078125,0.00037499815508201735,4.440748302586415e-05,6.443463626916926e-05,1.1228595245288886e-05,3.25,2.75
2.0546875,0.00035106256879835214,3.5620640862134845e-05,5.467781802243088e-05,1.1228595245288886e-05,3.25,2.75
2.05859375,0.00035348750900587487,2.392387044937831e-05,7.322147843289857e-05,1.5108499577325204e-05,3.25,2.75
2.0625,0.00035106256879835214,2.9287267614252044e-05,8.006836843060972e-05,1.610700436865808e-05,3.25,2.75
2.06640625,0.00032909546338902887,4.101256673533238e-05,3.465066477912577e-05,9.260114370946937e-06,3.25,2.75
2.0703125,0.00030809833406271475,4.101256673533238e-05,4.0014061943999504e-05,1.3168547411307046e-05,3.25,2.75
2.07421875,0.00030467488906385916,5.076938498207076e-05,4.7830928024719735e-05,1.610700436865808e-05,3.25,2.75
2.078125,0.0003085833221042193,5.661777018844904e-05,3.319570065461215e-05,6.321657413595901e-06,3.25,2.75
2.08203125,0.0002939195660257879,4.8315916066224275e-05,2.24403776165409e-05,-2.9501727916379465e-06,3.25,2.75
2.0859375,0.0002827077836545359,6.640311714351122e-05,3.0257243697261117e-05,-9.768534081025294e-06,3.25,2.75
2.08984375,0.00027292243669947366,7.761489951476323e-05,5.1739361065079847e-05,-1.4666799588005262e-06,3.25,2.75
2.09375,0.0002480454030411232,3.61056289036394e-05,4.3922494984359616e-05,1.8531944576180777e-05,3.25,2.75
2.09765625,0.00025144031933165494,2.001543740901819e-05,1.7076980451667168e-05,2.3410353699549973e-05,3.25,2.75
2.1015625,0.0002504703432486459,4.5890975858701575e-05,3.952907390249497e-05,1.6591992410162618e-05,3.25,2.75
2.10546875,0.00022214133588311603,5.467781802243088e-05,6.052620322880915e-05,2.195538957503635e-05,3.25,2.75
2.109375,0.00019335586918440542,4.734593998321519e-05,5.270933714808892e-05,2.780377478141463e-05,3.25,2.75
2.11328125,0.0001821155581048296,5.710275822995358e-05,6.785808126802485e-05,2.8317291531242957e-05,3.25,2.75
2.1171875,0.00017723714898146043,6.443463626916926e-05,8.349181342946528e-05,3.513565282063031e-05,3.25,2.75
2.12109375,0.0001557550316136417,5.419282998092633e-05,8.982518667734811e-05,4.1982542818341456e-05,3.25,2.75
2.125,0.00013866633532768762,4.4920999775692495e-05,5.370784193942179e-05,4.3922494984359616e-05,3.25,2.75
2.12890625,0.00010545891883878855,4.440748302586415e-05,3.3680688696116685e-05,5.028439694056622e-05,3.25,2.75
2.1328125,9.470359580071729e-05,4.686095194171065e-05,6.200969606164656e-05,6.149617931181822e-05,3.25,2.75
2.13671875,0.00010888236383764413,6.052620322880915e-05,5.9071239104295524e-05,6.443463626916926e-05,3.25,2.75
2.140625,0.00010788385904631124,7.664492343175414e-05,5.9071239104295524e-05,6.49196243106738e-05,3.25,2.75
2.14453125,9.470359580071729e-05,7.61599353902496e-05,6.1011191270313684e-05,6.588960039368288e-05,3.25,2.75
2.1484375,7.470497126573599e-05,6.688810518501574e-05,6.640311714351122e-05,6.882805735103391e-05,3.25,2.75
2.15234375,7.370646647440309e-05,8.006836843060972e-05,8.200832059662786e-05,7.470497126573599e-05,3.25,2.75
2.15625,6.737309322652029e-05,9.12801508018617e-05,9.421860775921275e-05,7.909839234760065e-05,3.25,2.75
2.16015625,6.004121518730461e-05,9.764205275806832e-05,9.324863167620367e-05,8.300682538796076e-05,3.25,2.75
2.1640625,6.004121518730461e-05,0.00010888236383764413,8.688672971999707e-05,8.837022255283449e-05,3.25,2.75
2.16796875,5.270933714808892e-05,0.00011960915816739159,9.518858384222184e-05,9.276364363469915e-05,3.25,2.75
2.171875,6.1011191270313684e-05,0.00010788385904631124,0.00010448894275577947,9.86120288410774e-05,3.25,2.75
2.17578125,6.052620322880915e-05,9.22786555931946e-05,0.00012694103620660728,0.00010691388296330216,3.25,2.75
2.1796875,5.270933714808892e-05,0.00010839737579613958,0.00014987811769893961,0.00010545891883878855,3.25,2.75
2.18359375,5.661777018844904e-05,0.00012497255533226533,0.00014012129945220123,0.00010106549775692392,3.25,2.75
2.1875,4.8315916066224275e-05,0.00011667070121004056,0.0001235175912077517,9.715706471656378e-05,3.25,2.75
2.19140625,6.785808126802485e-05,0.00011033732796215775,0.00011912417012588704,9.079516276035718e-05,3.25,2.75
2.1953125,8.10383445136188e-05,0.00011618571316853601,0.00013427291424582296,8.640174167849252e-05,3.25,2.75
2.19921875,8.10383445136188e-05,0.00010106549775692392,0.00012548607208209367,8.740024646982542e-05,3.25,2.75
2.203125,8.200832059662786e-05,7.419145451590765e-05,0.00010642889492179764,8.934019863584355e-05,3.25,2.75
2.20703125,8.152333255512334e-05,6.540461235217834e-05,9.179366755169004e-05,8.788523451132994e-05,3.25,2.75
2.2109375,9.079516276035718e-05,7.225150234988948e-05,8.397680147096983e-05,8.249330863813241e-05,3.25,2.75
2.21484375,9.470359580071729e-05,7.567494734874506e-05,9.667207667505926e-05,8.006836843060972e-05,3.25,2.75
2.21875,0.00010106549775692392,7.370646647440309e-05,0.0001025204618814375,7.858487559777231e-05,3.25,2.75
2.22265625,9.276364363469915e-05,7.322147843289857e-05,8.934019863584355e-05,7.031155018387133e-05,3.25,2.75
2.2265625,9.570210059205015e-05,6.931304539253846e-05,8.10383445136188e-05,6.737309322652029e-05,3.25,2.75
2.23046875,0.00012157763904173356,6.24946841031511e-05,7.322147843289857e-05,6.346466018616019e-05,3.25,2.75
2.234375,0.00013036448120546285,6.052620322880915e-05,8.688672971999707e-05,6.394964822766474e-05,3.25,2.75
2.23828125,0.00013427291424582296,6.588960039368288e-05,8.688672971999707e-05,6.297967214465563e-05,3.25,2.75
2.2421875,0.00013669785445334564,6.052620322880915e-05,7.664492343175414e-05,5.9071239104295524e-05,3.25,2.75
2.24609375,0.00013427291424582296,6.931304539253846e-05,8.349181342946528e-05,5.613278214694449e-05,3.25,2.75
2.25,0.00014402973249256134,8.688672971999707e-05,7.419145451590765e-05,4.6375963900206115e-05,3.25,2.75
2.25390625,0.00014596968465857953,7.322147843289857e-05,7.419145451590765e-05,4.979940889906169e-05,3.25,2.75
2.2578125,0.00013818134728618307,4.1982542818341456e-05,5.222434910658438e-05,6.200969606164656e-05,3.25,2.75
2.26171875,0.00013963631141069668,4.1982542818341456e-05,5.419282998092633e-05,6.49196243106738e-05,3.25,2.75
2.265625,0.00015136161053177705,6.882805735103391e-05,8.152333255512334e-05,6.443463626916926e-05,3.25,2.75
2.26953125,0.00016063344073701088,7.761489951476323e-05,7.909839234760065e-05,6.1011191270313684e-05,3.25,2.75
2.2734375,0.0001796620891889831,9.421860775921275e-05,0.00010349043796444661,6.004121518730461e-05,3.25,2.75
2.27734375,0.00018357052222934322,9.958200492408647e-05,0.0001274260242481118,6.004121518730461e-05,3.25,2.75
2.28125,0.00016551184986038006,8.300682538796076e-05,0.00011033732796215775,5.810126302128645e-05,3.25,2.75
2.28515625,0.00017187375181658667,8.349181342946528e-05,0.00010397542600595113,6.588960039368288e-05,3.25,2.75
2.2890625,0.0001811455820218205,7.761489951476323e-05,0.0001025204618814375,6.588960039368288e-05,3.25,2.75
2.29296875,0.00017235873985809122,6.588960039368288e-05,9.570210059205015e-05,5.858625106279099e-05,3.25,2.75
2.296875,0.0001620884048615245,5.661777018844904e-05,0.00010642889492179764,5.613278214694449e-05,3.25,2.75
2.30078125,0.00015966346465400182,5.810126302128645e-05,0.00010888236383764413,5.858625106279099e-05,3.25,2.75
2.3046875,0.00015817997182116439,6.688810518501574e-05,9.22786555931946e-05,5.613278214694449e-05,3.25,2.75
2.30859375,0.00015769498377965984,6.882805735103391e-05,9.421860775921275e-05,5.3194325189593467e-05,3.25,2.75
2.3125,0.00015966346465400182,6.785808126802485e-05,0.00010300544992294206,5.3194325189593467e-05,3.25,2.75
2.31640625,0.00013621286641184112,5.076938498207076e-05,8.446178951247438e-05,5.419282998092633e-05,3.25,2.75
2.3203125,0.00013427291424582296,3.5620640862134845e-05,5.467781802243088e-05,5.1739361065079847e-05,3.25,2.75
2.32421875,0.00014890814161593055,4.3922494984359616e-05,5.467781802243088e-05,5.076938498207076e-05,3.25,2.75
2.328125,0.00014548469661707496,3.6619145653467724e-05,5.810126302128645e-05,5.661777018844904e-05,3.25,2.75
2.33203125,0.00014745317749141694,4.0014061943999504e-05,7.273649039139403e-05,5.761627497978192e-05,3.25,2.75
2.3359375,0.00014012129945220123,4.9314420857557153e-05,8.934019863584355e-05,6.052620322880915e-05,3.25,2.75
2.33984375,0.00013036448120546285,3.513565282063031e-05,8.152333255512334e-05,6.394964822766474e-05,3.25,2.75
2.34375,0.0001274260242481118,2.4408858490882848e-05,6.297967214465563e-05,6.346466018616019e-05,3.25,2.75
2.34765625,0.0001332744094544901,2.195538957503635e-05,4.246753085984599e-05,6.443463626916926e-05,3.25,2.75
2.3515625,0.00011667070121004056,1.0230090453956008e-05,3.513565282063031e-05,6.737309322652029e-05,3.25,2.75
2.35546875,0.00010106549775692392,-4.967038757914536e-07,5.858625106279099e-05,7.12815262668804e-05,3.25,2.75
2.359375,0.00010642889492179764,4.381705247577742e-06,7.370646647440309e-05,7.273649039139403e-05,3.25,2.75
2.36328125,0.00010300544992294206,-1.171583428691747e-08,4.295251890135054e-05,7.031155018387133e-05,3.25,2.75
2.3671875,0.00010839737579613958,-4.8901249576561056e-06,2.0985413492027276e-05,6.931304539253846e-05,3.25,2.75
2.37109375,0.00011033732796215775,9.58260248722169e-07,1.4623511535820667e-05,6.588960039368288e-05,3.25,2.75
2.375,9.958200492408647e-05,-1.4666799588005262e-06,2.780377478141463e-05,6.540461235217834e-05,3.25,2.75
2.37890625,0.0001122772801281759,-9.816919172959898e-07,4.440748302586415e-05,6.540461235217834e-05,3.25,2.75
2.3828125,0.00011766920600137342,-4.405136916151562e-06,2.6348810656901008e-05,6.1011191270313684e-05,3.25,2.75
2.38671875,0.00010888236383764413,-3.4351608331424827e-06,1.4138523494316132e-05,6.052620322880915e-05,3.25,2.75
2.390625,0.00010058050971541936,-3.4351608331424827e-06,2.2925365658045436e-05,5.858625106279099e-05,3.25,2.75
2.39453125,0.00010691388296330216,-2.9501727916379465e-06,1.2198571328297972e-05,5.564779410543995e-05,3.25,2.75
2.3984375,0.0001025204618814375,1.1713583286793422e-05,1.4138523494316132e-05,5.3194325189593467e-05,3.25,2.75
2.40234375,8.446178951247438e-05,2.9267411230641188e-06,2.0985413492027276e-05,5.710275822995358e-05,3.25,2.75
2.40625,8.640174167849252e-05,-1.7585400161745525e-05,1.0715078495460559e-05,5.761627497978192e-05,3.25,2.75
2.41015625,8.788523451132994e-05,-1.173701495536725e-05,9.260114370946937e-06,4.686095194171065e-05,3.25,2.75
2.4140625,0.00010545891883878855,-1.171583428691747e-08,1.9530449367513653e-05,4.440748302586415e-05,3.25,2.75
2.41796875,0.00010397542600595113,-5.375112999160641e-06,2.195538957503635e-05,5.370784193942179e-05,3.25,2.75
2.421875,8.152333255512334e-05,4.7327220721763295e-07,1.8531944576180777e-05,6.346466018616019e-05,3.25,2.75
2.42578125,8.740024646982542e-05,2.4132243732357918e-06,2.4132243732357918e-06,7.176651430838495e-05,3.25,2.75
2.4296875,8.055335647211424e-05,-2.9501727916379465e-06,-6.858605831998055e-06,8.152333255512334e-05,3.25,2.75
2.43359375,8.349181342946528e-05,3.896717206073205e-06,1.4432482902267055e-06,8.788523451132994e-05,3.25,2.75
2.4375,0.0001025204618814375,1.1713583286793422e-05,1.610700436865808e-05,9.61870886335547e-05,3.25,2.75
2.44140625,8.885521059433901e-05,1.610700436865808e-05,3.074223173876565e-05,0.00010397542600595113,3.25,2.75
2.4453125,8.200832059662786e-05,5.125437302357531e-05,4.1497554776836916e-05,0.00010106549775692392,3.25,2.75
2.44921875,9.12801508018617e-05,4.295251890135054e-05,5.270933714808892e-05,0.00010448894275577947,3.25,2.75
2.453125,9.470359580071729e-05,1.365353545281158e-05,8.006836843060972e-05,0.00011082231600366227,3.25,2.75
2.45703125,8.152333255512334e-05,2.977225565575658e-05,0.00010691388296330216,0.00010888236383764413,3.25,2.75
2.4609375,8.982518667734811e-05,4.979940889906169e-05,0.0001235175912077517,0.00010936735187914865,3.25,2.75
2.46484375,9.324863167620367e-05,4.1982542818341456e-05,0.000132304433371481,0.0001122772801281759,3.25,2.75
2.46875,7.518995930724051e-05,4.6375963900206115e-05,0.00014257476836804773,0.00010936735187914865,3.25,2.75
2.47265625,9.079516276035718e-05,6.931304539253846e-05,0.00015184659857328157,0.00010691388296330216,3.25,2.75
2.4765625,9.715706471656378e-05,4.0499049985504044e-05,0.0001449997085755704,0.00011130730404516682,3.25,2.75
2.48046875,8.10383445136188e-05,2.050042545052274e-05,0.0001137607729610133,0.00011327578491950879,3.25,2.75
2.484375,6.443463626916926e-05,1.804695653467624e-05,0.00010448894275577947,0.00010985233992065321,3.25,2.75
2.48828125,6.297967214465563e-05,2.731878673991008e-05,0.00010349043796444661,0.00010448894275577947,3.25,2.75
2.4921875,6.785808126802485e-05,3.222572457160308e-05,0.00010300544992294206,0.00010106549775692392,3.25,2.75
2.49609375,6.346466018616019e-05,2.8802279572747507e-05,0.00011327578491950879,0.00010058050971541936,3.25,2.75
2.5,6.834306930952937e-05,3.6619145653467724e-05,0.00011033732796215775,9.470359580071729e-05,3.25,2.75
2.50390625,5.125437302357531e-05,4.246753085984599e-05,0.00010300544992294206,9.324863167620367e-05,3.25,2.75
2.5078125,4.540598781719703e-05,4.101256673533238e-05,9.12801508018617e-05,9.031017471885263e-05,3.25,2.75
2.51171875,5.710275822995358e-05,4.440748302586415e-05,7.809988755626775e-05,8.300682538796076e-05,3.25,2.75
2.515625,5.076938498207076e-05,4.9314420857557153e-05,0.00010349043796444661,8.055335647211424e-05,3.25,2.75
2.51953125,5.419282998092633e-05,4.686095194171065e-05,0.00010642889492179764,7.761489951476323e-05,3.25,2.75
2.5234375,4.9314420857557153e-05,4.295251890135054e-05,8.152333255512334e-05,7.176651430838495e-05,3.25,2.75
2.52734375,4.880090410772881e-05,4.979940889906169e-05,8.49467775539789e-05,6.200969606164656e-05,3.25,2.75
2.53125,4.7830928024719735e-05,5.125437302357531e-05,8.885521059433901e-05,5.810126302128645e-05,3.25,2.75
2.53515625,4.0499049985504044e-05,5.270933714808892e-05,9.324863167620367e-05,5.955622714580008e-05,3.25,2.75
2.5390625,3.61056289036394e-05,6.931304539253846e-05,9.812704079957287e-05,5.516280606393542e-05,3.25,2.75
2.54296875,2.6833798698405545e-05,6.540461235217834e-05,0.00010691388296330216,5.125437302357531e-05,3.25,2.75
2.546875,3.0257243697261117e-05,6.149617931181822e-05,0.00010106549775692392,4.1982542818341456e-05,3.25,2.75
2.55078125,3.465066477912577e-05,7.761489951476323e-05,9.61870886335547e-05,2.780377478141463e-05,3.25,2.75
2.5546875,3.513565282063031e-05,4.6375963900206115e-05,9.570210059205015e-05,2.6833798698405545e-05,3.25,2.75
2.55859375,1.1228595245288886e-05,3.3680688696116685e-05,0.00011327578491950879,3.0257243697261117e-05,3.25,2.75
2.5625,-7.3435938735025984e-06,9.276364363469915e-05,0.00014548469661707496,5.836669372091364e-06,3.25,2.75
2.56640625,4.3922494984359616e-05,0.00011179229208667138,0.00011618571316853601,-8.798557998016214e-06,3.25,2.75
2.5703125,4.3437506942855076e-05,2.24403776165409e-05,4.1982542818341456e-05,2.4132243732357918e-06,3.25,2.75
2.57421875,2.537883457389192e-05,5.3516813305868284e-06,-4.405136916151562e-06,-6.858605831998055e-06,3.25,2.75
2.578125,3.513565282063031e-05,-3.761255340505063e-05,-2.637224232547483e-05,-1.5645447995727365e-05,3.25,2.75
2.58203125,4.734593998321519e-05,-0.00012839090329137094,-8.788013747157997e-05,-3.567260123903247e-05,3.25,2.75
2.5859375,7.273649039139403e-05,-0.0001669902456534675,-0.00017038516194399928,-5.030782860914004e-05,3.25,2.75
2.58984375,6.688810518501574e-05,-0.0002006826501838711,-0.00021971129863584333,-5.2761297524986546e-05,3.25,2.75
2.59375,7.61599353902496e-05,-0.00025437367924925603,-0.00027246088032654303,-4.885286448462643e-05,3.25,2.75
2.59765625,7.225150234988948e-05,-0.00030466979202410915,-0.00032175848831006323,-5.030782860914004e-05,3.25,2.75
2.6015625,7.322147843289857e-05,-0.0003310303185152971,-0.00036572122783703353,-6.494305597924762e-05,3.25,2.75
2.60546875,9.421860775921275e-05,-0.000389628285412375,-0.00045507314230716406,-8.982008963759813e-05,3.25,2.75
2.609375,0.00010788385904631124,-0.0004047770295323109,-0.0004887655468375676,-0.00010009042463416484,3.25,2.75
2.61328125,0.0001274260242481118,-0.0004135638716960402,-0.0005034007742076752,-9.860693180132743e-05,3.25,2.75
2.6171875,0.00012939450512245378,-0.0004281990990661478,-0.0005092491594140535,-8.300172834821078e-05,3.25,2.75
2.62109375,0.0001445147205340659,-0.00042577415885862506,-0.0005092491594140535,-5.567122577401377e-05,3.25,2.75
2.625,0.000148423153574426,-0.0004374994579797054,-0.0005273363604913404,-5.421626164950016e-05,3.25,2.75
2.62890625,0.00013963631141069668,-0.0004145338477790493,-0.0005204894704936294,-5.615621381551832e-05,3.25,2.75
2.6328125,0.0001332744094544901,-0.0004125938956130311,-0.000525852867658503,-6.930794835278849e-05,3.25,2.75
2.63671875,0.000132304433371481,-0.00038474987628900575,-0.000498522365084306,-8.93351015960936e-05,3.25,2.75
2.640625,0.00014648320140840784,-0.00036572122783703353,-0.0004706783457602807,-7.860830726634612e-05,3.25,2.75
2.64453125,0.0001332744094544901,-0.00035984431392233144,-0.0004614065155550468,-7.224640531013952e-05,3.25,2.75
2.6484375,0.00011179229208667138,-0.0003237269691844052,-0.0004306525679819943,-8.251674030670623e-05,3.25,2.75
2.65234375,7.712991147325869e-05,-0.00027782427749141676,-0.00040574700561532,-9.0818594428931e-05,3.25,2.75
2.65625,3.271071261310762e-05,-0.0002353450307972838,-0.00037302457716792544,-9.275854659494916e-05,3.25,2.75
2.66015625,2.9287267614252044e-05,-0.00021140944451361856,-0.00035154245980010667,-8.982008963759813e-05,3.25,2.75
2.6640625,9.260114370946937e-06,-0.00017138366673533214,-0.00032860537830777436,-9.030507767910266e-05,3.25,2.75
2.66796875,-2.346231407644759e-05,-0.00014499461153582045,-0.000313941622229343,-9.81219437598229e-05,3.25,2.75
2.671875,-4.6399395568779935e-05,-0.00011375567592126335,-0.0002827026866147859,-0.00010642379788204766,3.25,2.75
2.67578125,-7.176141726863497e-05,-7.812331922484157e-05,-0.0002499802581673914,-0.00010300035288319208,3.25,2.75
2.6796875,-8.788013747157997e-05,-2.9310699282825864e-05,-0.00020165262626688018,-0.00010839227875638961,3.25,2.75
2.68359375,-0.0001108172189639123,-1.9068892994582937e-05,-0.0001796855208575569,-0.00011472565200427243,3.25,2.75
2.6875,-0.0001410861784954603,-2.97956873243304e-05,-0.00017626207585870135,-0.00010009042463416484,3.25,2.75
2.69140625,-0.0001581748747814144,-5.860101040665185e-06,-0.00014353964741130684,-9.275854659494916e-05,3.25,2.75
2.6953125,-0.00015281147761654068,1.0230090453956008e-05,-0.00013229933633173102,-8.93351015960936e-05,3.25,2.75
2.69921875,-0.0001469630924101624,5.564779410543995e-05,-9.421351071946279e-05,-9.130358247043553e-05,3.25,2.75
2.703125,-0.00015574993457389172,6.9798033434043e-05,-7.860830726634612e-05,-9.0818594428931e-05,3.25,2.75
2.70703125,-0.00016356680065461194,5.125437302357531e-05,-8.006327139085973e-05,-8.445669247272439e-05,3.25,2.75
2.7109375,-0.0001840789419394216,7.470497126573599e-05,-5.030782860914004e-05,-7.663982639200417e-05,3.25,2.75
2.71484375,-0.0001928657841031509,0.00010888236383764413,-2.5887254283970285e-05,-7.469987422598601e-05,3.25,2.75
2.71875,-0.00020165262626688018,0.00010985233992065321,-2.443229015945667e-05,-7.07914411856259e-05,3.25,2.75
2.72265625,-0.00022946811688258172,0.00010009552167391481,-2.1978821243610177e-05,-6.154813968871585e-05,3.25,2.75
2.7265625,-0.0002416784040451666,0.00010985233992065321,9.58260248722169e-07,-5.615621381551832e-05,3.25,2.75
2.73046875,-0.00025682714816510253,0.00012888098837262544,-3.4351608331424827e-06,-4.736937165178901e-05,3.25,2.75
2.734375,-0.0002680389305363545,0.0001259710601235982,1.2683559369802509e-05,-4.152098644541074e-05,3.25,2.75
2.73828125,-0.0002827026866147859,0.00011618571316853601,4.3922494984359616e-05,-4.152098644541074e-05,3.25,2.75
2.7421875,-0.00030272983985809107,0.00011521573708552693,4.1497554776836916e-05,-3.9067517529564245e-05,3.25,2.75
2.74609375,-0.0003115166820218203,0.00011279079687800424,2.780377478141463e-05,-3.9067517529564245e-05,3.25,2.75
2.75,-0.00032324198114290064,0.00010888236383764413,2.731878673991008e-05,-3.9067517529564245e-05,3.25,2.75
2.75390625,-0.00031494012702067587,9.764205275806832e-05,4.3437506942855076e-05,-3.467409644769959e-05,3.25,2.75
2.7578125,-0.00030418480398260465,0.00010106549775692392,6.394964822766474e-05,-2.1493833202105633e-05,3.25,2.75
2.76171875,-0.00031981853614404505,0.00011130730404516682,7.079653822537588e-05,-1.710041212024098e-05,3.25,2.75
2.765625,-0.00034275561763637746,0.0001059439068802931,6.640311714351122e-05,-2.0523857119096553e-05,3.25,2.75
2.76953125,-0.00035838934979781785,9.22786555931946e-05,7.273649039139403e-05,-2.2977326034943052e-05,3.25,2.75
2.7734375,-0.0003662062158785381,9.276364363469915e-05,8.837022255283449e-05,-2.1978821243610177e-05,3.25,2.75
2.77734375,-0.0003803564552071411,8.982518667734811e-05,0.00010009552167391481,-1.61304360372319e-05,3.25,2.75
2.78125,-0.000406716981698329,8.837022255283449e-05,9.667207667505926e-05,-1.6615424078736445e-05,3.25,2.75
2.78515625,-0.0004433478431860837,8.49467775539789e-05,8.152333255512334e-05,-9.768534081025294e-06,3.25,2.75
2.7890625,-0.0004570130944731822,9.179366755169004e-05,8.640174167849252e-05,-6.858605831998055e-06,3.25,2.75
2.79296875,-0.00045310466143282205,0.00010739887100480672,0.00010497393079728402,-1.0282050830853635e-05,3.25,2.75
2.796875,-0.0004614065155550468,0.00010497393079728402,0.00010155048579842844,-1.5160459954222821e-05,3.25,2.75
2.80078125,-0.0004706783457602807,8.740024646982542e-05,9.276364363469915e-05,-1.5645447995727365e-05,3.25,2.75
2.8046875,-0.00048240364488136105,8.543176559548346e-05,0.00010839737579613958,-1.270699103837633e-05,3.25,2.75
2.80859375,-0.0004741017907591363,8.885521059433901e-05,0.00011863918208438252,-8.313569956511678e-06,3.25,2.75
2.8125,-0.000452134685349813,7.567494734874506e-05,0.00010839737579613958,-1.4666799588005262e-06,3.25,2.75
2.81640625,-0.0004408943742702372,9.373361971770821e-05,0.00012157763904173356,-4.967038757914536e-07,3.25,2.75
2.8203125,-0.0004296825918989852,0.00010203547383993298,0.00012497255533226533,4.7327220721763295e-07,3.25,2.75
2.82421875,-0.0004145338477790493,7.712991147325869e-05,0.00010642889492179764,-4.405136916151562e-06,3.25,2.75
2.828125,-0.0003974451514930952,6.737309322652029e-05,0.00010349043796444661,-9.816919172959898e-07,3.25,2.75
2.83203125,-0.0003818114193316547,6.785808126802485e-05,0.00010691388296330216,9.58260248722169e-07,3.25,2.75
2.8359375,-0.0003676611800030517,7.470497126573599e-05,0.00011570072512703148,-5.860101040665185e-06,3.25,2.75
2.83984375,-0.00036326775892118703,0.00012400257924925626,0.00016551184986038006,-6.3736177904935185e-06,3.25,2.75
2.84375,-0.0003759630341252765,0.0001122772801281759,0.00015427153878080427,1.2198571328297972e-05,3.25,2.75
2.84765625,-0.00036863115608606076,3.8074109777981344e-05,8.688672971999707e-05,2.1470401533531813e-05,3.25,2.75
2.8515625,-0.0003662062158785381,3.5620640862134845e-05,7.858487559777231e-05,1.4432482902267055e-06,3.25,2.75
2.85546875,-0.0003886583093293659,2.24403776165409e-05,6.1011191270313684e-05,-1.980196708628867e-06,3.25,2.75
2.859375,-0.00042674413494163415,-2.9501727916379465e-06,4.440748302586415e-05,5.836669372091364e-06,3.25,2.75
2.86328125,-0.00044919622839246197,-2.1493833202105633e-05,4.734593998321519e-05,4.8666932890822774e-06,3.25,2.75
2.8671875,-0.0004496812164339665,-3.6642577322041545e-05,2.780377478141463e-05,1.3168547411307046e-05,3.25,2.75
2.87109375,-0.0004628900083878843,-1.0767038872358171e-05,1.1713583286793422e-05,1.5622016327153544e-05,3.25,2.75
2.875,-0.0004980373770428015,-1.270699103837633e-05,2.8802279572747507e-05,1.8531944576180777e-05,3.25,2.75
2.87890625,-0.0005410016117784389,-1.0767038872358171e-05,6.052620322880915e-05,2.0985413492027276e-05,3.25,2.75
2.8828125,-0.0005385481428625923,1.3168547411307046e-05,8.200832059662786e-05,1.6591992410162618e-05,3.25,2.75
2.88671875,-0.0005170660254947737,2.001543740901819e-05,7.470497126573599e-05,1.7076980451667168e-05,3.25,2.75
2.890625,-0.0005068242192065308,2.6833798698405545e-05,6.640311714351122e-05,1.804695653467624e-05,3.25,2.75
2.89453125,-0.0005038857622491797,4.1982542818341456e-05,6.588960039368288e-05,1.365353545281158e-05,3.25,2.75
2.8984375,-0.0005121876163714045,5.661777018844904e-05,8.152333255512334e-05,2.001543740901819e-05,3.25,2.75
2.90234375,-0.000497552389001297,6.49196243106738e-05,0.00010936735187914865,2.4408858490882848e-05,3.25,2.75
2.90625,-0.0004648299605539024,6.1011191270313684e-05,0.00010448894275577947,2.195538957503635e-05,3.25,2.75
2.91015625,-0.0004570130944731822,5.419282998092633e-05,0.00010155048579842844,2.050042545052274e-05,3.25,2.75
2.9140625,-0.0004399243981872281,6.688810518501574e-05,0.00012254761512474262,2.2925365658045436e-05,3.25,2.75
2.91796875,-0.00042528917081712057,6.9798033434043e-05,0.0001283960003311209,1.9530449367513653e-05,3.25,2.75
2.921875,-0.0004223507138597695,6.149617931181822e-05,0.00011033732796215775,1.3168547411307046e-05,3.25,2.75
2.92578125,-0.0004125938956130311,6.688810518501574e-05,0.0001137607729610133,1.1228595245288886e-05,3.25,2.75
2.9296875,-0.0003974451514930952,7.370646647440309e-05,9.570210059205015e-05,1.5108499577325204e-05,3.25,2.75
2.93359375,-0.00037302457716792544,8.300682538796076e-05,8.934019863584355e-05,1.1228595245288886e-05,3.25,2.75
2.9375,-0.00035642086892347596,8.982518667734811e-05,0.0001059439068802931,4.381705247577742e-06,3.25,2.75
2.94140625,-0.00034130065351186377,7.518995930724051e-05,7.909839234760065e-05,1.3168547411307046e-05,3.25,2.75
2.9453125,-0.0003203035241855496,7.470497126573599e-05,5.516280606393542e-05,1.2198571328297972e-05,3.25,2.75
2.94921875,-0.00030906321310597383,8.49467775539789e-05,6.785808126802485e-05,1.0715078495460559e-05,3.25,2.75
2.953125,-0.00030515478006561375,8.055335647211424e-05,8.055335647211424e-05,1.0230090453956008e-05,3.25,2.75
2.95703125,-0.0002822176985732814,9.764205275806832e-05,7.273649039139403e-05,6.321657413595901e-06,3.25,2.75
2.9609375,-0.0002636455094544899,9.421860775921275e-05,6.24946841031511e-05,1.365353545281158e-05,3.25,2.75
2.96484375,-0.0002631605214129853,7.225150234988948e-05,6.540461235217834e-05,1.1713583286793422e-05,3.25,2.75
2.96875,-0.00025340370316624694,8.200832059662786e-05,6.004121518730461e-05,4.8666932890822774e-06,3.25,2.75
2.97265625,-0.0002548586672907606,8.152333255512334e-05,5.222434910658438e-05,5.3516813305868284e-06,3.25,2.75
2.9765625,-0.00023728498296330194,9.276364363469915e-05,6.346466018616019e-05,1.0230090453956008e-05,3.25,2.75
2.98046875,-0.0002138629134294651,9.764205275806832e-05,4.9314420857557153e-05,1.4138523494316132e-05,3.25,2.75
2.984375,-0.00021628785363698777,7.370646647440309e-05,3.3680688696116685e-05,1.0230090453956008e-05,3.25,2.75
2.98828125,-0.00021874132255283427,8.543176559548346e-05,4.4920999775692495e-05,1.2683559369802509e-05,3.25,2.75
2.9921875,-0.00020653103539024938,8.49467775539789e-05,4.246753085984599e-05,1.3168547411307046e-05,3.25,2.75
2.99609375,-0.000180655496940566,7.322147843289857e-05,4.4920999775692495e-05,1.5622016327153544e-05,3.25,2.75
3.0,-0.00017332361890135033,7.518995930724051e-05,2.731878673991008e-05,1.4623511535820667e-05,3.25,2.75
3.00390625,-0.00016844520977798112,6.785808126802485e-05,6.835174163424241e-06,1.0230090453956008e-05,3.25,2.75
3.0078125,-0.0001581748747814144,6.004121518730461e-05,3.271071261310762e-05,1.9530449367513653e-05,3.25,2.75
3.01171875,-0.00015378145369954974,5.710275822995358e-05,3.222572457160308e-05,2.001543740901819e-05,3.25,2.75
3.015625,-0.00014647810436865786,4.8315916066224275e-05,2.4132243732357918e-06,2.392387044937831e-05,3.25,2.75
3.01953125,-0.0001410861784954603,4.5890975858701575e-05,3.896717206073205e-06,2.780377478141463e-05,3.25,2.75
3.0234375,-0.00012157254200198357,3.171220782177474e-05,-5.375112999160641e-06,8.7751263294424e-06,3.25,2.75
3.02734375,-0.00011814909700312798,8.29013828793785e-06,-5.176279273365367e-05,8.29013828793785e-06,3.25,2.75
3.03125,-0.00012399748220950628,-4.967038757914536e-07,-6.639802010376124e-05,1.8531944576180777e-05,3.25,2.75
3.03515625,-9.521201551079565e-05,-9.283546039520758e-06,-4.9337852526130974e-05,2.780377478141463e-05,3.25,2.75
3.0390625,-6.882296031128393e-05,-4.055101036240166e-05,-8.348671638971531e-05,3.758912173647681e-05,3.25,2.75
3.04296875,-5.518623773250924e-05,-7.321638139314859e-05,-0.00012890442004119928,1.9530449367513653e-05,3.25,2.75
3.046875,-4.2490962528419816e-05,-9.469849876096732e-05,-0.00013378282916456845,2.3410353699549973e-05,3.25,2.75
3.05078125,-2.7370747116807704e-05,-0.00014890304457618056,-0.00017868701606622405,4.6375963900206115e-05,3.25,2.75
3.0546875,-2.0523857119096553e-05,-0.00019480573626916905,-0.00020507607126573577,5.810126302128645e-05,3.25,2.75
3.05859375,-1.8555376244754605e-05,-0.0002089559755977721,-0.00021580286559548322,5.9071239104295524e-05,3.25,2.75
3.0625,-2.1978821243610177e-05,-0.00023192158579842822,-0.0002680389305363545,7.12815262668804e-05,3.25,2.75
3.06640625,-4.152098644541074e-05,-0.00026561399032883185,-0.00030466979202410915,9.179366755169004e-05,3.25,2.75
3.0703125,-2.4917278200961205e-05,-0.0002880660837796596,-0.00031494012702067587,8.688672971999707e-05,3.25,2.75
3.07421875,-8.313569956511678e-06,-0.000286611119655146,-0.0003120016700633249,7.470497126573599e-05,3.25,2.75
3.078125,-6.858605831998055e-06,-0.000286611119655146,-0.00029394299769436164,5.3194325189593467e-05,3.25,2.75
3.08203125,-1.7585400161745525e-05,-0.0003105467059388112,-0.0002978514307347218,7.809988755626775e-05,3.25,2.75
3.0859375,-4.6399395568779935e-05,-0.00031494012702067587,-0.0003115166820218203,0.00012206262708323808,3.25,2.75
3.08984375,-4.2005974486915277e-05,-0.0003061247561486228,-0.0003154251150621804,0.00010839737579613958,3.25,2.75
3.09375,-2.3947302117952125e-05,-0.0002924595048615243,-0.00030712326093995564,9.764205275806832e-05,3.25,2.75
3.09765625,-3.6642577322041545e-05,-0.0002729458683680475,-0.00026219054532997625,0.00012157763904173356,3.25,2.75
3.1015625,-5.71547186068512e-05,-0.00025876710033112066,-0.00022165125080186152,0.00012303260316624714,3.25,2.75
3.10546875,-5.421626164950016e-05,-0.0002446168610025176,-0.00021531787755397867,0.00011667070121004056,3.25,2.75
3.109375,-5.079281665064459e-05,-0.00023192158579842822,-0.00022607320059204997,0.00012645604816510274,3.25,2.75
3.11328125,-7.273139335164405e-05,-0.00018601889410543976,-0.00019138229127031348,0.00010691388296330216,3.25,2.75
3.1171875,-7.71248144335087e-05,-0.00017138366673533214,-0.00013914622632944218,0.00010839737579613958,3.25,2.75
3.12109375,-7.518486226749055e-05,-0.00016747523369497206,-0.00012987439612420834,0.00011130730404516682,3.25,2.75
3.125,-0.00010690878592355219,-0.00012987439612420834,-0.00011130220700541684,0.0001059439068802931,3.25,2.75
3.12890625,-0.00011814909700312798,-0.00011472565200427243,-7.760980247501325e-05,0.00011033732796215775,3.25,2.75
3.1328125,-0.00011814909700312798,-9.32435346364537e-05,-3.467409644769959e-05,0.00010888236383764413,3.25,2.75
3.13671875,-0.0001318143482902265,-7.224640531013952e-05,-2.6857230366979365e-05,0.00010888236383764413,3.25,2.75
3.140625,-0.00014353964741130684,-8.103324747386883e-05,-3.1250651448844014e-05,0.00010642889492179764,3.25,2.75
3.14453125,-0.00014159969524528868,-8.691016138857088e-05,-2.2463809285114713e-05,0.00010349043796444661,3.25,2.75
3.1484375,-0.00014744808045166695,-8.445669247272439e-05,-2.637224232547483e-05,0.00010691388296330216,3.25,2.75
3.15234375,-0.00015232648957503613,-8.642517334706634e-05,-2.785573515831224e-05,0.00011424576100251787,3.25,2.75
3.15625,-0.0001406011904539558,-8.83651255130845e-05,-4.3945926652933436e-05,0.00013818134728618307,3.25,2.75
3.16015625,-0.00015281147761654068,-8.93351015960936e-05,-3.712756536354609e-05,0.00011279079687800424,3.25,2.75
3.1640625,-0.00017332361890135033,-7.469987422598601e-05,6.835174163424241e-06,9.373361971770821e-05,3.25,2.75
3.16796875,-0.00016941518586099022,-7.07914411856259e-05,1.4432482902267055e-06,0.0001620884048615245,3.25,2.75
3.171875,-0.00014353964741130684,-0.00011766410896162346,-3.9067517529564245e-05,0.00018944743614404528,3.25,2.75
3.17578125,-0.00014841805653467602,-0.00012008904916914615,-2.637224232547483e-05,0.00018357052222934322,3.25,2.75
3.1796875,-0.00014990154936751342,-7.518486226749055e-05,1.0230090453956008e-05,0.0001659968379018846,3.25,2.75
3.18359375,-0.0001410861784954603,-6.639802010376124e-05,1.0230090453956008e-05,0.00016551184986038006,3.25,2.75
3.1875,-0.0001410861784954603,-8.151823551537336e-05,2.9267411230641188e-06,0.00017675216093995585,3.25,2.75
3.19140625,-0.00013720627416342405,-6.445806793774308e-05,2.2925365658045436e-05,0.0001420897803265432,3.25,2.75
3.1953125,-0.0001479330684931715,-4.297595056992436e-05,6.640311714351122e-05,0.00012303260316624714,3.25,2.75
3.19921875,-0.00016308181261310737,-3.567260123903247e-05,8.837022255283449e-05,0.00015478505553063259,3.25,2.75
3.203125,-0.00016844520977798112,-3.321913232318597e-05,5.270933714808892e-05,0.00015378655073929973,3.25,2.75
3.20703125,-0.00016308181261310737,-2.1493833202105633e-05,6.931304539253846e-05,0.0001171842179598689,3.25,2.75
3.2109375,-0.00015720489869840533,1.9530449367513653e-05,0.00010985233992065321,0.000164541873777371,3.25,2.75
3.21484375,-0.00016893019781948567,5.419282998092633e-05,0.00011082231600366227,0.0001938408572259099,3.25,2.75
3.21875,-0.00019238079606164637,8.740024646982542e-05,0.00014548469661707496,0.00016696681398489368,3.25,2.75
3.22265625,-0.00019138229127031348,0.00010203547383993298,0.00016014845269550634,0.00017039025898374927,3.25,2.75
3.2265625,-0.000177717039983215,0.00012694103620660728,0.000175753656148623,0.00018017560593881144,3.25,2.75
3.23046875,-0.00016599174086213462,0.00016305838094453356,0.000227048273714809,0.0001909024002685589,3.25,2.75
3.234375,-0.0001567199106569008,0.00017478368006561393,0.00027098248453345553,0.00018505401506218062,3.25,2.75
3.23828125,-0.00015868839153124274,0.0002177479148012514,0.00033445886055390265,0.00018163057006332508,3.25,2.75
3.2421875,-0.0001479330684931715,0.00023729008000305195,0.00033445886055390265,0.0001782071250644695,3.25,2.75
3.24609375,-0.00013475280524757752,0.00024656191020828576,0.00033055042751354256,0.0001635718976943619,3.25,2.75
3.25,-0.0001430546593698023,0.0002656190873685818,0.0003564259659632259,0.00017136023506675833,3.25,2.75
3.25390625,-0.00016014335565575635,0.0002861312286533915,0.0003730296742076754,0.00018602399114518974,3.25,2.75
3.2578125,-0.00014353964741130684,0.0003051598771053637,0.0004125704639444573,0.0002045676515556574,3.25,2.75
3.26171875,-0.0001132706878797588,0.0002841627477790495,0.00039208685136797144,0.0001982342783077746,3.25,2.75
3.265625,-0.00011620914483710985,0.00029588804690012984,0.0003549710018387123,0.0001938408572259099,3.25,2.75
3.26953125,-0.0001093622548393987,0.0003207936092668041,0.00037499815508201735,0.00019335586918440542,3.25,2.75
3.2734375,-9.56970035523002e-05,0.00032518703034866873,0.00039208685136797144,0.0001796620891889831,3.25,2.75
3.27734375,-8.300172834821078e-05,0.000330065439472038,0.00041796238981765485,0.00018260054614633415,3.25,2.75
3.28125,-7.566985030899509e-05,0.00032470204230716424,0.00040426860982223253,0.00019041741222705437,3.25,2.75
3.28515625,-7.372989814297693e-05,0.00033200539163805615,0.00036327285596093705,0.00019432584526741446,3.25,2.75
3.2890625,-7.321638139314859e-05,0.0003266419944731824,0.000376453119206531,0.00018405551027084776,3.25,2.75
3.29296875,-6.930794835278849e-05,0.00032567201839017333,0.00039305682745098054,0.0001684503068177311,3.25,2.75
3.296875,-5.421626164950016e-05,0.00032176358534981325,0.00036960622920881986,0.00016893529485923566,3.25,2.75
3.30078125,-5.373127360799561e-05,0.0003002814679819945,0.0003378823055527582,0.00017136023506675833,3.25,2.75
3.3046875,-4.4459443402761775e-05,0.0002895261449439232,0.00033103541555504706,0.00014648320140840784,3.25,2.75
3.30859375,-2.97956873243304e-05,0.00027489091757381567,0.00032470204230716424,0.0001371828424948502,3.25,2.75
3.3125,-3.418910840619505e-05,0.00025731723324635703,0.00031052327427023743,0.00015036310574044413,3.25,2.75
3.31640625,-1.9553881036087473e-05,0.000254378776289006,0.0002929495899427788,0.00015184659857328157,3.25,2.75
3.3203125,-5.375112999160641e-06,0.00025486376433051053,0.00029343457798428334,0.0001371828424948502,3.25,2.75
3.32421875,-1.710041212024098e-05,0.0002460769221667812,0.0002656190873685818,0.00011815419404287796,3.25,2.75
3.328125,-3.0280675365834944e-05,0.0002206863717586024,0.00022653475696498066,0.00011863918208438252,3.25,2.75
3.33203125,-2.346231407644759e-05,0.0002016577233066302,0.0002245948047989625,0.00012009414620889614,3.25,2.75
3.3359375,-3.920148874647026e-06,0.00020605114438849482,0.0002280182497978181,0.00011130730404516682,3.25,2.75
3.33984375,5.836669372091364e-06,0.00019871926634927915,0.00022556478088197162,0.00010009552167391481,3.25,2.75
3.34375,8.29013828793785e-06,0.00018405551027084776,0.0002016577233066302,8.885521059433901e-05,3.25,2.75
3.34765625,-4.405136916151562e-06,0.0001821155581048296,0.00016990527094224472,7.567494734874506e-05,3.25,2.75
3.3515625,4.7327220721763295e-07,0.00018357052222934322,0.00016014845269550634,7.518995930724051e-05,3.25,2.75
3.35546875,1.5622016327153544e-05,0.00018163057006332508,0.00017917710114747856,8.200832059662786e-05,3.25,2.75
3.359375,1.9530449367513653e-05,0.00017381370398260483,0.00018796394331120788,7.664492343175414e-05,3.25,2.75
3.36328125,2.0985413492027276e-05,0.00016893529485923566,0.0001694202829007402,7.273649039139403e-05,3.25,2.75
3.3671875,-1.4666799588005262e-06,0.00016990527094224472,0.00013866633532768762,7.176651430838495e-05,3.25,2.75
3.37109375,2.4132243732357918e-06,0.00016063344073701088,0.00012939450512245378,7.176651430838495e-05,3.25,2.75
3.375,2.780377478141463e-05,0.00015917847661249724,0.00012206262708323808,6.834306930952937e-05,3.25,2.75
3.37890625,2.977225565575658e-05,0.00016063344073701088,0.00011179229208667138,5.9071239104295524e-05,3.25,2.75
3.3828125,3.074223173876565e-05,0.0001508766224902725,0.00011766920600137342,5.222434910658438e-05,3.25,2.75
3.38671875,2.977225565575658e-05,0.00015184659857328157,0.00010936735187914865,5.125437302357531e-05,3.25,2.75
3.390625,2.24403776165409e-05,0.00015427153878080427,8.397680147096983e-05,5.1739361065079847e-05,3.25,2.75
3.39453125,2.8802279572747507e-05,0.00013572787837033657,7.858487559777231e-05,4.5890975858701575e-05,3.25,2.75
3.3984375,3.904408586099042e-05,0.00011179229208667138,8.934019863584355e-05,4.734593998321519e-05,3.25,2.75
3.40234375,3.074223173876565e-05,0.00010739887100480672,8.640174167849252e-05,5.955622714580008e-05,3.25,2.75
3.40625,1.7076980451667168e-05,0.00011082231600366227,6.834306930952937e-05,5.9071239104295524e-05,3.25,2.75
3.41015625,3.61056289036394e-05,0.00012109265100022901,8.349181342946528e-05,4.4920999775692495e-05,3.25,2.75
3.4140625,3.513565282063031e-05,0.00011960915816739159,9.031017471885263e-05,4.1497554776836916e-05,3.25,2.75
3.41796875,2.731878673991008e-05,0.00010349043796444661,5.028439694056622e-05,6.200969606164656e-05,3.25,2.75
3.421875,3.8074109777981344e-05,9.276364363469915e-05,2.6833798698405545e-05,6.588960039368288e-05,3.25,2.75
3.42578125,3.61056289036394e-05,8.640174167849252e-05,3.319570065461215e-05,5.858625106279099e-05,3.25,2.75
3.4296875,3.12272197802702e-05,8.200832059662786e-05,2.0985413492027276e-05,6.1011191270313684e-05,3.25,2.75
3.43359375,3.074223173876565e-05,8.10383445136188e-05,7.805150246433314e-06,5.613278214694449e-05,3.25,2.75
3.4375,3.710413369497226e-05,7.419145451590765e-05,2.050042545052274e-05,4.5890975858701575e-05,3.25,2.75
3.44140625,2.9287267614252044e-05,7.079653822537588e-05,3.710413369497226e-05,4.880090410772881e-05,3.25,2.75
3.4453125,3.171220782177474e-05,7.322147843289857e-05,8.7751263294424e-06,5.222434910658438e-05,3.25,2.75
3.44921875,4.7830928024719735e-05,6.834306930952937e-05,9.745102412451472e-06,4.880090410772881e-05,3.25,2.75
3.453125,3.904408586099042e-05,7.079653822537588e-05,3.3680688696116685e-05,4.979940889906169e-05,3.25,2.75
3.45703125,2.977225565575658e-05,6.1011191270313684e-05,3.222572457160308e-05,4.979940889906169e-05,3.25,2.75
3.4609375,1.3168547411307046e-05,5.419282998092633e-05,1.804695653467624e-05,5.076938498207076e-05,3.25,2.75
3.46484375,1.0230090453956008e-05,6.004121518730461e-05,-3.920148874647026e-06,5.419282998092633e-05,3.25,2.75
3.46875,2.586382261539647e-05,4.3922494984359616e-05,-7.828581915007134e-06,5.270933714808892e-05,3.25,2.75
3.47265625,3.710413369497226e-05,4.1982542818341456e-05,-1.1252026913862713e-05,4.540598781719703e-05,3.25,2.75
3.4765625,3.222572457160308e-05,5.613278214694449e-05,-5.860101040665185e-06,4.5890975858701575e-05,3.25,2.75
3.48046875,2.195538957503635e-05,6.834306930952937e-05,6.321657413595901e-06,4.295251890135054e-05,3.25,2.75
3.484375,4.3922494984359616e-05,5.761627497978192e-05,-4.967038757914536e-07,3.222572457160308e-05,3.25,2.75
3.48828125,5.076938498207076e-05,3.0257243697261117e-05,-2.785573515831224e-05,4.9314420857557153e-05,3.25,2.75
3.4921875,4.9314420857557153e-05,3.3680688696116685e-05,-2.8340723199816784e-05,6.1011191270313684e-05,3.25,2.75
3.49609375,4.101256673533238e-05,4.0499049985504044e-05,-1.270699103837633e-05,6.394964822766474e-05,3.25,2.75
3.5,2.9287267614252044e-05,4.4920999775692495e-05,-1.0282050830853635e-05,5.858625106279099e-05,3.25,2.75
3.50390625,5.3194325189593467e-05,6.1011191270313684e-05,1.9282363317312416e-06,3.904408586099042e-05,3.25,2.75
3.5078125,5.710275822995358e-05,5.3194325189593467e-05,-2.9501727916379465e-06,3.8074109777981344e-05,3.25,2.75
3.51171875,5.1739361065079847e-05,3.758912173647681e-05,-1.270699103837633e-05,4.540598781719703e-05,3.25,2.75
3.515625,5.3194325189593467e-05,4.686095194171065e-05,4.381705247577742e-06,4.295251890135054e-05,3.25,2.75
3.51953125,5.467781802243088e-05,5.3194325189593467e-05,1.1228595245288886e-05,4.3922494984359616e-05,3.25,2.75
3.5234375,5.661777018844904e-05,5.076938498207076e-05,1.2683559369802509e-05,4.3437506942855076e-05,3.25,2.75
3.52734375,5.564779410543995e-05,4.9314420857557153e-05,4.381705247577742e-06,4.4920999775692495e-05,3.25,2.75
3.53125,5.9071239104295524e-05,5.419282998092633e-05,-4.8901249576561056e-06,5.028439694056622e-05,3.25,2.75
3.53515625,3.465066477912577e-05,5.810126302128645e-05,9.745102412451472e-06,4.7830928024719735e-05,3.25,2.75
3.5390625,2.6833798698405545e-05,4.734593998321519e-05,3.222572457160308e-05,4.8315916066224275e-05,3.25,2.75
3.54296875,4.1497554776836916e-05,3.61056289036394e-05,3.222572457160308e-05,5.222434910658438e-05,3.25,2.75
3.546875,4.1982542818341456e-05,2.731878673991008e-05,1.610700436865808e-05,5.1739361065079847e-05,3.25,2.75
3.55078125,4.5890975858701575e-05,2.1470401533531813e-05,4.7327220721763295e-07,5.125437302357531e-05,3.25,2.75
3.5546875,3.8559097819485884e-05,3.3680688696116685e-05,1.6591992410162618e-05,5.1739361065079847e-05,3.25,2.75
3.55859375,3.271071261310762e-05,4.440748302586415e-05,3.222572457160308e-05,5.419282998092633e-05,3.25,2.75
3.5625,2.780377478141463e-05,4.3922494984359616e-05,2.3410353699549973e-05,5.613278214694449e-05,3.25,2.75
3.56640625,2.731878673991008e-05,4.5890975858701575e-05,1.610700436865808e-05,4.3922494984359616e-05,3.25,2.75
3.5703125,2.731878673991008e-05,3.8559097819485884e-05,1.9282363317312416e-06,4.3437506942855076e-05,3.25,2.75
3.57421875,2.2925365658045436e-05,2.586382261539647e-05,-9.816919172959898e-07,6.149617931181822e-05,3.25,2.75
3.578125,1.8531944576180777e-05,2.6833798698405545e-05,1.4432482902267055e-06,7.225150234988948e-05,3.25,2.75
3.58203125,1.0715078495460559e-05,1.804695653467624e-05,2.9267411230641188e-06,6.9798033434043e-05,3.25,2.75
3.5859375,1.7076980451667168e-05,2.050042545052274e-05,1.9282363317312416e-06,6.297967214465563e-05,3.25,2.75
3.58984375,2.24403776165409e-05,2.24403776165409e-05,5.836669372091364e-06,6.052620322880915e-05,3.25,2.75
3.59375,2.195538957503635e-05,1.3168547411307046e-05,1.9016932617685314e-05,6.149617931181822e-05,3.25,2.75
3.59765625,3.513565282063031e-05,1.6591992410162618e-05,1.7076980451667168e-05,6.9798033434043e-05,3.25,2.75
3.6015625,3.513565282063031e-05,1.365353545281158e-05,1.1713583286793422e-05,8.200832059662786e-05,3.25,2.75
3.60546875,2.4408858490882848e-05,1.0715078495460559e-05,3.411729164568669e-06,7.958338038910517e-05,3.25,2.75
3.609375,1.5108499577325204e-05,2.8317291531242957e-05,2.4132243732357918e-06,7.470497126573599e-05,3.25,2.75
3.61328125,2.2925365658045436e-05,4.0499049985504044e-05,1.6591992410162618e-05,7.664492343175414e-05,3.25,2.75
3.6171875,3.416567673762124e-05,3.904408586099042e-05,1.2198571328297972e-05,7.419145451590765e-05,3.25,2.75
3.62109375,3.171220782177474e-05,2.8802279572747507e-05,1.7076980451667168e-05,7.225150234988948e-05,3.25,2.75
3.625,2.780377478141463e-05,2.537883457389192e-05,1.7561968493171704e-05,7.12815262668804e-05,3.25,2.75
3.62890625,1.2683559369802509e-05,2.4893846532387385e-05,-8.798557998016214e-06,6.688810518501574e-05,3.25,2.75
3.6328125,1.804695653467624e-05,1.8531944576180777e-05,-1.171583428691747e-08,6.9798033434043e-05,3.25,2.75
3.63671875,3.5620640862134845e-05,2.0985413492027276e-05,3.0257243697261117e-05,7.176651430838495e-05,3.25,2.75
3.640625,3.8074109777981344e-05,2.24403776165409e-05,2.977225565575658e-05,7.176651430838495e-05,3.25,2.75
3.64453125,3.904408586099042e-05,2.392387044937831e-05,1.3168547411307046e-05,7.176651430838495e-05,3.25,2.75
3.6484375,2.6833798698405545e-05,1.804695653467624e-05,-1.171583428691747e-08,7.031155018387133e-05,3.25,2.75
3.65234375,2.731878673991008e-05,2.001543740901819e-05,7.805150246433314e-06,7.370646647440309e-05,3.25,2.75
3.65625,3.3680688696116685e-05,2.977225565575658e-05,2.977225565575658e-05,6.588960039368288e-05,3.25,2.75
3.66015625,2.780377478141463e-05,1.8531944576180777e-05,3.222572457160308e-05,6.052620322880915e-05,3.25,2.75
3.6640625,2.392387044937831e-05,1.8531944576180777e-05,1.6591992410162618e-05,7.225150234988948e-05,3.25,2.75
3.66796875,2.731878673991008e-05,2.3410353699549973e-05,-1.0282050830853635e-05,7.419145451590765e-05,3.25,2.75
3.671875,2.8802279572747507e-05,1.7561968493171704e-05,-9.283546039520758e-06,7.225150234988948e-05,3.25,2.75
3.67578125,2.3410353699549973e-05,3.222572457160308e-05,1.9530449367513653e-05,7.176651430838495e-05,3.25,2.75
3.6796875,2.6348810656901008e-05,3.513565282063031e-05,2.8802279572747507e-05,6.834306930952937e-05,3.25,2.75
3.68359375,2.4893846532387385e-05,1.804695653467624e-05,2.392387044937831e-05,6.297967214465563e-05,3.25,2.75
3.6875,1.8531944576180777e-05,1.9530449367513653e-05,8.7751263294424e-06,5.1739361065079847e-05,3.25,2.75
3.69140625,3.271071261310762e-05,2.731878673991008e-05,-4.967038757914536e-07,5.710275822995358e-05,3.25,2.75
3.6953125,4.734593998321519e-05,2.24403776165409e-05,1.1713583286793422e-05,6.9798033434043e-05,3.25,2.75
3.69921875,4.8315916066224275e-05,2.392387044937831e-05,9.745102412451472e-06,6.785808126802485e-05,3.25,2.75
3.703125,2.780377478141463e-05,2.392387044937831e-05,9.260114370946937e-06,6.640311714351122e-05,3.25,2.75
3.70703125,1.804695653467624e-05,1.9530449367513653e-05,1.9530449367513653e-05,6.640311714351122e-05,3.25,2.75
3.7109375,2.6833798698405545e-05,2.3410353699549973e-05,1.804695653467624e-05,6.149617931181822e-05,3.25,2.75
3.71484375,3.0257243697261117e-05,1.4623511535820667e-05,1.1228595245288886e-05,6.004121518730461e-05,3.25,2.75
3.71875,2.8802279572747507e-05,6.835174163424241e-06,3.6619145653467724e-05,5.9071239104295524e-05,3.25,2.75
3.72265625,3.411729164568669e-06,1.8531944576180777e-05,5.467781802243088e-05,5.564779410543995e-05,3.25,2.75
3.7265625,2.9267411230641188e-06,4.9314420857557153e-05,3.952907390249497e-05,5.370784193942179e-05,3.25,2.75
3.73046875,4.8315916066224275e-05,6.346466018616019e-05,2.24403776165409e-05,4.8315916066224275e-05,3.25,2.75
3.734375,6.588960039368288e-05,3.12272197802702e-05,-3.920148874647026e-06,4.9314420857557153e-05,3.25,2.75
3.73828125,5.564779410543995e-05,2.977225565575658e-05,9.58260248722169e-07,5.028439694056622e-05,3.25,2.75
3.7421875,5.125437302357531e-05,6.688810518501574e-05,3.171220782177474e-05,4.0014061943999504e-05,3.25,2.75
3.74609375,6.737309322652029e-05,6.9798033434043e-05,1.9530449367513653e-05,3.222572457160308e-05,3.25,2.75
3.75,7.761489951476323e-05,6.346466018616019e-05,1.0230090453956008e-05,1.7076980451667168e-05,3.25,2.75
3.75390625,8.349181342946528e-05,6.49196243106738e-05,2.392387044937831e-05,1.9282363317312416e-06,3.25,2.75
3.7578125,7.909839234760065e-05,5.955622714580008e-05,2.1470401533531813e-05,2.001543740901819e-05,3.25,2.75
3.76171875,7.419145451590765e-05,5.858625106279099e-05,2.392387044937831e-05,2.977225565575658e-05,3.25,2.75
3.765625,8.055335647211424e-05,6.443463626916926e-05,2.2925365658045436e-05,2.195538957503635e-05,3.25,2.75
3.76953125,6.834306930952937e-05,6.588960039368288e-05,1.2683559369802509e-05,2.1470401533531813e-05,3.25,2.75
3.7734375,7.225150234988948e-05,7.273649039139403e-05,2.731878673991008e-05,2.392387044937831e-05,3.25,2.75
3.77734375,7.273649039139403e-05,7.567494734874506e-05,4.880090410772881e-05,2.8802279572747507e-05,3.25,2.75
3.78125,6.149617931181822e-05,7.079653822537588e-05,5.419282998092633e-05,2.6348810656901008e-05,3.25,2.75
3.78515625,6.688810518501574e-05,7.664492343175414e-05,5.028439694056622e-05,2.8317291531242957e-05,3.25,2.75
3.7890625,6.9798033434043e-05,7.370646647440309e-05,3.952907390249497e-05,3.12272197802702e-05,3.25,2.75
3.79296875,7.809988755626775e-05,8.006836843060972e-05,3.465066477912577e-05,3.271071261310762e-05,3.25,2.75
3.796875,7.079653822537588e-05,8.200832059662786e-05,5.516280606393542e-05,3.5620640862134845e-05,3.25,2.75
3.80078125,6.785808126802485e-05,7.12815262668804e-05,5.3194325189593467e-05,4.1497554776836916e-05,3.25,2.75
3.8046875,6.9798033434043e-05,7.370646647440309e-05,2.6348810656901008e-05,4.3922494984359616e-05,3.25,2.75
3.80859375,5.370784193942179e-05,7.176651430838495e-05,3.12272197802702e-05,4.0014061943999504e-05,3.25,2.75
3.8125,5.661777018844904e-05,6.49196243106738e-05,4.686095194171065e-05,4.295251890135054e-05,3.25,2.75
3.81640625,4.880090410772881e-05,4.9314420857557153e-05,5.222434910658438e-05,5.661777018844904e-05,3.25,2.75
3.8203125,4.295251890135054e-05,4.5890975858701575e-05,4.3922494984359616e-05,6.640311714351122e-05,3.25,2.75
3.82421875,4.979940889906169e-05,5.661777018844904e-05,3.0257243697261117e-05,6.588960039368288e-05,3.25,2.75
3.828125,5.3194325189593467e-05,5.761627497978192e-05,2.8317291531242957e-05,6.834306930952937e-05,3.25,2.75
3.83203125,6.052620322880915e-05,5.710275822995358e-05,2.9287267614252044e-05,6.149617931181822e-05,3.25,2.75
3.8359375,4.880090410772881e-05,6.149617931181822e-05,3.710413369497226e-05,5.270933714808892e-05,3.25,2.75
3.83984375,4.0499049985504044e-05,5.810126302128645e-05,5.028439694056622e-05,6.394964822766474e-05,3.25,2.75
3.84375,4.686095194171065e-05,5.516280606393542e-05,4.9314420857557153e-05,6.443463626916926e-05,3.25,2.75
3.84765625,5.222434910658438e-05,5.661777018844904e-05,4.6375963900206115e-05,6.052620322880915e-05,3.25,2.75
3.8515625,5.516280606393542e-05,5.516280606393542e-05,4.880090410772881e-05,6.785808126802485e-05,3.25,2.75
3.85546875,5.710275822995358e-05,5.810126302128645e-05,5.125437302357531e-05,6.688810518501574e-05,3.25,2.75
3.859375,4.1497554776836916e-05,5.419282998092633e-05,3.222572457160308e-05,6.200969606164656e-05,3.25,2.75
3.86328125,2.3410353699549973e-05,5.028439694056622e-05,1.8531944576180777e-05,6.688810518501574e-05,3.25,2.75
3.8671875,3.465066477912577e-05,6.052620322880915e-05,2.4893846532387385e-05,6.200969606164656e-05,3.25,2.75
3.87109375,3.5620640862134845e-05,5.661777018844904e-05,2.731878673991008e-05,5.9071239104295524e-05,3.25,2.75
3.875,3.271071261310762e-05,6.24946841031511e-05,4.246753085984599e-05,6.297967214465563e-05,3.25,2.75
3.87890625,5.564779410543995e-05,6.200969606164656e-05,4.540598781719703e-05,6.443463626916926e-05,3.25,2.75
3.8828125,6.834306930952937e-05,5.1739361065079847e-05,3.3680688696116685e-05,6.540461235217834e-05,3.25,2.75
3.88671875,6.588960039368288e-05,5.125437302357531e-05,2.050042545052274e-05,5.9071239104295524e-05,3.25,2.75
3.890625,5.9071239104295524e-05,4.101256673533238e-05,1.6591992410162618e-05,5.370784193942179e-05,3.25,2.75
3.89453125,6.394964822766474e-05,4.686095194171065e-05,2.586382261539647e-05,5.222434910658438e-05,3.25,2.75
3.8984375,6.540461235217834e-05,5.810126302128645e-05,2.6348810656901008e-05,5.028439694056622e-05,3.25,2.75
3.90234375,6.24946841031511e-05,4.440748302586415e-05,2.6833798698405545e-05,5.270933714808892e-05,3.25,2.75
3.90625,6.931304539253846e-05,3.6619145653467724e-05,2.050042545052274e-05,5.3194325189593467e-05,3.25,2.75
3.91015625,5.125437302357531e-05,4.0014061943999504e-05,1.3168547411307046e-05,5.613278214694449e-05,3.25,2.75
3.9140625,6.588960039368288e-05,4.101256673533238e-05,1.0230090453956008e-05,6.588960039368288e-05,3.25,2.75
3.91796875,8.49467775539789e-05,4.101256673533238e-05,2.001543740901819e-05,6.640311714351122e-05,3.25,2.75
3.921875,6.443463626916926e-05,3.5620640862134845e-05,2.586382261539647e-05,5.810126302128645e-05,3.25,2.75
3.92578125,5.858625106279099e-05,2.4408858490882848e-05,5.3516813305868284e-06,5.125437302357531e-05,3.25,2.75
3.9296875,6.1011191270313684e-05,2.4408858490882848e-05,-7.828581915007134e-06,5.467781802243088e-05,3.25,2.75
3.93359375,7.322147843289857e-05,3.0257243697261117e-05,-9.816919172959898e-07,5.810126302128645e-05,3.25,2.75
3.9375,6.931304539253846e-05,2.731878673991008e-05,1.2198571328297972e-05,6.24946841031511e-05,3.25,2.75
3.94140625,6.346466018616019e-05,1.9016932617685314e-05,2.2925365658045436e-05,7.273649039139403e-05,3.25,2.75
3.9453125,7.12815262668804e-05,2.780377478141463e-05,1.1713583286793422e-05,7.61599353902496e-05,3.25,2.75
3.94921875,6.200969606164656e-05,2.977225565575658e-05,-4.405136916151562e-06,7.470497126573599e-05,3.25,2.75
3.953125,7.225150234988948e-05,2.050042545052274e-05,-3.4351608331424827e-06,7.079653822537588e-05,3.25,2.75
3.95703125,8.249330863813241e-05,1.6591992410162618e-05,8.7751263294424e-06,6.443463626916926e-05,3.25,2.75
3.9609375,7.809988755626775e-05,9.58260248722169e-07,7.805150246433314e-06,6.1011191270313684e-05,3.25,2.75
3.96484375,7.225150234988948e-05,-2.9501727916379465e-06,5.836669372091364e-06,6.540461235217834e-05,3.25,2.75
3.96875,6.443463626916926e-05,-1.4666799588005262e-06,1.9282363317312416e-06,6.540461235217834e-05,3.25,2.75
3.97265625,7.273649039139403e-05,1.0230090453956008e-05,-3.4351608331424827e-06,6.394964822766474e-05,3.25,2.75
3.9765625,7.273649039139403e-05,2.195538957503635e-05,8.7751263294424e-06,6.737309322652029e-05,3.25,2.75
3.98046875,6.200969606164656e-05,1.0715078495460559e-05,1.7076980451667168e-05,6.394964822766474e-05,3.25,2.75
3.984375,6.49196243106738e-05,1.5622016327153544e-05,2.586382261539647e-05,6.443463626916926e-05,3.25,2.75
3.98828125,8.152333255512334e-05,3.8074109777981344e-05,2.1470401533531813e-05,6.540461235217834e-05,3.25,2.75
3.9921875,8.349181342946528e-05,2.586382261539647e-05,9.58260248722169e-07,6.200969606164656e-05,3.25,2.75
3.99609375,7.858487559777231e-05,1.8531944576180777e-05,1.0715078495460559e-05,6.49196243106738e-05,3.25,2.75
4.0,9.22786555931946e-05,3.465066477912577e-05,1.7561968493171704e-05,5.9071239104295524e-05,3.25,2.75
4.00390625,8.49467775539789e-05,5.419282998092633e-05,1.9530449367513653e-05,5.810126302128645e-05,3.25,2.75
4.0078125,7.470497126573599e-05,5.810126302128645e-05,3.12272197802702e-05,8.300682538796076e-05,3.25,2.75
4.01171875,8.249330863813241e-05,3.465066477912577e-05,3.904408586099042e-05,8.934019863584355e-05,3.25,2.75
4.015625,8.055335647211424e-05,2.9287267614252044e-05,3.12272197802702e-05,7.322147843289857e-05,3.25,2.75
4.01953125,7.225150234988948e-05,3.222572457160308e-05,6.835174163424241e-06,8.055335647211424e-05,3.25,2.75
4.0234375,5.1739361065079847e-05,8.7751263294424e-06,-1.5160459954222821e-05,0.00010009552167391481,3.25,2.75
4.02734375,4.0014061943999504e-05,-1.3191979079880866e-05,-2.1493833202105633e-05,0.00011179229208667138,3.25,2.75
4.03125,3.513565282063031e-05,-6.858605831998055e-06,-7.3435938735025984e-06,0.0001137607729610133,3.25,2.75
4.03515625,3.61056289036394e-05,-1.5645447995727365e-05,9.58260248722169e-07,0.00012157763904173356,3.25,2.75
4.0390625,2.1470401533531813e-05,-3.3704120364690506e-05,-1.6615424078736445e-05,0.00012400257924925626,3.25,2.75
4.04296875,4.381705247577742e-06,-4.2490962528419816e-05,-4.297595056992436e-05,0.00011667070121004056,3.25,2.75
4.046875,-1.4666799588005262e-06,-7.224640531013952e-05,-5.324628556649108e-05,0.0001332744094544901,3.25,2.75
4.05078125,-1.173701495536725e-05,-7.372989814297693e-05,-2.9310699282825864e-05,0.000148423153574426,3.25,2.75
4.0546875,1.0230090453956008e-05,-3.567260123903247e-05,1.6591992410162618e-05,0.00013378792620431844,3.25,2.75
4.05859375,2.8317291531242957e-05,-1.9068892994582937e-05,3.6619145653467724e-05,0.00012157763904173356,3.25,2.75
4.0625,6.321657413595901e-06,-1.2222002996871793e-05,4.0499049985504044e-05,0.0001308494692469674,3.25,2.75
4.06640625,1.5108499577325204e-05,4.381705247577742e-06,4.3922494984359616e-05,0.00012645604816510274,3.25,2.75
4.0703125,2.3410353699549973e-05,2.001543740901819e-05,6.1011191270313684e-05,0.00012009414620889614,3.25,2.75
4.07421875,9.745102412451472e-06,1.804695653467624e-05,8.249330863813241e-05,0.00011863918208438252,3.25,2.75
4.078125,1.9282363317312416e-06,2.001543740901819e-05,9.421860775921275e-05,0.00011327578491950879,3.25,2.75
4.08203125,-3.4351608331424827e-06,2.6833798698405545e-05,9.421860775921275e-05,0.00010545891883878855,3.25,2.75
4.0859375,-1.4666799588005262e-06,2.9287267614252044e-05,8.349181342946528e-05,9.667207667505926e-05,3.25,2.75
4.08984375,-1.4666799588005262e-06,2.1470401533531813e-05,6.785808126802485e-05,9.276364363469915e-05,3.25,2.75
4.09375,1.3168547411307046e-05,8.7751263294424e-06,5.9071239104295524e-05,9.031017471885263e-05,3.25,2.75
4.09765625,1.4432482902267055e-06,9.745102412451472e-06,7.176651430838495e-05,8.640174167849252e-05,3.25,2.75
4.1015625,-6.858605831998055e-06,1.7561968493171704e-05,6.149617931181822e-05,8.591675363698798e-05,3.25,2.75
4.10546875,1.4623511535820667e-05,4.8666932890822774e-06,3.61056289036394e-05,8.152333255512334e-05,3.25,2.75
4.109375,1.9530449367513653e-05,8.29013828793785e-06,3.61056289036394e-05,8.152333255512334e-05,3.25,2.75
4.11328125,2.0985413492027276e-05,2.392387044937831e-05,4.8315916066224275e-05,8.982518667734811e-05,3.25,2.75
4.1171875,2.1470401533531813e-05,2.195538957503635e-05,6.640311714351122e-05,8.446178951247438e-05,3.25,2.75
4.12109375,2.195538957503635e-05,2.3410353699549973e-05,5.810126302128645e-05,6.882805735103391e-05,3.25,2.75
4.125,2.977225565575658e-05,2.731878673991008e-05,3.5620640862134845e-05,6.737309322652029e-05,3.25,2.75
4.12890625,1.7561968493171704e-05,1.3168547411307046e-05,3.319570065461215e-05,6.24946841031511e-05,3.25,2.75
4.1328125,1.365353545281158e-05,9.260114370946937e-06,2.537883457389192e-05,5.761627497978192e-05,3.25,2.75
4.13671875,2.195538957503635e-05,3.416567673762124e-05,3.465066477912577e-05,7.031155018387133e-05,3.25,2.75
4.140625,2.050042545052274e-05,2.9287267614252044e-05,3.904408586099042e-05,7.712991147325869e-05,3.25,2.75
4.14453125,2.050042545052274e-05,2.1470401533531813e-05,2.392387044937831e-05,7.470497126573599e-05,3.25,2.75
4.1484375,2.977225565575658e-05,4.295251890135054e-05,1.9530449367513653e-05,7.225150234988948e-05,3.25,2.75
4.15234375,2.977225565575658e-05,3.61056289036394e-05,2.586382261539647e-05,6.834306930952937e-05,3.25,2.75
4.15625,1.1713583286793422e-05,2.537883457389192e-05,1.5622016327153544e-05,6.443463626916926e-05,3.25,2.75
4.16015625,2.1470401533531813e-05,2.8802279572747507e-05,2.1470401533531813e-05,6.443463626916926e-05,3.25,2.75
4.1640625,4.1497554776836916e-05,2.050042545052274e-05,2.8317291531242957e-05,6.149617931181822e-05,3.25,2.75
4.16796875,4.295251890135054e-05,7.805150246433314e-06,5.836669372091364e-06,6.004121518730461e-05,3.25,2.75
4.171875,3.5620640862134845e-05,8.29013828793785e-06,1.4623511535820667e-05,6.346466018616019e-05,3.25,2.75
4.17578125,4.0014061943999504e-05,2.780377478141463e-05,3.710413369497226e-05,6.540461235217834e-05,3.25,2.75
4.1796875,3.710413369497226e-05,2.9287267614252044e-05,5.125437302357531e-05,6.297967214465563e-05,3.25,2.75
4.18359375,3.758912173647681e-05,2.586382261539647e-05,5.076938498207076e-05,6.200969606164656e-05,3.25,2.75
4.1875,4.979940889906169e-05,3.758912173647681e-05,6.835174163424241e-06,6.394964822766474e-05,3.25,2.75
4.19140625,4.3922494984359616e-05,4.3437506942855076e-05,-1.171583428691747e-08,6.394964822766474e-05,3.25,2.75
4.1953125,5.3194325189593467e-05,3.6619145653467724e-05,1.7076980451667168e-05,6.200969606164656e-05,3.25,2.75
4.19921875,5.564779410543995e-05,4.880090410772881e-05,3.0257243697261117e-05,5.3194325189593467e-05,3.25,2.75
4.203125,5.028439694056622e-05,4.3437506942855076e-05,2.780377478141463e-05,4.6375963900206115e-05,3.25,2.75
4.20703125,5.516280606393542e-05,1.610700436865808e-05,2.8317291531242957e-05,5.661777018844904e-05,3.25,2.75
4.2109375,4.4920999775692495e-05,1.9016932617685314e-05,3.8074109777981344e-05,6.640311714351122e-05,3.25,2.75
4.21484375,4.880090410772881e-05,3.465066477912577e-05,2.6833798698405545e-05,6.49196243106738e-05,3.25,2.75
4.21875,4.8315916066224275e-05,3.416567673762124e-05,3.074223173876565e-05,6.052620322880915e-05,3.25,2.75
4.22265625,4.8315916066224275e-05,4.1982542818341456e-05,1.804695653467624e-05,5.419282998092633e-05,3.25,2.75
4.2265625,4.7830928024719735e-05,4.0014061943999504e-05,2.0985413492027276e-05,5.516280606393542e-05,3.25,2.75
4.23046875,4.246753085984599e-05,3.61056289036394e-05,2.977225565575658e-05,5.613278214694449e-05,3.25,2.75
4.234375,3.758912173647681e-05,3.3680688696116685e-05,3.710413369497226e-05,5.516280606393542e-05,3.25,2.75
4.23828125,3.12272197802702e-05,4.3437506942855076e-05,5.222434910658438e-05,4.4920999775692495e-05,3.25,2.75
4.2421875,3.952907390249497e-05,5.661777018844904e-05,5.222434910658438e-05,4.3922494984359616e-05,3.25,2.75
