timestamp,TP9,AF7,AF8,TP10,Valence,Arousal
0.0,-2.3437641992828276e-05,-3.27159905851835e-05,-5.4206413229572e-05,-2.7352221446555288e-05,4.7857,6.3571
0.00390625,-2.2951633257038252e-05,-1.2701267193102949e-05,-5.273955049973298e-05,-4.1022321705958674e-05,4.7857,6.3571
0.0078125,-3.711657877470056e-05,-2.2465624521248215e-05,-6.543763328755628e-05,-5.225354176394295e-05,4.7857,6.3571
0.01171875,-5.566443943694211e-05,-4.4928064637216777e-05,-7.031539369039447e-05,-4.6880936102845824e-05,4.7857,6.3571
0.015625,-5.4692421965362036e-05,-5.127268776989397e-05,-6.982938495460442e-05,-3.906945024032961e-05,4.7857,6.3571
0.01953125,-3.027711038376442e-05,-4.4928064637216777e-05,-7.617400808728162e-05,-3.369684457923249e-05,4.7857,6.3571
0.0234375,-2.7352221446555288e-05,-3.711657877470056e-05,-6.592364202334632e-05,-3.174397311360344e-05,4.7857,6.3571
0.02734375,-3.222998184939348e-05,-4.1022321705958674e-05,-5.4692421965362036e-05,-3.174397311360344e-05,4.7857,6.3571
0.03125,-1.0262386991683854e-05,-3.466886205081256e-05,-6.592364202334632e-05,-4.248918443579768e-05,4.7857,6.3571
0.03515625,-7.814670267795861e-06,-3.321083584344245e-05,-6.592364202334632e-05,-3.662173351644162e-05,4.7857,6.3571
0.0390625,-2.930509291218435e-05,-3.662173351644162e-05,-6.592364202334632e-05,-3.222998184939348e-05,4.7857,6.3571
0.04296875,-4.1994339177538735e-05,-4.7366944838635865e-05,-6.494278802929734e-05,-5.127268776989397e-05,4.7857,6.3571
0.046875,-4.004146771190969e-05,-5.175869650568401e-05,-5.8598164896620146e-05,-4.883380756847488e-05,4.7857,6.3571
0.05078125,-3.6135724780651584e-05,-4.394721064316779e-05,-5.664529343099109e-05,-2.930509291218435e-05,4.7857,6.3571
0.0546875,-2.3932487251087223e-05,-4.248918443579768e-05,-5.4206413229572e-05,-2.2951633257038252e-05,4.7857,6.3571
0.05859375,-2.002674431982912e-05,-4.883380756847488e-05,-5.322555923552302e-05,-3.174397311360344e-05,4.7857,6.3571
0.0625,-3.321083584344245e-05,-4.5900082108796844e-05,-5.908417363241018e-05,-3.466886205081256e-05,4.7857,6.3571
0.06640625,-3.418285331502252e-05,-4.248918443579768e-05,-6.445677929350731e-05,-3.8574604982070666e-05,4.7857,6.3571
0.0703125,-1.2701267193102949e-05,-4.3461201907377756e-05,-5.8112156160830105e-05,-4.004146771190969e-05,4.7857,6.3571
0.07421875,-1.0262386991683854e-05,-4.004146771190969e-05,-4.394721064316779e-05,-3.466886205081256e-05,4.7857,6.3571
0.078125,-2.9791101647974387e-05,-4.150833044174871e-05,-5.225354176394295e-05,-2.8324238918135362e-05,4.7857,6.3571
0.08203125,-3.174397311360344e-05,-4.541407337300681e-05,-5.566443943694211e-05,-3.125796437781341e-05,4.7857,6.3571
0.0859375,-3.8574604982070666e-05,-3.466886205081256e-05,-4.3461201907377756e-05,-3.222998184939348e-05,4.7857,6.3571
0.08984375,-4.1022321705958674e-05,-1.2215258457312912e-05,-3.955545897611965e-05,-3.321083584344245e-05,4.7857,6.3571
0.09375,-2.197961578545818e-05,-3.222998184939348e-05,-6.640965075913635e-05,-4.394721064316779e-05,4.7857,6.3571
0.09765625,-1.2215258457312912e-05,-7.129624768444343e-05,-9.326384254215306e-05,-4.980582504005495e-05,4.7857,6.3571
0.1015625,-2.197961578545818e-05,-7.568799935149158e-05,-9.179697981231405e-05,-3.955545897611965e-05,4.7857,6.3571
0.10546875,-4.052747644769973e-05,-9.2291825070573e-05,-0.00011327856593423362,-2.588535871671628e-05,4.7857,6.3571
0.109375,-4.3461201907377756e-05,-0.00011229771194018465,-0.00013622701478599222,-3.174397311360344e-05,4.7857,6.3571
0.11328125,-2.2465624521248215e-05,-0.00011620345487144276,-0.00013134041786068513,-4.1022321705958674e-05,4.7857,6.3571
0.1171875,-3.8088596246280625e-05,-0.00012206206926832991,-0.00013574100605020218,-4.6880936102845824e-05,4.7857,6.3571
0.12109375,-5.9579018890669126e-05,-0.00012206206926832991,-0.0001411047751888304,-4.8347798832684845e-05,4.7857,6.3571
0.125,-2.930509291218435e-05,-0.0001206040430609598,-0.00014697222610818647,-4.248918443579768e-05,4.7857,6.3571
0.12890625,-7.814670267795861e-06,-0.00011913718033112079,-0.00014794424357976655,-4.1994339177538735e-05,4.7857,6.3571
0.1328125,-1.953189906157017e-05,-0.00011474542866407265,-0.00014159962044708936,-3.955545897611965e-05,4.7857,6.3571
0.13671875,-2.588535871671628e-05,-0.00010840080553139544,-0.00013036840038910505,-4.052747644769973e-05,4.7857,6.3571
0.140625,-2.588535871671628e-05,-0.00010107532840466928,-0.00011523143739986268,-3.760258751049059e-05,4.7857,6.3571
0.14453125,-3.125796437781341e-05,-9.2291825070573e-05,-0.00011376457467002366,-3.369684457923249e-05,4.7857,6.3571
0.1484375,-3.662173351644162e-05,-8.935809961089495e-05,-0.00011474542866407265,-3.8088596246280625e-05,4.7857,6.3571
0.15234375,-3.369684457923249e-05,-8.935809961089495e-05,-0.00011669830012970169,-4.2975193171587715e-05,4.7857,6.3571
0.15625,-3.321083584344245e-05,-8.984410834668499e-05,-0.00011669830012970169,-4.785295357442589e-05,4.7857,6.3571
0.16015625,-3.369684457923249e-05,-8.398549394979784e-05,-9.571155926604106e-05,-4.1994339177538735e-05,4.7857,6.3571
0.1640625,-3.955545897611965e-05,-7.812687955291068e-05,-9.571155926604106e-05,-3.760258751049059e-05,4.7857,6.3571
0.16796875,-4.5900082108796844e-05,-6.689565949492639e-05,-0.00010205618239871825,-4.3461201907377756e-05,4.7857,6.3571
0.171875,-4.004146771190969e-05,-5.615928469520106e-05,-9.863644820325017e-05,-4.931981630426492e-05,4.7857,6.3571
0.17578125,-2.5399349980926244e-05,-5.175869650568401e-05,-8.838608213931487e-05,-3.955545897611965e-05,4.7857,6.3571
0.1796875,-3.222998184939348e-05,-5.225354176394295e-05,-7.959374228274968e-05,-3.369684457923249e-05,4.7857,6.3571
0.18359375,-5.8598164896620146e-05,-4.4928064637216777e-05,-8.448033920805678e-05,-3.760258751049059e-05,4.7857,6.3571
0.1875,-4.5900082108796844e-05,-4.4928064637216777e-05,-8.057459627679867e-05,-3.906945024032961e-05,4.7857,6.3571
0.19140625,-2.0512753055619157e-05,-4.394721064316779e-05,-7.812687955291068e-05,-3.8574604982070666e-05,4.7857,6.3571
0.1953125,-2.8324238918135362e-05,-3.369684457923249e-05,-7.959374228274968e-05,-3.564971604486155e-05,4.7857,6.3571
0.19921875,-3.321083584344245e-05,-4.2975193171587715e-05,-7.178225642023347e-05,-3.906945024032961e-05,4.7857,6.3571
0.203125,-2.8324238918135362e-05,-4.052747644769973e-05,-5.517843070115207e-05,-3.321083584344245e-05,4.7857,6.3571
0.20703125,-3.418285331502252e-05,-2.9791101647974387e-05,-5.664529343099109e-05,-2.5399349980926244e-05,4.7857,6.3571
0.2109375,-2.930509291218435e-05,-4.1022321705958674e-05,-6.543763328755628e-05,-3.321083584344245e-05,4.7857,6.3571
0.21484375,-3.076311911955446e-05,-4.980582504005495e-05,-6.201789909208821e-05,-3.6135724780651584e-05,4.7857,6.3571
0.21875,-4.4928064637216777e-05,-4.8347798832684845e-05,-6.787651348897538e-05,-3.760258751049059e-05,4.7857,6.3571
0.22265625,-5.225354176394295e-05,-4.2975193171587715e-05,-6.884853096055545e-05,-5.322555923552302e-05,4.7857,6.3571
0.2265625,-4.883380756847488e-05,-3.955545897611965e-05,-6.787651348897538e-05,-5.7131302166781125e-05,4.7857,6.3571
0.23046875,-3.906945024032961e-05,-4.4442055901426736e-05,-7.470714535744261e-05,-4.541407337300681e-05,4.7857,6.3571
0.234375,-2.7838230182345325e-05,-4.7366944838635865e-05,-7.470714535744261e-05,-4.4928064637216777e-05,4.7857,6.3571
0.23828125,-2.441849598687726e-05,-4.3461201907377756e-05,-7.080140242618449e-05,-4.883380756847488e-05,4.7857,6.3571
0.2421875,-3.6135724780651584e-05,-4.980582504005495e-05,-6.934337621881439e-05,-3.564971604486155e-05,4.7857,6.3571
0.24609375,-3.125796437781341e-05,-3.760258751049059e-05,-7.226826515602351e-05,-2.197961578545818e-05,4.7857,6.3571
0.25,-1.4168129922941958e-05,-3.369684457923249e-05,-6.592364202334632e-05,-2.5399349980926244e-05,4.7857,6.3571
0.25390625,-2.148477052719923e-05,-4.6880936102845824e-05,-6.689565949492639e-05,-3.125796437781341e-05,4.7857,6.3571
0.2578125,-3.27159905851835e-05,-3.955545897611965e-05,-6.884853096055545e-05,-3.076311911955446e-05,4.7857,6.3571
0.26171875,-4.2975193171587715e-05,-3.369684457923249e-05,-6.494278802929734e-05,-3.466886205081256e-05,4.7857,6.3571
0.265625,-6.397077055771727e-05,-4.3461201907377756e-05,-6.397077055771727e-05,-3.222998184939348e-05,4.7857,6.3571
0.26953125,-5.225354176394295e-05,-3.564971604486155e-05,-4.980582504005495e-05,-2.4904504722667297e-05,4.7857,6.3571
0.2734375,-2.9791101647974387e-05,-3.027711038376442e-05,-6.0551036362249193e-05,-3.321083584344245e-05,4.7857,6.3571
0.27734375,-2.7352221446555288e-05,-4.1994339177538735e-05,-7.178225642023347e-05,-3.906945024032961e-05,4.7857,6.3571
0.28125,-2.588535871671628e-05,-4.1994339177538735e-05,-5.273955049973298e-05,-3.955545897611965e-05,4.7857,6.3571
0.28515625,-2.6857376188296355e-05,-2.6857376188296355e-05,-3.8574604982070666e-05,-3.711657877470056e-05,4.7857,6.3571
0.2890625,-1.514014739452203e-05,-2.2951633257038252e-05,-4.052747644769973e-05,-3.6135724780651584e-05,4.7857,6.3571
0.29296875,-2.6857376188296355e-05,-3.27159905851835e-05,-5.664529343099109e-05,-4.052747644769973e-05,4.7857,6.3571
0.296875,-4.052747644769973e-05,-5.615928469520106e-05,-7.178225642023347e-05,-3.564971604486155e-05,4.7857,6.3571
0.30078125,-3.6135724780651584e-05,-5.322555923552302e-05,-6.201789909208821e-05,-2.3437641992828276e-05,4.7857,6.3571
0.3046875,-4.883380756847488e-05,-4.052747644769973e-05,-5.9579018890669126e-05,-3.027711038376442e-05,4.7857,6.3571
0.30859375,-5.273955049973298e-05,-4.8347798832684845e-05,-7.422113662165256e-05,-3.516370730907151e-05,4.7857,6.3571
0.3125,-3.076311911955446e-05,-4.394721064316779e-05,-6.153189035629817e-05,-2.930509291218435e-05,4.7857,6.3571
0.31640625,-7.328661532005825e-06,-4.1994339177538735e-05,-4.931981630426492e-05,-3.076311911955446e-05,4.7857,6.3571
0.3203125,-1.5626156130312068e-05,-4.150833044174871e-05,-5.4206413229572e-05,-2.7838230182345325e-05,4.7857,6.3571
0.32421875,-5.273955049973298e-05,-4.394721064316779e-05,-5.615928469520106e-05,-1.1720413199053965e-05,4.7857,6.3571
0.328125,-6.494278802929734e-05,-3.369684457923249e-05,-4.2975193171587715e-05,-2.8324238918135362e-05,4.7857,6.3571
0.33203125,-2.6371367452506318e-05,-1.5626156130312068e-05,-3.564971604486155e-05,-8.49663479438468e-05,4.7857,6.3571
0.3359375,-1.0262386991683854e-05,-2.5399349980926244e-05,-4.4928064637216777e-05,-7.910773354695965e-05,4.7857,6.3571
0.33984375,-3.662173351644162e-05,-3.955545897611965e-05,-5.4692421965362036e-05,-5.4206413229572e-05,4.7857,6.3571
0.34375,-3.662173351644162e-05,-4.1022321705958674e-05,-6.298991656366828e-05,-5.030067029831389e-05,4.7857,6.3571
0.34765625,-1.5626156130312068e-05,-4.639492736705579e-05,-6.006502762645916e-05,-3.369684457923249e-05,4.7857,6.3571
0.3515625,-9.281532997634868e-06,-4.639492736705579e-05,-5.030067029831389e-05,-2.4904504722667297e-05,4.7857,6.3571
0.35546875,-4.89193141069677e-07,-3.516370730907151e-05,-4.052747644769973e-05,-1.9045890325780133e-05,4.7857,6.3571
0.359375,-3.422918600747721e-06,-3.369684457923249e-05,-4.1022321705958674e-05,-5.861798802166802e-06,4.7857,6.3571
0.36328125,-2.441849598687726e-05,-4.2975193171587715e-05,-5.0786679034103934e-05,-7.814670267795861e-06,4.7857,6.3571
0.3671875,-2.5399349980926244e-05,-4.883380756847488e-05,-6.397077055771727e-05,-3.6135724780651584e-05,4.7857,6.3571
0.37109375,-2.88102476539254e-05,-4.150833044174871e-05,-5.566443943694211e-05,-4.7366944838635865e-05,4.7857,6.3571
0.375,-4.248918443579768e-05,-3.27159905851835e-05,-4.7366944838635865e-05,-2.9791101647974387e-05,4.7857,6.3571
0.37890625,-4.394721064316779e-05,-5.175869650568401e-05,-6.543763328755628e-05,-1.7579027595941126e-05,4.7857,6.3571
0.3828125,-5.273955049973298e-05,-5.615928469520106e-05,-6.298991656366828e-05,-1.514014739452203e-05,4.7857,6.3571
0.38671875,-5.664529343099109e-05,-3.711657877470056e-05,-5.175869650568401e-05,-2.6371367452506318e-05,4.7857,6.3571
0.390625,-4.052747644769973e-05,-4.004146771190969e-05,-5.8598164896620146e-05,-3.076311911955446e-05,4.7857,6.3571
0.39453125,-2.7352221446555288e-05,-3.711657877470056e-05,-6.201789909208821e-05,-2.2465624521248215e-05,4.7857,6.3571
0.3984375,-2.8324238918135362e-05,-3.418285331502252e-05,-4.6880936102845824e-05,-3.466886205081256e-05,4.7857,6.3571
0.40234375,-4.1994339177538735e-05,-5.273955049973298e-05,-4.4928064637216777e-05,-4.980582504005495e-05,4.7857,6.3571
0.40625,-4.3461201907377756e-05,-5.761731090257116e-05,-4.150833044174871e-05,-5.566443943694211e-05,4.7857,6.3571
0.41015625,-4.1022321705958674e-05,-4.248918443579768e-05,-3.711657877470056e-05,-5.175869650568401e-05,4.7857,6.3571
0.4140625,-3.955545897611965e-05,-3.955545897611965e-05,-4.980582504005495e-05,-3.760258751049059e-05,4.7857,6.3571
0.41796875,-3.466886205081256e-05,-3.027711038376442e-05,-4.785295357442589e-05,-3.27159905851835e-05,4.7857,6.3571
0.421875,-3.516370730907151e-05,-2.6371367452506318e-05,-4.5900082108796844e-05,-2.88102476539254e-05,4.7857,6.3571
0.42578125,-4.394721064316779e-05,-3.6135724780651584e-05,-4.980582504005495e-05,-2.2465624521248215e-05,4.7857,6.3571
0.4296875,-5.225354176394295e-05,-3.516370730907151e-05,-4.150833044174871e-05,-2.0998761791409194e-05,4.7857,6.3571
0.43359375,-4.6880936102845824e-05,-3.711657877470056e-05,-4.150833044174871e-05,-2.7838230182345325e-05,4.7857,6.3571
0.4375,-3.6135724780651584e-05,-2.9791101647974387e-05,-4.4442055901426736e-05,-3.516370730907151e-05,4.7857,6.3571
0.44140625,-4.4928064637216777e-05,-3.906945024032961e-05,-5.4692421965362036e-05,-3.662173351644162e-05,4.7857,6.3571
0.4453125,-4.1994339177538735e-05,-3.906945024032961e-05,-4.931981630426492e-05,-4.1022321705958674e-05,4.7857,6.3571
0.44921875,-2.3437641992828276e-05,-3.516370730907151e-05,-3.711657877470056e-05,-4.052747644769973e-05,4.7857,6.3571
0.453125,-2.930509291218435e-05,-5.3711567971313056e-05,-5.175869650568401e-05,-4.785295357442589e-05,4.7857,6.3571
0.45703125,-5.4206413229572e-05,-4.394721064316779e-05,-4.052747644769973e-05,-5.322555923552302e-05,4.7857,6.3571
0.4609375,-5.908417363241018e-05,-9.281532997634868e-06,-2.2465624521248215e-05,-5.273955049973298e-05,4.7857,6.3571
0.46484375,-5.322555923552302e-05,-2.8324238918135362e-05,-5.4206413229572e-05,-4.785295357442589e-05,4.7857,6.3571
0.46875,-3.955545897611965e-05,-6.348476182192723e-05,-8.593836541542688e-05,-3.174397311360344e-05,4.7857,6.3571
0.47265625,-1.2215258457312912e-05,-5.615928469520106e-05,-8.203262248416877e-05,-2.6857376188296355e-05,4.7857,6.3571
0.4765625,-4.394936072327795e-06,-5.517843070115207e-05,-7.617400808728162e-05,-2.7838230182345325e-05,4.7857,6.3571
0.48046875,-1.953189906157017e-05,-6.982938495460442e-05,-6.884853096055545e-05,-2.5399349980926244e-05,4.7857,6.3571
0.484375,-3.564971604486155e-05,-7.617400808728162e-05,-7.617400808728162e-05,-3.027711038376442e-05,4.7857,6.3571
0.48828125,-5.3711567971313056e-05,-6.982938495460442e-05,-8.349948521400779e-05,-2.3932487251087223e-05,4.7857,6.3571
0.4921875,-6.103704509803923e-05,-5.9579018890669126e-05,-6.445677929350731e-05,-2.0512753055619157e-05,4.7857,6.3571
0.49609375,-4.883380756847488e-05,-6.445677929350731e-05,-5.9579018890669126e-05,-2.4904504722667297e-05,4.7857,6.3571
0.5,-3.369684457923249e-05,-7.226826515602351e-05,-6.298991656366828e-05,-2.5399349980926244e-05,4.7857,6.3571
0.50390625,-1.8559881589990096e-05,-6.250390782787825e-05,-6.250390782787825e-05,-3.321083584344245e-05,4.7857,6.3571
0.5078125,-2.588535871671628e-05,-4.052747644769973e-05,-4.883380756847488e-05,-2.7352221446555288e-05,4.7857,6.3571
0.51171875,-4.5900082108796844e-05,-4.052747644769973e-05,-4.7366944838635865e-05,-2.7352221446555288e-05,4.7857,6.3571
0.515625,-5.273955049973298e-05,-6.494278802929734e-05,-7.666885334554057e-05,-2.6857376188296355e-05,4.7857,6.3571
0.51953125,-5.3711567971313056e-05,-6.201789909208821e-05,-8.007975101853972e-05,-2.2951633257038252e-05,4.7857,6.3571
0.5234375,-4.150833044174871e-05,-5.175869650568401e-05,-7.324911915007249e-05,-3.027711038376442e-05,4.7857,6.3571
0.52734375,-2.7838230182345325e-05,-5.761731090257116e-05,-8.007975101853972e-05,-3.418285331502252e-05,4.7857,6.3571
0.53125,-2.930509291218435e-05,-5.0786679034103934e-05,-7.520199061570156e-05,-3.516370730907151e-05,4.7857,6.3571
0.53515625,-2.2951633257038252e-05,-4.052747644769973e-05,-6.201789909208821e-05,-2.7838230182345325e-05,4.7857,6.3571
0.5390625,-1.953189906157017e-05,-3.8088596246280625e-05,-5.664529343099109e-05,-3.8088596246280625e-05,4.7857,6.3571
0.54296875,-3.27159905851835e-05,-3.027711038376442e-05,-5.908417363241018e-05,-4.004146771190969e-05,4.7857,6.3571
0.546875,-4.052747644769973e-05,-3.027711038376442e-05,-6.348476182192723e-05,-2.8324238918135362e-05,4.7857,6.3571
0.55078125,-2.8324238918135362e-05,-4.3461201907377756e-05,-5.615928469520106e-05,-3.27159905851835e-05,4.7857,6.3571
0.5546875,-2.3932487251087223e-05,-5.0786679034103934e-05,-4.8347798832684845e-05,-1.953189906157017e-05,4.7857,6.3571
0.55859375,-3.711657877470056e-05,-4.6880936102845824e-05,-4.883380756847488e-05,-1.1720413199053965e-05,4.7857,6.3571
0.5625,-3.6135724780651584e-05,-3.8574604982070666e-05,-5.0786679034103934e-05,-1.660701012436105e-05,4.7857,6.3571
0.56640625,-3.6135724780651584e-05,-3.466886205081256e-05,-5.0786679034103934e-05,-2.441849598687726e-05,4.7857,6.3571
0.5703125,-5.7131302166781125e-05,-3.27159905851835e-05,-4.8347798832684845e-05,-4.1994339177538735e-05,4.7857,6.3571
0.57421875,-5.030067029831389e-05,-2.88102476539254e-05,-5.225354176394295e-05,-4.394721064316779e-05,4.7857,6.3571
0.578125,-3.516370730907151e-05,-2.441849598687726e-05,-4.4442055901426736e-05,-3.076311911955446e-05,4.7857,6.3571
0.58203125,-2.441849598687726e-05,-3.662173351644162e-05,-4.541407337300681e-05,-2.197961578545818e-05,4.7857,6.3571
0.5859375,-1.7579027595941126e-05,-4.150833044174871e-05,-5.175869650568401e-05,-2.002674431982912e-05,4.7857,6.3571
0.58984375,-2.5399349980926244e-05,-3.516370730907151e-05,-5.273955049973298e-05,-2.6857376188296355e-05,4.7857,6.3571
0.59375,-2.6857376188296355e-05,-4.2975193171587715e-05,-6.445677929350731e-05,-3.321083584344245e-05,4.7857,6.3571
0.59765625,-3.125796437781341e-05,-5.175869650568401e-05,-6.592364202334632e-05,-3.418285331502252e-05,4.7857,6.3571
0.6015625,-4.7366944838635865e-05,-4.7366944838635865e-05,-6.934337621881439e-05,-4.150833044174871e-05,4.7857,6.3571
0.60546875,-4.980582504005495e-05,-3.662173351644162e-05,-6.884853096055545e-05,-5.615928469520106e-05,4.7857,6.3571
0.609375,-5.7131302166781125e-05,-2.148477052719923e-05,-6.0551036362249193e-05,-4.6880936102845824e-05,4.7857,6.3571
0.61328125,-6.397077055771727e-05,-2.3932487251087223e-05,-5.273955049973298e-05,-2.8324238918135362e-05,4.7857,6.3571
0.6171875,-5.0786679034103934e-05,-1.3187275928892986e-05,-3.466886205081256e-05,-2.002674431982912e-05,4.7857,6.3571
0.62109375,-3.466886205081256e-05,-1.6121001388571018e-05,-2.930509291218435e-05,-1.3187275928892986e-05,4.7857,6.3571
0.625,-2.6857376188296355e-05,-4.980582504005495e-05,-4.8347798832684845e-05,-9.767541733424905e-06,4.7857,6.3571
0.62890625,-3.516370730907151e-05,-5.566443943694211e-05,-5.9579018890669126e-05,-1.470047135118662e-06,4.7857,6.3571
0.6328125,-5.175869650568401e-05,-5.9579018890669126e-05,-6.0551036362249193e-05,6.827447463187581e-06,4.7857,6.3571
0.63671875,-7.031539369039447e-05,-6.006502762645916e-05,-5.8112156160830105e-05,1.9496870603494043e-06,4.7857,6.3571
0.640625,-7.959374228274968e-05,-7.71548620813306e-05,-6.83625222247654e-05,5.855429991607508e-06,4.7857,6.3571
0.64453125,-8.057459627679867e-05,-8.154661374837875e-05,-6.298991656366828e-05,1.610579605554281e-05,4.7857,6.3571
0.6484375,-8.10606050125887e-05,-6.787651348897538e-05,-5.322555923552302e-05,2.783186137178603e-05,4.7857,6.3571
0.65234375,-9.521671400778212e-05,-7.764087081712064e-05,-5.4692421965362036e-05,2.7337016113527084e-05,4.7857,6.3571
0.65625,-0.0001064479340657664,-9.131097107652401e-05,-5.175869650568401e-05,3.2223613038834173e-05,4.7857,6.3571
0.66015625,-0.00011962318906691083,-0.00011034484047455559,-6.884853096055545e-05,4.979945622949566e-05,4.7857,6.3571
0.6640625,-0.00012499579472800794,-0.00010547591659418632,-7.373512788586254e-05,4.100711637293045e-05,4.7857,6.3571
0.66796875,-0.00011620345487144276,-0.00010693394280155643,-6.787651348897538e-05,2.8317870107576085e-05,4.7857,6.3571
0.671875,-0.00011523143739986268,-9.961730219729916e-05,-5.615928469520106e-05,2.636499864194701e-05,4.7857,6.3571
0.67578125,-0.0001206040430609598,-9.521671400778212e-05,-5.030067029831389e-05,3.8568236171511385e-05,4.7857,6.3571
0.6796875,-0.00011767031760128176,-9.277783380636302e-05,-4.785295357442589e-05,3.612935597009229e-05,4.7857,6.3571
0.68359375,-0.00011523143739986268,-8.643321067368583e-05,-5.664529343099109e-05,2.3917281918059018e-05,4.7857,6.3571
0.6875,-0.00012010919780270085,-7.568799935149158e-05,-4.394721064316779e-05,3.1737604303044147e-05,4.7857,6.3571
0.69140625,-0.00010058931966887924,-6.982938495460442e-05,-3.711657877470056e-05,2.685100737773706e-05,4.7857,6.3571
0.6953125,-8.203262248416877e-05,-7.764087081712064e-05,-5.761731090257116e-05,2.001153898680093e-05,4.7857,6.3571
0.69921875,-7.226826515602351e-05,-7.226826515602351e-05,-5.7131302166781125e-05,2.001153898680093e-05,4.7857,6.3571
0.703125,-6.884853096055545e-05,-6.0551036362249193e-05,-4.394721064316779e-05,1.5133778583962736e-05,4.7857,6.3571
0.70703125,-7.568799935149158e-05,-5.8112156160830105e-05,-3.760258751049059e-05,1.0247181658655648e-05,4.7857,6.3571
0.7109375,-7.520199061570156e-05,-5.7131302166781125e-05,-4.5900082108796844e-05,-5.375790066376766e-06,4.7857,6.3571
0.71484375,-6.640965075913635e-05,-5.8112156160830105e-05,-4.883380756847488e-05,-1.3673284664683023e-05,4.7857,6.3571
0.71875,-7.275427389181355e-05,-5.908417363241018e-05,-4.4928064637216777e-05,-6.347807537956839e-06,4.7857,6.3571
0.72265625,-7.129624768444343e-05,-5.615928469520106e-05,-4.394721064316779e-05,-4.394936072327795e-06,4.7857,6.3571
0.7265625,-6.689565949492639e-05,-5.273955049973298e-05,-4.7366944838635865e-05,-5.375790066376766e-06,4.7857,6.3571
0.73046875,-7.470714535744261e-05,-5.127268776989397e-05,-3.6135724780651584e-05,-1.1720413199053965e-05,4.7857,6.3571
0.734375,-7.812687955291068e-05,-4.931981630426492e-05,-1.7579027595941126e-05,-1.709301886015109e-05,4.7857,6.3571
0.73828125,-7.764087081712064e-05,-4.639492736705579e-05,-2.0512753055619157e-05,-1.0748395727473891e-05,4.7857,6.3571
0.7421875,-6.982938495460442e-05,-4.052747644769973e-05,-3.27159905851835e-05,3.4165497901884265e-06,4.7857,6.3571
0.74609375,-5.615928469520106e-05,-4.4442055901426736e-05,-4.1994339177538735e-05,1.46477698481727e-05,4.7857,6.3571
0.75,-4.5900082108796844e-05,-5.3711567971313056e-05,-4.5900082108796844e-05,4.828243305103968e-07,4.7857,6.3571
0.75390625,-4.004146771190969e-05,-5.8112156160830105e-05,-4.4442055901426736e-05,-8.795524261844831e-06,4.7857,6.3571
0.7578125,-3.955545897611965e-05,-6.397077055771727e-05,-4.2975193171587715e-05,-9.281532997634868e-06,4.7857,6.3571
0.76171875,-3.369684457923249e-05,-6.445677929350731e-05,-3.076311911955446e-05,-1.2701267193102949e-05,4.7857,6.3571
0.765625,-3.027711038376442e-05,-5.127268776989397e-05,-2.88102476539254e-05,-5.861798802166802e-06,4.7857,6.3571
0.76953125,-4.150833044174871e-05,-3.125796437781341e-05,-2.930509291218435e-05,-9.840383993286252e-07,4.7857,6.3571
0.7734375,-4.8347798832684845e-05,-3.174397311360344e-05,-3.711657877470056e-05,-1.514014739452203e-05,4.7857,6.3571
0.77734375,-4.785295357442589e-05,-3.8574604982070666e-05,-4.1022321705958674e-05,-2.8324238918135362e-05,4.7857,6.3571
0.78125,-4.6880936102845824e-05,-3.6135724780651584e-05,-3.8574604982070666e-05,-3.076311911955446e-05,4.7857,6.3571
0.78515625,-4.8347798832684845e-05,-4.052747644769973e-05,-4.6880936102845824e-05,-3.27159905851835e-05,4.7857,6.3571
0.7890625,-5.127268776989397e-05,-3.516370730907151e-05,-3.955545897611965e-05,-2.9791101647974387e-05,4.7857,6.3571
0.79296875,-4.639492736705579e-05,-2.6371367452506318e-05,-3.125796437781341e-05,-1.4654138658731993e-05,4.7857,6.3571
0.796875,-4.4928064637216777e-05,-2.930509291218435e-05,-3.955545897611965e-05,-1.7579027595941126e-05,4.7857,6.3571
0.80078125,-4.541407337300681e-05,-1.8559881589990096e-05,-3.27159905851835e-05,-2.930509291218435e-05,4.7857,6.3571
0.8046875,-5.8598164896620146e-05,-3.422918600747721e-06,-1.4654138658731993e-05,-2.3932487251087223e-05,4.7857,6.3571
0.80859375,-6.103704509803923e-05,-3.516370730907151e-05,-3.906945024032961e-05,-1.4654138658731993e-05,4.7857,6.3571
0.8125,-3.27159905851835e-05,-5.664529343099109e-05,-6.640965075913635e-05,-6.842652796215788e-06,4.7857,6.3571
0.81640625,-1.6121001388571018e-05,-4.394721064316779e-05,-5.4692421965362036e-05,-6.347807537956839e-06,4.7857,6.3571
0.8203125,-2.88102476539254e-05,-3.516370730907151e-05,-4.1994339177538735e-05,-1.1234404463263928e-05,4.7857,6.3571
0.82421875,-3.6135724780651584e-05,-1.2701267193102949e-05,-2.148477052719923e-05,-1.1720413199053965e-05,4.7857,6.3571
0.828125,-4.2975193171587715e-05,4.828243305103968e-07,-1.2215258457312912e-05,-1.2701267193102949e-05,4.7857,6.3571
0.83203125,-5.615928469520106e-05,-2.0998761791409194e-05,-2.7838230182345325e-05,-2.930509291218435e-05,4.7857,6.3571
0.8359375,-6.006502762645916e-05,-2.930509291218435e-05,-4.4928064637216777e-05,-3.418285331502252e-05,4.7857,6.3571
0.83984375,-5.517843070115207e-05,-1.660701012436105e-05,-4.1022321705958674e-05,-3.369684457923249e-05,4.7857,6.3571
0.84375,-5.225354176394295e-05,-1.7579027595941126e-05,-3.466886205081256e-05,-3.662173351644162e-05,4.7857,6.3571
0.84765625,-6.298991656366828e-05,-1.953189906157017e-05,-3.662173351644162e-05,-3.662173351644162e-05,4.7857,6.3571
0.8515625,-4.785295357442589e-05,-1.4654138658731993e-05,-3.6135724780651584e-05,-3.8088596246280625e-05,4.7857,6.3571
0.85546875,-2.2951633257038252e-05,-2.002674431982912e-05,-4.4442055901426736e-05,-3.8088596246280625e-05,4.7857,6.3571
0.859375,-2.930509291218435e-05,-2.4904504722667297e-05,-5.664529343099109e-05,-2.4904504722667297e-05,4.7857,6.3571
0.86328125,-4.394721064316779e-05,-2.7838230182345325e-05,-5.517843070115207e-05,-1.2701267193102949e-05,4.7857,6.3571
0.8671875,-4.4442055901426736e-05,-3.125796437781341e-05,-5.322555923552302e-05,-1.709301886015109e-05,4.7857,6.3571
0.87109375,-3.027711038376442e-05,-2.4904504722667297e-05,-5.566443943694211e-05,-2.148477052719923e-05,4.7857,6.3571
0.875,-3.125796437781341e-05,-3.27159905851835e-05,-5.8598164896620146e-05,-3.466886205081256e-05,4.7857,6.3571
0.87890625,-4.4442055901426736e-05,-4.639492736705579e-05,-5.8598164896620146e-05,-4.3461201907377756e-05,4.7857,6.3571
0.8828125,-4.7366944838635865e-05,-4.883380756847488e-05,-5.4206413229572e-05,-3.906945024032961e-05,4.7857,6.3571
0.88671875,-4.248918443579768e-05,-3.564971604486155e-05,-4.980582504005495e-05,-3.27159905851835e-05,4.7857,6.3571
0.890625,-4.394721064316779e-05,-1.7579027595941126e-05,-4.150833044174871e-05,-2.2951633257038252e-05,4.7857,6.3571
0.89453125,-3.906945024032961e-05,-2.2951633257038252e-05,-6.201789909208821e-05,-2.2951633257038252e-05,4.7857,6.3571
0.8984375,-3.6135724780651584e-05,-4.4928064637216777e-05,-7.71548620813306e-05,-2.441849598687726e-05,4.7857,6.3571
0.90234375,-7.324911915007249e-05,-3.27159905851835e-05,-7.031539369039447e-05,-1.7579027595941126e-05,4.7857,6.3571
0.90625,-9.033895360494394e-05,-3.076311911955446e-05,-6.006502762645916e-05,-1.8559881589990096e-05,4.7857,6.3571
0.91015625,-4.785295357442589e-05,-4.883380756847488e-05,-5.566443943694211e-05,-2.8324238918135362e-05,4.7857,6.3571
0.9140625,-1.1234404463263928e-05,-4.541407337300681e-05,-5.908417363241018e-05,-3.174397311360344e-05,4.7857,6.3571
0.91796875,-4.89193141069677e-07,-4.004146771190969e-05,-7.324911915007249e-05,-3.125796437781341e-05,4.7857,6.3571
0.921875,-4.889781330586729e-06,-4.541407337300681e-05,-8.154661374837875e-05,-2.88102476539254e-05,4.7857,6.3571
0.92578125,-1.6121001388571018e-05,-3.906945024032961e-05,-6.689565949492639e-05,-2.6857376188296355e-05,4.7857,6.3571
0.9296875,-3.027711038376442e-05,-3.662173351644162e-05,-5.908417363241018e-05,-2.930509291218435e-05,4.7857,6.3571
0.93359375,-3.760258751049059e-05,-2.930509291218435e-05,-5.273955049973298e-05,-2.8324238918135362e-05,4.7857,6.3571
0.9375,-4.6880936102845824e-05,-2.7838230182345325e-05,-5.225354176394295e-05,-2.3437641992828276e-05,4.7857,6.3571
0.94140625,-4.4442055901426736e-05,-3.711657877470056e-05,-6.201789909208821e-05,-3.564971604486155e-05,4.7857,6.3571
0.9453125,-4.1022321705958674e-05,-4.004146771190969e-05,-6.250390782787825e-05,-5.566443943694211e-05,4.7857,6.3571
0.94921875,-4.8347798832684845e-05,-5.761731090257116e-05,-5.517843070115207e-05,-5.127268776989397e-05,4.7857,6.3571
0.953125,-4.394721064316779e-05,-3.466886205081256e-05,-6.0551036362249193e-05,-3.076311911955446e-05,4.7857,6.3571
0.95703125,-2.3932487251087223e-05,-2.88102476539254e-05,-6.201789909208821e-05,-2.4904504722667297e-05,4.7857,6.3571
0.9609375,-1.0748395727473891e-05,-4.6880936102845824e-05,-5.225354176394295e-05,-3.222998184939348e-05,4.7857,6.3571
0.96484375,-1.953189906157017e-05,-4.052747644769973e-05,-4.8347798832684845e-05,-2.2465624521248215e-05,4.7857,6.3571
0.96875,-2.197961578545818e-05,-3.321083584344245e-05,-5.566443943694211e-05,-1.953189906157017e-05,4.7857,6.3571
0.97265625,-1.953189906157017e-05,-3.222998184939348e-05,-5.175869650568401e-05,-1.9045890325780133e-05,4.7857,6.3571
0.9765625,-2.5399349980926244e-05,-4.150833044174871e-05,-5.127268776989397e-05,-1.953189906157017e-05,4.7857,6.3571
0.98046875,-2.930509291218435e-05,-4.394721064316779e-05,-5.664529343099109e-05,-2.930509291218435e-05,4.7857,6.3571
0.984375,-3.8574604982070666e-05,-3.906945024032961e-05,-5.4206413229572e-05,-3.027711038376442e-05,4.7857,6.3571
0.98828125,-4.541407337300681e-05,-3.369684457923249e-05,-5.225354176394295e-05,-2.7352221446555288e-05,4.7857,6.3571
0.9921875,-4.3461201907377756e-05,-4.150833044174871e-05,-5.225354176394295e-05,-2.588535871671628e-05,4.7857,6.3571
0.99609375,-2.8324238918135362e-05,-2.5399349980926244e-05,-3.27159905851835e-05,-2.5399349980926244e-05,4.7857,6.3571
1.0,-1.2215258457312912e-05,-2.88102476539254e-05,-3.027711038376442e-05,-2.9791101647974387e-05,4.7857,6.3571
1.00390625,-1.956055870908699e-06,-5.517843070115207e-05,-5.7131302166781125e-05,-2.5399349980926244e-05,4.7857,6.3571
1.0078125,-5.375790066376766e-06,-4.7366944838635865e-05,-6.83625222247654e-05,-2.588535871671628e-05,4.7857,6.3571
1.01171875,-1.2215258457312912e-05,-3.955545897611965e-05,-6.640965075913635e-05,-3.321083584344245e-05,4.7857,6.3571
1.015625,-1.4168129922941958e-05,-4.639492736705579e-05,-5.664529343099109e-05,-3.076311911955446e-05,4.7857,6.3571
1.01953125,-2.588535871671628e-05,-5.664529343099109e-05,-5.273955049973298e-05,-2.8324238918135362e-05,4.7857,6.3571
1.0234375,-3.8574604982070666e-05,-4.931981630426492e-05,-4.8347798832684845e-05,-3.662173351644162e-05,4.7857,6.3571
1.02734375,-5.517843070115207e-05,-4.052747644769973e-05,-4.541407337300681e-05,-3.6135724780651584e-05,4.7857,6.3571
1.03125,-5.175869650568401e-05,-4.150833044174871e-05,-4.6880936102845824e-05,-2.930509291218435e-05,4.7857,6.3571
1.03515625,-4.052747644769973e-05,-4.4442055901426736e-05,-4.4442055901426736e-05,-2.588535871671628e-05,4.7857,6.3571
1.0390625,-4.004146771190969e-05,-5.8112156160830105e-05,-5.517843070115207e-05,-3.27159905851835e-05,4.7857,6.3571
1.04296875,-1.4168129922941958e-05,-5.9579018890669126e-05,-6.397077055771727e-05,-3.369684457923249e-05,4.7857,6.3571
1.046875,4.828243305103968e-07,-5.030067029831389e-05,-5.9579018890669126e-05,-2.930509291218435e-05,4.7857,6.3571
1.05078125,-2.3932487251087223e-05,-3.564971604486155e-05,-5.273955049973298e-05,-2.8324238918135362e-05,4.7857,6.3571
1.0546875,-5.225354176394295e-05,-3.027711038376442e-05,-4.785295357442589e-05,-3.516370730907151e-05,4.7857,6.3571
1.05859375,-5.664529343099109e-05,-4.150833044174871e-05,-4.7366944838635865e-05,-3.076311911955446e-05,4.7857,6.3571
1.0625,-5.7131302166781125e-05,-4.4442055901426736e-05,-4.6880936102845824e-05,-2.6371367452506318e-05,4.7857,6.3571
1.06640625,-4.6880936102845824e-05,-2.9791101647974387e-05,-5.175869650568401e-05,-3.662173351644162e-05,4.7857,6.3571
1.0703125,-9.840383993286252e-07,-2.2951633257038252e-05,-4.980582504005495e-05,-4.541407337300681e-05,4.7857,6.3571
1.07421875,3.2223613038834173e-05,-2.148477052719923e-05,-4.394721064316779e-05,-4.1022321705958674e-05,4.7857,6.3571
1.078125,-2.2951633257038252e-05,-2.002674431982912e-05,-2.441849598687726e-05,-3.760258751049059e-05,4.7857,6.3571
1.08203125,-1.709301886015109e-05,-2.7838230182345325e-05,-2.3437641992828276e-05,-3.076311911955446e-05,4.7857,6.3571
1.0859375,-2.3437641992828276e-05,-4.2975193171587715e-05,-3.711657877470056e-05,-2.3932487251087223e-05,4.7857,6.3571
1.08984375,-4.1022321705958674e-05,-4.4442055901426736e-05,-3.222998184939348e-05,-3.027711038376442e-05,4.7857,6.3571
1.09375,-5.7131302166781125e-05,-4.1022321705958674e-05,-3.27159905851835e-05,-4.004146771190969e-05,4.7857,6.3571
1.09765625,-5.4206413229572e-05,-3.222998184939348e-05,-3.369684457923249e-05,-2.930509291218435e-05,4.7857,6.3571
1.1015625,-4.980582504005495e-05,-3.418285331502252e-05,-2.6857376188296355e-05,-2.6371367452506318e-05,4.7857,6.3571
1.10546875,-3.711657877470056e-05,-4.248918443579768e-05,-2.7352221446555288e-05,-3.8088596246280625e-05,4.7857,6.3571
1.109375,-1.9045890325780133e-05,-3.8574604982070666e-05,-3.125796437781341e-05,-4.150833044174871e-05,4.7857,6.3571
1.11328125,-2.441849598687726e-05,-4.1022321705958674e-05,-3.564971604486155e-05,-3.662173351644162e-05,4.7857,6.3571
1.1171875,-1.7579027595941126e-05,-3.418285331502252e-05,-3.222998184939348e-05,-3.222998184939348e-05,4.7857,6.3571
1.12109375,-4.889781330586729e-06,-2.0998761791409194e-05,-2.3437641992828276e-05,-3.027711038376442e-05,4.7857,6.3571
1.125,-1.709301886015109e-05,-3.369684457923249e-05,-2.9791101647974387e-05,-3.955545897611965e-05,4.7857,6.3571
1.12890625,-3.174397311360344e-05,-3.955545897611965e-05,-4.3461201907377756e-05,-4.248918443579768e-05,4.7857,6.3571
1.1328125,-2.88102476539254e-05,-2.7838230182345325e-05,-3.466886205081256e-05,-3.222998184939348e-05,4.7857,6.3571
1.13671875,-2.197961578545818e-05,-2.002674431982912e-05,-1.6121001388571018e-05,-3.027711038376442e-05,4.7857,6.3571
1.140625,-2.7352221446555288e-05,-2.0512753055619157e-05,-2.5399349980926244e-05,-3.760258751049059e-05,4.7857,6.3571
1.14453125,-4.248918443579768e-05,-3.466886205081256e-05,-3.760258751049059e-05,-3.8088596246280625e-05,4.7857,6.3571
1.1484375,-4.052747644769973e-05,-3.321083584344245e-05,-2.588535871671628e-05,-2.6857376188296355e-05,4.7857,6.3571
1.15234375,-2.2465624521248215e-05,-2.6857376188296355e-05,-1.4168129922941958e-05,-1.8559881589990096e-05,4.7857,6.3571
1.15625,-2.2951633257038252e-05,-2.8324238918135362e-05,-2.3932487251087223e-05,-2.002674431982912e-05,4.7857,6.3571
1.16015625,-3.711657877470056e-05,-3.418285331502252e-05,-4.4928064637216777e-05,-3.760258751049059e-05,4.7857,6.3571
1.1640625,-3.906945024032961e-05,-4.394721064316779e-05,-4.7366944838635865e-05,-4.5900082108796844e-05,4.7857,6.3571
1.16796875,-3.906945024032961e-05,-4.883380756847488e-05,-3.711657877470056e-05,-3.564971604486155e-05,4.7857,6.3571
1.171875,-3.662173351644162e-05,-4.980582504005495e-05,-3.564971604486155e-05,-3.418285331502252e-05,4.7857,6.3571
1.17578125,-2.6371367452506318e-05,-3.662173351644162e-05,-2.88102476539254e-05,-2.88102476539254e-05,4.7857,6.3571
1.1796875,-2.7352221446555288e-05,-3.222998184939348e-05,-3.222998184939348e-05,-3.125796437781341e-05,4.7857,6.3571
1.18359375,-2.8324238918135362e-05,-3.418285331502252e-05,-3.760258751049059e-05,-3.662173351644162e-05,4.7857,6.3571
1.1875,-2.2951633257038252e-05,-4.7366944838635865e-05,-4.541407337300681e-05,-3.662173351644162e-05,4.7857,6.3571
1.19140625,-2.6371367452506318e-05,-5.322555923552302e-05,-4.883380756847488e-05,-4.8347798832684845e-05,4.7857,6.3571
1.1953125,-2.6857376188296355e-05,-3.906945024032961e-05,-2.930509291218435e-05,-4.248918443579768e-05,4.7857,6.3571
1.19921875,-3.27159905851835e-05,-2.9791101647974387e-05,-2.588535871671628e-05,-2.6371367452506318e-05,4.7857,6.3571
1.203125,-3.6135724780651584e-05,-3.125796437781341e-05,-4.004146771190969e-05,-3.027711038376442e-05,4.7857,6.3571
1.20703125,-2.7352221446555288e-05,-3.369684457923249e-05,-3.564971604486155e-05,-3.125796437781341e-05,4.7857,6.3571
1.2109375,-2.588535871671628e-05,-3.321083584344245e-05,-2.6371367452506318e-05,-2.5399349980926244e-05,4.7857,6.3571
1.21484375,-3.369684457923249e-05,-3.906945024032961e-05,-3.076311911955446e-05,-2.7838230182345325e-05,4.7857,6.3571
1.21875,-3.076311911955446e-05,-3.174397311360344e-05,-3.369684457923249e-05,-2.3932487251087223e-05,4.7857,6.3571
1.22265625,-2.148477052719923e-05,-2.588535871671628e-05,-3.6135724780651584e-05,-2.441849598687726e-05,4.7857,6.3571
1.2265625,-3.076311911955446e-05,-3.466886205081256e-05,-3.711657877470056e-05,-3.8088596246280625e-05,4.7857,6.3571
1.23046875,-3.369684457923249e-05,-3.955545897611965e-05,-3.6135724780651584e-05,-3.711657877470056e-05,4.7857,6.3571
1.234375,-4.1022321705958674e-05,-4.150833044174871e-05,-4.150833044174871e-05,-3.564971604486155e-05,4.7857,6.3571
1.23828125,-5.322555923552302e-05,-3.6135724780651584e-05,-3.6135724780651584e-05,-4.150833044174871e-05,4.7857,6.3571
1.2421875,-3.321083584344245e-05,-3.174397311360344e-05,-3.027711038376442e-05,-3.222998184939348e-05,4.7857,6.3571
1.24609375,-1.3187275928892986e-05,-4.1022321705958674e-05,-3.6135724780651584e-05,-3.516370730907151e-05,4.7857,6.3571
1.25,-9.767541733424905e-06,-4.541407337300681e-05,-4.1022321705958674e-05,-4.2975193171587715e-05,4.7857,6.3571
1.25390625,-1.8073872854200062e-05,-4.2975193171587715e-05,-4.883380756847488e-05,-3.564971604486155e-05,4.7857,6.3571
1.2578125,-2.88102476539254e-05,-3.8088596246280625e-05,-4.8347798832684845e-05,-3.174397311360344e-05,4.7857,6.3571
1.26171875,-3.321083584344245e-05,-3.076311911955446e-05,-3.906945024032961e-05,-2.8324238918135362e-05,4.7857,6.3571
1.265625,-3.711657877470056e-05,-3.174397311360344e-05,-3.027711038376442e-05,-2.5399349980926244e-05,4.7857,6.3571
1.26953125,-4.7366944838635865e-05,-4.004146771190969e-05,-3.8574604982070666e-05,-3.906945024032961e-05,4.7857,6.3571
1.2734375,-3.662173351644162e-05,-4.3461201907377756e-05,-3.8574604982070666e-05,-4.785295357442589e-05,4.7857,6.3571
1.27734375,-2.4904504722667297e-05,-3.906945024032961e-05,-4.1022321705958674e-05,-3.8574604982070666e-05,4.7857,6.3571
1.28125,-3.8088596246280625e-05,-3.369684457923249e-05,-4.150833044174871e-05,-2.7838230182345325e-05,4.7857,6.3571
1.28515625,-4.3461201907377756e-05,-3.906945024032961e-05,-2.9791101647974387e-05,-2.88102476539254e-05,4.7857,6.3571
1.2890625,-3.516370730907151e-05,-4.248918443579768e-05,-3.516370730907151e-05,-3.466886205081256e-05,4.7857,6.3571
1.29296875,-4.004146771190969e-05,-4.004146771190969e-05,-3.8574604982070666e-05,-4.1022321705958674e-05,4.7857,6.3571
1.296875,-4.394721064316779e-05,-3.760258751049059e-05,-3.466886205081256e-05,-4.052747644769973e-05,4.7857,6.3571
1.30078125,-3.516370730907151e-05,-2.88102476539254e-05,-2.930509291218435e-05,-2.930509291218435e-05,4.7857,6.3571
1.3046875,-3.662173351644162e-05,-2.88102476539254e-05,-3.174397311360344e-05,-2.8324238918135362e-05,4.7857,6.3571
1.30859375,-4.1022321705958674e-05,-3.027711038376442e-05,-3.564971604486155e-05,-3.906945024032961e-05,4.7857,6.3571
1.3125,-3.321083584344245e-05,-3.222998184939348e-05,-3.222998184939348e-05,-3.466886205081256e-05,4.7857,6.3571
1.31640625,-2.3932487251087223e-05,-3.711657877470056e-05,-4.004146771190969e-05,-4.1994339177538735e-05,4.7857,6.3571
1.3203125,-2.0998761791409194e-05,-4.4928064637216777e-05,-5.908417363241018e-05,-5.127268776989397e-05,4.7857,6.3571
1.32421875,-2.148477052719923e-05,-3.8574604982070666e-05,-5.030067029831389e-05,-3.222998184939348e-05,4.7857,6.3571
1.328125,-2.0512753055619157e-05,-3.418285331502252e-05,-3.321083584344245e-05,-2.0512753055619157e-05,4.7857,6.3571
1.33203125,-3.125796437781341e-05,-4.4928064637216777e-05,-3.8088596246280625e-05,-2.8324238918135362e-05,4.7857,6.3571
1.3359375,-4.785295357442589e-05,-4.4928064637216777e-05,-4.4442055901426736e-05,-3.564971604486155e-05,4.7857,6.3571
1.33984375,-4.5900082108796844e-05,-3.6135724780651584e-05,-4.394721064316779e-05,-3.516370730907151e-05,4.7857,6.3571
1.34375,-4.7366944838635865e-05,-4.1994339177538735e-05,-3.906945024032961e-05,-3.027711038376442e-05,4.7857,6.3571
1.34765625,-4.4442055901426736e-05,-4.7366944838635865e-05,-3.662173351644162e-05,-3.6135724780651584e-05,4.7857,6.3571
1.3515625,-4.004146771190969e-05,-4.1994339177538735e-05,-4.6880936102845824e-05,-4.7366944838635865e-05,4.7857,6.3571
1.35546875,-4.541407337300681e-05,-4.2975193171587715e-05,-4.980582504005495e-05,-4.7366944838635865e-05,4.7857,6.3571
1.359375,-3.906945024032961e-05,-4.1994339177538735e-05,-3.955545897611965e-05,-4.052747644769973e-05,4.7857,6.3571
1.36328125,-2.6371367452506318e-05,-3.466886205081256e-05,-3.8574604982070666e-05,-3.760258751049059e-05,4.7857,6.3571
1.3671875,-2.930509291218435e-05,-4.1994339177538735e-05,-4.3461201907377756e-05,-3.8088596246280625e-05,4.7857,6.3571
1.37109375,-5.7131302166781125e-05,-5.566443943694211e-05,-4.2975193171587715e-05,-3.418285331502252e-05,4.7857,6.3571
1.375,-6.445677929350731e-05,-4.785295357442589e-05,-4.394721064316779e-05,-3.516370730907151e-05,4.7857,6.3571
1.37890625,-4.2975193171587715e-05,-4.931981630426492e-05,-4.4928064637216777e-05,-3.711657877470056e-05,4.7857,6.3571
1.3828125,-3.516370730907151e-05,-4.785295357442589e-05,-4.394721064316779e-05,-3.076311911955446e-05,4.7857,6.3571
1.38671875,-2.0998761791409194e-05,-3.466886205081256e-05,-4.004146771190969e-05,-1.953189906157017e-05,4.7857,6.3571
1.390625,-7.814670267795861e-06,-2.8324238918135362e-05,-3.321083584344245e-05,-2.0998761791409194e-05,4.7857,6.3571
1.39453125,-1.4168129922941958e-05,-2.7838230182345325e-05,-2.9791101647974387e-05,-3.564971604486155e-05,4.7857,6.3571
1.3984375,-3.222998184939348e-05,-3.8574604982070666e-05,-3.711657877470056e-05,-4.2975193171587715e-05,4.7857,6.3571
1.40234375,-3.6135724780651584e-05,-4.2975193171587715e-05,-4.5900082108796844e-05,-3.711657877470056e-05,4.7857,6.3571
1.40625,-2.8324238918135362e-05,-3.906945024032961e-05,-4.150833044174871e-05,-2.6857376188296355e-05,4.7857,6.3571
1.41015625,-3.027711038376442e-05,-4.1022321705958674e-05,-3.906945024032961e-05,-1.953189906157017e-05,4.7857,6.3571
1.4140625,-3.027711038376442e-05,-3.955545897611965e-05,-4.2975193171587715e-05,-2.8324238918135362e-05,4.7857,6.3571
1.41796875,-2.7838230182345325e-05,-3.466886205081256e-05,-4.541407337300681e-05,-3.8088596246280625e-05,4.7857,6.3571
1.421875,-3.418285331502252e-05,-3.027711038376442e-05,-4.3461201907377756e-05,-3.466886205081256e-05,4.7857,6.3571
1.42578125,-3.955545897611965e-05,-3.369684457923249e-05,-4.1022321705958674e-05,-3.516370730907151e-05,4.7857,6.3571
1.4296875,-3.8574604982070666e-05,-4.4442055901426736e-05,-4.1994339177538735e-05,-3.321083584344245e-05,4.7857,6.3571
1.43359375,-3.174397311360344e-05,-4.4928064637216777e-05,-3.8574604982070666e-05,-3.27159905851835e-05,4.7857,6.3571
1.4375,-2.9791101647974387e-05,-4.2975193171587715e-05,-4.1994339177538735e-05,-3.711657877470056e-05,4.7857,6.3571
1.44140625,-2.9791101647974387e-05,-3.564971604486155e-05,-5.127268776989397e-05,-3.6135724780651584e-05,4.7857,6.3571
1.4453125,-2.930509291218435e-05,-3.418285331502252e-05,-4.2975193171587715e-05,-3.466886205081256e-05,4.7857,6.3571
1.44921875,-3.564971604486155e-05,-3.174397311360344e-05,-3.760258751049059e-05,-3.321083584344245e-05,4.7857,6.3571
1.453125,-3.760258751049059e-05,-3.516370730907151e-05,-3.906945024032961e-05,-3.27159905851835e-05,4.7857,6.3571
1.45703125,-3.174397311360344e-05,-3.418285331502252e-05,-3.760258751049059e-05,-3.369684457923249e-05,4.7857,6.3571
1.4609375,-3.8574604982070666e-05,-3.955545897611965e-05,-4.1994339177538735e-05,-3.760258751049059e-05,4.7857,6.3571
1.46484375,-4.3461201907377756e-05,-4.394721064316779e-05,-3.906945024032961e-05,-3.8574604982070666e-05,4.7857,6.3571
1.46875,-3.662173351644162e-05,-3.174397311360344e-05,-3.076311911955446e-05,-4.248918443579768e-05,4.7857,6.3571
1.47265625,-3.955545897611965e-05,-3.8574604982070666e-05,-3.662173351644162e-05,-4.785295357442589e-05,4.7857,6.3571
1.4765625,-3.6135724780651584e-05,-3.369684457923249e-05,-3.906945024032961e-05,-4.4442055901426736e-05,4.7857,6.3571
1.48046875,-3.516370730907151e-05,-2.7352221446555288e-05,-2.6371367452506318e-05,-3.711657877470056e-05,4.7857,6.3571
1.484375,-4.4442055901426736e-05,-3.321083584344245e-05,-3.466886205081256e-05,-3.662173351644162e-05,4.7857,6.3571
1.48828125,-3.418285331502252e-05,-3.27159905851835e-05,-4.394721064316779e-05,-2.3932487251087223e-05,4.7857,6.3571
1.4921875,-2.7352221446555288e-05,-3.076311911955446e-05,-3.711657877470056e-05,-2.002674431982912e-05,4.7857,6.3571
1.49609375,-3.711657877470056e-05,-3.125796437781341e-05,-4.248918443579768e-05,-3.174397311360344e-05,4.7857,6.3571
1.5,-4.052747644769973e-05,-3.076311911955446e-05,-4.541407337300681e-05,-3.466886205081256e-05,4.7857,6.3571
1.50390625,-3.760258751049059e-05,-3.27159905851835e-05,-3.8088596246280625e-05,-3.955545897611965e-05,4.7857,6.3571
1.5078125,-3.8088596246280625e-05,-3.711657877470056e-05,-4.004146771190969e-05,-4.7366944838635865e-05,4.7857,6.3571
1.51171875,-3.8088596246280625e-05,-4.1022321705958674e-05,-4.883380756847488e-05,-4.1994339177538735e-05,4.7857,6.3571
1.515625,-3.076311911955446e-05,-2.441849598687726e-05,-4.3461201907377756e-05,-2.9791101647974387e-05,4.7857,6.3571
1.51953125,-3.418285331502252e-05,-1.8073872854200062e-05,-4.248918443579768e-05,-3.564971604486155e-05,4.7857,6.3571
1.5234375,-2.6857376188296355e-05,-2.88102476539254e-05,-4.4928064637216777e-05,-4.639492736705579e-05,4.7857,6.3571
1.52734375,-4.394936072327795e-06,-3.369684457923249e-05,-4.150833044174871e-05,-4.394721064316779e-05,4.7857,6.3571
1.53125,-1.1234404463263928e-05,-3.466886205081256e-05,-4.2975193171587715e-05,-2.441849598687726e-05,4.7857,6.3571
1.53515625,-3.564971604486155e-05,-2.9791101647974387e-05,-4.052747644769973e-05,-1.6121001388571018e-05,4.7857,6.3571
1.5390625,-2.9791101647974387e-05,-2.6371367452506318e-05,-3.466886205081256e-05,-2.7352221446555288e-05,4.7857,6.3571
1.54296875,-2.002674431982912e-05,-3.174397311360344e-05,-3.076311911955446e-05,-3.321083584344245e-05,4.7857,6.3571
1.546875,-3.174397311360344e-05,-4.052747644769973e-05,-3.662173351644162e-05,-2.5399349980926244e-05,4.7857,6.3571
1.55078125,-3.369684457923249e-05,-4.883380756847488e-05,-4.639492736705579e-05,-2.6371367452506318e-05,4.7857,6.3571
1.5546875,-3.321083584344245e-05,-4.883380756847488e-05,-4.1022321705958674e-05,-3.369684457923249e-05,4.7857,6.3571
1.55859375,-2.7352221446555288e-05,-4.150833044174871e-05,-2.930509291218435e-05,-3.516370730907151e-05,4.7857,6.3571
1.5625,-2.6371367452506318e-05,-4.004146771190969e-05,-3.906945024032961e-05,-4.052747644769973e-05,4.7857,6.3571
1.56640625,-5.225354176394295e-05,-3.711657877470056e-05,-4.394721064316779e-05,-5.127268776989397e-05,4.7857,6.3571
1.5703125,-5.3711567971313056e-05,-3.027711038376442e-05,-2.88102476539254e-05,-4.394721064316779e-05,4.7857,6.3571
1.57421875,-3.8088596246280625e-05,-3.6135724780651584e-05,-3.222998184939348e-05,-2.88102476539254e-05,4.7857,6.3571
1.578125,-3.321083584344245e-05,-4.004146771190969e-05,-4.785295357442589e-05,-3.906945024032961e-05,4.7857,6.3571
1.58203125,-3.222998184939348e-05,-2.9791101647974387e-05,-3.8574604982070666e-05,-4.8347798832684845e-05,4.7857,6.3571
1.5859375,-3.27159905851835e-05,-3.418285331502252e-05,-4.004146771190969e-05,-3.955545897611965e-05,4.7857,6.3571
1.58984375,-2.6371367452506318e-05,-3.6135724780651584e-05,-4.248918443579768e-05,-2.441849598687726e-05,4.7857,6.3571
1.59375,-3.076311911955446e-05,-2.7838230182345325e-05,-3.6135724780651584e-05,-2.6857376188296355e-05,4.7857,6.3571
1.59765625,-3.418285331502252e-05,-3.321083584344245e-05,-4.541407337300681e-05,-3.8574604982070666e-05,4.7857,6.3571
1.6015625,-2.9791101647974387e-05,-4.4442055901426736e-05,-4.785295357442589e-05,-4.2975193171587715e-05,4.7857,6.3571
1.60546875,-3.027711038376442e-05,-4.8347798832684845e-05,-4.883380756847488e-05,-4.541407337300681e-05,4.7857,6.3571
1.609375,-2.3437641992828276e-05,-4.639492736705579e-05,-5.0786679034103934e-05,-3.662173351644162e-05,4.7857,6.3571
1.61328125,-1.709301886015109e-05,-4.6880936102845824e-05,-5.273955049973298e-05,-2.7838230182345325e-05,4.7857,6.3571
1.6171875,-3.076311911955446e-05,-4.248918443579768e-05,-5.615928469520106e-05,-3.174397311360344e-05,4.7857,6.3571
1.62109375,-4.6880936102845824e-05,-4.004146771190969e-05,-5.127268776989397e-05,-3.711657877470056e-05,4.7857,6.3571
1.625,-4.248918443579768e-05,-4.248918443579768e-05,-3.8574604982070666e-05,-3.27159905851835e-05,4.7857,6.3571
1.62890625,-3.27159905851835e-05,-4.2975193171587715e-05,-3.516370730907151e-05,-2.441849598687726e-05,4.7857,6.3571
1.6328125,-3.906945024032961e-05,-4.639492736705579e-05,-4.639492736705579e-05,-2.7352221446555288e-05,4.7857,6.3571
1.63671875,-4.5900082108796844e-05,-4.5900082108796844e-05,-5.0786679034103934e-05,-4.2975193171587715e-05,4.7857,6.3571
1.640625,-3.466886205081256e-05,-3.662173351644162e-05,-4.248918443579768e-05,-4.6880936102845824e-05,4.7857,6.3571
1.64453125,-2.930509291218435e-05,-3.662173351644162e-05,-4.2975193171587715e-05,-3.711657877470056e-05,4.7857,6.3571
1.6484375,-2.441849598687726e-05,-3.8574604982070666e-05,-4.1994339177538735e-05,-2.9791101647974387e-05,4.7857,6.3571
1.65234375,-2.0512753055619157e-05,-4.004146771190969e-05,-4.2975193171587715e-05,-2.9791101647974387e-05,4.7857,6.3571
1.65625,-2.588535871671628e-05,-4.1994339177538735e-05,-4.4442055901426736e-05,-2.8324238918135362e-05,4.7857,6.3571
1.66015625,-4.1994339177538735e-05,-3.760258751049059e-05,-4.248918443579768e-05,-3.564971604486155e-05,4.7857,6.3571
1.6640625,-5.322555923552302e-05,-3.711657877470056e-05,-4.541407337300681e-05,-4.541407337300681e-05,4.7857,6.3571
1.66796875,-4.931981630426492e-05,-4.785295357442589e-05,-5.030067029831389e-05,-3.906945024032961e-05,4.7857,6.3571
1.671875,-3.125796437781341e-05,-4.4928064637216777e-05,-4.883380756847488e-05,-3.8574604982070666e-05,4.7857,6.3571
1.67578125,-2.4904504722667297e-05,-3.516370730907151e-05,-4.883380756847488e-05,-4.1022321705958674e-05,4.7857,6.3571
1.6796875,-3.8088596246280625e-05,-3.564971604486155e-05,-5.127268776989397e-05,-4.4442055901426736e-05,4.7857,6.3571
1.68359375,-4.1022321705958674e-05,-3.076311911955446e-05,-3.906945024032961e-05,-4.980582504005495e-05,4.7857,6.3571
1.6875,-3.760258751049059e-05,-4.004146771190969e-05,-3.906945024032961e-05,-4.5900082108796844e-05,4.7857,6.3571
1.69140625,-3.955545897611965e-05,-4.931981630426492e-05,-4.639492736705579e-05,-3.662173351644162e-05,4.7857,6.3571
1.6953125,-4.052747644769973e-05,-4.052747644769973e-05,-4.394721064316779e-05,-3.906945024032961e-05,4.7857,6.3571
1.69921875,-4.1994339177538735e-05,-3.27159905851835e-05,-5.322555923552302e-05,-3.6135724780651584e-05,4.7857,6.3571
1.703125,-4.150833044174871e-05,-3.516370730907151e-05,-4.883380756847488e-05,-3.027711038376442e-05,4.7857,6.3571
1.70703125,-3.564971604486155e-05,-3.906945024032961e-05,-3.711657877470056e-05,-3.760258751049059e-05,4.7857,6.3571
1.7109375,-3.466886205081256e-05,-4.004146771190969e-05,-3.711657877470056e-05,-3.466886205081256e-05,4.7857,6.3571
1.71484375,-2.6371367452506318e-05,-3.564971604486155e-05,-3.8574604982070666e-05,-3.222998184939348e-05,4.7857,6.3571
1.71875,-2.2465624521248215e-05,-2.5399349980926244e-05,-2.7838230182345325e-05,-3.222998184939348e-05,4.7857,6.3571
1.72265625,-2.4904504722667297e-05,-1.953189906157017e-05,-1.3673284664683023e-05,-2.002674431982912e-05,4.7857,6.3571
1.7265625,-2.9791101647974387e-05,-2.7838230182345325e-05,-2.4904504722667297e-05,-2.197961578545818e-05,4.7857,6.3571
1.73046875,-3.662173351644162e-05,-3.027711038376442e-05,-2.930509291218435e-05,-2.4904504722667297e-05,4.7857,6.3571
1.734375,-4.5900082108796844e-05,-3.222998184939348e-05,-3.174397311360344e-05,-2.4904504722667297e-05,4.7857,6.3571
1.73828125,-6.153189035629817e-05,-3.321083584344245e-05,-3.125796437781341e-05,-2.8324238918135362e-05,4.7857,6.3571
1.7421875,-5.322555923552302e-05,-2.88102476539254e-05,-3.321083584344245e-05,-3.711657877470056e-05,4.7857,6.3571
1.74609375,-2.4904504722667297e-05,-3.27159905851835e-05,-4.248918443579768e-05,-3.906945024032961e-05,4.7857,6.3571
1.75,-1.8559881589990096e-05,-4.4442055901426736e-05,-3.8088596246280625e-05,-3.027711038376442e-05,4.7857,6.3571
1.75390625,-3.321083584344245e-05,-4.8347798832684845e-05,-3.516370730907151e-05,-3.174397311360344e-05,4.7857,6.3571
1.7578125,-4.2975193171587715e-05,-3.564971604486155e-05,-3.466886205081256e-05,-3.564971604486155e-05,4.7857,6.3571
1.76171875,-5.0786679034103934e-05,-2.9791101647974387e-05,-3.516370730907151e-05,-3.369684457923249e-05,4.7857,6.3571
1.765625,-5.225354176394295e-05,-3.8088596246280625e-05,-2.88102476539254e-05,-3.321083584344245e-05,4.7857,6.3571
1.76953125,-3.906945024032961e-05,-4.052747644769973e-05,-2.8324238918135362e-05,-2.7838230182345325e-05,4.7857,6.3571
1.7734375,-3.369684457923249e-05,-3.711657877470056e-05,-3.906945024032961e-05,-2.197961578545818e-05,4.7857,6.3571
1.77734375,-2.441849598687726e-05,-2.002674431982912e-05,-3.076311911955446e-05,-1.953189906157017e-05,4.7857,6.3571
1.78125,-1.953189906157017e-05,-1.514014739452203e-05,-1.9045890325780133e-05,-2.7352221446555288e-05,4.7857,6.3571
1.78515625,-2.930509291218435e-05,-3.076311911955446e-05,-3.662173351644162e-05,-3.955545897611965e-05,4.7857,6.3571
1.7890625,-3.125796437781341e-05,-2.7352221446555288e-05,-4.4928064637216777e-05,-3.662173351644162e-05,4.7857,6.3571
1.79296875,-3.174397311360344e-05,-2.3437641992828276e-05,-2.7838230182345325e-05,-2.930509291218435e-05,4.7857,6.3571
1.796875,-4.4442055901426736e-05,-2.588535871671628e-05,-2.9791101647974387e-05,-4.1022321705958674e-05,4.7857,6.3571
1.80078125,-4.5900082108796844e-05,-2.2465624521248215e-05,-2.7838230182345325e-05,-3.760258751049059e-05,4.7857,6.3571
1.8046875,-3.125796437781341e-05,-2.6857376188296355e-05,-2.88102476539254e-05,-3.6135724780651584e-05,4.7857,6.3571
1.80859375,-1.2215258457312912e-05,-3.564971604486155e-05,-2.88102476539254e-05,-4.541407337300681e-05,4.7857,6.3571
1.8125,-1.2215258457312912e-05,-3.466886205081256e-05,-2.2951633257038252e-05,-4.004146771190969e-05,4.7857,6.3571
1.81640625,-2.88102476539254e-05,-2.3932487251087223e-05,-2.88102476539254e-05,-2.4904504722667297e-05,4.7857,6.3571
1.8203125,-3.516370730907151e-05,-1.4654138658731993e-05,-3.27159905851835e-05,-2.0998761791409194e-05,4.7857,6.3571
1.82421875,-1.8073872854200062e-05,-1.6121001388571018e-05,-2.2465624521248215e-05,-3.027711038376442e-05,4.7857,6.3571
1.828125,-9.840383993286252e-07,-2.88102476539254e-05,-1.660701012436105e-05,-2.9791101647974387e-05,4.7857,6.3571
1.83203125,-3.422918600747721e-06,-2.88102476539254e-05,-1.9045890325780133e-05,-2.930509291218435e-05,4.7857,6.3571
1.8359375,-1.1234404463263928e-05,-2.7352221446555288e-05,-2.0998761791409194e-05,-2.588535871671628e-05,4.7857,6.3571
1.83984375,-9.767541733424905e-06,-1.9045890325780133e-05,-2.4904504722667297e-05,-1.709301886015109e-05,4.7857,6.3571
1.84375,-1.4168129922941958e-05,-1.6121001388571018e-05,-2.6371367452506318e-05,-2.0512753055619157e-05,4.7857,6.3571
1.84765625,-2.3932487251087223e-05,-2.8324238918135362e-05,-2.6857376188296355e-05,-2.4904504722667297e-05,4.7857,6.3571
1.8515625,-1.4654138658731993e-05,-2.930509291218435e-05,-3.369684457923249e-05,-2.6371367452506318e-05,4.7857,6.3571
1.85546875,-3.422918600747721e-06,-3.125796437781341e-05,-3.418285331502252e-05,-4.052747644769973e-05,4.7857,6.3571
1.859375,-4.394936072327795e-06,-2.2951633257038252e-05,-2.7352221446555288e-05,-4.2975193171587715e-05,4.7857,6.3571
1.86328125,-1.2215258457312912e-05,-2.148477052719923e-05,-2.7838230182345325e-05,-2.930509291218435e-05,4.7857,6.3571
1.8671875,-1.2215258457312912e-05,-3.369684457923249e-05,-2.88102476539254e-05,-3.076311911955446e-05,4.7857,6.3571
1.87109375,-6.347807537956839e-06,-4.1022321705958674e-05,-3.6135724780651584e-05,-4.1994339177538735e-05,4.7857,6.3571
1.875,-1.953189906157017e-05,-4.1022321705958674e-05,-3.760258751049059e-05,-4.004146771190969e-05,4.7857,6.3571
1.87890625,-2.6857376188296355e-05,-3.27159905851835e-05,-3.955545897611965e-05,-3.466886205081256e-05,4.7857,6.3571
1.8828125,-3.076311911955446e-05,-3.125796437781341e-05,-3.8088596246280625e-05,-2.930509291218435e-05,4.7857,6.3571
1.88671875,-3.760258751049059e-05,-4.2975193171587715e-05,-3.8088596246280625e-05,-2.88102476539254e-05,4.7857,6.3571
1.890625,-2.9791101647974387e-05,-3.955545897611965e-05,-3.222998184939348e-05,-2.7352221446555288e-05,4.7857,6.3571
1.89453125,-2.88102476539254e-05,-3.174397311360344e-05,-3.516370730907151e-05,-3.174397311360344e-05,4.7857,6.3571
1.8984375,-3.711657877470056e-05,-3.516370730907151e-05,-2.930509291218435e-05,-3.466886205081256e-05,4.7857,6.3571
1.90234375,-2.4904504722667297e-05,-3.222998184939348e-05,-1.709301886015109e-05,-2.588535871671628e-05,4.7857,6.3571
1.90625,-1.0262386991683854e-05,-4.541407337300681e-05,-4.1994339177538735e-05,-3.906945024032961e-05,4.7857,6.3571
1.91015625,-3.125796437781341e-05,-5.8112156160830105e-05,-4.394721064316779e-05,-4.931981630426492e-05,4.7857,6.3571
1.9140625,-4.5900082108796844e-05,-4.931981630426492e-05,-3.711657877470056e-05,-4.639492736705579e-05,4.7857,6.3571
1.91796875,-3.125796437781341e-05,-4.1022321705958674e-05,-4.248918443579768e-05,-3.564971604486155e-05,4.7857,6.3571
1.921875,-2.148477052719923e-05,-3.564971604486155e-05,-4.1994339177538735e-05,-2.002674431982912e-05,4.7857,6.3571
1.92578125,-2.3437641992828276e-05,-4.052747644769973e-05,-4.2975193171587715e-05,-2.197961578545818e-05,4.7857,6.3571
1.9296875,-4.150833044174871e-05,-4.8347798832684845e-05,-4.785295357442589e-05,-3.369684457923249e-05,4.7857,6.3571
1.93359375,-4.8347798832684845e-05,-3.662173351644162e-05,-4.4442055901426736e-05,-3.955545897611965e-05,4.7857,6.3571
1.9375,-3.906945024032961e-05,-2.6857376188296355e-05,-4.150833044174871e-05,-4.004146771190969e-05,4.7857,6.3571
1.94140625,-4.3461201907377756e-05,-3.369684457923249e-05,-4.4442055901426736e-05,-3.8574604982070666e-05,4.7857,6.3571
1.9453125,-3.906945024032961e-05,-4.248918443579768e-05,-3.418285331502252e-05,-4.150833044174871e-05,4.7857,6.3571
1.94921875,-1.953189906157017e-05,-4.8347798832684845e-05,-2.930509291218435e-05,-3.369684457923249e-05,4.7857,6.3571
1.953125,-2.2951633257038252e-05,-4.052747644769973e-05,-4.248918443579768e-05,-3.466886205081256e-05,4.7857,6.3571
1.95703125,-3.760258751049059e-05,-3.369684457923249e-05,-4.785295357442589e-05,-4.541407337300681e-05,4.7857,6.3571
1.9609375,-4.883380756847488e-05,-3.369684457923249e-05,-4.4442055901426736e-05,-4.394721064316779e-05,4.7857,6.3571
1.96484375,-4.8347798832684845e-05,-3.662173351644162e-05,-4.394721064316779e-05,-4.1022321705958674e-05,4.7857,6.3571
1.96875,-4.394721064316779e-05,-4.150833044174871e-05,-4.1994339177538735e-05,-3.711657877470056e-05,4.7857,6.3571
1.97265625,-4.4928064637216777e-05,-3.8574604982070666e-05,-3.955545897611965e-05,-3.711657877470056e-05,4.7857,6.3571
1.9765625,-4.1022321705958674e-05,-4.1022321705958674e-05,-3.711657877470056e-05,-4.004146771190969e-05,4.7857,6.3571
1.98046875,-3.369684457923249e-05,-4.541407337300681e-05,-3.125796437781341e-05,-3.076311911955446e-05,4.7857,6.3571
1.984375,-2.930509291218435e-05,-3.466886205081256e-05,-3.6135724780651584e-05,-2.6371367452506318e-05,4.7857,6.3571
1.98828125,-3.27159905851835e-05,-3.760258751049059e-05,-4.394721064316779e-05,-2.8324238918135362e-05,4.7857,6.3571
1.9921875,-3.906945024032961e-05,-4.004146771190969e-05,-3.711657877470056e-05,-3.027711038376442e-05,4.7857,6.3571
1.99609375,-4.4928064637216777e-05,-3.321083584344245e-05,-3.662173351644162e-05,-4.150833044174871e-05,4.7857,6.3571
2.0,-3.711657877470056e-05,-3.466886205081256e-05,-4.3461201907377756e-05,-4.2975193171587715e-05,4.7857,6.3571
2.00390625,-2.588535871671628e-05,-3.711657877470056e-05,-4.6880936102845824e-05,-4.931981630426492e-05,4.7857,6.3571
2.0078125,-2.9791101647974387e-05,-6.0551036362249193e-05,-4.785295357442589e-05,-4.2975193171587715e-05,4.7857,6.3571
2.01171875,-5.030067029831389e-05,-8.691921940947587e-05,-6.397077055771727e-05,-3.369684457923249e-05,4.7857,6.3571
2.015625,-3.760258751049059e-05,-4.150833044174871e-05,-5.3711567971313056e-05,-2.3932487251087223e-05,4.7857,6.3571
2.01953125,-2.588535871671628e-05,-1.2215258457312912e-05,-3.6135724780651584e-05,-2.3437641992828276e-05,4.7857,6.3571
2.0234375,-3.027711038376442e-05,-1.0748395727473891e-05,-3.076311911955446e-05,-3.760258751049059e-05,4.7857,6.3571
2.02734375,-4.1994339177538735e-05,-3.6135724780651584e-05,-3.6135724780651584e-05,-4.1022321705958674e-05,4.7857,6.3571
2.03125,-5.0786679034103934e-05,-6.787651348897538e-05,-5.615928469520106e-05,-4.394721064316779e-05,4.7857,6.3571
2.03515625,-3.125796437781341e-05,-2.7352221446555288e-05,-2.2465624521248215e-05,-2.4904504722667297e-05,4.7857,6.3571
2.0390625,-4.052747644769973e-05,-2.9791101647974387e-05,-2.441849598687726e-05,-3.027711038376442e-05,4.7857,6.3571
2.04296875,-5.664529343099109e-05,-6.0551036362249193e-05,-5.517843070115207e-05,-4.639492736705579e-05,4.7857,6.3571
2.046875,-2.930509291218435e-05,-3.8574604982070666e-05,-3.027711038376442e-05,-2.002674431982912e-05,4.7857,6.3571
2.05078125,-4.889781330586729e-06,-2.0512753055619157e-05,-2.936909864957684e-06,-2.4420646066987357e-06,4.7857,6.3571
2.0546875,-2.6857376188296355e-05,-4.052747644769973e-05,-2.8324238918135362e-05,-2.7352221446555288e-05,4.7857,6.3571
2.05859375,-2.6857376188296355e-05,-4.1994339177538735e-05,-4.248918443579768e-05,-3.564971604486155e-05,4.7857,6.3571
2.0625,-4.89193141069677e-07,-1.514014739452203e-05,-2.0512753055619157e-05,-3.125796437781341e-05,4.7857,6.3571
2.06640625,-8.795524261844831e-06,-3.125796437781341e-05,-3.027711038376442e-05,-2.9791101647974387e-05,4.7857,6.3571
2.0703125,-5.375790066376766e-06,-3.222998184939348e-05,-2.88102476539254e-05,-1.660701012436105e-05,4.7857,6.3571
2.07421875,-4.889781330586729e-06,-2.6371367452506318e-05,-3.027711038376442e-05,-2.002674431982912e-05,4.7857,6.3571
2.078125,-1.709301886015109e-05,-4.5900082108796844e-05,-4.2975193171587715e-05,-3.125796437781341e-05,4.7857,6.3571
2.08203125,-2.936909864957684e-06,-3.321083584344245e-05,-2.2951633257038252e-05,-1.953189906157017e-05,4.7857,6.3571
2.0859375,-3.422918600747721e-06,-2.7838230182345325e-05,-2.441849598687726e-05,-1.8073872854200062e-05,4.7857,6.3571
2.08984375,-2.0512753055619157e-05,-5.566443943694211e-05,-5.322555923552302e-05,-4.4928064637216777e-05,4.7857,6.3571
2.09375,-1.2215258457312912e-05,-4.931981630426492e-05,-4.1994339177538735e-05,-4.150833044174871e-05,4.7857,6.3571
2.09765625,2.921704531929478e-06,-3.6135724780651584e-05,-2.8324238918135362e-05,-2.8324238918135362e-05,4.7857,6.3571
2.1015625,7.808301457236566e-06,-3.076311911955446e-05,-4.2975193171587715e-05,-3.027711038376442e-05,4.7857,6.3571
2.10546875,1.610579605554281e-05,-3.27159905851835e-05,-3.516370730907151e-05,-2.8324238918135362e-05,4.7857,6.3571
2.109375,1.171404438849467e-05,-5.127268776989397e-05,-3.516370730907151e-05,-3.174397311360344e-05,4.7857,6.3571
2.11328125,2.4412127176317965e-05,-4.3461201907377756e-05,-3.369684457923249e-05,-1.8073872854200062e-05,4.7857,6.3571
2.1171875,4.1987970366979453e-05,-3.418285331502252e-05,-4.1022321705958674e-05,-1.4654138658731993e-05,4.7857,6.3571
2.12109375,3.2223613038834173e-05,-4.2975193171587715e-05,-5.615928469520106e-05,-3.369684457923249e-05,4.7857,6.3571
2.125,2.783186137178603e-05,-6.006502762645916e-05,-5.566443943694211e-05,-3.369684457923249e-05,4.7857,6.3571
2.12890625,3.7101373441672364e-05,-7.031539369039447e-05,-5.7131302166781125e-05,-3.27159905851835e-05,4.7857,6.3571
2.1328125,4.492169582665747e-05,-6.201789909208821e-05,-5.761731090257116e-05,-3.662173351644162e-05,4.7857,6.3571
2.13671875,4.442685056839855e-05,-4.931981630426492e-05,-5.3711567971313056e-05,-3.516370730907151e-05,4.7857,6.3571
2.140625,4.15019616311894e-05,-4.785295357442589e-05,-4.004146771190969e-05,-3.466886205081256e-05,4.7857,6.3571
2.14453125,3.9054244907301405e-05,-5.761731090257116e-05,-3.8088596246280625e-05,-3.125796437781341e-05,4.7857,6.3571
2.1484375,3.075675030899518e-05,-5.517843070115207e-05,-4.6880936102845824e-05,-2.2465624521248215e-05,4.7857,6.3571
2.15234375,3.5643347234302236e-05,-4.7366944838635865e-05,-3.8088596246280625e-05,-3.076311911955446e-05,4.7857,6.3571
2.15625,4.1987970366979453e-05,-4.052747644769973e-05,-4.150833044174871e-05,-4.7366944838635865e-05,4.7857,6.3571
2.16015625,3.2223613038834173e-05,-3.6135724780651584e-05,-4.883380756847488e-05,-3.8574604982070666e-05,4.7857,6.3571
2.1640625,3.319563051041425e-05,-4.785295357442589e-05,-4.052747644769973e-05,-1.4654138658731993e-05,4.7857,6.3571
2.16796875,3.3690475768673194e-05,-4.639492736705579e-05,-3.955545897611965e-05,-7.814670267795861e-06,4.7857,6.3571
2.171875,2.245925571068892e-05,-3.466886205081256e-05,-4.6880936102845824e-05,-1.1720413199053965e-05,4.7857,6.3571
2.17578125,1.3666915854123728e-05,-3.369684457923249e-05,-3.321083584344245e-05,-1.660701012436105e-05,4.7857,6.3571
2.1796875,2.001153898680093e-05,-3.174397311360344e-05,-3.418285331502252e-05,-2.7352221446555288e-05,4.7857,6.3571
2.18359375,2.783186137178603e-05,-4.394721064316779e-05,-4.004146771190969e-05,-3.564971604486155e-05,4.7857,6.3571
2.1875,3.2223613038834173e-05,-4.3461201907377756e-05,-3.174397311360344e-05,-2.7352221446555288e-05,4.7857,6.3571
2.19140625,3.027074157320513e-05,-2.88102476539254e-05,-3.369684457923249e-05,-2.4904504722667297e-05,4.7857,6.3571
2.1953125,2.09923929808499e-05,-3.662173351644162e-05,-3.8574604982070666e-05,-2.9791101647974387e-05,4.7857,6.3571
2.19921875,2.921704531929478e-06,-4.8347798832684845e-05,-5.664529343099109e-05,-5.3711567971313056e-05,4.7857,6.3571
2.203125,-1.0748395727473891e-05,-5.127268776989397e-05,-6.0551036362249193e-05,-7.031539369039447e-05,4.7857,6.3571
2.20703125,-9.840383993286252e-07,-4.2975193171587715e-05,-4.3461201907377756e-05,-4.1994339177538735e-05,4.7857,6.3571
2.2109375,1.3180907118333691e-05,-2.588535871671628e-05,-2.7838230182345325e-05,-3.516370730907151e-05,4.7857,6.3571
2.21484375,9.761172922865626e-06,-2.5399349980926244e-05,-2.6857376188296355e-05,-4.1022321705958674e-05,4.7857,6.3571
2.21875,-1.2215258457312912e-05,-4.7366944838635865e-05,-3.906945024032961e-05,-3.418285331502252e-05,4.7857,6.3571
2.22265625,3.902558525978464e-06,-4.394721064316779e-05,-3.8088596246280625e-05,-1.8559881589990096e-05,4.7857,6.3571
2.2265625,1.8058667521171868e-05,-3.8574604982070666e-05,-4.150833044174871e-05,-2.0512753055619157e-05,4.7857,6.3571
2.23046875,-4.89193141069677e-07,-4.883380756847488e-05,-4.2975193171587715e-05,-3.6135724780651584e-05,4.7857,6.3571
2.234375,3.902558525978464e-06,-4.5900082108796844e-05,-3.8574604982070666e-05,-3.369684457923249e-05,4.7857,6.3571
2.23828125,1.2200053124284707e-05,-3.125796437781341e-05,-3.955545897611965e-05,-2.0998761791409194e-05,4.7857,6.3571
2.2421875,1.1228035652704633e-05,-2.9791101647974387e-05,-3.369684457923249e-05,-2.6857376188296355e-05,4.7857,6.3571
2.24609375,1.46477698481727e-05,-4.004146771190969e-05,-3.222998184939348e-05,-3.222998184939348e-05,4.7857,6.3571
2.25,1.2694898382543656e-05,-5.0786679034103934e-05,-4.394721064316779e-05,-3.027711038376442e-05,4.7857,6.3571
2.25390625,1.5619787319752773e-05,-4.8347798832684845e-05,-4.394721064316779e-05,-3.711657877470056e-05,4.7857,6.3571
2.2578125,2.9784732837415105e-05,-3.418285331502252e-05,-2.88102476539254e-05,-2.4904504722667297e-05,4.7857,6.3571
2.26171875,4.0035098901350406e-05,-3.466886205081256e-05,-2.6857376188296355e-05,-2.2951633257038252e-05,4.7857,6.3571
2.265625,3.759621869993131e-05,-4.931981630426492e-05,-3.466886205081256e-05,-3.6135724780651584e-05,4.7857,6.3571
2.26953125,2.636499864194701e-05,-4.394721064316779e-05,-3.711657877470056e-05,-3.27159905851835e-05,4.7857,6.3571
2.2734375,2.0506384245059876e-05,-3.8088596246280625e-05,-3.027711038376442e-05,-2.88102476539254e-05,4.7857,6.3571
2.27734375,2.587015338368809e-05,-3.6135724780651584e-05,-1.709301886015109e-05,-2.88102476539254e-05,4.7857,6.3571
2.28125,2.783186137178603e-05,-3.027711038376442e-05,-2.441849598687726e-05,-3.564971604486155e-05,4.7857,6.3571
2.28515625,2.8317870107576085e-05,-4.248918443579768e-05,-3.125796437781341e-05,-3.369684457923249e-05,4.7857,6.3571
2.2890625,4.15019616311894e-05,-4.7366944838635865e-05,-3.516370730907151e-05,-2.88102476539254e-05,4.7857,6.3571
2.29296875,3.8568236171511385e-05,-4.541407337300681e-05,-3.8574604982070666e-05,-2.930509291218435e-05,4.7857,6.3571
2.296875,3.4165497901884265e-06,-4.8347798832684845e-05,-4.3461201907377756e-05,-4.3461201907377756e-05,4.7857,6.3571
2.30078125,2.921704531929478e-06,-4.980582504005495e-05,-4.980582504005495e-05,-4.7366944838635865e-05,4.7857,6.3571
2.3046875,2.7337016113527084e-05,-4.931981630426492e-05,-3.906945024032961e-05,-3.27159905851835e-05,4.7857,6.3571
2.30859375,3.2223613038834173e-05,-5.225354176394295e-05,-2.9791101647974387e-05,-2.6857376188296355e-05,4.7857,6.3571
2.3125,3.027074157320513e-05,-4.4928064637216777e-05,-3.369684457923249e-05,-2.4904504722667297e-05,4.7857,6.3571
2.31640625,3.661536470588231e-05,-3.321083584344245e-05,-3.466886205081256e-05,-3.076311911955446e-05,4.7857,6.3571
2.3203125,2.7337016113527084e-05,-4.004146771190969e-05,-1.8073872854200062e-05,-4.052747644769973e-05,4.7857,6.3571
2.32421875,8.78031892881664e-06,-5.175869650568401e-05,-1.6121001388571018e-05,-3.8574604982070666e-05,4.7857,6.3571
2.328125,1.757265878538183e-05,-5.7131302166781125e-05,-2.8324238918135362e-05,-3.8574604982070666e-05,4.7857,6.3571
2.33203125,2.245925571068892e-05,-4.7366944838635865e-05,-2.3437641992828276e-05,-4.639492736705579e-05,4.7857,6.3571
2.3359375,2.587015338368809e-05,-3.222998184939348e-05,-2.6371367452506318e-05,-4.052747644769973e-05,4.7857,6.3571
2.33984375,3.027074157320513e-05,-2.8324238918135362e-05,-3.466886205081256e-05,-3.564971604486155e-05,4.7857,6.3571
2.34375,2.7337016113527084e-05,-2.8324238918135362e-05,-3.564971604486155e-05,-3.955545897611965e-05,4.7857,6.3571
2.34765625,1.757265878538183e-05,-4.248918443579768e-05,-4.3461201907377756e-05,-4.004146771190969e-05,4.7857,6.3571
2.3515625,1.3666915854123728e-05,-3.906945024032961e-05,-4.7366944838635865e-05,-2.441849598687726e-05,4.7857,6.3571
2.35546875,2.9289887579156155e-05,-2.5399349980926244e-05,-3.955545897611965e-05,-1.3187275928892986e-05,4.7857,6.3571
2.359375,3.12427590447852e-05,-3.125796437781341e-05,-4.541407337300681e-05,-3.321083584344245e-05,4.7857,6.3571
2.36328125,1.2200053124284707e-05,-4.2975193171587715e-05,-4.5900082108796844e-05,-4.931981630426492e-05,4.7857,6.3571
2.3671875,1.660064131380176e-05,-4.4442055901426736e-05,-4.1994339177538735e-05,-3.760258751049059e-05,4.7857,6.3571
2.37109375,2.9289887579156155e-05,-3.760258751049059e-05,-4.052747644769973e-05,-2.6371367452506318e-05,4.7857,6.3571
2.375,8.294310193026603e-06,-3.418285331502252e-05,-3.564971604486155e-05,-2.588535871671628e-05,4.7857,6.3571
2.37890625,6.341438727397545e-06,-3.027711038376442e-05,-3.321083584344245e-05,-2.930509291218435e-05,4.7857,6.3571
2.3828125,9.761172922865626e-06,-3.516370730907151e-05,-3.564971604486155e-05,-2.6371367452506318e-05,4.7857,6.3571
2.38671875,3.4165497901884265e-06,-4.052747644769973e-05,-4.639492736705579e-05,-3.076311911955446e-05,4.7857,6.3571
2.390625,3.4165497901884265e-06,-4.2975193171587715e-05,-5.4206413229572e-05,-4.150833044174871e-05,4.7857,6.3571
2.39453125,4.3885672617685e-06,-5.127268776989397e-05,-5.175869650568401e-05,-3.662173351644162e-05,4.7857,6.3571
2.3984375,2.1964410452429974e-05,-4.931981630426492e-05,-4.6880936102845824e-05,-2.7352221446555288e-05,4.7857,6.3571
2.40234375,2.7337016113527084e-05,-5.127268776989397e-05,-4.541407337300681e-05,-3.076311911955446e-05,4.7857,6.3571
2.40625,2.245925571068892e-05,-5.761731090257116e-05,-4.1994339177538735e-05,-3.711657877470056e-05,4.7857,6.3571
2.41015625,2.245925571068892e-05,-5.225354176394295e-05,-4.150833044174871e-05,-3.760258751049059e-05,4.7857,6.3571
2.4140625,1.1228035652704633e-05,-4.248918443579768e-05,-3.6135724780651584e-05,-2.6857376188296355e-05,4.7857,6.3571
2.41796875,1.2694898382543656e-05,-3.222998184939348e-05,-3.662173351644162e-05,-2.2465624521248215e-05,4.7857,6.3571
2.421875,1.9039521515220855e-05,-3.906945024032961e-05,-4.3461201907377756e-05,-4.4442055901426736e-05,4.7857,6.3571
2.42578125,2.636499864194701e-05,-4.4442055901426736e-05,-3.760258751049059e-05,-5.322555923552302e-05,4.7857,6.3571
2.4296875,2.783186137178603e-05,-4.2975193171587715e-05,-3.8088596246280625e-05,-4.052747644769973e-05,4.7857,6.3571
2.43359375,1.8058667521171868e-05,-4.1022321705958674e-05,-3.8574604982070666e-05,-2.7838230182345325e-05,4.7857,6.3571
2.4375,4.828243305103968e-07,-3.321083584344245e-05,-3.418285331502252e-05,-2.002674431982912e-05,4.7857,6.3571
2.44140625,9.275164187075589e-06,-3.27159905851835e-05,-4.2975193171587715e-05,-2.8324238918135362e-05,4.7857,6.3571
2.4453125,2.636499864194701e-05,-4.541407337300681e-05,-5.273955049973298e-05,-2.930509291218435e-05,4.7857,6.3571
2.44921875,1.5619787319752773e-05,-4.4442055901426736e-05,-5.0786679034103934e-05,-2.88102476539254e-05,4.7857,6.3571
2.453125,9.761172922865626e-06,-3.222998184939348e-05,-4.004146771190969e-05,-2.930509291218435e-05,4.7857,6.3571
2.45703125,2.3431273182268995e-05,-3.027711038376442e-05,-3.955545897611965e-05,-3.662173351644162e-05,4.7857,6.3571
2.4609375,2.8317870107576085e-05,-2.88102476539254e-05,-2.930509291218435e-05,-4.052747644769973e-05,4.7857,6.3571
2.46484375,3.902558525978464e-06,-3.418285331502252e-05,-2.7352221446555288e-05,-2.930509291218435e-05,4.7857,6.3571
2.46875,-4.889781330586729e-06,-4.3461201907377756e-05,-3.955545897611965e-05,-3.076311911955446e-05,4.7857,6.3571
2.47265625,9.761172922865626e-06,-3.8088596246280625e-05,-2.4904504722667297e-05,-3.174397311360344e-05,4.7857,6.3571
2.4765625,1.2694898382543656e-05,-3.955545897611965e-05,-2.88102476539254e-05,-2.2465624521248215e-05,4.7857,6.3571
2.48046875,-4.394936072327795e-06,-4.004146771190969e-05,-3.564971604486155e-05,-2.6371367452506318e-05,4.7857,6.3571
2.484375,3.902558525978464e-06,-2.3437641992828276e-05,-2.197961578545818e-05,-3.27159905851835e-05,4.7857,6.3571
2.48828125,2.783186137178603e-05,-3.516370730907151e-05,-3.711657877470056e-05,-4.4442055901426736e-05,4.7857,6.3571
2.4921875,3.466249324025327e-05,-6.445677929350731e-05,-6.592364202334632e-05,-5.127268776989397e-05,4.7857,6.3571
2.49609375,4.100711637293045e-05,-4.883380756847488e-05,-5.566443943694211e-05,-4.541407337300681e-05,4.7857,6.3571
2.5,4.052110763714043e-05,-3.076311911955446e-05,-3.955545897611965e-05,-4.541407337300681e-05,4.7857,6.3571
2.50390625,3.5148501976043316e-05,-3.516370730907151e-05,-3.906945024032961e-05,-4.5900082108796844e-05,4.7857,6.3571
2.5078125,2.9784732837415105e-05,-3.564971604486155e-05,-4.052747644769973e-05,-5.030067029831389e-05,4.7857,6.3571
2.51171875,3.5643347234302236e-05,-3.027711038376442e-05,-4.248918443579768e-05,-5.127268776989397e-05,4.7857,6.3571
2.515625,2.9784732837415105e-05,-3.125796437781341e-05,-2.88102476539254e-05,-4.3461201907377756e-05,4.7857,6.3571
2.51953125,6.827447463187581e-06,-3.6135724780651584e-05,-2.9791101647974387e-05,-4.1022321705958674e-05,4.7857,6.3571
2.5234375,1.9525530251010875e-05,-2.930509291218435e-05,-3.8088596246280625e-05,-4.5900082108796844e-05,4.7857,6.3571
2.52734375,3.612935597009229e-05,-2.6857376188296355e-05,-3.222998184939348e-05,-4.5900082108796844e-05,4.7857,6.3571
2.53125,3.3690475768673194e-05,-3.662173351644162e-05,-4.1994339177538735e-05,-4.3461201907377756e-05,4.7857,6.3571
2.53515625,3.027074157320513e-05,-4.052747644769973e-05,-5.127268776989397e-05,-4.6880936102845824e-05,4.7857,6.3571
2.5390625,2.9784732837415105e-05,-3.125796437781341e-05,-4.4442055901426736e-05,-4.980582504005495e-05,4.7857,6.3571
2.54296875,4.100711637293045e-05,-2.441849598687726e-05,-4.150833044174871e-05,-4.394721064316779e-05,4.7857,6.3571
2.546875,2.587015338368809e-05,-3.27159905851835e-05,-3.8574604982070666e-05,-4.8347798832684845e-05,4.7857,6.3571
2.55078125,1.4152924589913765e-05,-4.150833044174871e-05,-3.8088596246280625e-05,-5.908417363241018e-05,4.7857,6.3571
2.5546875,3.417648450446324e-05,-3.906945024032961e-05,-4.1994339177538735e-05,-4.785295357442589e-05,4.7857,6.3571
2.55859375,4.931344749370564e-05,-4.1994339177538735e-05,-4.3461201907377756e-05,-3.8088596246280625e-05,4.7857,6.3571
2.5625,5.27331816891737e-05,-3.564971604486155e-05,-3.321083584344245e-05,-3.8574604982070666e-05,4.7857,6.3571
2.56640625,4.442685056839855e-05,-3.125796437781341e-05,-3.418285331502252e-05,-4.1994339177538735e-05,4.7857,6.3571
2.5703125,3.7101373441672364e-05,-3.466886205081256e-05,-4.3461201907377756e-05,-3.8088596246280625e-05,4.7857,6.3571
2.57421875,3.954909016556036e-05,-3.760258751049059e-05,-4.150833044174871e-05,-3.076311911955446e-05,4.7857,6.3571
2.578125,3.7101373441672364e-05,-3.222998184939348e-05,-3.906945024032961e-05,-3.222998184939348e-05,4.7857,6.3571
2.58203125,2.8317870107576085e-05,-2.5399349980926244e-05,-2.7838230182345325e-05,-2.88102476539254e-05,4.7857,6.3571
2.5859375,2.9289887579156155e-05,-3.516370730907151e-05,-2.8324238918135362e-05,-2.8324238918135362e-05,4.7857,6.3571
2.58984375,4.052110763714043e-05,-3.760258751049059e-05,-3.760258751049059e-05,-2.9791101647974387e-05,4.7857,6.3571
2.59375,3.5148501976043316e-05,-3.906945024032961e-05,-4.3461201907377756e-05,-3.955545897611965e-05,4.7857,6.3571
2.59765625,4.100711637293045e-05,-3.369684457923249e-05,-3.516370730907151e-05,-4.248918443579768e-05,4.7857,6.3571
2.6015625,4.687456729228654e-05,-2.9791101647974387e-05,-3.222998184939348e-05,-2.930509291218435e-05,4.7857,6.3571
2.60546875,3.5643347234302236e-05,-3.760258751049059e-05,-3.6135724780651584e-05,-3.027711038376442e-05,4.7857,6.3571
2.609375,2.9289887579156155e-05,-4.2975193171587715e-05,-3.27159905851835e-05,-4.004146771190969e-05,4.7857,6.3571
2.61328125,2.4898135912108016e-05,-3.8574604982070666e-05,-3.906945024032961e-05,-4.248918443579768e-05,4.7857,6.3571
2.6171875,3.9054244907301405e-05,-3.076311911955446e-05,-4.052747644769973e-05,-4.4442055901426736e-05,4.7857,6.3571
2.62109375,4.637972203402759e-05,-2.7352221446555288e-05,-3.564971604486155e-05,-3.222998184939348e-05,4.7857,6.3571
2.625,3.3690475768673194e-05,-2.5399349980926244e-05,-3.906945024032961e-05,-2.6857376188296355e-05,4.7857,6.3571
2.62890625,4.295998783855953e-05,-3.711657877470056e-05,-4.980582504005495e-05,-3.564971604486155e-05,4.7857,6.3571
2.6328125,6.151668502326999e-05,-3.27159905851835e-05,-5.175869650568401e-05,-3.662173351644162e-05,4.7857,6.3571
2.63671875,5.41912078965438e-05,-2.197961578545818e-05,-4.6880936102845824e-05,-3.760258751049059e-05,4.7857,6.3571
2.640625,4.0035098901350406e-05,-2.0512753055619157e-05,-4.5900082108796844e-05,-3.466886205081256e-05,4.7857,6.3571
2.64453125,3.9054244907301405e-05,-2.148477052719923e-05,-4.6880936102845824e-05,-3.6135724780651584e-05,4.7857,6.3571
2.6484375,2.7337016113527084e-05,-3.222998184939348e-05,-3.662173351644162e-05,-5.127268776989397e-05,4.7857,6.3571
2.65234375,3.2223613038834173e-05,-3.369684457923249e-05,-1.7579027595941126e-05,-4.3461201907377756e-05,4.7857,6.3571
2.65625,4.5407704562447515e-05,-2.0512753055619157e-05,-2.7838230182345325e-05,-3.027711038376442e-05,4.7857,6.3571
2.66015625,3.466249324025327e-05,-2.6857376188296355e-05,-4.1994339177538735e-05,-3.174397311360344e-05,4.7857,6.3571
2.6640625,2.2945264446478944e-05,-3.564971604486155e-05,-4.8347798832684845e-05,-4.3461201907377756e-05,4.7857,6.3571
2.66796875,2.587015338368809e-05,-3.125796437781341e-05,-5.273955049973298e-05,-4.4928064637216777e-05,4.7857,6.3571
2.671875,3.3690475768673194e-05,-3.906945024032961e-05,-5.322555923552302e-05,-4.541407337300681e-05,4.7857,6.3571
2.67578125,4.295998783855953e-05,-4.248918443579768e-05,-4.980582504005495e-05,-4.394721064316779e-05,4.7857,6.3571
2.6796875,4.295998783855953e-05,-3.174397311360344e-05,-4.150833044174871e-05,-4.3461201907377756e-05,4.7857,6.3571
2.68359375,3.1737604303044147e-05,-3.760258751049059e-05,-3.564971604486155e-05,-3.6135724780651584e-05,4.7857,6.3571
2.6875,3.808222743572134e-05,-4.785295357442589e-05,-4.052747644769973e-05,-1.709301886015109e-05,4.7857,6.3571
2.69140625,2.587015338368809e-05,-4.4442055901426736e-05,-5.4206413229572e-05,-2.7352221446555288e-05,4.7857,6.3571
2.6953125,1.5133778583962736e-05,-3.27159905851835e-05,-3.27159905851835e-05,-2.8324238918135362e-05,4.7857,6.3571
2.69921875,2.1964410452429974e-05,-2.441849598687726e-05,-2.197961578545818e-05,-2.88102476539254e-05,4.7857,6.3571
2.703125,2.636499864194701e-05,-2.930509291218435e-05,-3.466886205081256e-05,-3.516370730907151e-05,4.7857,6.3571
2.70703125,2.8803878843366105e-05,-3.711657877470056e-05,-3.516370730907151e-05,-3.076311911955446e-05,4.7857,6.3571
2.7109375,1.0742026916914596e-05,-5.3711567971313056e-05,-4.3461201907377756e-05,-4.6880936102845824e-05,4.7857,6.3571
2.71484375,3.902558525978464e-06,-5.761731090257116e-05,-4.7366944838635865e-05,-5.0786679034103934e-05,4.7857,6.3571
2.71875,1.610579605554281e-05,-4.5900082108796844e-05,-3.6135724780651584e-05,-3.125796437781341e-05,4.7857,6.3571
2.72265625,1.8553512779430805e-05,-4.150833044174871e-05,-3.321083584344245e-05,-3.8088596246280625e-05,4.7857,6.3571
2.7265625,1.5619787319752773e-05,-4.883380756847488e-05,-4.004146771190969e-05,-4.3461201907377756e-05,4.7857,6.3571
2.73046875,2.2945264446478944e-05,-4.3461201907377756e-05,-3.955545897611965e-05,-3.564971604486155e-05,4.7857,6.3571
2.734375,4.736057602807656e-05,-2.0998761791409194e-05,-3.321083584344245e-05,-2.441849598687726e-05,4.7857,6.3571
2.73828125,6.249753901731896e-05,-1.6121001388571018e-05,-2.3437641992828276e-05,-2.0998761791409194e-05,4.7857,6.3571
2.7421875,4.100711637293045e-05,-2.8324238918135362e-05,-2.197961578545818e-05,-4.541407337300681e-05,4.7857,6.3571
2.74609375,2.783186137178603e-05,-4.248918443579768e-05,-3.760258751049059e-05,-6.006502762645916e-05,4.7857,6.3571
2.75,3.612935597009229e-05,-4.3461201907377756e-05,-4.785295357442589e-05,-4.931981630426492e-05,4.7857,6.3571
2.75390625,3.7101373441672364e-05,-3.369684457923249e-05,-3.516370730907151e-05,-3.027711038376442e-05,4.7857,6.3571
2.7578125,3.5643347234302236e-05,-3.466886205081256e-05,-3.662173351644162e-05,-3.027711038376442e-05,4.7857,6.3571
2.76171875,3.466249324025327e-05,-3.321083584344245e-05,-5.225354176394295e-05,-3.906945024032961e-05,4.7857,6.3571
2.765625,4.295998783855953e-05,-3.369684457923249e-05,-4.4442055901426736e-05,-3.8088596246280625e-05,4.7857,6.3571
2.76953125,5.565807062638282e-05,-4.248918443579768e-05,-3.955545897611965e-05,-4.1994339177538735e-05,4.7857,6.3571
2.7734375,4.589371329823754e-05,-4.248918443579768e-05,-4.785295357442589e-05,-4.2975193171587715e-05,4.7857,6.3571
2.77734375,2.9289887579156155e-05,-3.564971604486155e-05,-4.785295357442589e-05,-4.3461201907377756e-05,4.7857,6.3571
2.78125,2.783186137178603e-05,-1.5626156130312068e-05,-3.466886205081256e-05,-4.248918443579768e-05,4.7857,6.3571
2.78515625,3.075675030899518e-05,-2.2951633257038252e-05,-3.418285331502252e-05,-3.955545897611965e-05,4.7857,6.3571
2.7890625,3.9054244907301405e-05,-5.4692421965362036e-05,-4.785295357442589e-05,-2.88102476539254e-05,4.7857,6.3571
2.79296875,3.612935597009229e-05,-5.225354176394295e-05,-4.7366944838635865e-05,-2.588535871671628e-05,4.7857,6.3571
2.796875,6.341438727397545e-06,-3.8088596246280625e-05,-4.541407337300681e-05,-4.394721064316779e-05,4.7857,6.3571
2.80078125,-3.1844052796401457e-09,-4.1022321705958674e-05,-4.1994339177538735e-05,-3.125796437781341e-05,4.7857,6.3571
2.8046875,1.7086650049591794e-05,-4.931981630426492e-05,-4.394721064316779e-05,-2.0512753055619157e-05,4.7857,6.3571
2.80859375,1.4152924589913765e-05,-4.3461201907377756e-05,-4.4442055901426736e-05,-2.6371367452506318e-05,4.7857,6.3571
2.8125,1.0247181658655648e-05,-3.369684457923249e-05,-3.564971604486155e-05,-2.8324238918135362e-05,4.7857,6.3571
2.81640625,1.7086650049591794e-05,-3.321083584344245e-05,-3.906945024032961e-05,-3.321083584344245e-05,4.7857,6.3571
2.8203125,6.827447463187581e-06,-2.6857376188296355e-05,-3.955545897611965e-05,-3.8574604982070666e-05,4.7857,6.3571
2.82421875,2.4356957961394413e-06,-2.5399349980926244e-05,-3.125796437781341e-05,-3.662173351644162e-05,4.7857,6.3571
2.828125,-9.840383993286252e-07,-4.052747644769973e-05,-3.174397311360344e-05,-2.930509291218435e-05,4.7857,6.3571
2.83203125,2.4356957961394413e-06,-4.052747644769973e-05,-3.125796437781341e-05,-2.588535871671628e-05,4.7857,6.3571
2.8359375,6.341438727397545e-06,-3.027711038376442e-05,-3.125796437781341e-05,-2.0512753055619157e-05,4.7857,6.3571
2.83984375,-1.956055870908699e-06,-3.418285331502252e-05,-3.8088596246280625e-05,-2.5399349980926244e-05,4.7857,6.3571
2.84375,4.874575997558537e-06,-3.222998184939348e-05,-3.662173351644162e-05,-3.760258751049059e-05,4.7857,6.3571
2.84765625,1.2200053124284707e-05,-3.27159905851835e-05,-3.027711038376442e-05,-3.222998184939348e-05,4.7857,6.3571
2.8515625,1.757265878538183e-05,-3.662173351644162e-05,-3.418285331502252e-05,-2.2465624521248215e-05,4.7857,6.3571
2.85546875,2.1964410452429974e-05,-3.955545897611965e-05,-3.516370730907151e-05,-2.148477052719923e-05,4.7857,6.3571
2.859375,4.3885672617685e-06,-3.711657877470056e-05,-3.564971604486155e-05,-2.5399349980926244e-05,4.7857,6.3571
2.86328125,-9.840383993286252e-07,-3.27159905851835e-05,-3.516370730907151e-05,-2.2465624521248215e-05,4.7857,6.3571
2.8671875,2.4356957961394413e-06,-4.004146771190969e-05,-3.418285331502252e-05,-2.7838230182345325e-05,4.7857,6.3571
2.87109375,3.902558525978464e-06,-4.4928064637216777e-05,-4.248918443579768e-05,-4.248918443579768e-05,4.7857,6.3571
2.875,2.09923929808499e-05,-4.4442055901426736e-05,-4.2975193171587715e-05,-4.931981630426492e-05,4.7857,6.3571
2.87890625,2.8803878843366105e-05,-3.662173351644162e-05,-3.418285331502252e-05,-4.6880936102845824e-05,4.7857,6.3571
2.8828125,2.0506384245059876e-05,-3.369684457923249e-05,-3.369684457923249e-05,-3.955545897611965e-05,4.7857,6.3571
2.88671875,1.2200053124284707e-05,-4.541407337300681e-05,-3.8088596246280625e-05,-3.418285331502252e-05,4.7857,6.3571
2.890625,5.855429991607508e-06,-4.931981630426492e-05,-3.125796437781341e-05,-2.588535871671628e-05,4.7857,6.3571
2.89453125,1.4636783245593676e-06,-4.004146771190969e-05,-2.9791101647974387e-05,-1.9045890325780133e-05,4.7857,6.3571
2.8984375,1.7086650049591794e-05,-3.8574604982070666e-05,-3.125796437781341e-05,-1.8073872854200062e-05,4.7857,6.3571
2.90234375,2.0506384245059876e-05,-4.4442055901426736e-05,-2.8324238918135362e-05,-2.4904504722667297e-05,4.7857,6.3571
2.90625,3.902558525978464e-06,-4.639492736705579e-05,-4.052747644769973e-05,-3.516370730907151e-05,4.7857,6.3571
2.91015625,-9.840383993286252e-07,-3.418285331502252e-05,-4.248918443579768e-05,-3.466886205081256e-05,4.7857,6.3571
2.9140625,-3.1844052796401457e-09,-2.7838230182345325e-05,-4.004146771190969e-05,-3.466886205081256e-05,4.7857,6.3571
2.91796875,4.874575997558537e-06,-3.369684457923249e-05,-4.1022321705958674e-05,-3.466886205081256e-05,4.7857,6.3571
2.921875,1.0247181658655648e-05,-3.222998184939348e-05,-3.8088596246280625e-05,-2.930509291218435e-05,4.7857,6.3571
2.92578125,-1.470047135118662e-06,-4.248918443579768e-05,-5.273955049973298e-05,-3.174397311360344e-05,4.7857,6.3571
2.9296875,9.275164187075589e-06,-4.883380756847488e-05,-4.7366944838635865e-05,-3.222998184939348e-05,4.7857,6.3571
2.93359375,4.100711637293045e-05,-3.466886205081256e-05,-3.27159905851835e-05,-3.466886205081256e-05,4.7857,6.3571
2.9375,2.4412127176317965e-05,-4.4442055901426736e-05,-4.883380756847488e-05,-4.394721064316779e-05,4.7857,6.3571
2.94140625,6.341438727397545e-06,-4.4928064637216777e-05,-5.8112156160830105e-05,-4.5900082108796844e-05,4.7857,6.3571
2.9453125,2.7337016113527084e-05,-3.418285331502252e-05,-4.639492736705579e-05,-3.8574604982070666e-05,4.7857,6.3571
2.94921875,3.7101373441672364e-05,-3.369684457923249e-05,-2.3932487251087223e-05,-2.0512753055619157e-05,4.7857,6.3571
2.953125,1.2200053124284707e-05,-3.418285331502252e-05,-2.197961578545818e-05,-1.5626156130312068e-05,4.7857,6.3571
2.95703125,-4.89193141069677e-07,-4.004146771190969e-05,-4.8347798832684845e-05,-3.564971604486155e-05,4.7857,6.3571
2.9609375,1.9496870603494043e-06,-4.052747644769973e-05,-4.980582504005495e-05,-4.5900082108796844e-05,4.7857,6.3571
2.96484375,-2.936909864957684e-06,-4.004146771190969e-05,-4.6880936102845824e-05,-4.5900082108796844e-05,4.7857,6.3571
2.96875,4.874575997558537e-06,-4.541407337300681e-05,-5.0786679034103934e-05,-4.1022321705958674e-05,4.7857,6.3571
2.97265625,2.3431273182268995e-05,-4.931981630426492e-05,-3.955545897611965e-05,-3.027711038376442e-05,4.7857,6.3571
2.9765625,1.757265878538183e-05,-5.0786679034103934e-05,-4.394721064316779e-05,-3.174397311360344e-05,4.7857,6.3571
2.98046875,1.660064131380176e-05,-4.052747644769973e-05,-3.906945024032961e-05,-3.369684457923249e-05,4.7857,6.3571
2.984375,1.4152924589913765e-05,-4.5900082108796844e-05,-3.564971604486155e-05,-4.004146771190969e-05,4.7857,6.3571
2.98828125,5.369421255817471e-06,-4.785295357442589e-05,-3.8088596246280625e-05,-4.2975193171587715e-05,4.7857,6.3571
2.9921875,-1.470047135118662e-06,-3.955545897611965e-05,-3.27159905851835e-05,-3.564971604486155e-05,4.7857,6.3571
2.99609375,2.4356957961394413e-06,-4.4442055901426736e-05,-3.6135724780651584e-05,-3.027711038376442e-05,4.7857,6.3571
3.0,1.5133778583962736e-05,-3.955545897611965e-05,-2.930509291218435e-05,-2.4904504722667297e-05,4.7857,6.3571
3.00390625,2.0506384245059876e-05,-3.564971604486155e-05,-3.222998184939348e-05,-2.2465624521248215e-05,4.7857,6.3571
3.0078125,1.0742026916914596e-05,-5.175869650568401e-05,-4.3461201907377756e-05,-3.8574604982070666e-05,4.7857,6.3571
3.01171875,8.78031892881664e-06,-5.225354176394295e-05,-4.2975193171587715e-05,-4.4442055901426736e-05,4.7857,6.3571
3.015625,1.46477698481727e-05,-4.4928064637216777e-05,-3.8574604982070666e-05,-3.516370730907151e-05,4.7857,6.3571
3.01953125,7.32229272144653e-06,-3.955545897611965e-05,-3.564971604486155e-05,-3.174397311360344e-05,4.7857,6.3571
3.0234375,-1.956055870908699e-06,-4.1994339177538735e-05,-2.441849598687726e-05,-2.6371367452506318e-05,4.7857,6.3571
3.02734375,-5.375790066376766e-06,-5.322555923552302e-05,-2.7352221446555288e-05,-3.662173351644162e-05,4.7857,6.3571
3.03125,1.2694898382543656e-05,-4.4928064637216777e-05,-3.8088596246280625e-05,-3.6135724780651584e-05,4.7857,6.3571
3.03515625,2.4412127176317965e-05,-4.4442055901426736e-05,-3.8574604982070666e-05,-3.174397311360344e-05,4.7857,6.3571
3.0390625,9.275164187075589e-06,-4.980582504005495e-05,-4.541407337300681e-05,-3.711657877470056e-05,4.7857,6.3571
3.04296875,-5.375790066376766e-06,-3.711657877470056e-05,-4.4442055901426736e-05,-4.980582504005495e-05,4.7857,6.3571
3.046875,4.3885672617685e-06,-2.930509291218435e-05,-3.321083584344245e-05,-4.7366944838635865e-05,4.7857,6.3571
3.05078125,1.0742026916914596e-05,-4.1994339177538735e-05,-3.564971604486155e-05,-3.955545897611965e-05,4.7857,6.3571
3.0546875,1.8058667521171868e-05,-3.955545897611965e-05,-4.4928064637216777e-05,-3.321083584344245e-05,4.7857,6.3571
3.05859375,2.09923929808499e-05,-3.321083584344245e-05,-4.5900082108796844e-05,-2.5399349980926244e-05,4.7857,6.3571
3.0625,1.3180907118333691e-05,-3.662173351644162e-05,-4.2975193171587715e-05,-2.8324238918135362e-05,4.7857,6.3571
3.06640625,9.275164187075589e-06,-4.2975193171587715e-05,-3.8574604982070666e-05,-2.6857376188296355e-05,4.7857,6.3571
3.0703125,6.827447463187581e-06,-4.980582504005495e-05,-3.418285331502252e-05,-3.076311911955446e-05,4.7857,6.3571
3.07421875,1.4636783245593676e-06,-4.8347798832684845e-05,-3.27159905851835e-05,-3.516370730907151e-05,4.7857,6.3571
3.078125,-9.281532997634868e-06,-4.394721064316779e-05,-3.516370730907151e-05,-3.369684457923249e-05,4.7857,6.3571
3.08203125,-9.767541733424905e-06,-3.662173351644162e-05,-3.174397311360344e-05,-3.8088596246280625e-05,4.7857,6.3571
3.0859375,4.828243305103968e-07,-4.150833044174871e-05,-2.7838230182345325e-05,-3.662173351644162e-05,4.7857,6.3571
3.08984375,2.4356957961394413e-06,-4.150833044174871e-05,-3.466886205081256e-05,-3.466886205081256e-05,4.7857,6.3571
3.09375,-4.89193141069677e-07,-3.8574604982070666e-05,-3.564971604486155e-05,-3.906945024032961e-05,4.7857,6.3571
3.09765625,-5.375790066376766e-06,-3.6135724780651584e-05,-1.953189906157017e-05,-3.076311911955446e-05,4.7857,6.3571
3.1015625,-1.3187275928892986e-05,-3.027711038376442e-05,-2.2951633257038252e-05,-2.7838230182345325e-05,4.7857,6.3571
3.10546875,-1.4654138658731993e-05,-3.466886205081256e-05,-3.8088596246280625e-05,-3.760258751049059e-05,4.7857,6.3571
3.109375,-1.3673284664683023e-05,-3.125796437781341e-05,-3.955545897611965e-05,-4.004146771190969e-05,4.7857,6.3571
3.11328125,-1.0262386991683854e-05,-2.930509291218435e-05,-3.8574604982070666e-05,-3.955545897611965e-05,4.7857,6.3571
3.1171875,-1.2701267193102949e-05,-3.076311911955446e-05,-3.8088596246280625e-05,-3.418285331502252e-05,4.7857,6.3571
3.12109375,-8.30951552605481e-06,-3.222998184939348e-05,-3.174397311360344e-05,-2.3932487251087223e-05,4.7857,6.3571
3.125,1.3180907118333691e-05,-4.004146771190969e-05,-2.4904504722667297e-05,-2.3437641992828276e-05,4.7857,6.3571
3.12890625,2.147840171663995e-05,-5.664529343099109e-05,-3.760258751049059e-05,-2.4904504722667297e-05,4.7857,6.3571
3.1328125,2.0506384245059876e-05,-4.8347798832684845e-05,-4.3461201907377756e-05,-3.027711038376442e-05,4.7857,6.3571
3.13671875,1.5133778583962736e-05,-3.711657877470056e-05,-3.662173351644162e-05,-3.222998184939348e-05,4.7857,6.3571
3.140625,-4.89193141069677e-07,-4.785295357442589e-05,-3.760258751049059e-05,-3.076311911955446e-05,4.7857,6.3571
3.14453125,-3.422918600747721e-06,-3.027711038376442e-05,-2.6371367452506318e-05,-3.321083584344245e-05,4.7857,6.3571
3.1484375,5.369421255817471e-06,-2.588535871671628e-05,-2.7838230182345325e-05,-3.321083584344245e-05,4.7857,6.3571
3.15234375,5.369421255817471e-06,-4.394721064316779e-05,-4.8347798832684845e-05,-3.076311911955446e-05,4.7857,6.3571
3.15625,-1.956055870908699e-06,-4.4928064637216777e-05,-5.517843070115207e-05,-3.076311911955446e-05,4.7857,6.3571
3.16015625,9.688330663004193e-07,-4.150833044174871e-05,-4.4928064637216777e-05,-2.6857376188296355e-05,4.7857,6.3571
3.1640625,1.9496870603494043e-06,-4.2975193171587715e-05,-4.1994339177538735e-05,-2.6857376188296355e-05,4.7857,6.3571
3.16796875,-4.89193141069677e-07,-5.175869650568401e-05,-6.103704509803923e-05,-3.27159905851835e-05,4.7857,6.3571
3.171875,3.4165497901884265e-06,-5.175869650568401e-05,-6.250390782787825e-05,-3.564971604486155e-05,4.7857,6.3571
3.17578125,2.921704531929478e-06,-4.2975193171587715e-05,-3.8574604982070666e-05,-4.004146771190969e-05,4.7857,6.3571
3.1796875,-2.4420646066987357e-06,-4.052747644769973e-05,-3.369684457923249e-05,-4.1994339177538735e-05,4.7857,6.3571
3.18359375,-1.1234404463263928e-05,-4.8347798832684845e-05,-4.3461201907377756e-05,-3.760258751049059e-05,4.7857,6.3571
3.1875,9.688330663004193e-07,-4.785295357442589e-05,-3.662173351644162e-05,-2.588535871671628e-05,4.7857,6.3571
3.19140625,1.8058667521171868e-05,-3.516370730907151e-05,-2.8324238918135362e-05,-2.4904504722667297e-05,4.7857,6.3571
3.1953125,8.294310193026603e-06,-3.8088596246280625e-05,-4.150833044174871e-05,-3.8574604982070666e-05,4.7857,6.3571
3.19921875,3.902558525978464e-06,-3.711657877470056e-05,-4.2975193171587715e-05,-3.8574604982070666e-05,4.7857,6.3571
3.203125,6.341438727397545e-06,-2.88102476539254e-05,-3.222998184939348e-05,-2.7352221446555288e-05,4.7857,6.3571
3.20703125,1.4636783245593676e-06,-2.7352221446555288e-05,-2.3437641992828276e-05,-2.0512753055619157e-05,4.7857,6.3571
3.2109375,1.9496870603494043e-06,-2.6857376188296355e-05,-3.321083584344245e-05,-3.125796437781341e-05,4.7857,6.3571
3.21484375,1.0247181658655648e-05,-4.052747644769973e-05,-5.7131302166781125e-05,-4.639492736705579e-05,4.7857,6.3571
3.21875,-7.814670267795861e-06,-4.883380756847488e-05,-6.0551036362249193e-05,-4.1994339177538735e-05,4.7857,6.3571
3.22265625,-2.4904504722667297e-05,-3.662173351644162e-05,-4.394721064316779e-05,-4.394721064316779e-05,4.7857,6.3571
3.2265625,-1.0748395727473891e-05,-2.5399349980926244e-05,-2.588535871671628e-05,-3.321083584344245e-05,4.7857,6.3571
3.23046875,-1.660701012436105e-05,-4.1994339177538735e-05,-3.955545897611965e-05,-2.8324238918135362e-05,4.7857,6.3571
3.234375,-1.8559881589990096e-05,-4.4442055901426736e-05,-5.8598164896620146e-05,-3.711657877470056e-05,4.7857,6.3571
3.23828125,1.0247181658655648e-05,-1.4168129922941958e-05,-2.6857376188296355e-05,-2.441849598687726e-05,4.7857,6.3571
3.2421875,3.5148501976043316e-05,-4.889781330586729e-06,-1.0748395727473891e-05,-3.1844052796401457e-09,4.7857,6.3571
3.24609375,9.688330663004193e-07,-4.394721064316779e-05,-4.052747644769973e-05,-1.0748395727473891e-05,4.7857,6.3571
3.25,-2.0512753055619157e-05,-4.248918443579768e-05,-4.004146771190969e-05,-3.466886205081256e-05,4.7857,6.3571
3.25390625,-1.1234404463263928e-05,-1.953189906157017e-05,-2.4904504722667297e-05,-3.6135724780651584e-05,4.7857,6.3571
3.2578125,-1.709301886015109e-05,-3.564971604486155e-05,-3.8088596246280625e-05,-3.8088596246280625e-05,4.7857,6.3571
3.26171875,-1.3187275928892986e-05,-3.906945024032961e-05,-4.248918443579768e-05,-3.8574604982070666e-05,4.7857,6.3571
3.265625,-1.953189906157017e-05,-4.8347798832684845e-05,-3.760258751049059e-05,-3.662173351644162e-05,4.7857,6.3571
3.26953125,-1.0262386991683854e-05,-5.761731090257116e-05,-3.466886205081256e-05,-2.88102476539254e-05,4.7857,6.3571
3.2734375,9.275164187075589e-06,-4.248918443579768e-05,-2.930509291218435e-05,-1.9045890325780133e-05,4.7857,6.3571
3.27734375,-7.814670267795861e-06,-3.906945024032961e-05,-3.564971604486155e-05,-3.027711038376442e-05,4.7857,6.3571
3.28125,-1.2701267193102949e-05,-4.4928064637216777e-05,-3.955545897611965e-05,-3.076311911955446e-05,4.7857,6.3571
3.28515625,-9.281532997634868e-06,-4.394721064316779e-05,-3.369684457923249e-05,-2.5399349980926244e-05,4.7857,6.3571
3.2890625,-1.709301886015109e-05,-3.955545897611965e-05,-3.564971604486155e-05,-3.466886205081256e-05,4.7857,6.3571
3.29296875,-1.1720413199053965e-05,-4.052747644769973e-05,-3.564971604486155e-05,-3.321083584344245e-05,4.7857,6.3571
3.296875,-2.936909864957684e-06,-3.466886205081256e-05,-3.516370730907151e-05,-2.5399349980926244e-05,4.7857,6.3571
3.30078125,-2.936909864957684e-06,-3.027711038376442e-05,-3.222998184939348e-05,-3.27159905851835e-05,4.7857,6.3571
3.3046875,-1.5626156130312068e-05,-3.711657877470056e-05,-2.9791101647974387e-05,-3.27159905851835e-05,4.7857,6.3571
3.30859375,-1.5626156130312068e-05,-3.369684457923249e-05,-1.953189906157017e-05,-2.88102476539254e-05,4.7857,6.3571
3.3125,7.32229272144653e-06,-3.222998184939348e-05,-1.2701267193102949e-05,-1.9045890325780133e-05,4.7857,6.3571
3.31640625,-5.375790066376766e-06,-3.8574604982070666e-05,-2.9791101647974387e-05,-1.7579027595941126e-05,4.7857,6.3571
3.3203125,-3.27159905851835e-05,-4.883380756847488e-05,-3.466886205081256e-05,-3.321083584344245e-05,4.7857,6.3571
3.32421875,-2.588535871671628e-05,-5.0786679034103934e-05,-4.004146771190969e-05,-3.8574604982070666e-05,4.7857,6.3571
3.328125,-1.4168129922941958e-05,-4.7366944838635865e-05,-5.030067029831389e-05,-3.662173351644162e-05,4.7857,6.3571
3.33203125,-3.422918600747721e-06,-3.8088596246280625e-05,-4.541407337300681e-05,-3.027711038376442e-05,4.7857,6.3571
3.3359375,3.902558525978464e-06,-3.8088596246280625e-05,-5.175869650568401e-05,-3.516370730907151e-05,4.7857,6.3571
3.33984375,5.369421255817471e-06,-3.6135724780651584e-05,-5.517843070115207e-05,-3.564971604486155e-05,4.7857,6.3571
3.34375,-2.936909864957684e-06,-2.7838230182345325e-05,-4.541407337300681e-05,-2.7352221446555288e-05,4.7857,6.3571
3.34765625,-1.660701012436105e-05,-4.7366944838635865e-05,-4.639492736705579e-05,-3.466886205081256e-05,4.7857,6.3571
3.3515625,-1.7579027595941126e-05,-4.8347798832684845e-05,-4.4442055901426736e-05,-3.906945024032961e-05,4.7857,6.3571
3.35546875,-1.5626156130312068e-05,-3.466886205081256e-05,-3.906945024032961e-05,-3.662173351644162e-05,4.7857,6.3571
3.359375,-1.1720413199053965e-05,-3.564971604486155e-05,-3.8574604982070666e-05,-3.27159905851835e-05,4.7857,6.3571
3.36328125,-6.347807537956839e-06,-3.418285331502252e-05,-4.052747644769973e-05,-3.418285331502252e-05,4.7857,6.3571
3.3671875,-2.936909864957684e-06,-3.955545897611965e-05,-4.541407337300681e-05,-3.6135724780651584e-05,4.7857,6.3571
3.37109375,-2.936909864957684e-06,-4.248918443579768e-05,-4.5900082108796844e-05,-3.466886205081256e-05,4.7857,6.3571
3.375,-1.0262386991683854e-05,-4.4442055901426736e-05,-4.248918443579768e-05,-2.930509291218435e-05,4.7857,6.3571
3.37890625,-1.660701012436105e-05,-4.6880936102845824e-05,-4.639492736705579e-05,-2.930509291218435e-05,4.7857,6.3571
3.3828125,-1.7579027595941126e-05,-4.1022321705958674e-05,-4.980582504005495e-05,-3.125796437781341e-05,4.7857,6.3571
3.38671875,-3.369684457923249e-05,-5.3711567971313056e-05,-5.761731090257116e-05,-3.6135724780651584e-05,4.7857,6.3571
3.390625,-3.222998184939348e-05,-5.225354176394295e-05,-4.394721064316779e-05,-3.418285331502252e-05,4.7857,6.3571
3.39453125,-2.3932487251087223e-05,-3.8088596246280625e-05,-4.980582504005495e-05,-3.955545897611965e-05,4.7857,6.3571
3.3984375,-1.709301886015109e-05,-2.88102476539254e-05,-4.7366944838635865e-05,-4.1994339177538735e-05,4.7857,6.3571
3.40234375,-1.2701267193102949e-05,-1.953189906157017e-05,-2.197961578545818e-05,-2.7838230182345325e-05,4.7857,6.3571
3.40625,-1.9045890325780133e-05,-3.027711038376442e-05,-3.564971604486155e-05,-3.906945024032961e-05,4.7857,6.3571
3.41015625,9.761172922865626e-06,-1.3187275928892986e-05,-2.0998761791409194e-05,-1.8559881589990096e-05,4.7857,6.3571
3.4140625,-2.936909864957684e-06,-1.8073872854200062e-05,-2.930509291218435e-05,-2.148477052719923e-05,4.7857,6.3571
3.41796875,-3.027711038376442e-05,-3.760258751049059e-05,-5.4206413229572e-05,-4.931981630426492e-05,4.7857,6.3571
3.421875,-4.889781330586729e-06,-2.6857376188296355e-05,-3.6135724780651584e-05,-3.662173351644162e-05,4.7857,6.3571
3.42578125,4.3885672617685e-06,-3.174397311360344e-05,-3.906945024032961e-05,-3.418285331502252e-05,4.7857,6.3571
3.4296875,-6.347807537956839e-06,-3.369684457923249e-05,-5.175869650568401e-05,-3.711657877470056e-05,4.7857,6.3571
3.43359375,-1.8559881589990096e-05,-4.3461201907377756e-05,-5.908417363241018e-05,-3.711657877470056e-05,4.7857,6.3571
3.4375,-6.347807537956839e-06,-4.1994339177538735e-05,-5.7131302166781125e-05,-3.711657877470056e-05,4.7857,6.3571
3.44140625,9.688330663004193e-07,-4.248918443579768e-05,-5.566443943694211e-05,-3.6135724780651584e-05,4.7857,6.3571
3.4453125,-7.328661532005825e-06,-3.466886205081256e-05,-3.662173351644162e-05,-2.588535871671628e-05,4.7857,6.3571
3.44921875,-8.30951552605481e-06,-3.076311911955446e-05,-3.711657877470056e-05,-3.369684457923249e-05,4.7857,6.3571
3.453125,-8.795524261844831e-06,-4.931981630426492e-05,-6.201789909208821e-05,-4.394721064316779e-05,4.7857,6.3571
3.45703125,-8.30951552605481e-06,-3.27159905851835e-05,-4.248918443579768e-05,-3.564971604486155e-05,4.7857,6.3571
3.4609375,-1.953189906157017e-05,-2.6857376188296355e-05,-3.418285331502252e-05,-4.394721064316779e-05,4.7857,6.3571
3.46484375,-1.9045890325780133e-05,-3.662173351644162e-05,-3.466886205081256e-05,-4.248918443579768e-05,4.7857,6.3571
3.46875,-1.4654138658731993e-05,-4.639492736705579e-05,-3.369684457923249e-05,-2.5399349980926244e-05,4.7857,6.3571
3.47265625,-1.6121001388571018e-05,-3.321083584344245e-05,-2.2465624521248215e-05,-1.3187275928892986e-05,4.7857,6.3571
3.4765625,9.761172922865626e-06,-1.1720413199053965e-05,-1.5626156130312068e-05,-1.2215258457312912e-05,4.7857,6.3571
3.48046875,1.2200053124284707e-05,-2.197961578545818e-05,-2.9791101647974387e-05,-2.197961578545818e-05,4.7857,6.3571
3.484375,-1.514014739452203e-05,-2.9791101647974387e-05,-3.369684457923249e-05,-2.9791101647974387e-05,4.7857,6.3571
3.48828125,-1.9045890325780133e-05,-4.541407337300681e-05,-3.125796437781341e-05,-3.321083584344245e-05,4.7857,6.3571
3.4921875,-2.3437641992828276e-05,-6.445677929350731e-05,-3.955545897611965e-05,-4.150833044174871e-05,4.7857,6.3571
3.49609375,-2.2951633257038252e-05,-5.664529343099109e-05,-3.8088596246280625e-05,-3.6135724780651584e-05,4.7857,6.3571
3.5,-1.3187275928892986e-05,-3.516370730907151e-05,-1.8073872854200062e-05,-1.8559881589990096e-05,4.7857,6.3571
3.50390625,-1.514014739452203e-05,-3.711657877470056e-05,-1.953189906157017e-05,-2.7838230182345325e-05,4.7857,6.3571
3.5078125,-2.930509291218435e-05,-4.7366944838635865e-05,-2.6857376188296355e-05,-2.588535871671628e-05,4.7857,6.3571
3.51171875,-3.8574604982070666e-05,-4.004146771190969e-05,-3.027711038376442e-05,-2.002674431982912e-05,4.7857,6.3571
3.515625,-2.2465624521248215e-05,-3.174397311360344e-05,-3.6135724780651584e-05,-3.321083584344245e-05,4.7857,6.3571
3.51953125,-1.7579027595941126e-05,-4.052747644769973e-05,-4.785295357442589e-05,-4.394721064316779e-05,4.7857,6.3571
3.5234375,-8.30951552605481e-06,-4.1022321705958674e-05,-4.3461201907377756e-05,-4.1994339177538735e-05,4.7857,6.3571
3.52734375,-3.422918600747721e-06,-3.516370730907151e-05,-2.7838230182345325e-05,-2.4904504722667297e-05,4.7857,6.3571
3.53125,-1.709301886015109e-05,-4.980582504005495e-05,-4.1994339177538735e-05,-2.7838230182345325e-05,4.7857,6.3571
3.53515625,-5.861798802166802e-06,-4.931981630426492e-05,-4.883380756847488e-05,-3.955545897611965e-05,4.7857,6.3571
3.5390625,4.3885672617685e-06,-3.6135724780651584e-05,-3.6135724780651584e-05,-4.1022321705958674e-05,4.7857,6.3571
3.54296875,-4.889781330586729e-06,-4.004146771190969e-05,-3.8088596246280625e-05,-3.27159905851835e-05,4.7857,6.3571
3.546875,-1.0262386991683854e-05,-4.980582504005495e-05,-3.955545897611965e-05,-3.125796437781341e-05,4.7857,6.3571
3.55078125,-2.148477052719923e-05,-5.8598164896620146e-05,-4.5900082108796844e-05,-4.052747644769973e-05,4.7857,6.3571
3.5546875,-1.660701012436105e-05,-4.541407337300681e-05,-3.662173351644162e-05,-2.5399349980926244e-05,4.7857,6.3571
3.55859375,-7.328661532005825e-06,-2.441849598687726e-05,-2.3437641992828276e-05,-1.3673284664683023e-05,4.7857,6.3571
3.5625,-3.1844052796401457e-09,-2.197961578545818e-05,-3.125796437781341e-05,-1.953189906157017e-05,4.7857,6.3571
3.56640625,5.369421255817471e-06,-2.3437641992828276e-05,-3.6135724780651584e-05,-2.148477052719923e-05,4.7857,6.3571
3.5703125,-1.7579027595941126e-05,-4.1022321705958674e-05,-6.006502762645916e-05,-4.052747644769973e-05,4.7857,6.3571
3.57421875,-1.660701012436105e-05,-4.248918443579768e-05,-6.006502762645916e-05,-4.883380756847488e-05,4.7857,6.3571
3.578125,-1.709301886015109e-05,-3.564971604486155e-05,-4.394721064316779e-05,-4.980582504005495e-05,4.7857,6.3571
3.58203125,-3.466886205081256e-05,-3.906945024032961e-05,-4.639492736705579e-05,-5.908417363241018e-05,4.7857,6.3571
3.5859375,-1.8559881589990096e-05,-3.760258751049059e-05,-4.248918443579768e-05,-4.248918443579768e-05,4.7857,6.3571
3.58984375,2.921704531929478e-06,-4.394721064316779e-05,-3.8088596246280625e-05,-2.3437641992828276e-05,4.7857,6.3571
3.59375,6.341438727397545e-06,-4.4928064637216777e-05,-3.27159905851835e-05,-2.5399349980926244e-05,4.7857,6.3571
3.59765625,-1.0262386991683854e-05,-3.027711038376442e-05,-1.953189906157017e-05,-2.3437641992828276e-05,4.7857,6.3571
3.6015625,-1.9045890325780133e-05,-2.6857376188296355e-05,-2.2951633257038252e-05,-2.148477052719923e-05,4.7857,6.3571
3.60546875,-2.4904504722667297e-05,-4.052747644769973e-05,-3.321083584344245e-05,-3.662173351644162e-05,4.7857,6.3571
3.609375,-3.516370730907151e-05,-4.248918443579768e-05,-2.930509291218435e-05,-4.150833044174871e-05,4.7857,6.3571
3.61328125,-4.394721064316779e-05,-5.566443943694211e-05,-5.273955049973298e-05,-4.6880936102845824e-05,4.7857,6.3571
3.6171875,-3.27159905851835e-05,-3.222998184939348e-05,-3.125796437781341e-05,-2.0512753055619157e-05,4.7857,6.3571
3.62109375,-9.840383993286252e-07,-3.1844052796401457e-09,1.0742026916914596e-05,1.3180907118333691e-05,4.7857,6.3571
3.625,2.4356957961394413e-06,-2.0512753055619157e-05,-1.6121001388571018e-05,-1.709301886015109e-05,4.7857,6.3571
3.62890625,-2.002674431982912e-05,-5.127268776989397e-05,-4.150833044174871e-05,-5.175869650568401e-05,4.7857,6.3571
3.6328125,-3.6135724780651584e-05,-6.201789909208821e-05,-4.883380756847488e-05,-5.3711567971313056e-05,4.7857,6.3571
3.63671875,-2.7838230182345325e-05,-4.931981630426492e-05,-4.883380756847488e-05,-4.394721064316779e-05,4.7857,6.3571
3.640625,-2.7838230182345325e-05,-4.785295357442589e-05,-3.321083584344245e-05,-3.222998184939348e-05,4.7857,6.3571
3.64453125,-2.002674431982912e-05,-3.906945024032961e-05,-1.5626156130312068e-05,-1.6121001388571018e-05,4.7857,6.3571
3.6484375,-1.1234404463263928e-05,-3.516370730907151e-05,-2.4904504722667297e-05,-1.953189906157017e-05,4.7857,6.3571
3.65234375,-1.7579027595941126e-05,-3.906945024032961e-05,-3.174397311360344e-05,-3.516370730907151e-05,4.7857,6.3571
3.65625,-2.3932487251087223e-05,-2.6857376188296355e-05,-2.588535871671628e-05,-3.369684457923249e-05,4.7857,6.3571
3.66015625,-2.588535871671628e-05,-2.197961578545818e-05,-1.9045890325780133e-05,-3.027711038376442e-05,4.7857,6.3571
3.6640625,-3.955545897611965e-05,-4.3461201907377756e-05,-3.8088596246280625e-05,-4.150833044174871e-05,4.7857,6.3571
3.66796875,-3.174397311360344e-05,-3.369684457923249e-05,-3.369684457923249e-05,-3.369684457923249e-05,4.7857,6.3571
3.671875,-2.002674431982912e-05,-1.0748395727473891e-05,-1.2701267193102949e-05,-1.8559881589990096e-05,4.7857,6.3571
3.67578125,-2.7838230182345325e-05,-2.002674431982912e-05,-2.8324238918135362e-05,-2.7838230182345325e-05,4.7857,6.3571
3.6796875,-2.441849598687726e-05,-3.466886205081256e-05,-3.6135724780651584e-05,-2.7352221446555288e-05,4.7857,6.3571
3.68359375,-3.369684457923249e-05,-4.5900082108796844e-05,-4.2975193171587715e-05,-3.076311911955446e-05,4.7857,6.3571
3.6875,-3.418285331502252e-05,-3.906945024032961e-05,-4.394721064316779e-05,-3.27159905851835e-05,4.7857,6.3571
3.69140625,-1.709301886015109e-05,-3.027711038376442e-05,-3.369684457923249e-05,-2.6857376188296355e-05,4.7857,6.3571
3.6953125,-2.2951633257038252e-05,-2.6857376188296355e-05,-3.906945024032961e-05,-3.662173351644162e-05,4.7857,6.3571
3.69921875,-3.711657877470056e-05,-2.930509291218435e-05,-3.222998184939348e-05,-4.1022321705958674e-05,4.7857,6.3571
3.703125,-2.002674431982912e-05,-2.0512753055619157e-05,-2.3932487251087223e-05,-2.9791101647974387e-05,4.7857,6.3571
3.70703125,-3.422918600747721e-06,-2.3437641992828276e-05,-3.760258751049059e-05,-3.27159905851835e-05,4.7857,6.3571
3.7109375,-2.0512753055619157e-05,-4.5900082108796844e-05,-4.1994339177538735e-05,-4.4442055901426736e-05,4.7857,6.3571
3.71484375,-3.8088596246280625e-05,-4.004146771190969e-05,-4.6880936102845824e-05,-3.711657877470056e-05,4.7857,6.3571
3.71875,-3.369684457923249e-05,-3.662173351644162e-05,-4.4928064637216777e-05,-4.394721064316779e-05,4.7857,6.3571
3.72265625,-2.88102476539254e-05,-3.174397311360344e-05,-3.321083584344245e-05,-4.1994339177538735e-05,4.7857,6.3571
3.7265625,-4.3461201907377756e-05,-3.760258751049059e-05,-4.394721064316779e-05,-3.8574604982070666e-05,4.7857,6.3571
3.73046875,-4.394721064316779e-05,-4.8347798832684845e-05,-4.1994339177538735e-05,-3.8574604982070666e-05,4.7857,6.3571
3.734375,-2.7838230182345325e-05,-3.076311911955446e-05,-2.441849598687726e-05,-2.7352221446555288e-05,4.7857,6.3571
3.73828125,-3.174397311360344e-05,-3.955545897611965e-05,-4.6880936102845824e-05,-3.369684457923249e-05,4.7857,6.3571
3.7421875,-2.588535871671628e-05,-4.639492736705579e-05,-5.322555923552302e-05,-2.6857376188296355e-05,4.7857,6.3571
3.74609375,-1.8073872854200062e-05,-3.174397311360344e-05,-3.321083584344245e-05,-1.6121001388571018e-05,4.7857,6.3571
3.75,-2.2951633257038252e-05,-4.052747644769973e-05,-3.516370730907151e-05,-2.6857376188296355e-05,4.7857,6.3571
3.75390625,-3.027711038376442e-05,-4.248918443579768e-05,-4.052747644769973e-05,-2.6371367452506318e-05,4.7857,6.3571
3.7578125,-4.1994339177538735e-05,-3.125796437781341e-05,-5.030067029831389e-05,-3.466886205081256e-05,4.7857,6.3571
3.76171875,-3.321083584344245e-05,-2.8324238918135362e-05,-4.541407337300681e-05,-3.125796437781341e-05,4.7857,6.3571
3.765625,-1.1234404463263928e-05,-3.8088596246280625e-05,-3.418285331502252e-05,-2.2465624521248215e-05,4.7857,6.3571
3.76953125,-2.0512753055619157e-05,-5.030067029831389e-05,-5.761731090257116e-05,-3.906945024032961e-05,4.7857,6.3571
3.7734375,-3.369684457923249e-05,-3.222998184939348e-05,-4.6880936102845824e-05,-3.516370730907151e-05,4.7857,6.3571
3.77734375,-3.418285331502252e-05,-2.148477052719923e-05,-1.4654138658731993e-05,-1.0748395727473891e-05,4.7857,6.3571
3.78125,-1.953189906157017e-05,-2.5399349980926244e-05,-3.125796437781341e-05,-1.709301886015109e-05,4.7857,6.3571
3.78515625,-1.0748395727473891e-05,-4.2975193171587715e-05,-5.273955049973298e-05,-3.8088596246280625e-05,4.7857,6.3571
3.7890625,-4.889781330586729e-06,-3.906945024032961e-05,-3.418285331502252e-05,-2.4904504722667297e-05,4.7857,6.3571
3.79296875,6.341438727397545e-06,-1.9045890325780133e-05,-1.4168129922941958e-05,-1.0262386991683854e-05,4.7857,6.3571
3.796875,-2.6371367452506318e-05,-2.6371367452506318e-05,-3.222998184939348e-05,-2.9791101647974387e-05,4.7857,6.3571
3.80078125,-4.8347798832684845e-05,-4.3461201907377756e-05,-4.394721064316779e-05,-4.394721064316779e-05,4.7857,6.3571
3.8046875,-3.418285331502252e-05,-4.4928064637216777e-05,-3.564971604486155e-05,-3.222998184939348e-05,4.7857,6.3571
3.80859375,-3.6135724780651584e-05,-3.564971604486155e-05,-2.88102476539254e-05,-2.3932487251087223e-05,4.7857,6.3571
3.8125,-4.6880936102845824e-05,-4.2975193171587715e-05,-3.662173351644162e-05,-4.4928064637216777e-05,4.7857,6.3571
3.81640625,-4.7366944838635865e-05,-4.6880936102845824e-05,-4.1994339177538735e-05,-5.030067029831389e-05,4.7857,6.3571
3.8203125,-4.004146771190969e-05,-3.369684457923249e-05,-2.2951633257038252e-05,-3.711657877470056e-05,4.7857,6.3571
3.82421875,-2.148477052719923e-05,-3.321083584344245e-05,-1.953189906157017e-05,-3.662173351644162e-05,4.7857,6.3571
3.828125,-1.9045890325780133e-05,-3.760258751049059e-05,-3.076311911955446e-05,-2.8324238918135362e-05,4.7857,6.3571
3.83203125,-2.88102476539254e-05,-3.8088596246280625e-05,-3.760258751049059e-05,-2.7838230182345325e-05,4.7857,6.3571
3.8359375,-2.3932487251087223e-05,-4.7366944838635865e-05,-3.418285331502252e-05,-3.321083584344245e-05,4.7857,6.3571
3.83984375,-1.8559881589990096e-05,-3.6135724780651584e-05,-2.3932487251087223e-05,-2.88102476539254e-05,4.7857,6.3571
3.84375,-1.7579027595941126e-05,-3.418285331502252e-05,-2.7838230182345325e-05,-1.8559881589990096e-05,4.7857,6.3571
3.84765625,-2.197961578545818e-05,-4.2975193171587715e-05,-4.6880936102845824e-05,-1.6121001388571018e-05,4.7857,6.3571
3.8515625,-3.076311911955446e-05,-5.4692421965362036e-05,-4.980582504005495e-05,-2.0512753055619157e-05,4.7857,6.3571
3.85546875,-3.222998184939348e-05,-4.931981630426492e-05,-4.394721064316779e-05,-2.7352221446555288e-05,4.7857,6.3571
3.859375,-2.2465624521248215e-05,-3.222998184939348e-05,-4.2975193171587715e-05,-3.418285331502252e-05,4.7857,6.3571
3.86328125,-1.8073872854200062e-05,-3.955545897611965e-05,-3.711657877470056e-05,-3.321083584344245e-05,4.7857,6.3571
3.8671875,-2.197961578545818e-05,-5.127268776989397e-05,-3.125796437781341e-05,-3.6135724780651584e-05,4.7857,6.3571
3.87109375,-2.7352221446555288e-05,-4.883380756847488e-05,-3.125796437781341e-05,-4.004146771190969e-05,4.7857,6.3571
3.875,-2.588535871671628e-05,-4.2975193171587715e-05,-4.1022321705958674e-05,-3.760258751049059e-05,4.7857,6.3571
3.87890625,-1.4654138658731993e-05,-3.076311911955446e-05,-3.222998184939348e-05,-2.002674431982912e-05,4.7857,6.3571
3.8828125,-2.3932487251087223e-05,-1.709301886015109e-05,-2.0998761791409194e-05,-2.3932487251087223e-05,4.7857,6.3571
3.88671875,-3.418285331502252e-05,-2.7838230182345325e-05,-2.3437641992828276e-05,-3.125796437781341e-05,4.7857,6.3571
3.890625,-2.002674431982912e-05,-4.052747644769973e-05,-2.3932487251087223e-05,-3.125796437781341e-05,4.7857,6.3571
3.89453125,-1.2701267193102949e-05,-2.5399349980926244e-05,-2.6371367452506318e-05,-3.076311911955446e-05,4.7857,6.3571
3.8984375,-3.076311911955446e-05,-2.002674431982912e-05,-3.6135724780651584e-05,-3.174397311360344e-05,4.7857,6.3571
3.90234375,-3.662173351644162e-05,-3.760258751049059e-05,-4.248918443579768e-05,-4.1022321705958674e-05,4.7857,6.3571
3.90625,-3.906945024032961e-05,-5.615928469520106e-05,-4.7366944838635865e-05,-3.906945024032961e-05,4.7857,6.3571
3.91015625,-2.148477052719923e-05,-4.6880936102845824e-05,-2.930509291218435e-05,-1.3187275928892986e-05,4.7857,6.3571
3.9140625,-1.709301886015109e-05,-3.321083584344245e-05,-2.8324238918135362e-05,-1.2215258457312912e-05,4.7857,6.3571
3.91796875,-3.516370730907151e-05,-3.8088596246280625e-05,-4.4928064637216777e-05,-3.27159905851835e-05,4.7857,6.3571
3.921875,-4.1994339177538735e-05,-4.5900082108796844e-05,-5.4206413229572e-05,-4.5900082108796844e-05,4.7857,6.3571
3.92578125,-4.150833044174871e-05,-5.908417363241018e-05,-5.908417363241018e-05,-5.3711567971313056e-05,4.7857,6.3571
3.9296875,-3.760258751049059e-05,-6.397077055771727e-05,-5.7131302166781125e-05,-5.030067029831389e-05,4.7857,6.3571
3.93359375,-3.27159905851835e-05,-4.931981630426492e-05,-4.1994339177538735e-05,-2.88102476539254e-05,4.7857,6.3571
3.9375,-3.174397311360344e-05,-3.125796437781341e-05,-2.588535871671628e-05,-1.956055870908699e-06,4.7857,6.3571
3.94140625,-4.1994339177538735e-05,-3.6135724780651584e-05,-4.052747644769973e-05,-1.660701012436105e-05,4.7857,6.3571
3.9453125,-3.906945024032961e-05,-5.225354176394295e-05,-5.322555923552302e-05,-4.2975193171587715e-05,4.7857,6.3571
3.94921875,-1.660701012436105e-05,-3.6135724780651584e-05,-3.516370730907151e-05,-2.8324238918135362e-05,4.7857,6.3571
3.953125,-2.148477052719923e-05,-2.930509291218435e-05,-3.222998184939348e-05,-3.711657877470056e-05,4.7857,6.3571
3.95703125,-3.466886205081256e-05,-2.9791101647974387e-05,-3.906945024032961e-05,-4.8347798832684845e-05,4.7857,6.3571
3.9609375,-4.5900082108796844e-05,-2.8324238918135362e-05,-3.8574604982070666e-05,-2.88102476539254e-05,4.7857,6.3571
3.96484375,-5.175869650568401e-05,-4.639492736705579e-05,-4.931981630426492e-05,-3.321083584344245e-05,4.7857,6.3571
3.96875,-3.369684457923249e-05,-5.322555923552302e-05,-5.127268776989397e-05,-3.466886205081256e-05,4.7857,6.3571
3.97265625,-2.3437641992828276e-05,-4.3461201907377756e-05,-3.516370730907151e-05,-2.4904504722667297e-05,4.7857,6.3571
3.9765625,-3.8088596246280625e-05,-4.394721064316779e-05,-4.052747644769973e-05,-3.321083584344245e-05,4.7857,6.3571
3.98046875,-4.052747644769973e-05,-3.8574604982070666e-05,-4.5900082108796844e-05,-3.6135724780651584e-05,4.7857,6.3571
3.984375,-3.174397311360344e-05,-3.955545897611965e-05,-3.760258751049059e-05,-2.588535871671628e-05,4.7857,6.3571
3.98828125,-2.588535871671628e-05,-4.4442055901426736e-05,-2.9791101647974387e-05,-1.953189906157017e-05,4.7857,6.3571
3.9921875,-3.27159905851835e-05,-4.004146771190969e-05,-3.8574604982070666e-05,-3.027711038376442e-05,4.7857,6.3571
3.99609375,-3.27159905851835e-05,-2.88102476539254e-05,-3.906945024032961e-05,-3.27159905851835e-05,4.7857,6.3571
