timestamp,TP9,AF7,AF8,TP10,Valence,Arousal
0.0,-4.101809267963682e-05,-1.6602596231021577e-05,1.757684123842223e-05,-3.857616677500571e-05,3.25,2.75
0.00390625,-4.443453138750284e-05,-1.8070009332417775e-05,-2.9330788018615833e-06,-3.173952676157776e-05,3.25,2.75
0.0078125,-4.6387319591668554e-05,-3.0275876257877457e-05,-3.7597891374074906e-05,-3.467059036667428e-05,3.25,2.75
0.01171875,-4.834010779583427e-05,-3.6134240870374587e-05,-4.199260548287173e-05,-3.857616677500571e-05,3.25,2.75
0.015625,-4.492366908796825e-05,-2.6855674952315538e-05,1.6598565837491434e-05,-3.076501395834285e-05,3.25,2.75
0.01953125,-4.2970880883802537e-05,-4.834010779583427e-05,4.881836612497153e-06,-3.125038906111236e-05,3.25,2.75
0.0234375,-3.9554442175936506e-05,-5.127117140093078e-05,-3.173952676157776e-05,-2.929760085694665e-05,3.25,2.75
0.02734375,-3.8087029074540304e-05,-5.9571461918059035e-05,-6.396617602685586e-05,-2.3439236244449517e-05,3.25,2.75
0.03125,-3.076501395834285e-05,-8.25157826675822e-05,-6.885002783611809e-05,-2.246096084351871e-05,3.25,2.75
0.03515625,-3.515972806713968e-05,-6.836089013565269e-05,-2.539202444861523e-05,-1.1233369318989837e-05,3.25,2.75
0.0390625,-4.0528954979171414e-05,-7.958848166018157e-05,-2.881222575417714e-05,-8.791443414358724e-06,3.25,2.75
0.04296875,-2.9786738557412055e-05,-8.837790987777523e-05,-6.640810193148698e-05,-1.6113458530556172e-05,3.25,2.75
0.046875,-2.3439236244449517e-05,-6.885002783611809e-05,-6.0060599618524433e-05,-1.1718744421759347e-05,3.25,2.75
0.05078125,-1.8555384435187285e-05,-6.885002783611809e-05,-2.8323088053711742e-05,-1.1718744421759347e-05,3.25,2.75
0.0546875,-2.1975585740749204e-05,-8.54468462726787e-05,-4.541280678843364e-05,-2.0508172639353e-05,3.25,2.75
0.05859375,-4.0528954979171414e-05,-7.129195374074921e-05,-5.566588550972761e-05,-2.539202444861523e-05,3.25,2.75
0.0625,-3.418145266620888e-05,-5.078203370046538e-05,-1.2697019822690151e-05,-2.7344812652780936e-05,3.25,2.75
0.06640625,-2.2950098543984112e-05,-9.863098859906918e-05,-4.736559499259935e-05,-2.881222575417714e-05,3.25,2.75
0.0703125,-2.4417511645380313e-05,-7.812483115648125e-05,-9.179434858564124e-05,-2.881222575417714e-05,3.25,2.75
0.07421875,-2.588116214908063e-05,-2.588116214908063e-05,-4.101809267963682e-05,-3.0275876257877457e-05,3.25,2.75
0.078125,-2.002279753658349e-05,-6.054973731898984e-05,-3.662337857083999e-05,-3.320317726527808e-05,3.25,2.75
0.08203125,-1.1233369318989837e-05,-5.6155023210193004e-05,-4.687645729213396e-05,-3.8087029074540304e-05,3.25,2.75
0.0859375,-1.8070009332417775e-05,-1.953365983611809e-05,-1.904452213565269e-05,-3.7597891374074906e-05,3.25,2.75
0.08984375,-1.904452213565269e-05,-2.9330788018615833e-06,-1.367529522362095e-05,-4.5901944488899044e-05,3.25,2.75
0.09375,-2.0997310339818404e-05,-1.5628083427786662e-05,-3.662337857083999e-05,-4.785473269306476e-05,3.25,2.75
0.09765625,-2.1975585740749204e-05,-3.564510316990919e-05,-2.3928373944914915e-05,-4.3945393687037445e-05,3.25,2.75
0.1015625,-1.8555384435187285e-05,-1.0744231618524437e-05,-1.2697019822690151e-05,-5.273482190463109e-05,3.25,2.75
0.10546875,-3.222866446204317e-05,-2.0508172639353e-05,-8.302305713893317e-06,-5.566588550972761e-05,3.25,2.75
0.109375,-3.857616677500571e-05,-1.8555384435187285e-05,1.0251063524528888e-05,-5.517674780926221e-05,3.25,2.75
0.11328125,-3.6134240870374587e-05,4.871225037003341e-07,2.1971555347219064e-05,-4.736559499259935e-05,3.25,2.75
0.1171875,-3.662337857083999e-05,1.4616353069352356e-06,1.904049174212254e-05,-4.882924549629968e-05,3.25,2.75
0.12109375,-3.467059036667428e-05,4.392698912031761e-06,3.903561211566355e-06,-5.517674780926221e-05,3.25,2.75
0.125,-4.346001858426793e-05,-4.8858670060272965e-06,2.4399107078660477e-06,-4.6387319591668554e-05,3.25,2.75
0.12890625,-4.492366908796825e-05,5.856349415732069e-06,2.9293570463416514e-05,-4.541280678843364e-05,3.25,2.75
0.1328125,-3.906530447547111e-05,7.3237625171282725e-06,2.83190576601816e-05,-5.029289599999998e-05,3.25,2.75
0.13671875,-3.6134240870374587e-05,-3.418453904631093e-06,2.2946068150453966e-05,-5.224944680186158e-05,3.25,2.75
0.140625,-3.906530447547111e-05,-2.4417511645380313e-05,1.855135404165715e-05,-5.664416091065841e-05,3.25,2.75
0.14453125,-3.9554442175936506e-05,-4.0528954979171414e-05,1.1229338925459699e-05,-5.029289599999998e-05,3.25,2.75
0.1484375,-3.271780216250857e-05,-1.5628083427786662e-05,1.708770353795684e-05,-4.199260548287173e-05,3.25,2.75
0.15234375,-3.467059036667428e-05,8.78741302082858e-06,2.3435205850919374e-05,-4.931838319676507e-05,3.25,2.75
0.15625,-4.0528954979171414e-05,3.903561211566355e-06,2.489885635461968e-05,-5.273482190463109e-05,3.25,2.75
0.16015625,-3.7112516271305396e-05,9.276550721293986e-06,3.4666559973144144e-05,-4.5901944488899044e-05,3.25,2.75
0.1640625,-3.662337857083999e-05,2.83190576601816e-05,3.0760983564812715e-05,-4.2970880883802537e-05,3.25,2.75
0.16796875,-3.662337857083999e-05,2.685540715648129e-05,3.1246358667582226e-05,-4.150723038010222e-05,3.25,2.75
0.171875,-3.564510316990919e-05,1.562405303425652e-05,3.955041178240637e-05,-3.7112516271305396e-05,3.25,2.75
0.17578125,-3.515972806713968e-05,1.806597893888764e-05,1.0740201224994294e-05,-4.101809267963682e-05,3.25,2.75
0.1796875,-3.7597891374074906e-05,1.2692989429160007e-05,1.3671264830090805e-05,-4.443453138750284e-05,3.25,2.75
0.18359375,-4.541280678843364e-05,2.4399107078660477e-06,3.808299868101017e-05,-4.443453138750284e-05,3.25,2.75
0.1875,-5.029289599999998e-05,-4.396729305561891e-06,2.5387994055085085e-05,-4.5901944488899044e-05,3.25,2.75
0.19140625,-5.078203370046538e-05,-7.327792910658417e-06,4.392698912031761e-06,-4.785473269306476e-05,3.25,2.75
0.1953125,-4.346001858426793e-05,-7.327792910658417e-06,-3.418453904631093e-06,-4.443453138750284e-05,3.25,2.75
0.19921875,-4.248174318333713e-05,-1.709173393148698e-05,7.3237625171282725e-06,-3.8087029074540304e-05,3.25,2.75
0.203125,-4.150723038010222e-05,-2.588116214908063e-05,1.806597893888764e-05,-3.857616677500571e-05,3.25,2.75
0.20703125,-4.199260548287173e-05,-2.3439236244449517e-05,8.298275320363175e-06,-3.7112516271305396e-05,3.25,2.75
0.2109375,-4.6387319591668554e-05,-2.4902886748149823e-05,-7.813168013427926e-06,-3.369231496574348e-05,3.25,2.75
0.21484375,-4.101809267963682e-05,-2.8323088053711742e-05,-6.83865521019301e-06,-3.467059036667428e-05,3.25,2.75
0.21875,-4.199260548287173e-05,-2.4902886748149823e-05,1.2692989429160007e-05,-3.369231496574348e-05,3.25,2.75
0.22265625,-4.199260548287173e-05,-1.2207882122224751e-05,4.881836612497153e-06,-3.076501395834285e-05,3.25,2.75
0.2265625,-3.9554442175936506e-05,-1.6602596231021577e-05,-7.327792910658417e-06,-3.076501395834285e-05,3.25,2.75
0.23046875,-4.346001858426793e-05,-1.7580871631952377e-05,-3.418453904631093e-06,-3.271780216250857e-05,3.25,2.75
0.234375,-4.687645729213396e-05,-2.0508172639353e-05,-9.765279999999875e-07,-2.0508172639353e-05,3.25,2.75
0.23828125,-4.931838319676507e-05,-2.6370299849546027e-05,-2.443941101396177e-06,-2.0997310339818404e-05,3.25,2.75
0.2421875,-4.492366908796825e-05,-2.6855674952315538e-05,-7.327792910658417e-06,-3.564510316990919e-05,3.25,2.75
0.24609375,-4.346001858426793e-05,-2.929760085694665e-05,-1.0744231618524437e-05,-3.320317726527808e-05,3.25,2.75
0.25,-4.2970880883802537e-05,-2.002279753658349e-05,-1.709173393148698e-05,-3.076501395834285e-05,3.25,2.75
0.25390625,-4.346001858426793e-05,-2.6855674952315538e-05,-6.3495175097276045e-06,-3.320317726527808e-05,3.25,2.75
0.2578125,-4.443453138750284e-05,-3.857616677500571e-05,4.881836612497153e-06,-3.320317726527808e-05,3.25,2.75
0.26171875,-4.541280678843364e-05,-3.173952676157776e-05,-9.765279999999875e-07,-3.8087029074540304e-05,3.25,2.75
0.265625,-3.9554442175936506e-05,4.881836612497153e-06,1.6113190734721924e-05,-4.150723038010222e-05,3.25,2.75
0.26953125,-3.369231496574348e-05,8.298275320363175e-06,4.881836612497153e-06,-2.6370299849546027e-05,3.25,2.75
0.2734375,-3.9554442175936506e-05,-5.517674780926221e-05,-4.492366908796825e-05,-1.7580871631952377e-05,3.25,2.75
0.27734375,-3.6134240870374587e-05,-8.203040756481267e-05,-5.7618673713893324e-05,-2.4902886748149823e-05,3.25,2.75
0.28125,-3.857616677500571e-05,-7.763569345601586e-05,-5.859694911482413e-05,-2.1975585740749204e-05,3.25,2.75
0.28515625,-4.882924549629968e-05,-8.739963447684442e-05,-6.787175243518729e-05,-2.0508172639353e-05,3.25,2.75
0.2890625,-5.420223500602729e-05,-8.64251216736095e-05,-6.445531372732127e-05,-2.6370299849546027e-05,3.25,2.75
0.29296875,-5.468761010879681e-05,-9.912012629953459e-05,-7.129195374074921e-05,-2.4902886748149823e-05,3.25,2.75
0.296875,-5.566588550972761e-05,-0.00010742041681666283,-8.691049677637902e-05,-2.1975585740749204e-05,3.25,2.75
0.30078125,-5.517674780926221e-05,-9.863098859906918e-05,-9.374713678980695e-05,-2.002279753658349e-05,3.25,2.75
0.3046875,-5.1760309101396184e-05,-0.00010546762861249712,-9.765271319813838e-05,-2.1975585740749204e-05,3.25,2.75
0.30859375,-5.6155023210193004e-05,-0.00010937320502082855,-9.228348628610665e-05,-2.6370299849546027e-05,3.25,2.75
0.3125,-5.9571461918059035e-05,-0.0001035148404083314,-7.665741805508505e-05,-2.4417511645380313e-05,3.25,2.75
0.31640625,-5.566588550972761e-05,-9.569992499397267e-05,-7.226646654398413e-05,-2.0997310339818404e-05,3.25,2.75
0.3203125,-5.32239596050965e-05,-9.033069808194094e-05,-6.689723963195238e-05,-2.6855674952315538e-05,3.25,2.75
0.32421875,-4.980752089723047e-05,-8.105213216388187e-05,-6.591896423102157e-05,-2.7344812652780936e-05,3.25,2.75
0.328125,-4.834010779583427e-05,-6.885002783611809e-05,-6.347703832639046e-05,-3.320317726527808e-05,3.25,2.75
0.33203125,-5.273482190463109e-05,-6.152425012222475e-05,-4.687645729213396e-05,-3.7112516271305396e-05,3.25,2.75
0.3359375,-5.32239596050965e-05,-5.420223500602729e-05,-4.0039817278706016e-05,-2.9786738557412055e-05,3.25,2.75
0.33984375,-4.736559499259935e-05,-5.8107811414358716e-05,-3.467059036667428e-05,-3.662337857083999e-05,3.25,2.75
0.34375,-4.541280678843364e-05,-5.224944680186158e-05,-3.125038906111236e-05,-3.857616677500571e-05,3.25,2.75
0.34765625,-4.3945393687037445e-05,-4.199260548287173e-05,-2.0997310339818404e-05,-2.881222575417714e-05,3.25,2.75
0.3515625,-4.5901944488899044e-05,-2.3928373944914915e-05,-1.318615752315555e-05,-2.3928373944914915e-05,3.25,2.75
0.35546875,-4.3945393687037445e-05,-1.8070009332417775e-05,-8.791443414358724e-06,-2.929760085694665e-05,3.25,2.75
0.359375,-3.7112516271305396e-05,-3.7112516271305396e-05,-2.3439236244449517e-05,-3.125038906111236e-05,3.25,2.75
0.36328125,-3.7597891374074906e-05,-4.0039817278706016e-05,-3.8087029074540304e-05,-2.246096084351871e-05,3.25,2.75
0.3671875,-3.857616677500571e-05,-2.7833950353246344e-05,-2.4417511645380313e-05,-2.539202444861523e-05,3.25,2.75
0.37109375,-3.467059036667428e-05,-1.7580871631952377e-05,-1.2697019822690151e-05,-2.881222575417714e-05,3.25,2.75
0.375,-3.125038906111236e-05,-5.371242108796807e-06,-1.318615752315555e-05,-2.7833950353246344e-05,3.25,2.75
0.37890625,-3.7597891374074906e-05,-4.8858670060272965e-06,-2.2950098543984112e-05,-2.539202444861523e-05,3.25,2.75
0.3828125,-4.3945393687037445e-05,-3.857616677500571e-05,-2.6855674952315538e-05,-3.0275876257877457e-05,3.25,2.75
0.38671875,-4.2970880883802537e-05,-4.834010779583427e-05,-2.4417511645380313e-05,-3.369231496574348e-05,3.25,2.75
0.390625,-3.369231496574348e-05,-2.8323088053711742e-05,-2.3439236244449517e-05,-3.222866446204317e-05,3.25,2.75
0.39453125,-3.173952676157776e-05,-1.904452213565269e-05,-1.0744231618524437e-05,-3.6134240870374587e-05,3.25,2.75
0.3984375,-3.9554442175936506e-05,-2.539202444861523e-05,-6.3495175097276045e-06,-3.125038906111236e-05,3.25,2.75
0.40234375,-3.515972806713968e-05,-2.539202444861523e-05,-1.953365983611809e-05,-2.9786738557412055e-05,3.25,2.75
0.40625,-3.467059036667428e-05,-2.002279753658349e-05,-3.418453904631093e-06,-3.8087029074540304e-05,3.25,2.75
0.41015625,-2.9786738557412055e-05,-1.709173393148698e-05,-1.1233369318989837e-05,-3.857616677500571e-05,3.25,2.75
0.4140625,-2.3439236244449517e-05,-1.0744231618524437e-05,-2.3928373944914915e-05,-3.857616677500571e-05,3.25,2.75
0.41796875,-3.173952676157776e-05,-2.929760085694665e-05,-1.6602596231021577e-05,-4.101809267963682e-05,3.25,2.75
0.421875,-3.467059036667428e-05,-4.346001858426793e-05,-1.953365983611809e-05,-3.857616677500571e-05,3.25,2.75
0.42578125,-4.2970880883802537e-05,-3.369231496574348e-05,-1.8555384435187285e-05,-3.662337857083999e-05,3.25,2.75
0.4296875,-4.6387319591668554e-05,-2.0508172639353e-05,-1.5628083427786662e-05,-3.418145266620888e-05,3.25,2.75
0.43359375,-4.101809267963682e-05,-1.416067032639046e-05,-7.327792910658417e-06,-3.271780216250857e-05,3.25,2.75
0.4375,-4.2970880883802537e-05,-2.3928373944914915e-05,-1.8555384435187285e-05,-3.271780216250857e-05,3.25,2.75
0.44140625,-4.248174318333713e-05,-2.3439236244449517e-05,-3.222866446204317e-05,-4.0039817278706016e-05,3.25,2.75
0.4453125,-3.222866446204317e-05,-2.0508172639353e-05,-2.3928373944914915e-05,-4.101809267963682e-05,3.25,2.75
0.44921875,-2.4417511645380313e-05,-2.1975585740749204e-05,-1.953365983611809e-05,-3.467059036667428e-05,3.25,2.75
0.453125,-3.0275876257877457e-05,-1.6602596231021577e-05,-2.7833950353246344e-05,-2.8323088053711742e-05,3.25,2.75
0.45703125,-3.320317726527808e-05,-2.0997310339818404e-05,-2.0997310339818404e-05,-3.369231496574348e-05,3.25,2.75
0.4609375,-3.0275876257877457e-05,-2.3928373944914915e-05,-1.1233369318989837e-05,-4.492366908796825e-05,3.25,2.75
0.46484375,-2.588116214908063e-05,-2.929760085694665e-05,-1.8070009332417775e-05,-5.127117140093078e-05,3.25,2.75
0.46875,-3.076501395834285e-05,-2.539202444861523e-05,-1.4649808026855864e-05,-3.857616677500571e-05,3.25,2.75
0.47265625,-3.418145266620888e-05,-1.318615752315555e-05,-1.8070009332417775e-05,-3.418145266620888e-05,3.25,2.75
0.4765625,-3.515972806713968e-05,-1.8555384435187285e-05,-3.0275876257877457e-05,-4.5901944488899044e-05,3.25,2.75
0.48046875,-3.467059036667428e-05,-3.271780216250857e-05,-2.7344812652780936e-05,-3.9554442175936506e-05,3.25,2.75
0.484375,-3.125038906111236e-05,-2.6370299849546027e-05,-1.6113458530556172e-05,-4.0528954979171414e-05,3.25,2.75
0.48828125,-2.8323088053711742e-05,-2.002279753658349e-05,-1.904452213565269e-05,-4.980752089723047e-05,3.25,2.75
0.4921875,-2.4902886748149823e-05,-1.7580871631952377e-05,-1.8555384435187285e-05,-3.7112516271305396e-05,3.25,2.75
0.49609375,-3.320317726527808e-05,-3.173952676157776e-05,-1.6602596231021577e-05,-2.3439236244449517e-05,3.25,2.75
0.5,-3.564510316990919e-05,-3.173952676157776e-05,-3.320317726527808e-05,-2.246096084351871e-05,3.25,2.75
0.50390625,-3.369231496574348e-05,-1.5138945727321264e-05,-3.222866446204317e-05,-2.3928373944914915e-05,3.25,2.75
0.5078125,-3.222866446204317e-05,-1.8070009332417775e-05,-2.1975585740749204e-05,-2.4417511645380313e-05,3.25,2.75
0.51171875,-3.173952676157776e-05,-2.3439236244449517e-05,-2.4902886748149823e-05,-3.6134240870374587e-05,3.25,2.75
0.515625,-3.564510316990919e-05,-2.4902886748149823e-05,-3.564510316990919e-05,-5.127117140093078e-05,3.25,2.75
0.51953125,-2.1975585740749204e-05,-1.5138945727321264e-05,-2.0997310339818404e-05,-4.248174318333713e-05,3.25,2.75
0.5234375,-2.0997310339818404e-05,-2.929760085694665e-05,-1.7580871631952377e-05,-2.246096084351871e-05,3.25,2.75
0.52734375,-4.0528954979171414e-05,-5.7618673713893324e-05,-3.564510316990919e-05,-1.953365983611809e-05,3.25,2.75
0.53125,-3.906530447547111e-05,-6.0060599618524433e-05,-4.199260548287173e-05,-1.8070009332417775e-05,3.25,2.75
0.53515625,-3.564510316990919e-05,-6.396617602685586e-05,-5.908232421759364e-05,-1.8555384435187285e-05,3.25,2.75
0.5390625,-3.7597891374074906e-05,-7.129195374074921e-05,-7.275560424444951e-05,-2.6370299849546027e-05,3.25,2.75
0.54296875,-4.6387319591668554e-05,-8.59359839731441e-05,-9.667820039490347e-05,-3.564510316990919e-05,3.25,2.75
0.546875,-4.0039817278706016e-05,-8.59359839731441e-05,-8.64251216736095e-05,-2.9786738557412055e-05,3.25,2.75
0.55078125,-3.857616677500571e-05,-7.275560424444951e-05,-7.421925474814984e-05,-1.904452213565269e-05,3.25,2.75
0.5546875,-4.346001858426793e-05,-7.177732884351871e-05,-7.763569345601586e-05,-2.0508172639353e-05,3.25,2.75
0.55859375,-4.199260548287173e-05,-7.909934395971616e-05,-7.421925474814984e-05,-2.929760085694665e-05,3.25,2.75
0.5625,-4.443453138750284e-05,-6.591896423102157e-05,-6.885002783611809e-05,-4.199260548287173e-05,3.25,2.75
0.56640625,-4.443453138750284e-05,-5.859694911482413e-05,-7.226646654398413e-05,-4.541280678843364e-05,3.25,2.75
0.5703125,-4.492366908796825e-05,-5.468761010879681e-05,-6.836089013565269e-05,-4.0039817278706016e-05,3.25,2.75
0.57421875,-4.3945393687037445e-05,-5.468761010879681e-05,-5.273482190463109e-05,-3.173952676157776e-05,3.25,2.75
0.578125,-3.515972806713968e-05,-5.029289599999998e-05,-5.6155023210193004e-05,-2.6370299849546027e-05,3.25,2.75
0.58203125,-3.271780216250857e-05,-3.222866446204317e-05,-5.37130973055619e-05,-3.222866446204317e-05,3.25,2.75
0.5859375,-4.0039817278706016e-05,-4.736559499259935e-05,-4.931838319676507e-05,-3.7112516271305396e-05,3.25,2.75
0.58984375,-3.515972806713968e-05,-5.9571461918059035e-05,-4.6387319591668554e-05,-3.369231496574348e-05,3.25,2.75
0.59375,-3.222866446204317e-05,-3.515972806713968e-05,-5.468761010879681e-05,-3.515972806713968e-05,3.25,2.75
0.59765625,-3.369231496574348e-05,-4.150723038010222e-05,-5.029289599999998e-05,-4.150723038010222e-05,3.25,2.75
0.6015625,-3.418145266620888e-05,-4.3945393687037445e-05,-3.418145266620888e-05,-4.3945393687037445e-05,3.25,2.75
0.60546875,-3.9554442175936506e-05,-3.515972806713968e-05,-3.6134240870374587e-05,-4.150723038010222e-05,3.25,2.75
0.609375,-4.2970880883802537e-05,-2.6855674952315538e-05,-2.6855674952315538e-05,-3.320317726527808e-05,3.25,2.75
0.61328125,-4.2970880883802537e-05,-2.7833950353246344e-05,-1.8555384435187285e-05,-2.1975585740749204e-05,3.25,2.75
0.6171875,-3.857616677500571e-05,-2.588116214908063e-05,-2.1486448040283802e-05,-2.7833950353246344e-05,3.25,2.75
0.62109375,-3.369231496574348e-05,-1.318615752315555e-05,-2.8323088053711742e-05,-2.881222575417714e-05,3.25,2.75
0.625,-3.7597891374074906e-05,-1.7580871631952377e-05,-2.6370299849546027e-05,-3.076501395834285e-05,3.25,2.75
0.62890625,-3.906530447547111e-05,-2.6370299849546027e-05,-2.8323088053711742e-05,-3.9554442175936506e-05,3.25,2.75
0.6328125,-4.0528954979171414e-05,-2.0508172639353e-05,-3.564510316990919e-05,-3.564510316990919e-05,3.25,2.75
0.63671875,-4.3945393687037445e-05,-3.222866446204317e-05,-3.662337857083999e-05,-3.320317726527808e-05,3.25,2.75
0.640625,-4.199260548287173e-05,-5.029289599999998e-05,-4.736559499259935e-05,-4.834010779583427e-05,3.25,2.75
0.64453125,-3.662337857083999e-05,-3.9554442175936506e-05,-4.736559499259935e-05,-5.1760309101396184e-05,3.25,2.75
0.6484375,-3.857616677500571e-05,-4.248174318333713e-05,-3.467059036667428e-05,-3.125038906111236e-05,3.25,2.75
0.65234375,-3.7112516271305396e-05,-5.32239596050965e-05,-3.125038906111236e-05,-1.953365983611809e-05,3.25,2.75
0.65625,-3.857616677500571e-05,-3.564510316990919e-05,-4.0528954979171414e-05,-2.4902886748149823e-05,3.25,2.75
0.66015625,-4.6387319591668554e-05,-1.904452213565269e-05,-3.0275876257877457e-05,-2.881222575417714e-05,3.25,2.75
0.6640625,-4.443453138750284e-05,-2.8323088053711742e-05,-2.539202444861523e-05,-3.9554442175936506e-05,3.25,2.75
0.66796875,-4.0039817278706016e-05,-2.6370299849546027e-05,-2.929760085694665e-05,-4.785473269306476e-05,3.25,2.75
0.671875,-3.9554442175936506e-05,-2.1975585740749204e-05,-3.173952676157776e-05,-4.2970880883802537e-05,3.25,2.75
0.67578125,-3.076501395834285e-05,-1.8555384435187285e-05,-3.271780216250857e-05,-4.785473269306476e-05,3.25,2.75
0.6796875,-2.9786738557412055e-05,-1.7580871631952377e-05,-2.539202444861523e-05,-5.37130973055619e-05,3.25,2.75
0.68359375,-3.515972806713968e-05,-2.9786738557412055e-05,-3.0275876257877457e-05,-3.8087029074540304e-05,3.25,2.75
0.6875,-3.7597891374074906e-05,-4.492366908796825e-05,-3.662337857083999e-05,-2.7833950353246344e-05,3.25,2.75
0.69140625,-3.857616677500571e-05,-4.5901944488899044e-05,-3.125038906111236e-05,-2.1975585740749204e-05,3.25,2.75
0.6953125,-4.3945393687037445e-05,-3.9554442175936506e-05,-3.173952676157776e-05,-2.6855674952315538e-05,3.25,2.75
0.69921875,-4.736559499259935e-05,-4.0528954979171414e-05,-4.101809267963682e-05,-3.9554442175936506e-05,3.25,2.75
0.703125,-3.8087029074540304e-05,-3.7112516271305396e-05,-4.736559499259935e-05,-2.9786738557412055e-05,3.25,2.75
0.70703125,-3.320317726527808e-05,-2.929760085694665e-05,-4.5901944488899044e-05,-2.0508172639353e-05,3.25,2.75
0.7109375,-3.418145266620888e-05,-2.1486448040283802e-05,-4.3945393687037445e-05,-2.9786738557412055e-05,3.25,2.75
0.71484375,-3.906530447547111e-05,-2.0997310339818404e-05,-4.3945393687037445e-05,-3.076501395834285e-05,3.25,2.75
0.71875,-3.857616677500571e-05,-2.0508172639353e-05,-2.588116214908063e-05,-2.6370299849546027e-05,3.25,2.75
0.72265625,-2.9786738557412055e-05,-5.078203370046538e-05,-3.662337857083999e-05,-2.3928373944914915e-05,3.25,2.75
0.7265625,-2.6370299849546027e-05,-8.154126986434728e-05,-7.665741805508505e-05,-2.6370299849546027e-05,3.25,2.75
0.73046875,-3.125038906111236e-05,-5.859694911482413e-05,-6.787175243518729e-05,-4.3945393687037445e-05,3.25,2.75
0.734375,-2.9786738557412055e-05,-4.834010779583427e-05,-6.250252552315556e-05,-4.6387319591668554e-05,3.25,2.75
0.73828125,-1.953365983611809e-05,-6.250252552315556e-05,-7.519376755138474e-05,-4.248174318333713e-05,3.25,2.75
0.7421875,-1.6602596231021577e-05,-8.739963447684442e-05,-8.3494058068513e-05,-3.7597891374074906e-05,3.25,2.75
0.74609375,-1.367529522362095e-05,-0.00011181513092545967,-9.130521088517585e-05,-3.222866446204317e-05,3.25,2.75
0.75,-1.367529522362095e-05,-0.00011425705683009076,-9.863098859906918e-05,-3.320317726527808e-05,3.25,2.75
0.75390625,-1.318615752315555e-05,-0.00012304648504768442,-0.00011620984503425649,-2.8323088053711742e-05,3.25,2.75
0.7578125,9.76260204165726e-07,-0.00012646292375555047,-0.00012695206145601584,-3.125038906111236e-05,3.25,2.75
0.76171875,4.392698912031761e-06,-0.00012402099785091935,-0.00012353186015045395,-3.7112516271305396e-05,3.25,2.75
0.765625,-4.396729305561891e-06,-0.00011572070733379109,-0.0001181626332384222,-2.1975585740749204e-05,3.25,2.75
0.76953125,-2.9330788018615833e-06,-0.00013866879068101013,-0.00013525235197314408,-1.0255093918059032e-05,3.25,2.75
0.7734375,6.834624816662867e-06,-0.00015429485891203172,-0.00016601535073472188,-1.416067032639046e-05,3.25,2.75
0.77734375,1.6113190734721924e-05,-0.00015820043532036317,-0.00017480101635461965,-2.0508172639353e-05,3.25,2.75
0.78125,1.3671264830090805e-05,-0.00017187371534721903,-0.00017431564125185012,-2.3928373944914915e-05,3.25,2.75
0.78515625,1.3671264830090805e-05,-0.00016064236122499426,-0.0001665007258374914,-2.588116214908063e-05,3.25,2.75
0.7890625,1.22038517286946e-05,-0.00016552621303425648,-0.0001694317894425879,-2.7833950353246344e-05,3.25,2.75
0.79296875,1.4645777633325722e-05,-0.00018066314356481267,-0.00017529015405508505,-2.4902886748149823e-05,3.25,2.75
0.796875,1.904049174212254e-05,-0.00017529015405508505,-0.00017529015405508505,-2.3439236244449517e-05,3.25,2.75
0.80078125,1.904049174212254e-05,-0.0001699209271430533,-0.00017382650355138475,-2.7344812652780936e-05,3.25,2.75
0.8046875,2.5387994055085085e-05,-0.00017577929175555045,-0.000182126794068513,-2.002279753658349e-05,3.25,2.75
0.80859375,2.5387994055085085e-05,-0.00017577929175555045,-0.0001850578576736095,-1.2697019822690151e-05,3.25,2.75
0.8125,2.489885635461968e-05,-0.00017089543994628823,-0.0001689426517421225,-1.8555384435187285e-05,3.25,2.75
0.81640625,2.782991995971619e-05,-0.00017236285304768443,-0.00018066314356481267,-1.709173393148698e-05,3.25,2.75
0.8203125,2.050414224582286e-05,-0.0001801740058643473,-0.0001889634340819409,-1.416067032639046e-05,3.25,2.75
0.82421875,1.806597893888764e-05,-0.00017675756715648125,-0.00016454793763332569,-1.1718744421759347e-05,3.25,2.75
0.828125,1.855135404165715e-05,-0.00016747900123842218,-0.00016064236122499426,-6.3495175097276045e-06,3.25,2.75
0.83203125,1.904049174212254e-05,-0.00016796813893888758,-0.00015722592251712824,-4.396729305561891e-06,3.25,2.75
0.8359375,1.4645777633325722e-05,-0.00016747900123842218,-0.00015820043532036317,-6.3495175097276045e-06,3.25,2.75
0.83984375,9.276550721293986e-06,-0.00016796813893888758,-0.00016796813893888758,-1.367529522362095e-05,3.25,2.75
0.84375,7.809137619897782e-06,-0.0001508784202041657,-0.00014745821889860378,-2.002279753658349e-05,3.25,2.75
0.84765625,8.298275320363175e-06,-0.00011767349553795679,-0.00010497849091203173,-2.539202444861523e-05,3.25,2.75
0.8515625,-9.765279999999875e-07,-8.788877217730981e-05,-8.25157826675822e-05,-2.539202444861523e-05,3.25,2.75
0.85546875,-5.860379809262212e-06,-8.54468462726787e-05,-8.739963447684442e-05,-2.881222575417714e-05,3.25,2.75
0.859375,-2.9330788018615833e-06,-0.00010448935321156631,-9.325799908934155e-05,-3.369231496574348e-05,3.25,2.75
0.86328125,-6.3495175097276045e-06,-0.00010839492961989775,-9.814185089860378e-05,-2.588116214908063e-05,3.25,2.75
0.8671875,-1.6113458530556172e-05,-0.0001000946391027695,-9.960926399999998e-05,-2.4417511645380313e-05,3.25,2.75
0.87109375,-2.6370299849546027e-05,-8.25157826675822e-05,-7.568290525185014e-05,-3.222866446204317e-05,3.25,2.75
0.875,-2.7833950353246344e-05,-6.201338782269014e-05,-4.443453138750284e-05,-3.8087029074540304e-05,3.25,2.75
0.87890625,-3.320317726527808e-05,-4.687645729213396e-05,-5.468761010879681e-05,-3.9554442175936506e-05,3.25,2.75
0.8828125,-3.418145266620888e-05,-3.271780216250857e-05,-5.6155023210193004e-05,-4.2970880883802537e-05,3.25,2.75
0.88671875,-4.541280678843364e-05,-3.9554442175936506e-05,-4.736559499259935e-05,-4.541280678843364e-05,3.25,2.75
0.890625,-5.859694911482413e-05,-3.515972806713968e-05,-3.564510316990919e-05,-4.980752089723047e-05,3.25,2.75
0.89453125,-5.32239596050965e-05,-1.709173393148698e-05,-1.953365983611809e-05,-5.37130973055619e-05,3.25,2.75
0.8984375,-5.078203370046538e-05,-9.765956217593639e-06,-1.709173393148698e-05,-4.0039817278706016e-05,3.25,2.75
0.90234375,-4.931838319676507e-05,-6.3495175097276045e-06,-1.1718744421759347e-05,-3.7112516271305396e-05,3.25,2.75
0.90625,-5.1760309101396184e-05,4.881836612497153e-06,-4.396729305561891e-06,-4.687645729213396e-05,3.25,2.75
0.91015625,-6.103511242175935e-05,1.562405303425652e-05,-1.4656657004653795e-06,-5.273482190463109e-05,3.25,2.75
0.9140625,-6.591896423102157e-05,3.903561211566355e-06,1.4616353069352356e-06,-5.273482190463109e-05,3.25,2.75
0.91796875,-5.9571461918059035e-05,6.834624816662867e-06,4.392698912031761e-06,-5.6155023210193004e-05,3.25,2.75
0.921875,-6.0060599618524433e-05,1.3182127129625414e-05,2.0018767143053353e-05,-5.6155023210193004e-05,3.25,2.75
0.92578125,-6.542982653055617e-05,1.1718476625925092e-05,1.6598565837491434e-05,-4.980752089723047e-05,3.25,2.75
0.9296875,-6.591896423102157e-05,6.834624816662867e-06,1.708770353795684e-05,-4.785473269306476e-05,3.25,2.75
0.93359375,-6.103511242175935e-05,2.2460693047684456e-05,2.73407822592508e-05,-4.443453138750284e-05,3.25,2.75
0.9375,-6.250252552315556e-05,4.198857508934159e-05,2.489885635461968e-05,-4.0039817278706016e-05,3.25,2.75
0.94140625,-6.738637733241777e-05,2.050414224582286e-05,2.148241764675366e-05,-4.6387319591668554e-05,3.25,2.75
0.9453125,-6.347703832639046e-05,8.78741302082858e-06,2.3435205850919374e-05,-4.882924549629968e-05,3.25,2.75
0.94921875,-5.859694911482413e-05,1.562405303425652e-05,3.1246358667582226e-05,-4.150723038010222e-05,3.25,2.75
0.953125,-6.103511242175935e-05,2.489885635461968e-05,3.3202909469443825e-05,-4.101809267963682e-05,3.25,2.75
0.95703125,-5.8107811414358716e-05,3.027184586434731e-05,3.661934817730984e-05,-4.150723038010222e-05,3.25,2.75
0.9609375,-5.468761010879681e-05,3.4666559973144144e-05,3.417742227267874e-05,-4.443453138750284e-05,3.25,2.75
0.96484375,-5.468761010879681e-05,3.3688284572213335e-05,3.710848587777525e-05,-4.443453138750284e-05,3.25,2.75
0.96875,-5.566588550972761e-05,3.222463406851302e-05,3.3688284572213335e-05,-4.150723038010222e-05,3.25,2.75
0.97265625,-6.250252552315556e-05,4.198857508934159e-05,2.0993279946288255e-05,-4.443453138750284e-05,3.25,2.75
0.9765625,-6.591896423102157e-05,4.1014062286106676e-05,2.8808195360647004e-05,-4.492366908796825e-05,3.25,2.75
0.98046875,-6.542982653055617e-05,4.198857508934159e-05,3.759762357824066e-05,-4.443453138750284e-05,3.25,2.75
0.984375,-6.0060599618524433e-05,3.759762357824066e-05,3.173549636804762e-05,-4.2970880883802537e-05,3.25,2.75
0.98828125,-5.420223500602729e-05,4.052492458564127e-05,3.710848587777525e-05,-3.369231496574348e-05,3.25,2.75
0.9921875,-5.127117140093078e-05,4.8339840000000024e-05,4.296685049027239e-05,-3.173952676157776e-05,3.25,2.75
0.99609375,-5.273482190463109e-05,3.9061274081940965e-05,3.955041178240637e-05,-4.248174318333713e-05,3.25,2.75
1.0,-5.468761010879681e-05,3.5155697673609536e-05,3.1246358667582226e-05,-4.0528954979171414e-05,3.25,2.75
1.00390625,-5.517674780926221e-05,3.857213638147556e-05,2.0018767143053353e-05,-2.6370299849546027e-05,3.25,2.75
1.0078125,-5.9571461918059035e-05,3.955041178240637e-05,1.757684123842223e-05,-2.0997310339818404e-05,3.25,2.75
1.01171875,-5.420223500602729e-05,2.489885635461968e-05,2.73407822592508e-05,-2.6855674952315538e-05,3.25,2.75
1.015625,-5.1760309101396184e-05,1.0251063524528888e-05,2.441348125185017e-05,-2.8323088053711742e-05,3.25,2.75
1.01953125,-5.664416091065841e-05,8.298275320363175e-06,6.834624816662867e-06,-2.929760085694665e-05,3.25,2.75
1.0234375,-5.566588550972761e-05,6.834624816662867e-06,6.834624816662867e-06,-2.8323088053711742e-05,3.25,2.75
1.02734375,-4.736559499259935e-05,1.0251063524528888e-05,2.148241764675366e-05,-3.515972806713968e-05,3.25,2.75
1.03125,-4.492366908796825e-05,6.345487116197475e-06,8.78741302082858e-06,-3.320317726527808e-05,3.25,2.75
1.03515625,-4.785473269306476e-05,4.881836612497153e-06,-6.3495175097276045e-06,-2.4417511645380313e-05,3.25,2.75
1.0390625,-4.346001858426793e-05,5.370974312962559e-06,-7.813168013427926e-06,-2.6855674952315538e-05,3.25,2.75
1.04296875,-4.443453138750284e-05,2.9290484083314394e-06,-8.791443414358724e-06,-3.320317726527808e-05,3.25,2.75
1.046875,-4.5901944488899044e-05,-2.443941101396177e-06,-1.0255093918059032e-05,-3.173952676157776e-05,3.25,2.75
1.05078125,-4.3945393687037445e-05,-9.765279999999875e-07,-1.367529522362095e-05,-2.7344812652780936e-05,3.25,2.75
1.0546875,-4.3945393687037445e-05,6.834624816662867e-06,-8.791443414358724e-06,-3.0275876257877457e-05,3.25,2.75
1.05859375,-4.980752089723047e-05,-8.302305713893317e-06,-1.9548034009307854e-06,-3.467059036667428e-05,3.25,2.75
1.0625,-5.1760309101396184e-05,-1.416067032639046e-05,-1.1233369318989837e-05,-4.0039817278706016e-05,3.25,2.75
1.06640625,-5.7618673713893324e-05,-9.765956217593639e-06,-1.6602596231021577e-05,-4.2970880883802537e-05,3.25,2.75
1.0703125,-5.37130973055619e-05,-8.791443414358724e-06,-2.0508172639353e-05,-4.5901944488899044e-05,3.25,2.75
1.07421875,-4.346001858426793e-05,-1.6113458530556172e-05,-2.3439236244449517e-05,-4.2970880883802537e-05,3.25,2.75
1.078125,-4.346001858426793e-05,-2.8323088053711742e-05,-2.3439236244449517e-05,-3.9554442175936506e-05,3.25,2.75
1.08203125,-4.980752089723047e-05,-2.002279753658349e-05,-2.539202444861523e-05,-4.199260548287173e-05,3.25,2.75
1.0859375,-5.078203370046538e-05,-1.2207882122224751e-05,-2.002279753658349e-05,-4.101809267963682e-05,3.25,2.75
1.08984375,-4.834010779583427e-05,-2.539202444861523e-05,-2.6370299849546027e-05,-4.346001858426793e-05,3.25,2.75
1.09375,-4.785473269306476e-05,-2.539202444861523e-05,-2.929760085694665e-05,-4.101809267963682e-05,3.25,2.75
1.09765625,-4.3945393687037445e-05,-1.8070009332417775e-05,-1.8070009332417775e-05,-3.418145266620888e-05,3.25,2.75
1.1015625,-4.687645729213396e-05,-1.2697019822690151e-05,-2.1975585740749204e-05,-3.0275876257877457e-05,3.25,2.75
1.10546875,-5.37130973055619e-05,-1.904452213565269e-05,-2.246096084351871e-05,-2.3928373944914915e-05,3.25,2.75
1.109375,-5.224944680186158e-05,-1.953365983611809e-05,-1.709173393148698e-05,-2.4417511645380313e-05,3.25,2.75
1.11328125,-4.882924549629968e-05,-6.83865521019301e-06,-2.539202444861523e-05,-3.515972806713968e-05,3.25,2.75
1.1171875,-5.273482190463109e-05,-2.2950098543984112e-05,-2.9786738557412055e-05,-3.418145266620888e-05,3.25,2.75
1.12109375,-5.078203370046538e-05,-2.6855674952315538e-05,-2.1975585740749204e-05,-2.8323088053711742e-05,3.25,2.75
1.125,-4.2970880883802537e-05,-1.7580871631952377e-05,-2.6370299849546027e-05,-3.222866446204317e-05,3.25,2.75
1.12890625,-4.346001858426793e-05,-1.6602596231021577e-05,-2.1486448040283802e-05,-3.125038906111236e-05,3.25,2.75
1.1328125,-4.931838319676507e-05,-2.0508172639353e-05,-1.318615752315555e-05,-2.588116214908063e-05,3.25,2.75
1.13671875,-4.687645729213396e-05,-2.6855674952315538e-05,-2.0508172639353e-05,-3.369231496574348e-05,3.25,2.75
1.140625,-4.6387319591668554e-05,-3.0275876257877457e-05,-2.881222575417714e-05,-4.541280678843364e-05,3.25,2.75
1.14453125,-4.687645729213396e-05,-3.222866446204317e-05,-3.320317726527808e-05,-4.443453138750284e-05,3.25,2.75
1.1484375,-4.2970880883802537e-05,-3.0275876257877457e-05,-2.881222575417714e-05,-3.222866446204317e-05,3.25,2.75
1.15234375,-3.662337857083999e-05,-2.881222575417714e-05,-3.369231496574348e-05,-3.125038906111236e-05,3.25,2.75
1.15625,-3.418145266620888e-05,-2.0508172639353e-05,-2.4902886748149823e-05,-3.076501395834285e-05,3.25,2.75
1.16015625,-3.125038906111236e-05,-1.318615752315555e-05,-2.4417511645380313e-05,-2.1975585740749204e-05,3.25,2.75
1.1640625,-2.9786738557412055e-05,-2.588116214908063e-05,-3.173952676157776e-05,-3.0275876257877457e-05,3.25,2.75
1.16796875,-4.248174318333713e-05,-4.0528954979171414e-05,-3.0275876257877457e-05,-3.7112516271305396e-05,3.25,2.75
1.171875,-4.980752089723047e-05,-3.418145266620888e-05,-4.2970880883802537e-05,-3.515972806713968e-05,3.25,2.75
1.17578125,-4.492366908796825e-05,-2.3439236244449517e-05,-3.222866446204317e-05,-3.222866446204317e-05,3.25,2.75
1.1796875,-4.834010779583427e-05,-3.271780216250857e-05,-2.881222575417714e-05,-3.076501395834285e-05,3.25,2.75
1.18359375,-4.834010779583427e-05,-4.199260548287173e-05,-3.9554442175936506e-05,-3.564510316990919e-05,3.25,2.75
1.1875,-4.248174318333713e-05,-4.0528954979171414e-05,-4.0039817278706016e-05,-3.8087029074540304e-05,3.25,2.75
1.19140625,-4.199260548287173e-05,-4.2970880883802537e-05,-3.906530447547111e-05,-3.369231496574348e-05,3.25,2.75
1.1953125,-4.2970880883802537e-05,-3.320317726527808e-05,-2.9786738557412055e-05,-3.418145266620888e-05,3.25,2.75
1.19921875,-3.515972806713968e-05,-2.881222575417714e-05,-3.173952676157776e-05,-3.857616677500571e-05,3.25,2.75
1.203125,-4.101809267963682e-05,-2.4417511645380313e-05,-4.101809267963682e-05,-4.0039817278706016e-05,3.25,2.75
1.20703125,-4.931838319676507e-05,-2.246096084351871e-05,-3.564510316990919e-05,-4.101809267963682e-05,3.25,2.75
1.2109375,-4.101809267963682e-05,-2.1975585740749204e-05,-3.173952676157776e-05,-3.320317726527808e-05,3.25,2.75
1.21484375,-3.7112516271305396e-05,-2.246096084351871e-05,-2.6855674952315538e-05,-2.9786738557412055e-05,3.25,2.75
1.21875,-3.906530447547111e-05,-2.6370299849546027e-05,-2.6370299849546027e-05,-3.6134240870374587e-05,3.25,2.75
1.22265625,-4.150723038010222e-05,-2.246096084351871e-05,-2.7344812652780936e-05,-3.515972806713968e-05,3.25,2.75
1.2265625,-3.7597891374074906e-05,-2.6855674952315538e-05,-2.7344812652780936e-05,-4.150723038010222e-05,3.25,2.75
1.23046875,-3.125038906111236e-05,-3.6134240870374587e-05,-2.1486448040283802e-05,-4.2970880883802537e-05,3.25,2.75
1.234375,-3.906530447547111e-05,-2.9786738557412055e-05,-1.904452213565269e-05,-3.222866446204317e-05,3.25,2.75
1.23828125,-4.2970880883802537e-05,-2.3928373944914915e-05,-2.4417511645380313e-05,-3.173952676157776e-05,3.25,2.75
1.2421875,-3.271780216250857e-05,-2.2950098543984112e-05,-2.881222575417714e-05,-3.6134240870374587e-05,3.25,2.75
1.24609375,-3.369231496574348e-05,-3.857616677500571e-05,-2.9786738557412055e-05,-3.7112516271305396e-05,3.25,2.75
1.25,-3.662337857083999e-05,-3.906530447547111e-05,-1.416067032639046e-05,-3.7597891374074906e-05,3.25,2.75
1.25390625,-3.7597891374074906e-05,-2.929760085694665e-05,-2.2950098543984112e-05,-4.101809267963682e-05,3.25,2.75
1.2578125,-4.150723038010222e-05,-3.369231496574348e-05,-3.369231496574348e-05,-4.3945393687037445e-05,3.25,2.75
1.26171875,-4.199260548287173e-05,-3.515972806713968e-05,-2.3928373944914915e-05,-4.346001858426793e-05,3.25,2.75
1.265625,-3.906530447547111e-05,-2.3439236244449517e-05,-2.588116214908063e-05,-4.492366908796825e-05,3.25,2.75
1.26953125,-3.0275876257877457e-05,4.871225037003341e-07,-2.0997310339818404e-05,-4.2970880883802537e-05,3.25,2.75
1.2734375,-2.588116214908063e-05,-1.6113458530556172e-05,-2.1486448040283802e-05,-3.222866446204317e-05,3.25,2.75
1.27734375,-3.467059036667428e-05,-6.445531372732127e-05,-5.517674780926221e-05,-3.369231496574348e-05,3.25,2.75
1.28125,-4.541280678843364e-05,-3.467059036667428e-05,-4.248174318333713e-05,-3.6134240870374587e-05,3.25,2.75
1.28515625,-4.687645729213396e-05,-2.6855674952315538e-05,-2.7833950353246344e-05,-3.173952676157776e-05,3.25,2.75
1.2890625,-5.078203370046538e-05,-6.152425012222475e-05,-3.857616677500571e-05,-3.369231496574348e-05,3.25,2.75
1.29296875,-4.3945393687037445e-05,-5.224944680186158e-05,-1.6602596231021577e-05,-2.7833950353246344e-05,3.25,2.75
1.296875,-3.564510316990919e-05,-4.785473269306476e-05,-7.327792910658417e-06,-2.6855674952315538e-05,3.25,2.75
1.30078125,-3.906530447547111e-05,-4.150723038010222e-05,-1.953365983611809e-05,-2.7344812652780936e-05,3.25,2.75
1.3046875,-4.0039817278706016e-05,-3.369231496574348e-05,-1.8555384435187285e-05,-2.3928373944914915e-05,3.25,2.75
1.30859375,-4.150723038010222e-05,-1.6113458530556172e-05,-1.4649808026855864e-05,-3.515972806713968e-05,3.25,2.75
1.3125,-4.6387319591668554e-05,-1.0744231618524437e-05,-2.246096084351871e-05,-3.6134240870374587e-05,3.25,2.75
1.31640625,-4.443453138750284e-05,-1.367529522362095e-05,-2.4417511645380313e-05,-2.9786738557412055e-05,3.25,2.75
1.3203125,-4.2970880883802537e-05,-2.3928373944914915e-05,-3.8087029074540304e-05,-2.9786738557412055e-05,3.25,2.75
1.32421875,-4.150723038010222e-05,-2.9786738557412055e-05,-3.8087029074540304e-05,-2.3439236244449517e-05,3.25,2.75
1.328125,-4.0528954979171414e-05,-3.222866446204317e-05,-2.588116214908063e-05,-2.4902886748149823e-05,3.25,2.75
1.33203125,-4.736559499259935e-05,-2.588116214908063e-05,-1.709173393148698e-05,-3.906530447547111e-05,3.25,2.75
1.3359375,-5.127117140093078e-05,-2.9786738557412055e-05,-1.416067032639046e-05,-3.564510316990919e-05,3.25,2.75
1.33984375,-4.6387319591668554e-05,-3.222866446204317e-05,-1.953365983611809e-05,-2.929760085694665e-05,3.25,2.75
1.34375,-4.248174318333713e-05,-2.6370299849546027e-05,-2.1975585740749204e-05,-3.467059036667428e-05,3.25,2.75
1.34765625,-3.8087029074540304e-05,-2.6855674952315538e-05,-1.1718744421759347e-05,-3.418145266620888e-05,3.25,2.75
1.3515625,-3.418145266620888e-05,-2.4417511645380313e-05,-5.860379809262212e-06,-3.369231496574348e-05,3.25,2.75
1.35546875,-3.564510316990919e-05,-3.125038906111236e-05,-9.765956217593639e-06,-3.9554442175936506e-05,3.25,2.75
1.359375,-4.492366908796825e-05,-3.7112516271305396e-05,-6.3495175097276045e-06,-3.7597891374074906e-05,3.25,2.75
1.36328125,-4.248174318333713e-05,-2.588116214908063e-05,-3.418453904631093e-06,-3.125038906111236e-05,3.25,2.75
1.3671875,-4.101809267963682e-05,-1.953365983611809e-05,-9.765956217593639e-06,-3.271780216250857e-05,3.25,2.75
1.37109375,-4.3945393687037445e-05,-1.318615752315555e-05,-4.396729305561891e-06,-3.662337857083999e-05,3.25,2.75
1.375,-4.248174318333713e-05,-5.860379809262212e-06,1.0251063524528888e-05,-4.101809267963682e-05,3.25,2.75
1.37890625,-4.248174318333713e-05,-1.0255093918059032e-05,-2.443941101396177e-06,-4.3945393687037445e-05,3.25,2.75
1.3828125,-3.857616677500571e-05,-9.28058111482413e-06,-1.8555384435187285e-05,-3.7112516271305396e-05,3.25,2.75
1.38671875,-3.9554442175936506e-05,-1.2697019822690151e-05,-1.6602596231021577e-05,-3.320317726527808e-05,3.25,2.75
1.390625,-4.248174318333713e-05,-1.2697019822690151e-05,-1.8070009332417775e-05,-3.6134240870374587e-05,3.25,2.75
1.39453125,-3.320317726527808e-05,-1.1233369318989837e-05,-7.813168013427926e-06,-3.418145266620888e-05,3.25,2.75
1.3984375,-2.1975585740749204e-05,-2.6855674952315538e-05,-9.28058111482413e-06,-3.222866446204317e-05,3.25,2.75
1.40234375,-2.4417511645380313e-05,-2.8323088053711742e-05,-2.539202444861523e-05,-3.076501395834285e-05,3.25,2.75
1.40625,-2.8323088053711742e-05,-2.1975585740749204e-05,-2.3928373944914915e-05,-3.125038906111236e-05,3.25,2.75
1.41015625,-3.418145266620888e-05,-1.5138945727321264e-05,-1.709173393148698e-05,-3.222866446204317e-05,3.25,2.75
1.4140625,-3.8087029074540304e-05,-1.6113458530556172e-05,-1.6113458530556172e-05,-3.467059036667428e-05,3.25,2.75
1.41796875,-4.150723038010222e-05,-3.0275876257877457e-05,-3.515972806713968e-05,-4.2970880883802537e-05,3.25,2.75
1.421875,-4.199260548287173e-05,-3.515972806713968e-05,-3.9554442175936506e-05,-4.443453138750284e-05,3.25,2.75
1.42578125,-3.418145266620888e-05,-2.0508172639353e-05,-2.002279753658349e-05,-3.369231496574348e-05,3.25,2.75
1.4296875,-3.6134240870374587e-05,-2.0997310339818404e-05,-2.0508172639353e-05,-3.467059036667428e-05,3.25,2.75
1.43359375,-3.8087029074540304e-05,-2.2950098543984112e-05,-2.3439236244449517e-05,-3.662337857083999e-05,3.25,2.75
1.4375,-3.7597891374074906e-05,-3.076501395834285e-05,-2.4417511645380313e-05,-3.271780216250857e-05,3.25,2.75
1.44140625,-3.369231496574348e-05,-3.173952676157776e-05,-1.8555384435187285e-05,-3.173952676157776e-05,3.25,2.75
1.4453125,-2.929760085694665e-05,-3.6134240870374587e-05,-2.246096084351871e-05,-2.7344812652780936e-05,3.25,2.75
1.44921875,-3.418145266620888e-05,-2.881222575417714e-05,-2.7833950353246344e-05,-2.1486448040283802e-05,3.25,2.75
1.453125,-3.8087029074540304e-05,-2.1975585740749204e-05,-2.1486448040283802e-05,-2.4902886748149823e-05,3.25,2.75
1.45703125,-3.320317726527808e-05,-2.588116214908063e-05,-2.1486448040283802e-05,-3.271780216250857e-05,3.25,2.75
1.4609375,-3.418145266620888e-05,-2.539202444861523e-05,-2.1975585740749204e-05,-3.173952676157776e-05,3.25,2.75
1.46484375,-4.101809267963682e-05,-3.173952676157776e-05,-2.1486448040283802e-05,-2.7833950353246344e-05,3.25,2.75
1.46875,-3.9554442175936506e-05,-3.467059036667428e-05,-1.4649808026855864e-05,-2.7833950353246344e-05,3.25,2.75
1.47265625,-3.467059036667428e-05,-2.4417511645380313e-05,-1.8070009332417775e-05,-3.076501395834285e-05,3.25,2.75
1.4765625,-3.662337857083999e-05,-2.588116214908063e-05,-3.369231496574348e-05,-4.101809267963682e-05,3.25,2.75
1.48046875,-3.662337857083999e-05,-2.4902886748149823e-05,-2.9786738557412055e-05,-4.980752089723047e-05,3.25,2.75
1.484375,-4.199260548287173e-05,-1.9548034009307854e-06,-3.271780216250857e-05,-4.834010779583427e-05,3.25,2.75
1.48828125,-4.980752089723047e-05,-1.318615752315555e-05,-3.125038906111236e-05,-4.101809267963682e-05,3.25,2.75
1.4921875,-4.2970880883802537e-05,-3.7112516271305396e-05,-1.2697019822690151e-05,-3.662337857083999e-05,3.25,2.75
1.49609375,-3.125038906111236e-05,-3.076501395834285e-05,-1.904452213565269e-05,-3.9554442175936506e-05,3.25,2.75
1.5,-3.173952676157776e-05,-2.7344812652780936e-05,-3.7112516271305396e-05,-3.6134240870374587e-05,3.25,2.75
1.50390625,-3.369231496574348e-05,-4.443453138750284e-05,-4.0528954979171414e-05,-3.515972806713968e-05,3.25,2.75
1.5078125,-3.515972806713968e-05,-5.127117140093078e-05,-3.173952676157776e-05,-3.515972806713968e-05,3.25,2.75
1.51171875,-3.320317726527808e-05,-4.3945393687037445e-05,-3.320317726527808e-05,-3.418145266620888e-05,3.25,2.75
1.515625,-3.125038906111236e-05,-4.541280678843364e-05,-3.662337857083999e-05,-3.271780216250857e-05,3.25,2.75
1.51953125,-3.662337857083999e-05,-3.857616677500571e-05,-2.2950098543984112e-05,-2.9786738557412055e-05,3.25,2.75
1.5234375,-3.9554442175936506e-05,-3.906530447547111e-05,-2.1486448040283802e-05,-3.222866446204317e-05,3.25,2.75
1.52734375,-3.906530447547111e-05,-4.3945393687037445e-05,-2.929760085694665e-05,-4.0039817278706016e-05,3.25,2.75
1.53125,-3.9554442175936506e-05,-3.8087029074540304e-05,-2.929760085694665e-05,-4.150723038010222e-05,3.25,2.75
1.53515625,-2.7833950353246344e-05,-2.7833950353246344e-05,-2.929760085694665e-05,-3.857616677500571e-05,3.25,2.75
1.5390625,-2.4902886748149823e-05,-3.564510316990919e-05,-3.320317726527808e-05,-3.8087029074540304e-05,3.25,2.75
1.54296875,-3.369231496574348e-05,-4.101809267963682e-05,-3.7597891374074906e-05,-3.857616677500571e-05,3.25,2.75
1.546875,-3.9554442175936506e-05,-4.443453138750284e-05,-4.150723038010222e-05,-4.199260548287173e-05,3.25,2.75
1.55078125,-3.9554442175936506e-05,-4.199260548287173e-05,-5.127117140093078e-05,-4.785473269306476e-05,3.25,2.75
1.5546875,-4.0528954979171414e-05,-3.6134240870374587e-05,-4.2970880883802537e-05,-4.0528954979171414e-05,3.25,2.75
1.55859375,-3.515972806713968e-05,-3.6134240870374587e-05,-3.515972806713968e-05,-3.271780216250857e-05,3.25,2.75
1.5625,-3.222866446204317e-05,-3.6134240870374587e-05,-3.857616677500571e-05,-3.8087029074540304e-05,3.25,2.75
1.56640625,-3.467059036667428e-05,-3.7597891374074906e-05,-3.6134240870374587e-05,-4.0528954979171414e-05,3.25,2.75
1.5703125,-3.369231496574348e-05,-3.173952676157776e-05,-3.7112516271305396e-05,-4.3945393687037445e-05,3.25,2.75
1.57421875,-3.6134240870374587e-05,-3.222866446204317e-05,-4.2970880883802537e-05,-4.541280678843364e-05,3.25,2.75
1.578125,-4.150723038010222e-05,-3.418145266620888e-05,-3.418145266620888e-05,-4.882924549629968e-05,3.25,2.75
1.58203125,-3.7112516271305396e-05,-2.6370299849546027e-05,-2.7344812652780936e-05,-4.492366908796825e-05,3.25,2.75
1.5859375,-3.418145266620888e-05,-2.4417511645380313e-05,-3.7597891374074906e-05,-2.4417511645380313e-05,3.25,2.75
1.58984375,-3.9554442175936506e-05,-3.0275876257877457e-05,-2.588116214908063e-05,-1.6602596231021577e-05,3.25,2.75
1.59375,-3.515972806713968e-05,-2.4902886748149823e-05,-1.1718744421759347e-05,-1.953365983611809e-05,3.25,2.75
1.59765625,-3.173952676157776e-05,-2.6370299849546027e-05,-1.367529522362095e-05,-2.881222575417714e-05,3.25,2.75
1.6015625,-2.929760085694665e-05,-3.564510316990919e-05,-3.222866446204317e-05,-3.369231496574348e-05,3.25,2.75
1.60546875,-3.857616677500571e-05,-3.906530447547111e-05,-4.980752089723047e-05,-3.369231496574348e-05,3.25,2.75
1.609375,-5.1760309101396184e-05,-3.906530447547111e-05,-4.785473269306476e-05,-4.150723038010222e-05,3.25,2.75
1.61328125,-4.834010779583427e-05,-4.150723038010222e-05,-4.3945393687037445e-05,-3.906530447547111e-05,3.25,2.75
1.6171875,-4.5901944488899044e-05,-3.906530447547111e-05,-4.541280678843364e-05,-3.076501395834285e-05,3.25,2.75
1.62109375,-3.906530447547111e-05,-3.222866446204317e-05,-3.906530447547111e-05,-2.7833950353246344e-05,3.25,2.75
1.625,-3.418145266620888e-05,-2.8323088053711742e-05,-3.564510316990919e-05,-3.6134240870374587e-05,3.25,2.75
1.62890625,-2.881222575417714e-05,-2.4902886748149823e-05,-3.857616677500571e-05,-3.6134240870374587e-05,3.25,2.75
1.6328125,-2.929760085694665e-05,-1.4649808026855864e-05,-3.173952676157776e-05,-3.320317726527808e-05,3.25,2.75
1.63671875,-2.8323088053711742e-05,-1.7580871631952377e-05,-2.0997310339818404e-05,-4.101809267963682e-05,3.25,2.75
1.640625,-2.9786738557412055e-05,-2.4417511645380313e-05,-1.6113458530556172e-05,-3.662337857083999e-05,3.25,2.75
1.64453125,-2.4417511645380313e-05,-2.1975585740749204e-05,-1.5138945727321264e-05,-2.929760085694665e-05,3.25,2.75
1.6484375,-1.709173393148698e-05,-2.588116214908063e-05,-2.0997310339818404e-05,-3.076501395834285e-05,3.25,2.75
1.65234375,-1.904452213565269e-05,-1.8070009332417775e-05,-2.2950098543984112e-05,-2.6855674952315538e-05,3.25,2.75
1.65625,-3.222866446204317e-05,-2.7344812652780936e-05,-2.246096084351871e-05,-3.418145266620888e-05,3.25,2.75
1.66015625,-4.199260548287173e-05,-4.248174318333713e-05,-1.8070009332417775e-05,-4.101809267963682e-05,3.25,2.75
1.6640625,-3.418145266620888e-05,-3.125038906111236e-05,-2.1975585740749204e-05,-2.6370299849546027e-05,3.25,2.75
1.66796875,-2.539202444861523e-05,-1.2697019822690151e-05,-2.0997310339818404e-05,-2.246096084351871e-05,3.25,2.75
1.671875,-2.7344812652780936e-05,-7.813168013427926e-06,-1.318615752315555e-05,-2.0997310339818404e-05,3.25,2.75
1.67578125,-2.6855674952315538e-05,-1.953365983611809e-05,-5.860379809262212e-06,-1.904452213565269e-05,3.25,2.75
1.6796875,-2.6855674952315538e-05,-2.4902886748149823e-05,-1.0255093918059032e-05,-2.3439236244449517e-05,3.25,2.75
1.68359375,-2.588116214908063e-05,-2.881222575417714e-05,-2.4902886748149823e-05,-2.8323088053711742e-05,3.25,2.75
1.6875,-2.539202444861523e-05,-3.125038906111236e-05,-3.125038906111236e-05,-3.0275876257877457e-05,3.25,2.75
1.69140625,-2.6855674952315538e-05,-3.564510316990919e-05,-3.7112516271305396e-05,-4.443453138750284e-05,3.25,2.75
1.6953125,-2.3439236244449517e-05,-3.564510316990919e-05,-3.564510316990919e-05,-4.199260548287173e-05,3.25,2.75
1.69921875,-2.3439236244449517e-05,-2.539202444861523e-05,-3.125038906111236e-05,-2.4417511645380313e-05,3.25,2.75
1.703125,-2.8323088053711742e-05,-2.7833950353246344e-05,-2.588116214908063e-05,-2.4417511645380313e-05,3.25,2.75
1.70703125,-3.467059036667428e-05,-4.687645729213396e-05,-2.6370299849546027e-05,-3.173952676157776e-05,3.25,2.75
1.7109375,-3.369231496574348e-05,-5.8107811414358716e-05,-2.8323088053711742e-05,-3.7597891374074906e-05,3.25,2.75
1.71484375,-3.173952676157776e-05,-3.9554442175936506e-05,-2.588116214908063e-05,-4.150723038010222e-05,3.25,2.75
1.71875,-3.906530447547111e-05,-3.8087029074540304e-05,-3.467059036667428e-05,-3.662337857083999e-05,3.25,2.75
1.72265625,-3.467059036667428e-05,-4.443453138750284e-05,-3.8087029074540304e-05,-2.9786738557412055e-05,3.25,2.75
1.7265625,-3.0275876257877457e-05,-3.662337857083999e-05,-3.7112516271305396e-05,-3.906530447547111e-05,3.25,2.75
1.73046875,-3.662337857083999e-05,-3.467059036667428e-05,-3.8087029074540304e-05,-3.8087029074540304e-05,3.25,2.75
1.734375,-3.564510316990919e-05,-3.418145266620888e-05,-3.467059036667428e-05,-3.9554442175936506e-05,3.25,2.75
1.73828125,-3.076501395834285e-05,-3.320317726527808e-05,-2.929760085694665e-05,-4.785473269306476e-05,3.25,2.75
1.7421875,-3.418145266620888e-05,-3.467059036667428e-05,-3.7597891374074906e-05,-4.687645729213396e-05,3.25,2.75
1.74609375,-3.857616677500571e-05,-3.8087029074540304e-05,-3.906530447547111e-05,-5.029289599999998e-05,3.25,2.75
1.75,-3.418145266620888e-05,-3.9554442175936506e-05,-3.320317726527808e-05,-4.736559499259935e-05,3.25,2.75
1.75390625,-3.369231496574348e-05,-3.320317726527808e-05,-3.222866446204317e-05,-3.857616677500571e-05,3.25,2.75
1.7578125,-3.7597891374074906e-05,-3.467059036667428e-05,-3.222866446204317e-05,-3.564510316990919e-05,3.25,2.75
1.76171875,-4.0528954979171414e-05,-4.541280678843364e-05,-3.320317726527808e-05,-4.0528954979171414e-05,3.25,2.75
1.765625,-4.150723038010222e-05,-3.7597891374074906e-05,-4.150723038010222e-05,-4.3945393687037445e-05,3.25,2.75
1.76953125,-4.248174318333713e-05,-3.515972806713968e-05,-4.785473269306476e-05,-4.0528954979171414e-05,3.25,2.75
1.7734375,-4.199260548287173e-05,-3.515972806713968e-05,-3.125038906111236e-05,-3.173952676157776e-05,3.25,2.75
1.77734375,-3.6134240870374587e-05,-3.6134240870374587e-05,-2.6855674952315538e-05,-3.320317726527808e-05,3.25,2.75
1.78125,-3.125038906111236e-05,-3.906530447547111e-05,-3.515972806713968e-05,-4.150723038010222e-05,3.25,2.75
1.78515625,-2.6855674952315538e-05,-3.222866446204317e-05,-3.320317726527808e-05,-4.150723038010222e-05,3.25,2.75
1.7890625,-1.953365983611809e-05,-2.588116214908063e-05,-2.881222575417714e-05,-3.662337857083999e-05,3.25,2.75
1.79296875,-2.4417511645380313e-05,-3.564510316990919e-05,-3.515972806713968e-05,-3.125038906111236e-05,3.25,2.75
1.796875,-3.7597891374074906e-05,-5.37130973055619e-05,-4.248174318333713e-05,-3.173952676157776e-05,3.25,2.75
1.80078125,-3.9554442175936506e-05,-4.687645729213396e-05,-4.834010779583427e-05,-4.346001858426793e-05,3.25,2.75
1.8046875,-3.7597891374074906e-05,-2.3928373944914915e-05,-4.248174318333713e-05,-3.467059036667428e-05,3.25,2.75
1.80859375,-3.369231496574348e-05,-4.0528954979171414e-05,-3.125038906111236e-05,-2.588116214908063e-05,3.25,2.75
1.8125,-3.9554442175936506e-05,-5.127117140093078e-05,-2.7344812652780936e-05,-2.881222575417714e-05,3.25,2.75
1.81640625,-4.443453138750284e-05,-4.199260548287173e-05,-2.7344812652780936e-05,-2.588116214908063e-05,3.25,2.75
1.8203125,-3.6134240870374587e-05,-4.346001858426793e-05,-4.443453138750284e-05,-3.173952676157776e-05,3.25,2.75
1.82421875,-3.0275876257877457e-05,-3.9554442175936506e-05,-4.3945393687037445e-05,-3.8087029074540304e-05,3.25,2.75
1.828125,-2.1975585740749204e-05,-3.0275876257877457e-05,-3.857616677500571e-05,-3.222866446204317e-05,3.25,2.75
1.83203125,-1.5628083427786662e-05,-2.3439236244449517e-05,-4.541280678843364e-05,-2.9786738557412055e-05,3.25,2.75
1.8359375,-1.953365983611809e-05,-2.3439236244449517e-05,-4.2970880883802537e-05,-2.7344812652780936e-05,3.25,2.75
1.83984375,-2.002279753658349e-05,-2.881222575417714e-05,-4.687645729213396e-05,-2.9786738557412055e-05,3.25,2.75
1.84375,-1.7580871631952377e-05,-3.222866446204317e-05,-4.882924549629968e-05,-3.271780216250857e-05,3.25,2.75
1.84765625,-2.2950098543984112e-05,-4.150723038010222e-05,-4.346001858426793e-05,-3.515972806713968e-05,3.25,2.75
1.8515625,-3.271780216250857e-05,-4.736559499259935e-05,-4.101809267963682e-05,-3.906530447547111e-05,3.25,2.75
1.85546875,-3.0275876257877457e-05,-4.687645729213396e-05,-3.906530447547111e-05,-3.222866446204317e-05,3.25,2.75
1.859375,-2.7344812652780936e-05,-4.687645729213396e-05,-3.662337857083999e-05,-2.8323088053711742e-05,3.25,2.75
1.86328125,-3.662337857083999e-05,-4.736559499259935e-05,-2.0997310339818404e-05,-3.125038906111236e-05,3.25,2.75
1.8671875,-3.418145266620888e-05,-4.931838319676507e-05,-2.0508172639353e-05,-3.222866446204317e-05,3.25,2.75
1.87109375,-2.4902886748149823e-05,-4.0039817278706016e-05,-2.8323088053711742e-05,-2.929760085694665e-05,3.25,2.75
1.875,-2.881222575417714e-05,-2.539202444861523e-05,-2.588116214908063e-05,-3.076501395834285e-05,3.25,2.75
1.87890625,-3.662337857083999e-05,-2.7344812652780936e-05,-3.173952676157776e-05,-2.6855674952315538e-05,3.25,2.75
1.8828125,-4.101809267963682e-05,-4.101809267963682e-05,-4.443453138750284e-05,-2.246096084351871e-05,3.25,2.75
1.88671875,-3.857616677500571e-05,-4.150723038010222e-05,-4.150723038010222e-05,-2.9786738557412055e-05,3.25,2.75
1.890625,-3.662337857083999e-05,-2.8323088053711742e-05,-3.271780216250857e-05,-4.101809267963682e-05,3.25,2.75
1.89453125,-4.0528954979171414e-05,-2.588116214908063e-05,-4.199260548287173e-05,-3.8087029074540304e-05,3.25,2.75
1.8984375,-3.906530447547111e-05,-2.4902886748149823e-05,-2.3439236244449517e-05,-2.0997310339818404e-05,3.25,2.75
1.90234375,-3.369231496574348e-05,-2.246096084351871e-05,-1.4656657004653795e-06,-2.8323088053711742e-05,3.25,2.75
1.90625,-3.515972806713968e-05,-4.199260548287173e-05,-3.906530447547111e-05,-4.346001858426793e-05,3.25,2.75
1.91015625,-4.0528954979171414e-05,-4.443453138750284e-05,-6.445531372732127e-05,-4.6387319591668554e-05,3.25,2.75
1.9140625,-4.101809267963682e-05,-3.7597891374074906e-05,-5.078203370046538e-05,-4.5901944488899044e-05,3.25,2.75
1.91796875,-3.076501395834285e-05,-4.736559499259935e-05,-4.785473269306476e-05,-4.785473269306476e-05,3.25,2.75
1.921875,-2.7833950353246344e-05,-3.857616677500571e-05,-5.859694911482413e-05,-4.687645729213396e-05,3.25,2.75
1.92578125,-2.9786738557412055e-05,-2.881222575417714e-05,-6.591896423102157e-05,-4.541280678843364e-05,3.25,2.75
1.9296875,-2.8323088053711742e-05,-3.515972806713968e-05,-5.517674780926221e-05,-4.199260548287173e-05,3.25,2.75
1.93359375,-3.320317726527808e-05,-3.7597891374074906e-05,-4.980752089723047e-05,-4.199260548287173e-05,3.25,2.75
1.9375,-3.222866446204317e-05,-3.662337857083999e-05,-4.834010779583427e-05,-4.736559499259935e-05,3.25,2.75
1.94140625,-2.588116214908063e-05,-3.0275876257877457e-05,-3.418145266620888e-05,-4.492366908796825e-05,3.25,2.75
1.9453125,-2.6855674952315538e-05,-2.6855674952315538e-05,-1.953365983611809e-05,-3.857616677500571e-05,3.25,2.75
1.94921875,-2.6370299849546027e-05,-3.9554442175936506e-05,-2.8323088053711742e-05,-3.467059036667428e-05,3.25,2.75
1.953125,-2.539202444861523e-05,-3.8087029074540304e-05,-3.467059036667428e-05,-4.199260548287173e-05,3.25,2.75
1.95703125,-3.6134240870374587e-05,-3.7597891374074906e-05,-3.271780216250857e-05,-4.541280678843364e-05,3.25,2.75
1.9609375,-3.906530447547111e-05,-3.564510316990919e-05,-4.199260548287173e-05,-4.346001858426793e-05,3.25,2.75
1.96484375,-3.173952676157776e-05,-3.7597891374074906e-05,-3.418145266620888e-05,-3.467059036667428e-05,3.25,2.75
1.96875,-2.9786738557412055e-05,-3.467059036667428e-05,-2.9786738557412055e-05,-3.271780216250857e-05,3.25,2.75
1.97265625,-2.881222575417714e-05,-2.7344812652780936e-05,-3.857616677500571e-05,-3.7597891374074906e-05,3.25,2.75
1.9765625,-3.271780216250857e-05,-3.222866446204317e-05,-3.9554442175936506e-05,-3.857616677500571e-05,3.25,2.75
1.98046875,-3.369231496574348e-05,-3.125038906111236e-05,-3.857616677500571e-05,-4.199260548287173e-05,3.25,2.75
1.984375,-3.173952676157776e-05,-3.418145266620888e-05,-3.467059036667428e-05,-3.7597891374074906e-05,3.25,2.75
1.98828125,-3.125038906111236e-05,-4.3945393687037445e-05,-3.564510316990919e-05,-3.467059036667428e-05,3.25,2.75
1.9921875,-2.588116214908063e-05,-3.320317726527808e-05,-3.7112516271305396e-05,-3.857616677500571e-05,3.25,2.75
1.99609375,-2.2950098543984112e-05,-2.246096084351871e-05,-3.6134240870374587e-05,-3.8087029074540304e-05,3.25,2.75
2.0,-2.9786738557412055e-05,-2.8323088053711742e-05,-3.222866446204317e-05,-3.418145266620888e-05,3.25,2.75
2.00390625,-3.271780216250857e-05,-3.7597891374074906e-05,-2.0508172639353e-05,-3.222866446204317e-05,3.25,2.75
2.0078125,-3.173952676157776e-05,-3.7597891374074906e-05,-2.0997310339818404e-05,-3.271780216250857e-05,3.25,2.75
2.01171875,-3.222866446204317e-05,-3.418145266620888e-05,-3.0275876257877457e-05,-3.271780216250857e-05,3.25,2.75
2.015625,-3.8087029074540304e-05,-2.6370299849546027e-05,-3.222866446204317e-05,-3.320317726527808e-05,3.25,2.75
2.01953125,-4.248174318333713e-05,-3.271780216250857e-05,-3.6134240870374587e-05,-3.7597891374074906e-05,3.25,2.75
2.0234375,-4.346001858426793e-05,-4.443453138750284e-05,-3.515972806713968e-05,-3.8087029074540304e-05,3.25,2.75
2.02734375,-3.271780216250857e-05,-4.2970880883802537e-05,-2.539202444861523e-05,-3.8087029074540304e-05,3.25,2.75
2.03125,-2.7344812652780936e-05,-4.248174318333713e-05,-2.002279753658349e-05,-3.173952676157776e-05,3.25,2.75
2.03515625,-3.515972806713968e-05,-3.8087029074540304e-05,-1.6602596231021577e-05,-2.4902886748149823e-05,3.25,2.75
2.0390625,-3.564510316990919e-05,-2.3439236244449517e-05,-2.7833950353246344e-05,-3.271780216250857e-05,3.25,2.75
2.04296875,-3.418145266620888e-05,-3.076501395834285e-05,-3.7112516271305396e-05,-4.101809267963682e-05,3.25,2.75
2.046875,-3.0275876257877457e-05,-3.0275876257877457e-05,-3.0275876257877457e-05,-3.515972806713968e-05,3.25,2.75
2.05078125,-3.320317726527808e-05,-2.881222575417714e-05,-3.271780216250857e-05,-3.467059036667428e-05,3.25,2.75
2.0546875,-4.3945393687037445e-05,-3.7112516271305396e-05,-3.515972806713968e-05,-4.346001858426793e-05,3.25,2.75
2.05859375,-4.101809267963682e-05,-3.8087029074540304e-05,-4.541280678843364e-05,-4.492366908796825e-05,3.25,2.75
2.0625,-3.6134240870374587e-05,-4.0528954979171414e-05,-5.273482190463109e-05,-4.0039817278706016e-05,3.25,2.75
2.06640625,-4.0528954979171414e-05,-3.125038906111236e-05,-4.2970880883802537e-05,-4.0039817278706016e-05,3.25,2.75
2.0703125,-3.662337857083999e-05,-2.588116214908063e-05,-3.8087029074540304e-05,-4.2970880883802537e-05,3.25,2.75
2.07421875,-3.857616677500571e-05,-3.857616677500571e-05,-3.662337857083999e-05,-3.857616677500571e-05,3.25,2.75
2.078125,-4.346001858426793e-05,-3.7597891374074906e-05,-3.125038906111236e-05,-3.7597891374074906e-05,3.25,2.75
2.08203125,-3.857616677500571e-05,-3.467059036667428e-05,-3.076501395834285e-05,-3.906530447547111e-05,3.25,2.75
2.0859375,-3.369231496574348e-05,-3.125038906111236e-05,-3.271780216250857e-05,-3.271780216250857e-05,3.25,2.75
2.08984375,-3.418145266620888e-05,-3.564510316990919e-05,-3.125038906111236e-05,-3.125038906111236e-05,3.25,2.75
2.09375,-3.662337857083999e-05,-3.271780216250857e-05,-2.6855674952315538e-05,-3.467059036667428e-05,3.25,2.75
2.09765625,-3.418145266620888e-05,-2.588116214908063e-05,-2.1975585740749204e-05,-4.346001858426793e-05,3.25,2.75
2.1015625,-3.467059036667428e-05,-3.173952676157776e-05,-2.7344812652780936e-05,-4.6387319591668554e-05,3.25,2.75
2.10546875,-3.662337857083999e-05,-3.076501395834285e-05,-2.7344812652780936e-05,-3.515972806713968e-05,3.25,2.75
2.109375,-3.9554442175936506e-05,-3.418145266620888e-05,-2.3439236244449517e-05,-3.076501395834285e-05,3.25,2.75
2.11328125,-3.857616677500571e-05,-4.0528954979171414e-05,-2.3928373944914915e-05,-3.515972806713968e-05,3.25,2.75
2.1171875,-3.418145266620888e-05,-3.7597891374074906e-05,-2.2950098543984112e-05,-4.443453138750284e-05,3.25,2.75
2.12109375,-2.7344812652780936e-05,-2.3439236244449517e-05,-1.8070009332417775e-05,-3.418145266620888e-05,3.25,2.75
2.125,-2.8323088053711742e-05,-3.076501395834285e-05,-2.539202444861523e-05,-1.8070009332417775e-05,3.25,2.75
2.12890625,-3.662337857083999e-05,-5.224944680186158e-05,-3.906530447547111e-05,-2.1486448040283802e-05,3.25,2.75
2.1328125,-4.785473269306476e-05,-4.882924549629968e-05,-3.9554442175936506e-05,-2.1975585740749204e-05,3.25,2.75
2.13671875,-5.029289599999998e-05,-3.6134240870374587e-05,-2.1975585740749204e-05,-1.7580871631952377e-05,3.25,2.75
2.140625,-3.857616677500571e-05,-3.906530447547111e-05,-3.369231496574348e-05,-3.125038906111236e-05,3.25,2.75
2.14453125,-3.906530447547111e-05,-4.248174318333713e-05,-4.6387319591668554e-05,-4.199260548287173e-05,3.25,2.75
2.1484375,-4.931838319676507e-05,-4.199260548287173e-05,-3.515972806713968e-05,-3.320317726527808e-05,3.25,2.75
2.15234375,-4.6387319591668554e-05,-3.173952676157776e-05,-2.7833950353246344e-05,-3.467059036667428e-05,3.25,2.75
2.15625,-3.515972806713968e-05,-3.076501395834285e-05,-2.9786738557412055e-05,-4.541280678843364e-05,3.25,2.75
2.16015625,-2.881222575417714e-05,-3.662337857083999e-05,-3.662337857083999e-05,-3.418145266620888e-05,3.25,2.75
2.1640625,-2.7344812652780936e-05,-3.418145266620888e-05,-3.173952676157776e-05,-2.6855674952315538e-05,3.25,2.75
2.16796875,-2.881222575417714e-05,-2.929760085694665e-05,-3.271780216250857e-05,-3.076501395834285e-05,3.25,2.75
2.171875,-2.7344812652780936e-05,-1.5628083427786662e-05,-2.3928373944914915e-05,-2.588116214908063e-05,3.25,2.75
2.17578125,-2.6855674952315538e-05,-1.4649808026855864e-05,-6.83865521019301e-06,-2.929760085694665e-05,3.25,2.75
2.1796875,-3.0275876257877457e-05,-2.2950098543984112e-05,-1.6602596231021577e-05,-3.222866446204317e-05,3.25,2.75
2.18359375,-3.271780216250857e-05,-3.125038906111236e-05,-2.929760085694665e-05,-2.8323088053711742e-05,3.25,2.75
2.1875,-3.173952676157776e-05,-4.0039817278706016e-05,-3.0275876257877457e-05,-2.9786738557412055e-05,3.25,2.75
2.19140625,-3.467059036667428e-05,-2.9786738557412055e-05,-2.0997310339818404e-05,-2.881222575417714e-05,3.25,2.75
2.1953125,-4.2970880883802537e-05,-3.0275876257877457e-05,-2.588116214908063e-05,-3.564510316990919e-05,3.25,2.75
2.19921875,-3.271780216250857e-05,-3.515972806713968e-05,-2.6370299849546027e-05,-4.150723038010222e-05,3.25,2.75
2.203125,-2.539202444861523e-05,-2.8323088053711742e-05,-2.4902886748149823e-05,-3.564510316990919e-05,3.25,2.75
2.20703125,-2.7344812652780936e-05,-2.7833950353246344e-05,-2.3439236244449517e-05,-3.125038906111236e-05,3.25,2.75
2.2109375,-2.7833950353246344e-05,-2.9786738557412055e-05,-2.6855674952315538e-05,-3.467059036667428e-05,3.25,2.75
2.21484375,-3.467059036667428e-05,-2.1975585740749204e-05,-3.467059036667428e-05,-3.222866446204317e-05,3.25,2.75
2.21875,-3.662337857083999e-05,-1.0255093918059032e-05,-2.7833950353246344e-05,-2.4417511645380313e-05,3.25,2.75
2.22265625,-3.173952676157776e-05,-2.4417511645380313e-05,-2.3928373944914915e-05,-2.7833950353246344e-05,3.25,2.75
2.2265625,-3.564510316990919e-05,-3.8087029074540304e-05,-2.0508172639353e-05,-3.418145266620888e-05,3.25,2.75
2.23046875,-3.125038906111236e-05,-3.418145266620888e-05,-2.1486448040283802e-05,-3.418145266620888e-05,3.25,2.75
2.234375,-2.6370299849546027e-05,-3.125038906111236e-05,-2.9786738557412055e-05,-3.369231496574348e-05,3.25,2.75
2.23828125,-2.881222575417714e-05,-2.7344812652780936e-05,-2.588116214908063e-05,-3.173952676157776e-05,3.25,2.75
2.2421875,-3.369231496574348e-05,-3.7597891374074906e-05,-2.4902886748149823e-05,-3.320317726527808e-05,3.25,2.75
2.24609375,-4.199260548287173e-05,-4.3945393687037445e-05,-4.150723038010222e-05,-3.857616677500571e-05,3.25,2.75
2.25,-4.443453138750284e-05,-4.2970880883802537e-05,-3.906530447547111e-05,-3.662337857083999e-05,3.25,2.75
2.25390625,-4.101809267963682e-05,-3.8087029074540304e-05,-3.662337857083999e-05,-3.222866446204317e-05,3.25,2.75
2.2578125,-4.3945393687037445e-05,-3.515972806713968e-05,-4.492366908796825e-05,-4.3945393687037445e-05,3.25,2.75
2.26171875,-4.785473269306476e-05,-4.199260548287173e-05,-4.492366908796825e-05,-4.980752089723047e-05,3.25,2.75
2.265625,-4.199260548287173e-05,-4.346001858426793e-05,-4.0528954979171414e-05,-4.0039817278706016e-05,3.25,2.75
2.26953125,-3.418145266620888e-05,-3.7597891374074906e-05,-3.7112516271305396e-05,-3.515972806713968e-05,3.25,2.75
2.2734375,-3.222866446204317e-05,-3.8087029074540304e-05,-2.6370299849546027e-05,-3.418145266620888e-05,3.25,2.75
2.27734375,-2.6855674952315538e-05,-3.564510316990919e-05,-2.246096084351871e-05,-3.418145266620888e-05,3.25,2.75
2.28125,-2.0508172639353e-05,-4.199260548287173e-05,-2.7833950353246344e-05,-3.857616677500571e-05,3.25,2.75
2.28515625,-2.9786738557412055e-05,-5.029289599999998e-05,-2.6855674952315538e-05,-3.662337857083999e-05,3.25,2.75
2.2890625,-4.492366908796825e-05,-4.980752089723047e-05,-3.467059036667428e-05,-3.369231496574348e-05,3.25,2.75
2.29296875,-4.980752089723047e-05,-4.785473269306476e-05,-3.6134240870374587e-05,-3.125038906111236e-05,3.25,2.75
2.296875,-4.834010779583427e-05,-4.882924549629968e-05,-3.7112516271305396e-05,-3.076501395834285e-05,3.25,2.75
2.30078125,-4.785473269306476e-05,-4.150723038010222e-05,-4.248174318333713e-05,-3.6134240870374587e-05,3.25,2.75
2.3046875,-4.5901944488899044e-05,-4.687645729213396e-05,-4.2970880883802537e-05,-3.418145266620888e-05,3.25,2.75
2.30859375,-3.7112516271305396e-05,-4.882924549629968e-05,-4.0528954979171414e-05,-3.418145266620888e-05,3.25,2.75
2.3125,-3.467059036667428e-05,-4.3945393687037445e-05,-4.0039817278706016e-05,-3.418145266620888e-05,3.25,2.75
2.31640625,-4.101809267963682e-05,-5.078203370046538e-05,-3.467059036667428e-05,-2.6855674952315538e-05,3.25,2.75
2.3203125,-4.346001858426793e-05,-4.443453138750284e-05,-3.418145266620888e-05,-2.8323088053711742e-05,3.25,2.75
2.32421875,-3.271780216250857e-05,-4.0039817278706016e-05,-4.199260548287173e-05,-2.539202444861523e-05,3.25,2.75
2.328125,-2.881222575417714e-05,-4.150723038010222e-05,-4.882924549629968e-05,-2.8323088053711742e-05,3.25,2.75
2.33203125,-3.9554442175936506e-05,-3.418145266620888e-05,-4.6387319591668554e-05,-3.8087029074540304e-05,3.25,2.75
2.3359375,-3.906530447547111e-05,-3.6134240870374587e-05,-4.2970880883802537e-05,-3.857616677500571e-05,3.25,2.75
2.33984375,-4.101809267963682e-05,-4.150723038010222e-05,-4.5901944488899044e-05,-3.906530447547111e-05,3.25,2.75
2.34375,-4.687645729213396e-05,-4.931838319676507e-05,-4.687645729213396e-05,-4.346001858426793e-05,3.25,2.75
2.34765625,-4.2970880883802537e-05,-5.078203370046538e-05,-4.834010779583427e-05,-3.857616677500571e-05,3.25,2.75
2.3515625,-4.101809267963682e-05,-3.8087029074540304e-05,-4.443453138750284e-05,-3.906530447547111e-05,3.25,2.75
2.35546875,-3.7597891374074906e-05,-3.0275876257877457e-05,-3.564510316990919e-05,-3.662337857083999e-05,3.25,2.75
2.359375,-3.8087029074540304e-05,-3.662337857083999e-05,-4.101809267963682e-05,-2.929760085694665e-05,3.25,2.75
2.36328125,-4.2970880883802537e-05,-4.0039817278706016e-05,-4.3945393687037445e-05,-3.7112516271305396e-05,3.25,2.75
2.3671875,-4.0528954979171414e-05,-4.882924549629968e-05,-4.443453138750284e-05,-3.9554442175936506e-05,3.25,2.75
2.37109375,-3.515972806713968e-05,-4.150723038010222e-05,-4.0039817278706016e-05,-2.9786738557412055e-05,3.25,2.75
2.375,-2.4902886748149823e-05,-3.515972806713968e-05,-3.467059036667428e-05,-3.369231496574348e-05,3.25,2.75
2.37890625,-1.8070009332417775e-05,-3.173952676157776e-05,-3.564510316990919e-05,-3.8087029074540304e-05,3.25,2.75
2.3828125,-2.2950098543984112e-05,-1.1233369318989837e-05,-2.3928373944914915e-05,-3.6134240870374587e-05,3.25,2.75
2.38671875,-3.467059036667428e-05,-2.002279753658349e-05,-2.881222575417714e-05,-2.881222575417714e-05,3.25,2.75
2.390625,-4.785473269306476e-05,-6.347703832639046e-05,-5.566588550972761e-05,-2.6370299849546027e-05,3.25,2.75
2.39453125,-4.443453138750284e-05,-4.931838319676507e-05,-4.101809267963682e-05,-3.271780216250857e-05,3.25,2.75
2.3984375,-3.418145266620888e-05,-3.0275876257877457e-05,-3.369231496574348e-05,-3.320317726527808e-05,3.25,2.75
2.40234375,-3.7112516271305396e-05,-5.664416091065841e-05,-5.37130973055619e-05,-3.320317726527808e-05,3.25,2.75
2.40625,-3.906530447547111e-05,-4.980752089723047e-05,-5.224944680186158e-05,-2.9786738557412055e-05,3.25,2.75
2.41015625,-4.0039817278706016e-05,-3.076501395834285e-05,-3.8087029074540304e-05,-1.953365983611809e-05,3.25,2.75
2.4140625,-4.0039817278706016e-05,-4.6387319591668554e-05,-3.125038906111236e-05,-2.002279753658349e-05,3.25,2.75
2.41796875,-4.248174318333713e-05,-5.6155023210193004e-05,-3.369231496574348e-05,-3.0275876257877457e-05,3.25,2.75
2.421875,-4.3945393687037445e-05,-3.8087029074540304e-05,-3.467059036667428e-05,-3.515972806713968e-05,3.25,2.75
2.42578125,-4.6387319591668554e-05,-3.7112516271305396e-05,-4.6387319591668554e-05,-4.248174318333713e-05,3.25,2.75
2.4296875,-5.1760309101396184e-05,-4.5901944488899044e-05,-5.8107811414358716e-05,-4.2970880883802537e-05,3.25,2.75
2.43359375,-5.6155023210193004e-05,-4.346001858426793e-05,-6.0060599618524433e-05,-3.9554442175936506e-05,3.25,2.75
2.4375,-5.029289599999998e-05,-3.173952676157776e-05,-5.37130973055619e-05,-3.906530447547111e-05,3.25,2.75
2.44140625,-4.2970880883802537e-05,-3.515972806713968e-05,-3.7112516271305396e-05,-3.076501395834285e-05,3.25,2.75
2.4453125,-4.101809267963682e-05,-4.0039817278706016e-05,-3.8087029074540304e-05,-3.076501395834285e-05,3.25,2.75
2.44921875,-4.0528954979171414e-05,-3.467059036667428e-05,-5.078203370046538e-05,-3.515972806713968e-05,3.25,2.75
2.453125,-3.9554442175936506e-05,-2.4902886748149823e-05,-3.564510316990919e-05,-4.199260548287173e-05,3.25,2.75
2.45703125,-4.150723038010222e-05,-2.1486448040283802e-05,-3.076501395834285e-05,-4.346001858426793e-05,3.25,2.75
2.4609375,-4.834010779583427e-05,-3.0275876257877457e-05,-3.906530447547111e-05,-4.0528954979171414e-05,3.25,2.75
2.46484375,-5.078203370046538e-05,-3.906530447547111e-05,-3.515972806713968e-05,-3.125038906111236e-05,3.25,2.75
2.46875,-4.346001858426793e-05,-4.150723038010222e-05,-2.7833950353246344e-05,-2.246096084351871e-05,3.25,2.75
2.47265625,-4.0528954979171414e-05,-3.125038906111236e-05,-3.076501395834285e-05,-2.539202444861523e-05,3.25,2.75
2.4765625,-3.9554442175936506e-05,-2.881222575417714e-05,-2.7344812652780936e-05,-2.4902886748149823e-05,3.25,2.75
2.48046875,-2.9786738557412055e-05,-3.125038906111236e-05,-1.8070009332417775e-05,-3.076501395834285e-05,3.25,2.75
2.484375,-2.4902886748149823e-05,-3.418145266620888e-05,-2.4417511645380313e-05,-4.248174318333713e-05,3.25,2.75
2.48828125,-2.6855674952315538e-05,-2.3928373944914915e-05,-2.246096084351871e-05,-2.9786738557412055e-05,3.25,2.75
2.4921875,-3.173952676157776e-05,-1.7580871631952377e-05,-2.002279753658349e-05,-1.8070009332417775e-05,3.25,2.75
2.49609375,-3.857616677500571e-05,-2.002279753658349e-05,-3.0275876257877457e-05,-2.6370299849546027e-05,3.25,2.75
2.5,-3.7112516271305396e-05,-2.3439236244449517e-05,-2.539202444861523e-05,-4.0528954979171414e-05,3.25,2.75
2.50390625,-3.320317726527808e-05,-2.6855674952315538e-05,-2.8323088053711742e-05,-4.0039817278706016e-05,3.25,2.75
2.5078125,-4.199260548287173e-05,-2.3928373944914915e-05,-3.320317726527808e-05,-3.564510316990919e-05,3.25,2.75
2.51171875,-4.5901944488899044e-05,-2.3439236244449517e-05,-2.2950098543984112e-05,-4.199260548287173e-05,3.25,2.75
2.515625,-3.662337857083999e-05,-2.2950098543984112e-05,-2.6855674952315538e-05,-3.7597891374074906e-05,3.25,2.75
2.51953125,-3.369231496574348e-05,-3.418145266620888e-05,-3.369231496574348e-05,-3.906530447547111e-05,3.25,2.75
2.5234375,-4.0039817278706016e-05,-2.8323088053711742e-05,-3.6134240870374587e-05,-3.857616677500571e-05,3.25,2.75
2.52734375,-3.7597891374074906e-05,-1.8555384435187285e-05,-3.564510316990919e-05,-3.564510316990919e-05,3.25,2.75
2.53125,-2.9786738557412055e-05,-2.9786738557412055e-05,-2.6370299849546027e-05,-3.8087029074540304e-05,3.25,2.75
2.53515625,-3.662337857083999e-05,-3.418145266620888e-05,-2.7344812652780936e-05,-3.369231496574348e-05,3.25,2.75
2.5390625,-4.0039817278706016e-05,-3.125038906111236e-05,-2.9786738557412055e-05,-3.369231496574348e-05,3.25,2.75
2.54296875,-3.076501395834285e-05,-2.9786738557412055e-05,-3.222866446204317e-05,-3.515972806713968e-05,3.25,2.75
2.546875,-2.7344812652780936e-05,-2.929760085694665e-05,-3.418145266620888e-05,-3.418145266620888e-05,3.25,2.75
2.55078125,-2.8323088053711742e-05,-3.7597891374074906e-05,-3.369231496574348e-05,-2.9786738557412055e-05,3.25,2.75
2.5546875,-3.320317726527808e-05,-4.248174318333713e-05,-3.369231496574348e-05,-3.369231496574348e-05,3.25,2.75
2.55859375,-3.857616677500571e-05,-3.662337857083999e-05,-3.173952676157776e-05,-3.662337857083999e-05,3.25,2.75
2.5625,-4.0528954979171414e-05,-3.320317726527808e-05,-3.076501395834285e-05,-3.515972806713968e-05,3.25,2.75
2.56640625,-4.150723038010222e-05,-4.541280678843364e-05,-2.539202444861523e-05,-3.515972806713968e-05,3.25,2.75
2.5703125,-3.320317726527808e-05,-5.566588550972761e-05,-2.4417511645380313e-05,-4.150723038010222e-05,3.25,2.75
2.57421875,-3.222866446204317e-05,-4.5901944488899044e-05,-2.881222575417714e-05,-4.0528954979171414e-05,3.25,2.75
2.578125,-4.346001858426793e-05,-4.736559499259935e-05,-3.467059036667428e-05,-3.7112516271305396e-05,3.25,2.75
2.58203125,-3.9554442175936506e-05,-4.3945393687037445e-05,-4.150723038010222e-05,-3.564510316990919e-05,3.25,2.75
2.5859375,-3.076501395834285e-05,-3.125038906111236e-05,-3.8087029074540304e-05,-2.539202444861523e-05,3.25,2.75
2.58984375,-3.564510316990919e-05,-2.7344812652780936e-05,-3.467059036667428e-05,-2.6370299849546027e-05,3.25,2.75
2.59375,-4.6387319591668554e-05,-4.3945393687037445e-05,-3.369231496574348e-05,-4.2970880883802537e-05,3.25,2.75
2.59765625,-4.687645729213396e-05,-5.273482190463109e-05,-3.173952676157776e-05,-4.785473269306476e-05,3.25,2.75
2.6015625,-4.346001858426793e-05,-4.834010779583427e-05,-3.7112516271305396e-05,-3.418145266620888e-05,3.25,2.75
2.60546875,-4.443453138750284e-05,-6.054973731898984e-05,-4.492366908796825e-05,-2.881222575417714e-05,3.25,2.75
2.609375,-4.5901944488899044e-05,-6.054973731898984e-05,-5.273482190463109e-05,-3.8087029074540304e-05,3.25,2.75
2.61328125,-4.687645729213396e-05,-4.6387319591668554e-05,-5.7618673713893324e-05,-3.467059036667428e-05,3.25,2.75
2.6171875,-3.7597891374074906e-05,-5.32239596050965e-05,-4.834010779583427e-05,-3.173952676157776e-05,3.25,2.75
2.62109375,-2.9786738557412055e-05,-5.859694911482413e-05,-3.369231496574348e-05,-3.076501395834285e-05,3.25,2.75
2.625,-4.0528954979171414e-05,-5.273482190463109e-05,-3.222866446204317e-05,-3.7597891374074906e-05,3.25,2.75
2.62890625,-4.5901944488899044e-05,-4.248174318333713e-05,-3.7597891374074906e-05,-4.492366908796825e-05,3.25,2.75
2.6328125,-4.785473269306476e-05,-4.101809267963682e-05,-3.173952676157776e-05,-3.9554442175936506e-05,3.25,2.75
2.63671875,-5.37130973055619e-05,-4.687645729213396e-05,-2.3928373944914915e-05,-3.8087029074540304e-05,3.25,2.75
2.640625,-4.687645729213396e-05,-4.199260548287173e-05,-3.6134240870374587e-05,-3.906530447547111e-05,3.25,2.75
2.64453125,-4.0528954979171414e-05,-4.346001858426793e-05,-3.7597891374074906e-05,-2.8323088053711742e-05,3.25,2.75
2.6484375,-3.6134240870374587e-05,-4.346001858426793e-05,-3.271780216250857e-05,-2.588116214908063e-05,3.25,2.75
2.65234375,-3.0275876257877457e-05,-3.6134240870374587e-05,-3.418145266620888e-05,-3.857616677500571e-05,3.25,2.75
2.65625,-3.125038906111236e-05,-3.467059036667428e-05,-2.3928373944914915e-05,-3.0275876257877457e-05,3.25,2.75
2.66015625,-3.271780216250857e-05,-3.222866446204317e-05,-2.2950098543984112e-05,-1.904452213565269e-05,3.25,2.75
2.6640625,-3.0275876257877457e-05,-3.222866446204317e-05,-3.467059036667428e-05,-2.929760085694665e-05,3.25,2.75
2.66796875,-3.173952676157776e-05,-3.906530447547111e-05,-3.8087029074540304e-05,-3.125038906111236e-05,3.25,2.75
2.671875,-3.222866446204317e-05,-2.6855674952315538e-05,-4.248174318333713e-05,-2.2950098543984112e-05,3.25,2.75
2.67578125,-3.076501395834285e-05,-2.4417511645380313e-05,-3.8087029074540304e-05,-2.4902886748149823e-05,3.25,2.75
2.6796875,-2.929760085694665e-05,-2.6370299849546027e-05,-4.199260548287173e-05,-3.7597891374074906e-05,3.25,2.75
2.68359375,-3.271780216250857e-05,-2.4417511645380313e-05,-4.0039817278706016e-05,-4.199260548287173e-05,3.25,2.75
2.6875,-3.9554442175936506e-05,-2.9786738557412055e-05,-3.418145266620888e-05,-3.906530447547111e-05,3.25,2.75
2.69140625,-3.467059036667428e-05,-2.1975585740749204e-05,-3.222866446204317e-05,-3.515972806713968e-05,3.25,2.75
2.6953125,-3.9554442175936506e-05,-2.3439236244449517e-05,-2.8323088053711742e-05,-3.271780216250857e-05,3.25,2.75
2.69921875,-4.199260548287173e-05,-3.6134240870374587e-05,-2.6855674952315538e-05,-3.0275876257877457e-05,3.25,2.75
2.703125,-3.6134240870374587e-05,-3.6134240870374587e-05,-2.881222575417714e-05,-3.076501395834285e-05,3.25,2.75
2.70703125,-3.222866446204317e-05,-3.7112516271305396e-05,-2.1975585740749204e-05,-3.369231496574348e-05,3.25,2.75
2.7109375,-3.662337857083999e-05,-4.346001858426793e-05,-3.0275876257877457e-05,-4.248174318333713e-05,3.25,2.75
2.71484375,-3.7597891374074906e-05,-4.541280678843364e-05,-3.125038906111236e-05,-3.857616677500571e-05,3.25,2.75
2.71875,-3.8087029074540304e-05,-4.3945393687037445e-05,-2.6855674952315538e-05,-3.125038906111236e-05,3.25,2.75
2.72265625,-4.150723038010222e-05,-4.785473269306476e-05,-3.467059036667428e-05,-3.857616677500571e-05,3.25,2.75
2.7265625,-4.0528954979171414e-05,-5.078203370046538e-05,-5.127117140093078e-05,-3.320317726527808e-05,3.25,2.75
2.73046875,-3.564510316990919e-05,-4.0528954979171414e-05,-4.6387319591668554e-05,-2.4902886748149823e-05,3.25,2.75
2.734375,-3.7112516271305396e-05,-4.0039817278706016e-05,-3.662337857083999e-05,-2.539202444861523e-05,3.25,2.75
2.73828125,-4.492366908796825e-05,-3.9554442175936506e-05,-3.906530447547111e-05,-2.6855674952315538e-05,3.25,2.75
2.7421875,-4.541280678843364e-05,-3.173952676157776e-05,-4.2970880883802537e-05,-3.418145266620888e-05,3.25,2.75
2.74609375,-3.564510316990919e-05,-4.443453138750284e-05,-4.101809267963682e-05,-3.906530447547111e-05,3.25,2.75
2.75,-3.467059036667428e-05,-5.078203370046538e-05,-3.906530447547111e-05,-3.7112516271305396e-05,3.25,2.75
2.75390625,-4.492366908796825e-05,-4.101809267963682e-05,-4.736559499259935e-05,-4.492366908796825e-05,3.25,2.75
2.7578125,-4.248174318333713e-05,-4.101809267963682e-05,-5.078203370046538e-05,-5.127117140093078e-05,3.25,2.75
2.76171875,-3.906530447547111e-05,-4.2970880883802537e-05,-5.273482190463109e-05,-4.3945393687037445e-05,3.25,2.75
2.765625,-3.9554442175936506e-05,-3.8087029074540304e-05,-5.078203370046538e-05,-3.906530447547111e-05,3.25,2.75
2.76953125,-3.320317726527808e-05,-4.346001858426793e-05,-4.0528954979171414e-05,-3.6134240870374587e-05,3.25,2.75
2.7734375,-3.369231496574348e-05,-3.7112516271305396e-05,-3.906530447547111e-05,-3.271780216250857e-05,3.25,2.75
2.77734375,-4.199260548287173e-05,-4.0039817278706016e-05,-3.8087029074540304e-05,-3.9554442175936506e-05,3.25,2.75
2.78125,-4.882924549629968e-05,-6.445531372732127e-05,-3.7112516271305396e-05,-4.541280678843364e-05,3.25,2.75
2.78515625,-4.443453138750284e-05,-6.299166322362095e-05,-4.3945393687037445e-05,-3.7597891374074906e-05,3.25,2.75
2.7890625,-4.0039817278706016e-05,-5.517674780926221e-05,-5.517674780926221e-05,-4.6387319591668554e-05,3.25,2.75
2.79296875,-4.0528954979171414e-05,-5.224944680186158e-05,-5.029289599999998e-05,-5.1760309101396184e-05,3.25,2.75
2.796875,-4.248174318333713e-05,-4.0528954979171414e-05,-3.564510316990919e-05,-4.3945393687037445e-05,3.25,2.75
2.80078125,-4.150723038010222e-05,-1.953365983611809e-05,-2.539202444861523e-05,-3.9554442175936506e-05,3.25,2.75
2.8046875,-3.418145266620888e-05,-2.7344812652780936e-05,-4.150723038010222e-05,-4.150723038010222e-05,3.25,2.75
2.80859375,-3.0275876257877457e-05,-4.931838319676507e-05,-6.787175243518729e-05,-5.1760309101396184e-05,3.25,2.75
2.8125,-2.929760085694665e-05,-4.6387319591668554e-05,-6.542982653055617e-05,-5.1760309101396184e-05,3.25,2.75
2.81640625,-3.222866446204317e-05,-3.564510316990919e-05,-4.687645729213396e-05,-4.882924549629968e-05,3.25,2.75
2.8203125,-2.539202444861523e-05,-2.539202444861523e-05,-3.7112516271305396e-05,-4.101809267963682e-05,3.25,2.75
2.82421875,-1.5628083427786662e-05,-2.881222575417714e-05,-5.029289599999998e-05,-4.150723038010222e-05,3.25,2.75
2.828125,-2.3439236244449517e-05,-3.906530447547111e-05,-5.273482190463109e-05,-4.785473269306476e-05,3.25,2.75
2.83203125,-2.881222575417714e-05,-3.7597891374074906e-05,-3.369231496574348e-05,-4.5901944488899044e-05,3.25,2.75
2.8359375,-2.588116214908063e-05,-3.9554442175936506e-05,-2.4902886748149823e-05,-4.6387319591668554e-05,3.25,2.75
2.83984375,-2.3439236244449517e-05,-4.0039817278706016e-05,-2.9786738557412055e-05,-4.541280678843364e-05,3.25,2.75
2.84375,-2.6370299849546027e-05,-3.515972806713968e-05,-3.8087029074540304e-05,-4.541280678843364e-05,3.25,2.75
2.84765625,-3.564510316990919e-05,-2.881222575417714e-05,-4.346001858426793e-05,-4.736559499259935e-05,3.25,2.75
2.8515625,-3.7112516271305396e-05,-2.246096084351871e-05,-3.7597891374074906e-05,-4.443453138750284e-05,3.25,2.75
2.85546875,-3.662337857083999e-05,-2.7344812652780936e-05,-3.173952676157776e-05,-4.0528954979171414e-05,3.25,2.75
2.859375,-3.125038906111236e-05,-3.271780216250857e-05,-2.8323088053711742e-05,-3.8087029074540304e-05,3.25,2.75
2.86328125,-2.8323088053711742e-05,-3.662337857083999e-05,-3.418145266620888e-05,-4.931838319676507e-05,3.25,2.75
2.8671875,-3.7112516271305396e-05,-3.9554442175936506e-05,-3.857616677500571e-05,-4.980752089723047e-05,3.25,2.75
2.87109375,-4.101809267963682e-05,-3.857616677500571e-05,-3.857616677500571e-05,-4.248174318333713e-05,3.25,2.75
2.875,-3.6134240870374587e-05,-3.564510316990919e-05,-4.346001858426793e-05,-4.834010779583427e-05,3.25,2.75
2.87890625,-3.857616677500571e-05,-3.418145266620888e-05,-5.468761010879681e-05,-5.078203370046538e-05,3.25,2.75
2.8828125,-4.834010779583427e-05,-3.320317726527808e-05,-4.931838319676507e-05,-5.029289599999998e-05,3.25,2.75
2.88671875,-4.101809267963682e-05,-3.0275876257877457e-05,-2.929760085694665e-05,-4.834010779583427e-05,3.25,2.75
2.890625,-2.4902886748149823e-05,-3.0275876257877457e-05,-2.6370299849546027e-05,-3.418145266620888e-05,3.25,2.75
2.89453125,-2.246096084351871e-05,-2.7344812652780936e-05,-2.9786738557412055e-05,-3.320317726527808e-05,3.25,2.75
2.8984375,-2.6370299849546027e-05,-2.881222575417714e-05,-3.173952676157776e-05,-3.418145266620888e-05,3.25,2.75
2.90234375,-3.857616677500571e-05,-3.7597891374074906e-05,-4.0039817278706016e-05,-3.906530447547111e-05,3.25,2.75
2.90625,-4.736559499259935e-05,-3.8087029074540304e-05,-4.101809267963682e-05,-4.0039817278706016e-05,3.25,2.75
2.91015625,-3.906530447547111e-05,-2.929760085694665e-05,-3.369231496574348e-05,-3.6134240870374587e-05,3.25,2.75
2.9140625,-2.7344812652780936e-05,-2.9786738557412055e-05,-3.418145266620888e-05,-3.7112516271305396e-05,3.25,2.75
2.91796875,-2.929760085694665e-05,-3.173952676157776e-05,-4.150723038010222e-05,-3.662337857083999e-05,3.25,2.75
2.921875,-3.173952676157776e-05,-3.271780216250857e-05,-3.320317726527808e-05,-3.515972806713968e-05,3.25,2.75
2.92578125,-3.125038906111236e-05,-3.7597891374074906e-05,-3.125038906111236e-05,-3.173952676157776e-05,3.25,2.75
2.9296875,-3.0275876257877457e-05,-2.588116214908063e-05,-3.0275876257877457e-05,-3.857616677500571e-05,3.25,2.75
2.93359375,-2.9786738557412055e-05,-2.4902886748149823e-05,-2.8323088053711742e-05,-3.8087029074540304e-05,3.25,2.75
2.9375,-3.125038906111236e-05,-3.173952676157776e-05,-3.564510316990919e-05,-3.369231496574348e-05,3.25,2.75
2.94140625,-3.515972806713968e-05,-3.173952676157776e-05,-3.6134240870374587e-05,-3.7112516271305396e-05,3.25,2.75
2.9453125,-3.857616677500571e-05,-3.6134240870374587e-05,-3.662337857083999e-05,-3.662337857083999e-05,3.25,2.75
2.94921875,-4.2970880883802537e-05,-3.564510316990919e-05,-3.222866446204317e-05,-4.785473269306476e-05,3.25,2.75
2.953125,-3.906530447547111e-05,-2.4417511645380313e-05,-2.7344812652780936e-05,-5.1760309101396184e-05,3.25,2.75
2.95703125,-2.6855674952315538e-05,-2.8323088053711742e-05,-3.369231496574348e-05,-4.101809267963682e-05,3.25,2.75
2.9609375,-2.7833950353246344e-05,-3.125038906111236e-05,-3.222866446204317e-05,-3.8087029074540304e-05,3.25,2.75
2.96484375,-3.173952676157776e-05,-2.002279753658349e-05,-2.7344812652780936e-05,-4.443453138750284e-05,3.25,2.75
2.96875,-2.9786738557412055e-05,-2.8323088053711742e-05,-2.9786738557412055e-05,-3.515972806713968e-05,3.25,2.75
2.97265625,-2.881222575417714e-05,-2.929760085694665e-05,-3.0275876257877457e-05,-2.2950098543984112e-05,3.25,2.75
2.9765625,-3.418145266620888e-05,-3.173952676157776e-05,-2.2950098543984112e-05,-3.0275876257877457e-05,3.25,2.75
2.98046875,-3.076501395834285e-05,-3.857616677500571e-05,-2.9786738557412055e-05,-3.320317726527808e-05,3.25,2.75
2.984375,-3.173952676157776e-05,-3.369231496574348e-05,-4.101809267963682e-05,-3.222866446204317e-05,3.25,2.75
2.98828125,-4.101809267963682e-05,-3.076501395834285e-05,-3.076501395834285e-05,-3.515972806713968e-05,3.25,2.75
2.9921875,-4.6387319591668554e-05,-3.906530447547111e-05,-3.125038906111236e-05,-3.369231496574348e-05,3.25,2.75
2.99609375,-4.2970880883802537e-05,-4.785473269306476e-05,-4.443453138750284e-05,-3.418145266620888e-05,3.25,2.75
3.0,-4.5901944488899044e-05,-4.5901944488899044e-05,-4.3945393687037445e-05,-2.8323088053711742e-05,3.25,2.75
3.00390625,-4.541280678843364e-05,-4.882924549629968e-05,-3.9554442175936506e-05,-2.1975585740749204e-05,3.25,2.75
3.0078125,-3.369231496574348e-05,-4.687645729213396e-05,-2.7344812652780936e-05,-2.929760085694665e-05,3.25,2.75
3.01171875,-2.881222575417714e-05,-3.6134240870374587e-05,-2.4417511645380313e-05,-4.199260548287173e-05,3.25,2.75
3.015625,-3.173952676157776e-05,-3.173952676157776e-05,-3.7112516271305396e-05,-3.857616677500571e-05,3.25,2.75
3.01953125,-3.125038906111236e-05,-3.320317726527808e-05,-4.199260548287173e-05,-3.076501395834285e-05,3.25,2.75
3.0234375,-2.2950098543984112e-05,-3.564510316990919e-05,-3.515972806713968e-05,-3.418145266620888e-05,3.25,2.75
3.02734375,-2.1975585740749204e-05,-3.369231496574348e-05,-3.173952676157776e-05,-2.7833950353246344e-05,3.25,2.75
3.03125,-3.0275876257877457e-05,-3.564510316990919e-05,-3.222866446204317e-05,-2.881222575417714e-05,3.25,2.75
3.03515625,-3.467059036667428e-05,-3.6134240870374587e-05,-3.467059036667428e-05,-3.222866446204317e-05,3.25,2.75
3.0390625,-3.564510316990919e-05,-3.515972806713968e-05,-4.199260548287173e-05,-2.929760085694665e-05,3.25,2.75
3.04296875,-3.7597891374074906e-05,-3.906530447547111e-05,-4.0039817278706016e-05,-4.150723038010222e-05,3.25,2.75
3.046875,-3.222866446204317e-05,-3.662337857083999e-05,-3.076501395834285e-05,-3.857616677500571e-05,3.25,2.75
3.05078125,-2.4902886748149823e-05,-3.467059036667428e-05,-3.369231496574348e-05,-2.9786738557412055e-05,3.25,2.75
3.0546875,-2.1975585740749204e-05,-2.3439236244449517e-05,-3.369231496574348e-05,-3.6134240870374587e-05,3.25,2.75
3.05859375,-2.6855674952315538e-05,-2.539202444861523e-05,-3.173952676157776e-05,-4.248174318333713e-05,3.25,2.75
3.0625,-2.246096084351871e-05,-3.125038906111236e-05,-2.929760085694665e-05,-3.9554442175936506e-05,3.25,2.75
3.06640625,-1.6113458530556172e-05,-2.9786738557412055e-05,-2.0508172639353e-05,-4.0039817278706016e-05,3.25,2.75
3.0703125,-2.4902886748149823e-05,-3.906530447547111e-05,-2.9786738557412055e-05,-4.0039817278706016e-05,3.25,2.75
3.07421875,-3.467059036667428e-05,-4.5901944488899044e-05,-4.0039817278706016e-05,-3.515972806713968e-05,3.25,2.75
3.078125,-3.8087029074540304e-05,-4.541280678843364e-05,-3.125038906111236e-05,-2.929760085694665e-05,3.25,2.75
3.08203125,-3.7597891374074906e-05,-4.492366908796825e-05,-3.0275876257877457e-05,-3.320317726527808e-05,3.25,2.75
3.0859375,-3.515972806713968e-05,-4.0528954979171414e-05,-2.6855674952315538e-05,-2.929760085694665e-05,3.25,2.75
3.08984375,-4.0039817278706016e-05,-3.515972806713968e-05,-2.0997310339818404e-05,-2.4902886748149823e-05,3.25,2.75
3.09375,-4.0528954979171414e-05,-3.906530447547111e-05,-1.904452213565269e-05,-2.4902886748149823e-05,3.25,2.75
3.09765625,-3.222866446204317e-05,-4.0039817278706016e-05,-2.3439236244449517e-05,-2.539202444861523e-05,3.25,2.75
3.1015625,-3.271780216250857e-05,-3.173952676157776e-05,-1.8555384435187285e-05,-2.3439236244449517e-05,3.25,2.75
3.10546875,-3.076501395834285e-05,-2.6855674952315538e-05,-1.6602596231021577e-05,-2.8323088053711742e-05,3.25,2.75
3.109375,-3.076501395834285e-05,-2.7833950353246344e-05,-2.002279753658349e-05,-3.564510316990919e-05,3.25,2.75
3.11328125,-2.7344812652780936e-05,-2.1486448040283802e-05,-1.1233369318989837e-05,-3.515972806713968e-05,3.25,2.75
3.1171875,-2.1975585740749204e-05,-3.222866446204317e-05,-1.5138945727321264e-05,-2.4417511645380313e-05,3.25,2.75
3.12109375,-2.2950098543984112e-05,-4.3945393687037445e-05,-2.7833950353246344e-05,-2.588116214908063e-05,3.25,2.75
3.125,-3.515972806713968e-05,-3.8087029074540304e-05,-2.4902886748149823e-05,-3.0275876257877457e-05,3.25,2.75
3.12890625,-3.9554442175936506e-05,-4.150723038010222e-05,-2.246096084351871e-05,-2.3928373944914915e-05,3.25,2.75
3.1328125,-3.8087029074540304e-05,-4.834010779583427e-05,-3.857616677500571e-05,-2.881222575417714e-05,3.25,2.75
3.13671875,-4.443453138750284e-05,-4.5901944488899044e-05,-4.2970880883802537e-05,-3.662337857083999e-05,3.25,2.75
3.140625,-3.9554442175936506e-05,-4.443453138750284e-05,-2.9786738557412055e-05,-2.7344812652780936e-05,3.25,2.75
3.14453125,-3.7597891374074906e-05,-4.882924549629968e-05,-4.101809267963682e-05,-2.539202444861523e-05,3.25,2.75
3.1484375,-3.320317726527808e-05,-4.980752089723047e-05,-4.2970880883802537e-05,-3.857616677500571e-05,3.25,2.75
3.15234375,-2.6855674952315538e-05,-4.834010779583427e-05,-2.8323088053711742e-05,-3.467059036667428e-05,3.25,2.75
3.15625,-2.881222575417714e-05,-4.199260548287173e-05,-3.467059036667428e-05,-1.7580871631952377e-05,3.25,2.75
3.16015625,-3.418145266620888e-05,-4.101809267963682e-05,-3.7597891374074906e-05,-2.0508172639353e-05,3.25,2.75
3.1640625,-3.7112516271305396e-05,-4.101809267963682e-05,-3.271780216250857e-05,-3.906530447547111e-05,3.25,2.75
3.16796875,-4.2970880883802537e-05,-4.785473269306476e-05,-4.0528954979171414e-05,-4.346001858426793e-05,3.25,2.75
3.171875,-4.492366908796825e-05,-5.32239596050965e-05,-3.173952676157776e-05,-4.150723038010222e-05,3.25,2.75
3.17578125,-3.515972806713968e-05,-4.5901944488899044e-05,-2.588116214908063e-05,-3.7112516271305396e-05,3.25,2.75
3.1796875,-3.320317726527808e-05,-4.687645729213396e-05,-2.881222575417714e-05,-3.076501395834285e-05,3.25,2.75
3.18359375,-4.199260548287173e-05,-4.248174318333713e-05,-2.539202444861523e-05,-3.564510316990919e-05,3.25,2.75
3.1875,-4.6387319591668554e-05,-4.199260548287173e-05,-3.173952676157776e-05,-3.8087029074540304e-05,3.25,2.75
3.19140625,-4.541280678843364e-05,-4.736559499259935e-05,-4.199260548287173e-05,-2.881222575417714e-05,3.25,2.75
3.1953125,-4.785473269306476e-05,-4.785473269306476e-05,-3.222866446204317e-05,-2.7344812652780936e-05,3.25,2.75
3.19921875,-4.0039817278706016e-05,-5.273482190463109e-05,-3.369231496574348e-05,-2.6855674952315538e-05,3.25,2.75
3.203125,-2.4417511645380313e-05,-5.224944680186158e-05,-4.3945393687037445e-05,-2.246096084351871e-05,3.25,2.75
3.20703125,-2.3928373944914915e-05,-4.248174318333713e-05,-2.8323088053711742e-05,-2.2950098543984112e-05,3.25,2.75
3.2109375,-3.369231496574348e-05,-2.929760085694665e-05,-2.246096084351871e-05,-3.076501395834285e-05,3.25,2.75
3.21484375,-4.248174318333713e-05,-2.3439236244449517e-05,-2.8323088053711742e-05,-3.222866446204317e-05,3.25,2.75
3.21875,-4.541280678843364e-05,-3.6134240870374587e-05,-3.857616677500571e-05,-3.7112516271305396e-05,3.25,2.75
3.22265625,-3.7112516271305396e-05,-3.564510316990919e-05,-3.7597891374074906e-05,-3.662337857083999e-05,3.25,2.75
3.2265625,-2.7833950353246344e-05,-2.0997310339818404e-05,-2.3928373944914915e-05,-2.4902886748149823e-05,3.25,2.75
3.23046875,-2.7833950353246344e-05,-2.4417511645380313e-05,-2.4902886748149823e-05,-3.125038906111236e-05,3.25,2.75
3.234375,-3.222866446204317e-05,-2.7833950353246344e-05,-3.173952676157776e-05,-3.0275876257877457e-05,3.25,2.75
3.23828125,-3.7597891374074906e-05,-2.9786738557412055e-05,-3.271780216250857e-05,-2.4417511645380313e-05,3.25,2.75
3.2421875,-3.173952676157776e-05,-3.857616677500571e-05,-3.222866446204317e-05,-2.7833950353246344e-05,3.25,2.75
3.24609375,-2.7344812652780936e-05,-3.7597891374074906e-05,-3.467059036667428e-05,-2.588116214908063e-05,3.25,2.75
3.25,-3.515972806713968e-05,-3.418145266620888e-05,-3.6134240870374587e-05,-3.662337857083999e-05,3.25,2.75
3.25390625,-4.3945393687037445e-05,-3.271780216250857e-05,-3.173952676157776e-05,-3.857616677500571e-05,3.25,2.75
3.2578125,-3.6134240870374587e-05,-2.246096084351871e-05,-2.6855674952315538e-05,-3.418145266620888e-05,3.25,2.75
3.26171875,-3.173952676157776e-05,-3.0275876257877457e-05,-2.539202444861523e-05,-4.199260548287173e-05,3.25,2.75
3.265625,-3.0275876257877457e-05,-3.564510316990919e-05,-3.418145266620888e-05,-4.101809267963682e-05,3.25,2.75
3.26953125,-3.076501395834285e-05,-2.7833950353246344e-05,-3.7597891374074906e-05,-3.662337857083999e-05,3.25,2.75
3.2734375,-4.0039817278706016e-05,-3.369231496574348e-05,-4.0528954979171414e-05,-3.467059036667428e-05,3.25,2.75
3.27734375,-3.906530447547111e-05,-3.222866446204317e-05,-4.2970880883802537e-05,-2.6370299849546027e-05,3.25,2.75
3.28125,-3.7597891374074906e-05,-3.8087029074540304e-05,-4.0528954979171414e-05,-3.076501395834285e-05,3.25,2.75
3.28515625,-3.7597891374074906e-05,-4.199260548287173e-05,-3.076501395834285e-05,-4.2970880883802537e-05,3.25,2.75
3.2890625,-3.515972806713968e-05,-4.492366908796825e-05,-3.320317726527808e-05,-4.492366908796825e-05,3.25,2.75
3.29296875,-3.125038906111236e-05,-3.7597891374074906e-05,-3.906530447547111e-05,-4.443453138750284e-05,3.25,2.75
3.296875,-2.9786738557412055e-05,-3.271780216250857e-05,-3.7597891374074906e-05,-3.369231496574348e-05,3.25,2.75
3.30078125,-2.7833950353246344e-05,-3.515972806713968e-05,-4.2970880883802537e-05,-3.125038906111236e-05,3.25,2.75
3.3046875,-3.7112516271305396e-05,-4.492366908796825e-05,-4.443453138750284e-05,-3.7597891374074906e-05,3.25,2.75
3.30859375,-4.346001858426793e-05,-4.541280678843364e-05,-3.7112516271305396e-05,-3.6134240870374587e-05,3.25,2.75
3.3125,-4.0528954979171414e-05,-4.0039817278706016e-05,-3.9554442175936506e-05,-3.418145266620888e-05,3.25,2.75
3.31640625,-3.515972806713968e-05,-3.125038906111236e-05,-3.662337857083999e-05,-2.539202444861523e-05,3.25,2.75
3.3203125,-3.173952676157776e-05,-2.246096084351871e-05,-3.0275876257877457e-05,-3.125038906111236e-05,3.25,2.75
3.32421875,-2.881222575417714e-05,-3.125038906111236e-05,-3.076501395834285e-05,-3.857616677500571e-05,3.25,2.75
3.328125,-2.588116214908063e-05,-3.515972806713968e-05,-4.150723038010222e-05,-3.125038906111236e-05,3.25,2.75
3.33203125,-1.953365983611809e-05,-2.588116214908063e-05,-4.0039817278706016e-05,-2.6855674952315538e-05,3.25,2.75
3.3359375,-1.1718744421759347e-05,-1.8070009332417775e-05,-2.9786738557412055e-05,-3.0275876257877457e-05,3.25,2.75
3.33984375,-1.367529522362095e-05,-1.904452213565269e-05,-3.076501395834285e-05,-2.881222575417714e-05,3.25,2.75
3.34375,-2.1486448040283802e-05,-3.125038906111236e-05,-3.418145266620888e-05,-3.271780216250857e-05,3.25,2.75
3.34765625,-3.418145266620888e-05,-4.2970880883802537e-05,-3.222866446204317e-05,-4.492366908796825e-05,3.25,2.75
3.3515625,-3.515972806713968e-05,-3.222866446204317e-05,-2.3439236244449517e-05,-4.785473269306476e-05,3.25,2.75
3.35546875,-2.929760085694665e-05,-2.7344812652780936e-05,-2.929760085694665e-05,-4.541280678843364e-05,3.25,2.75
3.359375,-2.881222575417714e-05,-3.662337857083999e-05,-3.125038906111236e-05,-4.5901944488899044e-05,3.25,2.75
3.36328125,-2.8323088053711742e-05,-3.6134240870374587e-05,-3.173952676157776e-05,-4.2970880883802537e-05,3.25,2.75
3.3671875,-3.564510316990919e-05,-3.271780216250857e-05,-4.492366908796825e-05,-4.199260548287173e-05,3.25,2.75
3.37109375,-3.906530447547111e-05,-3.173952676157776e-05,-4.0039817278706016e-05,-4.150723038010222e-05,3.25,2.75
3.375,-3.0275876257877457e-05,-3.8087029074540304e-05,-3.515972806713968e-05,-3.467059036667428e-05,3.25,2.75
3.37890625,-2.8323088053711742e-05,-4.346001858426793e-05,-3.857616677500571e-05,-2.2950098543984112e-05,3.25,2.75
3.3828125,-3.906530447547111e-05,-4.6387319591668554e-05,-3.7597891374074906e-05,-2.539202444861523e-05,3.25,2.75
3.38671875,-4.0039817278706016e-05,-3.8087029074540304e-05,-3.320317726527808e-05,-2.7833950353246344e-05,3.25,2.75
3.390625,-3.369231496574348e-05,-3.7112516271305396e-05,-3.662337857083999e-05,-3.076501395834285e-05,3.25,2.75
3.39453125,-3.369231496574348e-05,-3.125038906111236e-05,-3.564510316990919e-05,-3.564510316990919e-05,3.25,2.75
3.3984375,-3.662337857083999e-05,-1.8555384435187285e-05,-2.6855674952315538e-05,-3.076501395834285e-05,3.25,2.75
3.40234375,-4.150723038010222e-05,-3.7597891374074906e-05,-4.6387319591668554e-05,-2.539202444861523e-05,3.25,2.75
3.40625,-3.467059036667428e-05,-5.127117140093078e-05,-5.859694911482413e-05,-2.588116214908063e-05,3.25,2.75
3.41015625,-2.246096084351871e-05,-5.078203370046538e-05,-3.9554442175936506e-05,-3.076501395834285e-05,3.25,2.75
3.4140625,-2.3928373944914915e-05,-4.687645729213396e-05,-3.173952676157776e-05,-2.929760085694665e-05,3.25,2.75
3.41796875,-3.7112516271305396e-05,-5.32239596050965e-05,-4.980752089723047e-05,-3.076501395834285e-05,3.25,2.75
3.421875,-4.150723038010222e-05,-6.396617602685586e-05,-6.152425012222475e-05,-3.515972806713968e-05,3.25,2.75
3.42578125,-4.0039817278706016e-05,-6.347703832639046e-05,-5.908232421759364e-05,-3.418145266620888e-05,3.25,2.75
3.4296875,-4.199260548287173e-05,-5.468761010879681e-05,-5.8107811414358716e-05,-3.222866446204317e-05,3.25,2.75
3.43359375,-4.3945393687037445e-05,-4.541280678843364e-05,-5.8107811414358716e-05,-3.320317726527808e-05,3.25,2.75
3.4375,-3.857616677500571e-05,-4.0528954979171414e-05,-5.078203370046538e-05,-4.101809267963682e-05,3.25,2.75
3.44140625,-3.467059036667428e-05,-4.5901944488899044e-05,-3.906530447547111e-05,-4.199260548287173e-05,3.25,2.75
3.4453125,-3.8087029074540304e-05,-3.515972806713968e-05,-3.7112516271305396e-05,-3.125038906111236e-05,3.25,2.75
3.44921875,-3.906530447547111e-05,-2.539202444861523e-05,-4.5901944488899044e-05,-2.7833950353246344e-05,3.25,2.75
3.453125,-3.369231496574348e-05,-3.076501395834285e-05,-4.5901944488899044e-05,-3.125038906111236e-05,3.25,2.75
3.45703125,-3.6134240870374587e-05,-3.0275876257877457e-05,-3.8087029074540304e-05,-3.857616677500571e-05,3.25,2.75
3.4609375,-3.7597891374074906e-05,-3.369231496574348e-05,-3.7112516271305396e-05,-3.7112516271305396e-05,3.25,2.75
3.46484375,-4.248174318333713e-05,-3.222866446204317e-05,-3.369231496574348e-05,-2.929760085694665e-05,3.25,2.75
3.46875,-5.078203370046538e-05,-4.3945393687037445e-05,-3.857616677500571e-05,-4.101809267963682e-05,3.25,2.75
3.47265625,-5.224944680186158e-05,-4.248174318333713e-05,-4.101809267963682e-05,-4.2970880883802537e-05,3.25,2.75
3.4765625,-4.834010779583427e-05,-3.6134240870374587e-05,-3.418145266620888e-05,-3.418145266620888e-05,3.25,2.75
3.48046875,-4.0039817278706016e-05,-4.6387319591668554e-05,-3.320317726527808e-05,-2.7833950353246344e-05,3.25,2.75
3.484375,-3.515972806713968e-05,-4.248174318333713e-05,-2.881222575417714e-05,-2.002279753658349e-05,3.25,2.75
3.48828125,-3.8087029074540304e-05,-3.0275876257877457e-05,-1.416067032639046e-05,-2.2950098543984112e-05,3.25,2.75
3.4921875,-3.7597891374074906e-05,-3.320317726527808e-05,-2.588116214908063e-05,-4.101809267963682e-05,3.25,2.75
3.49609375,-3.320317726527808e-05,-3.564510316990919e-05,-4.0528954979171414e-05,-4.541280678843364e-05,3.25,2.75
3.5,-3.906530447547111e-05,-3.173952676157776e-05,-3.369231496574348e-05,-3.7597891374074906e-05,3.25,2.75
3.50390625,-4.2970880883802537e-05,-3.7112516271305396e-05,-2.7344812652780936e-05,-3.173952676157776e-05,3.25,2.75
3.5078125,-3.6134240870374587e-05,-4.0039817278706016e-05,-3.6134240870374587e-05,-3.7597891374074906e-05,3.25,2.75
3.51171875,-2.3928373944914915e-05,-2.7833950353246344e-05,-3.6134240870374587e-05,-3.467059036667428e-05,3.25,2.75
3.515625,-1.6602596231021577e-05,-2.8323088053711742e-05,-3.7597891374074906e-05,-2.929760085694665e-05,3.25,2.75
3.51953125,-2.1975585740749204e-05,-3.076501395834285e-05,-3.8087029074540304e-05,-2.9786738557412055e-05,3.25,2.75
3.5234375,-2.881222575417714e-05,-1.904452213565269e-05,-2.246096084351871e-05,-2.4902886748149823e-05,3.25,2.75
3.52734375,-3.222866446204317e-05,-3.662337857083999e-05,-3.173952676157776e-05,-2.929760085694665e-05,3.25,2.75
3.53125,-3.125038906111236e-05,-3.906530447547111e-05,-2.7833950353246344e-05,-3.6134240870374587e-05,3.25,2.75
3.53515625,-2.881222575417714e-05,-2.246096084351871e-05,-1.5138945727321264e-05,-3.7597891374074906e-05,3.25,2.75
3.5390625,-2.588116214908063e-05,-2.7833950353246344e-05,-2.2950098543984112e-05,-4.0528954979171414e-05,3.25,2.75
3.54296875,-2.4417511645380313e-05,-3.173952676157776e-05,-2.7833950353246344e-05,-3.0275876257877457e-05,3.25,2.75
3.546875,-2.3928373944914915e-05,-2.8323088053711742e-05,-2.3439236244449517e-05,-1.8070009332417775e-05,3.25,2.75
3.55078125,-2.9786738557412055e-05,-2.2950098543984112e-05,-3.0275876257877457e-05,-1.8555384435187285e-05,3.25,2.75
3.5546875,-3.222866446204317e-05,-1.4649808026855864e-05,-2.6370299849546027e-05,-1.7580871631952377e-05,3.25,2.75
3.55859375,-2.588116214908063e-05,-1.709173393148698e-05,-1.904452213565269e-05,-2.2950098543984112e-05,3.25,2.75
3.5625,-2.539202444861523e-05,-2.8323088053711742e-05,-2.4902886748149823e-05,-2.4417511645380313e-05,3.25,2.75
3.56640625,-2.929760085694665e-05,-3.418145266620888e-05,-2.7344812652780936e-05,-2.3439236244449517e-05,3.25,2.75
3.5703125,-3.076501395834285e-05,-3.418145266620888e-05,-2.881222575417714e-05,-3.7112516271305396e-05,3.25,2.75
3.57421875,-3.564510316990919e-05,-3.7597891374074906e-05,-3.173952676157776e-05,-4.0039817278706016e-05,3.25,2.75
3.578125,-4.346001858426793e-05,-4.736559499259935e-05,-3.076501395834285e-05,-2.6855674952315538e-05,3.25,2.75
3.58203125,-4.0528954979171414e-05,-4.785473269306476e-05,-3.173952676157776e-05,-2.246096084351871e-05,3.25,2.75
3.5859375,-2.929760085694665e-05,-4.5901944488899044e-05,-3.6134240870374587e-05,-2.0508172639353e-05,3.25,2.75
3.58984375,-3.369231496574348e-05,-3.271780216250857e-05,-3.076501395834285e-05,-8.302305713893317e-06,3.25,2.75
3.59375,-3.7112516271305396e-05,-2.4417511645380313e-05,-3.125038906111236e-05,-1.5628083427786662e-05,3.25,2.75
3.59765625,-2.9786738557412055e-05,-3.906530447547111e-05,-3.662337857083999e-05,-3.173952676157776e-05,3.25,2.75
3.6015625,-2.6855674952315538e-05,-4.101809267963682e-05,-3.8087029074540304e-05,-2.881222575417714e-05,3.25,2.75
3.60546875,-2.6855674952315538e-05,-3.125038906111236e-05,-3.857616677500571e-05,-3.222866446204317e-05,3.25,2.75
3.609375,-2.6855674952315538e-05,-3.320317726527808e-05,-4.541280678843364e-05,-3.222866446204317e-05,3.25,2.75
3.61328125,-2.3439236244449517e-05,-3.320317726527808e-05,-4.0039817278706016e-05,-3.125038906111236e-05,3.25,2.75
3.6171875,-2.539202444861523e-05,-3.076501395834285e-05,-3.515972806713968e-05,-4.492366908796825e-05,3.25,2.75
3.62109375,-3.320317726527808e-05,-4.5901944488899044e-05,-3.9554442175936506e-05,-3.564510316990919e-05,3.25,2.75
3.625,-3.7112516271305396e-05,-4.736559499259935e-05,-3.906530447547111e-05,-2.6855674952315538e-05,3.25,2.75
3.62890625,-3.8087029074540304e-05,-4.0528954979171414e-05,-4.0039817278706016e-05,-3.6134240870374587e-05,3.25,2.75
3.6328125,-3.467059036667428e-05,-3.9554442175936506e-05,-4.0039817278706016e-05,-3.467059036667428e-05,3.25,2.75
3.63671875,-2.9786738557412055e-05,-3.467059036667428e-05,-3.222866446204317e-05,-2.9786738557412055e-05,3.25,2.75
3.640625,-2.881222575417714e-05,-3.515972806713968e-05,-3.564510316990919e-05,-3.076501395834285e-05,3.25,2.75
3.64453125,-2.6370299849546027e-05,-3.6134240870374587e-05,-3.369231496574348e-05,-3.076501395834285e-05,3.25,2.75
3.6484375,-2.929760085694665e-05,-4.0528954979171414e-05,-3.0275876257877457e-05,-2.7833950353246344e-05,3.25,2.75
3.65234375,-2.929760085694665e-05,-3.6134240870374587e-05,-3.369231496574348e-05,-3.076501395834285e-05,3.25,2.75
3.65625,-2.3439236244449517e-05,-2.8323088053711742e-05,-2.881222575417714e-05,-3.7112516271305396e-05,3.25,2.75
3.66015625,-2.8323088053711742e-05,-3.076501395834285e-05,-3.0275876257877457e-05,-2.881222575417714e-05,3.25,2.75
3.6640625,-3.7112516271305396e-05,-2.6370299849546027e-05,-4.248174318333713e-05,-2.6855674952315538e-05,3.25,2.75
3.66796875,-4.0039817278706016e-05,-1.8555384435187285e-05,-3.857616677500571e-05,-3.0275876257877457e-05,3.25,2.75
3.671875,-3.467059036667428e-05,-2.539202444861523e-05,-2.7833950353246344e-05,-2.7833950353246344e-05,3.25,2.75
3.67578125,-4.101809267963682e-05,-3.222866446204317e-05,-3.467059036667428e-05,-2.7833950353246344e-05,3.25,2.75
3.6796875,-4.150723038010222e-05,-3.7112516271305396e-05,-3.173952676157776e-05,-2.1975585740749204e-05,3.25,2.75
3.68359375,-2.6855674952315538e-05,-4.150723038010222e-05,-2.929760085694665e-05,-2.3928373944914915e-05,3.25,2.75
3.6875,-2.0508172639353e-05,-3.9554442175936506e-05,-3.9554442175936506e-05,-3.271780216250857e-05,3.25,2.75
3.69140625,-2.539202444861523e-05,-3.9554442175936506e-05,-4.0528954979171414e-05,-3.7597891374074906e-05,3.25,2.75
3.6953125,-2.7344812652780936e-05,-4.541280678843364e-05,-3.857616677500571e-05,-3.7597891374074906e-05,3.25,2.75
3.69921875,-2.588116214908063e-05,-5.078203370046538e-05,-4.980752089723047e-05,-3.564510316990919e-05,3.25,2.75
3.703125,-2.0508172639353e-05,-4.346001858426793e-05,-5.1760309101396184e-05,-2.6855674952315538e-05,3.25,2.75
3.70703125,-2.4902886748149823e-05,-4.346001858426793e-05,-4.541280678843364e-05,-2.1975585740749204e-05,3.25,2.75
3.7109375,-3.271780216250857e-05,-6.445531372732127e-05,-6.494445142778665e-05,-2.539202444861523e-05,3.25,2.75
3.71484375,-2.6855674952315538e-05,-7.08028160402838e-05,-7.177732884351871e-05,-2.9786738557412055e-05,3.25,2.75
3.71875,-2.0997310339818404e-05,-5.8107811414358716e-05,-5.7618673713893324e-05,-2.7344812652780936e-05,3.25,2.75
3.72265625,-1.0744231618524437e-05,-6.201338782269014e-05,-6.152425012222475e-05,-2.7344812652780936e-05,3.25,2.75
3.7265625,2.9290484083314394e-06,-9.179434858564124e-05,-9.472541219073776e-05,-3.076501395834285e-05,3.25,2.75
3.73046875,8.78741302082858e-06,-0.00011425705683009076,-0.00012206820964675362,-2.1975585740749204e-05,3.25,2.75
3.734375,1.3182127129625414e-05,-0.00012402099785091935,-0.00012548464835461965,-2.588116214908063e-05,3.25,2.75
3.73828125,1.562405303425652e-05,-0.0001347632142726787,-0.00013866879068101013,-3.076501395834285e-05,3.25,2.75
3.7421875,1.562405303425652e-05,-0.00013720514017730984,-0.00014355264249027238,-3.125038906111236e-05,3.25,2.75
3.74609375,1.708770353795684e-05,-0.0001499001448032349,-0.0001503892825037003,-3.125038906111236e-05,3.25,2.75
3.75,1.9529629442587945e-05,-0.00015771129761989774,-0.00016796813893888758,-3.222866446204317e-05,3.25,2.75
3.75390625,2.2460693047684456e-05,-0.00015136379530693522,-0.0001684535140416571,-3.6134240870374587e-05,3.25,2.75
3.7578125,2.6366269456015885e-05,-0.0001684535140416571,-0.00019189073508934154,-2.929760085694665e-05,3.25,2.75
3.76171875,3.271377176897843e-05,-0.00017919573046341647,-0.00019824199999999998,-2.929760085694665e-05,3.25,2.75
3.765625,3.5155697673609536e-05,-0.00015771129761989774,-0.00017675756715648125,-2.7833950353246344e-05,3.25,2.75
3.76953125,3.1246358667582226e-05,-0.00015575850941573202,-0.00017529015405508505,-2.7833950353246344e-05,3.25,2.75
3.7734375,3.613021047684445e-05,-0.0001528312084083314,-0.00017138457764675363,-3.0275876257877457e-05,3.25,2.75
3.77734375,2.9782708163881906e-05,-0.00014306350478980696,-0.00017529015405508505,-3.271780216250857e-05,3.25,2.75
3.78125,1.3182127129625414e-05,-0.00014745821889860378,-0.0001699209271430533,-3.7112516271305396e-05,3.25,2.75
3.78515625,9.761925824063496e-06,-0.00014257436708934156,-0.00014550543069443808,-3.271780216250857e-05,3.25,2.75
3.7890625,1.1229338925459699e-05,-0.00013915792838147553,-0.0001323212883680476,-3.906530447547111e-05,3.25,2.75
3.79296875,6.834624816662867e-06,-0.00013427407657221331,-0.00011669898273472189,-4.346001858426793e-05,3.25,2.75
3.796875,-5.371242108796807e-06,-0.00012206820964675362,-0.00010693127911619742,-3.173952676157776e-05,3.25,2.75
3.80078125,-1.8070009332417775e-05,-0.00011278964372869458,-0.00010839492961989775,-2.4902886748149823e-05,3.25,2.75
3.8046875,-1.6602596231021577e-05,-0.00010546762861249712,-0.00010058377680323489,-3.0275876257877457e-05,3.25,2.75
3.80859375,-8.302305713893317e-06,-8.154126986434728e-05,-7.714655575555045e-05,-2.6370299849546027e-05,3.25,2.75
3.8125,-9.28058111482413e-06,-6.103511242175935e-05,-5.1760309101396184e-05,-2.3439236244449517e-05,3.25,2.75
3.81640625,-2.3439236244449517e-05,-6.591896423102157e-05,-5.1760309101396184e-05,-2.929760085694665e-05,3.25,2.75
3.8203125,-3.0275876257877457e-05,-5.420223500602729e-05,-4.492366908796825e-05,-2.6370299849546027e-05,3.25,2.75
3.82421875,-3.564510316990919e-05,-4.931838319676507e-05,-4.248174318333713e-05,-2.7833950353246344e-05,3.25,2.75
3.828125,-3.906530447547111e-05,-4.5901944488899044e-05,-2.9786738557412055e-05,-2.4417511645380313e-05,3.25,2.75
3.83203125,-5.078203370046538e-05,-3.467059036667428e-05,-2.1975585740749204e-05,-2.9786738557412055e-05,3.25,2.75
3.8359375,-5.517674780926221e-05,-2.0508172639353e-05,-2.3928373944914915e-05,-3.7112516271305396e-05,3.25,2.75
3.83984375,-5.224944680186158e-05,-1.709173393148698e-05,-1.5138945727321264e-05,-2.7344812652780936e-05,3.25,2.75
3.84375,-5.517674780926221e-05,-7.813168013427926e-06,-8.791443414358724e-06,-3.173952676157776e-05,3.25,2.75
3.84765625,-5.8107811414358716e-05,-4.91152897230478e-07,-4.91152897230478e-07,-3.7112516271305396e-05,3.25,2.75
3.8515625,-6.0060599618524433e-05,-1.2697019822690151e-05,-3.418453904631093e-06,-3.7597891374074906e-05,3.25,2.75
3.85546875,-5.566588550972761e-05,-1.5138945727321264e-05,-1.318615752315555e-05,-4.443453138750284e-05,3.25,2.75
3.859375,-5.7618673713893324e-05,-1.416067032639046e-05,-1.5138945727321264e-05,-4.3945393687037445e-05,3.25,2.75
3.86328125,-6.689723963195238e-05,-9.765956217593639e-06,-5.371242108796807e-06,-4.2970880883802537e-05,3.25,2.75
3.8671875,-6.885002783611809e-05,2.9290484083314394e-06,-4.8858670060272965e-06,-4.980752089723047e-05,3.25,2.75
3.87109375,-6.347703832639046e-05,5.370974312962559e-06,-1.2207882122224751e-05,-5.127117140093078e-05,3.25,2.75
3.875,-5.6155023210193004e-05,3.903561211566355e-06,-2.443941101396177e-06,-3.9554442175936506e-05,3.25,2.75
3.87890625,-4.980752089723047e-05,8.78741302082858e-06,1.0251063524528888e-05,-3.173952676157776e-05,3.25,2.75
3.8828125,-5.468761010879681e-05,1.3182127129625414e-05,1.708770353795684e-05,-3.222866446204317e-05,3.25,2.75
3.88671875,-5.9571461918059035e-05,8.298275320363175e-06,1.806597893888764e-05,-3.418145266620888e-05,3.25,2.75
3.890625,-6.152425012222475e-05,4.871225037003341e-07,1.0251063524528888e-05,-3.906530447547111e-05,3.25,2.75
3.89453125,-6.0060599618524433e-05,9.76260204165726e-07,7.3237625171282725e-06,-3.6134240870374587e-05,3.25,2.75
3.8984375,-5.273482190463109e-05,-4.91152897230478e-07,1.2692989429160007e-05,-2.929760085694665e-05,3.25,2.75
3.90234375,-5.9571461918059035e-05,-6.83865521019301e-06,2.441348125185017e-05,-2.929760085694665e-05,3.25,2.75
3.90625,-6.0060599618524433e-05,-9.765279999999875e-07,1.757684123842223e-05,-3.076501395834285e-05,3.25,2.75
3.91015625,-5.6155023210193004e-05,5.856349415732069e-06,1.6113190734721924e-05,-3.6134240870374587e-05,3.25,2.75
3.9140625,-5.517674780926221e-05,6.345487116197475e-06,1.3671264830090805e-05,-3.662337857083999e-05,3.25,2.75
3.91796875,-5.273482190463109e-05,-1.0255093918059032e-05,-5.371242108796807e-06,-3.418145266620888e-05,3.25,2.75
3.921875,-5.468761010879681e-05,-1.2207882122224751e-05,4.881836612497153e-06,-3.515972806713968e-05,3.25,2.75
3.92578125,-5.712953601342792e-05,2.4399107078660477e-06,1.1229338925459699e-05,-2.881222575417714e-05,3.25,2.75
3.9296875,-5.37130973055619e-05,1.0251063524528888e-05,6.834624816662867e-06,-2.4417511645380313e-05,3.25,2.75
3.93359375,-4.443453138750284e-05,9.761925824063496e-06,1.3671264830090805e-05,-2.929760085694665e-05,3.25,2.75
3.9375,-3.8087029074540304e-05,1.4616353069352356e-06,1.6113190734721924e-05,-2.539202444861523e-05,3.25,2.75
3.94140625,-4.3945393687037445e-05,2.4399107078660477e-06,1.0251063524528888e-05,-2.0997310339818404e-05,3.25,2.75
3.9453125,-4.541280678843364e-05,-1.9548034009307854e-06,4.871225037003341e-07,-3.857616677500571e-05,3.25,2.75
3.94921875,-4.687645729213396e-05,-6.83865521019301e-06,-7.813168013427926e-06,-4.0039817278706016e-05,3.25,2.75
3.953125,-5.420223500602729e-05,-5.860379809262212e-06,-1.0255093918059032e-05,-3.076501395834285e-05,3.25,2.75
3.95703125,-5.859694911482413e-05,-1.6113458530556172e-05,-7.813168013427926e-06,-3.857616677500571e-05,3.25,2.75
3.9609375,-5.37130973055619e-05,-1.8070009332417775e-05,-9.765956217593639e-06,-4.443453138750284e-05,3.25,2.75
3.96484375,-4.736559499259935e-05,-1.318615752315555e-05,-8.302305713893317e-06,-4.443453138750284e-05,3.25,2.75
3.96875,-4.199260548287173e-05,-1.318615752315555e-05,-2.0151967650718917e-09,-3.906530447547111e-05,3.25,2.75
3.97265625,-3.564510316990919e-05,-1.367529522362095e-05,-3.418453904631093e-06,-3.564510316990919e-05,3.25,2.75
3.9765625,-3.173952676157776e-05,-1.5138945727321264e-05,-1.9548034009307854e-06,-3.222866446204317e-05,3.25,2.75
3.98046875,-3.6134240870374587e-05,-1.5628083427786662e-05,2.4399107078660477e-06,-2.539202444861523e-05,3.25,2.75
3.984375,-4.199260548287173e-05,-1.2697019822690151e-05,-4.91152897230478e-07,-2.929760085694665e-05,3.25,2.75
3.98828125,-5.224944680186158e-05,-1.0255093918059032e-05,-1.0255093918059032e-05,-3.6134240870374587e-05,3.25,2.75
3.9921875,-5.37130973055619e-05,-1.367529522362095e-05,-9.765956217593639e-06,-4.346001858426793e-05,3.25,2.75
3.99609375,-4.248174318333713e-05,-1.367529522362095e-05,-8.791443414358724e-06,-4.150723038010222e-05,3.25,2.75
4.0,-3.6134240870374587e-05,-1.318615752315555e-05,-1.367529522362095e-05,-2.929760085694665e-05,3.25,2.75
4.00390625,-4.0039817278706016e-05,-2.002279753658349e-05,-2.002279753658349e-05,-3.125038906111236e-05,3.25,2.75
4.0078125,-5.32239596050965e-05,-2.3928373944914915e-05,-2.002279753658349e-05,-3.9554442175936506e-05,3.25,2.75
4.01171875,-5.9571461918059035e-05,-2.0508172639353e-05,-7.813168013427926e-06,-3.7112516271305396e-05,3.25,2.75
4.015625,-5.8107811414358716e-05,-1.8555384435187285e-05,-1.367529522362095e-05,-3.515972806713968e-05,3.25,2.75
4.01953125,-5.6155023210193004e-05,-2.9786738557412055e-05,-2.0997310339818404e-05,-3.173952676157776e-05,3.25,2.75
4.0234375,-4.980752089723047e-05,-3.0275876257877457e-05,-1.416067032639046e-05,-3.8087029074540304e-05,3.25,2.75
4.02734375,-4.2970880883802537e-05,-1.2207882122224751e-05,-1.367529522362095e-05,-4.346001858426793e-05,3.25,2.75
4.03125,-4.3945393687037445e-05,-6.3495175097276045e-06,-1.4649808026855864e-05,-3.467059036667428e-05,3.25,2.75
4.03515625,-3.564510316990919e-05,-3.418453904631093e-06,-1.2697019822690151e-05,-3.369231496574348e-05,3.25,2.75
4.0390625,-2.1486448040283802e-05,-8.302305713893317e-06,-1.0255093918059032e-05,-3.125038906111236e-05,3.25,2.75
4.04296875,-3.467059036667428e-05,-1.8555384435187285e-05,-1.4649808026855864e-05,-2.929760085694665e-05,3.25,2.75
4.046875,-4.6387319591668554e-05,-2.002279753658349e-05,-1.5138945727321264e-05,-3.222866446204317e-05,3.25,2.75
4.05078125,-3.418145266620888e-05,-4.396729305561891e-06,-2.0508172639353e-05,-2.9786738557412055e-05,3.25,2.75
4.0546875,-3.271780216250857e-05,-7.813168013427926e-06,-2.1486448040283802e-05,-3.418145266620888e-05,3.25,2.75
4.05859375,-4.150723038010222e-05,-2.0508172639353e-05,-1.709173393148698e-05,-3.8087029074540304e-05,3.25,2.75
4.0625,-4.0039817278706016e-05,-2.0997310339818404e-05,-2.3439236244449517e-05,-2.929760085694665e-05,3.25,2.75
4.06640625,-3.222866446204317e-05,-2.6855674952315538e-05,-2.246096084351871e-05,-2.3439236244449517e-05,3.25,2.75
4.0703125,-3.564510316990919e-05,-3.271780216250857e-05,-2.1486448040283802e-05,-2.7833950353246344e-05,3.25,2.75
4.07421875,-4.443453138750284e-05,-2.881222575417714e-05,-3.125038906111236e-05,-3.222866446204317e-05,3.25,2.75
4.078125,-4.5901944488899044e-05,-2.8323088053711742e-05,-3.222866446204317e-05,-3.125038906111236e-05,3.25,2.75
4.08203125,-4.5901944488899044e-05,-3.125038906111236e-05,-2.881222575417714e-05,-3.076501395834285e-05,3.25,2.75
4.0859375,-4.541280678843364e-05,-3.0275876257877457e-05,-3.173952676157776e-05,-3.222866446204317e-05,3.25,2.75
4.08984375,-4.834010779583427e-05,-2.881222575417714e-05,-3.222866446204317e-05,-3.7112516271305396e-05,3.25,2.75
4.09375,-5.078203370046538e-05,-2.539202444861523e-05,-2.539202444861523e-05,-3.906530447547111e-05,3.25,2.75
4.09765625,-4.736559499259935e-05,-2.6855674952315538e-05,-1.709173393148698e-05,-3.857616677500571e-05,3.25,2.75
4.1015625,-4.248174318333713e-05,-2.4902886748149823e-05,-2.002279753658349e-05,-4.248174318333713e-05,3.25,2.75
4.10546875,-4.0039817278706016e-05,-1.0255093918059032e-05,-1.6113458530556172e-05,-4.2970880883802537e-05,3.25,2.75
4.109375,-4.150723038010222e-05,-1.367529522362095e-05,-1.0255093918059032e-05,-3.662337857083999e-05,3.25,2.75
4.11328125,-4.785473269306476e-05,-2.881222575417714e-05,-2.588116214908063e-05,-3.125038906111236e-05,3.25,2.75
4.1171875,-4.834010779583427e-05,-2.4417511645380313e-05,-2.7344812652780936e-05,-2.9786738557412055e-05,3.25,2.75
4.12109375,-4.443453138750284e-05,-2.2950098543984112e-05,-2.7833950353246344e-05,-2.6370299849546027e-05,3.25,2.75
4.125,-4.346001858426793e-05,-3.906530447547111e-05,-4.248174318333713e-05,-2.929760085694665e-05,3.25,2.75
4.12890625,-3.8087029074540304e-05,-4.0039817278706016e-05,-4.492366908796825e-05,-3.515972806713968e-05,3.25,2.75
