timestamp,TP9,AF7,AF8,TP10,Valence,Arousal
0.0,0.0009995117,0.00011473787782558945,0.0003432368332799268,2.9268104339665886e-05,6.0667,3.0
0.00390625,0.0009995117,0.00010741712634927907,0.0003344519315083544,2.731590394598312e-05,6.0667,3.0
0.0078125,0.0009995117,9.372122046234843e-05,0.00034177268298466476,2.3411503158617595e-05,6.0667,3.0
0.01171875,0.0009995117,0.00010351272556191354,0.00035202173505149926,2.487565345387967e-05,6.0667,3.0
0.015625,0.000998993146770428,0.00011278567743190667,0.0003666937411352713,2.5363703552300356e-05,6.0667,3.0
0.01953125,-0.000999511,0.0001230347294987412,0.000374990592808423,2.3411503158617595e-05,6.0667,3.0
0.0234375,0.0009882560446051727,0.00010692907625085838,0.00038035914389105064,2.3411503158617595e-05,6.0667,3.0
0.02734375,-0.0009765421422430762,9.030486977340358e-05,0.0003847515947768369,2.29234530601969e-05,6.0667,3.0
0.03125,0.0008852469707072557,0.00010741712634927907,0.0003784069434973679,1.804295207598999e-05,6.0667,3.0
0.03515625,0.0008017293976150149,9.765612438086524e-05,0.0003793830436942093,1.5602701583886534e-05,6.0667,3.0
0.0390625,0.0009633654895857177,0.00010400077566033424,0.0003930484464499886,1.5114651485465841e-05,6.0667,3.0
0.04296875,0.0009457956860425727,9.274512026550703e-05,0.00038182329418631273,9.74610040283824e-06,6.0667,3.0
0.046875,0.0009233148783840696,5.711746308079658e-05,0.0003788949935957886,1.2674400993362385e-05,6.0667,3.0
0.05078125,0.000855933461670863,6.1021863868162114e-05,0.0003764547431036851,1.6578801780727917e-05,6.0667,3.0
0.0546875,0.0008695988644266423,8.054386780498975e-05,0.00036278934034790575,1.7066851879148608e-05,6.0667,3.0
0.05859375,0.000910137525726711,9.420927056076911e-05,0.0003598610397573816,1.5114651485465841e-05,6.0667,3.0
0.0625,0.0008505649105882354,0.00010497687585717561,0.0003710861920210575,1.413855128862446e-05,6.0667,3.0
0.06640625,0.0007397165319844358,9.420927056076911e-05,0.00037596669300526443,1.7554901977569296e-05,6.0667,3.0
0.0703125,0.0006015373478690776,8.591241888761736e-05,0.00035790883936369887,1.413855128862446e-05,6.0667,3.0
0.07421875,0.0006674546142870222,7.566336682078285e-05,0.0003412846328862441,1.1698300796521003e-05,6.0667,3.0
0.078125,0.0008051457483039598,6.980676563973454e-05,0.0003344519315083544,1.023415050125893e-05,6.0667,3.0
0.08203125,0.0007997771972213323,7.371116642710007e-05,0.00035546858887159537,1.023415050125893e-05,6.0667,3.0
0.0859375,0.0007118976763744565,7.029481573815525e-05,0.0003647415407415885,9.258050304417548e-06,6.0667,3.0
0.08984375,0.0006586697125154498,5.516526268711381e-05,0.00032469092953994055,8.281950107576165e-06,6.0667,3.0
0.09375,0.0006874951714534219,6.0045763671320725e-05,0.00033054753072098885,1.7066851879148608e-05,6.0667,3.0
0.09765625,0.000663062163401236,7.76155672144656e-05,0.0003534858853467613,1.853100217441068e-05,6.0667,3.0
0.1015625,0.0006831027205676357,8.005581770656907e-05,0.00034177268298466476,1.2674400993362385e-05,6.0667,3.0
0.10546875,0.0005956807466880293,8.640046898603806e-05,0.0003427487831815061,9.258050304417548e-06,6.0667,3.0
0.109375,0.0005063370755458915,8.640046898603806e-05,0.00034177268298466476,1.1698300796521003e-05,6.0667,3.0
0.11328125,0.0005312276305653469,7.956776760814838e-05,0.000327131180032044,1.365050119020377e-05,6.0667,3.0
0.1171875,0.0005121936767269399,7.029481573815525e-05,0.00030712112599679567,9.74610040283824e-06,6.0667,3.0
0.12109375,0.0005722543419638362,6.443821455710694e-05,0.00030077647471732664,1.2674400993362385e-05,6.0667,3.0
0.125,0.0005078012258411536,6.785456524605179e-05,0.00029882427432364393,1.6090751682307226e-05,6.0667,3.0
0.12890625,0.00040817799950103003,4.4428160521858605e-05,0.00030321672520943014,1.5114651485465841e-05,6.0667,3.0
0.1328125,0.0005361081315495537,2.1947352863355517e-05,0.00027878371715724424,1.6090751682307226e-05,6.0667,3.0
0.13671875,0.0005209785784985123,4.345206032501723e-05,0.0002612139136140994,1.0722200599679622e-05,6.0667,3.0
0.140625,0.0005190263781048295,5.711746308079658e-05,0.0002826881179446098,1.023415050125893e-05,6.0667,3.0
0.14453125,0.00047897576690318156,4.979671160448621e-05,0.0002861044686335546,1.0722200599679622e-05,6.0667,3.0
0.1484375,0.0004159868010757611,5.418916249027244e-05,0.0002836642181414512,1.3162451091783078e-05,6.0667,3.0
0.15234375,0.0004487166608010987,5.516526268711381e-05,0.00026463026430304426,1.5602701583886534e-05,6.0667,3.0
0.15625,0.00043993175902952626,4.345206032501723e-05,0.0002553573124330511,1.853100217441068e-05,6.0667,3.0
0.16015625,0.00035250978514991994,4.1499859931334464e-05,0.00025926171322041664,1.804295207598999e-05,6.0667,3.0
0.1640625,0.0002954079236346991,4.979671160448621e-05,0.0002490126611535821,1.7554901977569296e-05,6.0667,3.0
0.16796875,0.00040232139831998173,3.515520865186548e-05,0.00025047681144884417,2.1947352863355517e-05,6.0667,3.0
0.171875,0.00045018081109636076,1.5114651485465841e-05,0.0002382755589883269,2.6827853847562433e-05,6.0667,3.0
0.17578125,0.0003974408973357748,2.145930276493483e-05,0.00022165135251087212,2.29234530601969e-05,6.0667,3.0
0.1796875,0.0003442129334767682,4.296401022659653e-05,0.00021774695172350656,2.487565345387967e-05,6.0667,3.0
0.18359375,0.00020896204995193415,5.321306229343105e-05,0.00021921110201876865,3.271495815976202e-05,6.0667,3.0
0.1875,0.00031883432835889226,5.370111239185174e-05,0.00022409160300297556,3.4667158553444786e-05,6.0667,3.0
0.19140625,0.0004101301998947128,6.0045763671320725e-05,0.0002109142503456169,3.271495815976202e-05,6.0667,3.0
0.1953125,0.00034616513387045097,4.1011809832913766e-05,0.00020749789965667206,2.5363703552300356e-05,6.0667,3.0
0.19921875,0.00032517897963836123,2.731590394598312e-05,0.00020945010005035485,2.3899553257038283e-05,6.0667,3.0
0.203125,0.0002954079236346991,4.2475960128175846e-05,0.0001952966471961548,2.8780054241245195e-05,6.0667,3.0
0.20703125,0.00024608436056305796,3.661935894712755e-05,0.0001835834448340582,2.8292004142824504e-05,6.0667,3.0
0.2109375,0.0002446202102677959,1.6578801780727917e-05,0.00018065514424353405,2.731590394598312e-05,6.0667,3.0
0.21484375,0.00028659251873197535,2.2435402961776212e-05,0.0001723582925703823,2.9756154438086578e-05,6.0667,3.0
0.21875,0.00020261739867246515,4.345206032501723e-05,0.00018016709414511335,3.073225463492796e-05,6.0667,3.0
0.22265625,0.00023290700790569931,5.0284761702906907e-05,0.00016942999197985814,3.2196404930190034e-05,6.0667,3.0
0.2265625,0.00032664312993362326,4.052375973449308e-05,0.000166501691389334,2.8292004142824504e-05,6.0667,3.0
0.23046875,0.00030760917609521635,2.145930276493483e-05,0.00016845389178301678,2.633980374914174e-05,6.0667,3.0
0.234375,0.00026511831440146494,1.413855128862446e-05,0.0001557340860929275,2.633980374914174e-05,6.0667,3.0
0.23828125,0.00018651174542458235,3.8571559340810316e-05,0.00015524603599450682,2.0971252666514135e-05,6.0667,3.0
0.2421875,0.00020408154896772723,3.564325875028616e-05,0.00014938943481345853,2.3411503158617595e-05,6.0667,3.0
0.24609375,0.0002470604607598994,2.6827853847562433e-05,0.00015963848688029303,2.8780054241245195e-05,6.0667,3.0
0.25,0.00024364411007095452,1.365050119020377e-05,0.00016061458707713441,3.122030473334865e-05,6.0667,3.0
0.25390625,0.00014158063323872747,-1.1697600796520882e-05,0.00013621208215609985,3.515520865186548e-05,6.0667,3.0
0.2578125,0.00012547497999084464,1.1210250698100311e-05,0.00011961837880979635,3.122030473334865e-05,6.0667,3.0
0.26171875,0.00020066519827878238,4.638036091554137e-05,0.00013670013225452056,2.5363703552300356e-05,6.0667,3.0
0.265625,0.0001943205469993134,3.417910845502409e-05,0.00013523598195925847,2.585175365072105e-05,6.0667,3.0
0.26953125,0.00020164129847562376,1.365050119020377e-05,0.00010448882575875492,2.7803954044403816e-05,6.0667,3.0
0.2734375,0.00020310544877088585,2.1947352863355517e-05,0.0001274271803845274,2.3411503158617595e-05,6.0667,3.0
0.27734375,9.814417447928593e-05,9.74610040283824e-06,0.00012937938077821017,1.413855128862446e-05,6.0667,3.0
0.28125,0.00014646113422293435,9.74610040283824e-06,0.00011278567743190667,1.9019052272831373e-05,6.0667,3.0
0.28515625,0.0003383563322957199,1.4626601387045152e-05,0.00012498692989242397,2.585175365072105e-05,6.0667,3.0
0.2890625,0.00034177268298466476,9.258050304417548e-06,0.0001230347294987412,2.585175365072105e-05,6.0667,3.0
0.29296875,0.00022165135251087212,2.9756154438086578e-05,0.00010400077566033424,2.633980374914174e-05,6.0667,3.0
0.296875,0.00017187024247196158,3.0244204536507272e-05,9.863222457770664e-05,2.5363703552300356e-05,6.0667,3.0
0.30078125,0.00027195101577935464,1.1698300796521003e-05,0.00010692907625085838,2.6827853847562433e-05,6.0667,3.0
0.3046875,0.0002699988153856718,1.937298828107179e-06,0.00010839322654612045,2.3411503158617595e-05,6.0667,3.0
0.30859375,0.00026853466509040974,8.281950107576165e-06,0.00010790517644769977,2.145930276493483e-05,6.0667,3.0
0.3125,0.00018455954503089958,1.5114651485465841e-05,9.176902006866566e-05,2.6827853847562433e-05,6.0667,3.0
0.31640625,7.371116642710007e-05,1.0722200599679622e-05,7.907971750972768e-05,2.145930276493483e-05,6.0667,3.0
0.3203125,0.0002758554165667201,1.2674400993362385e-05,9.225707016708636e-05,1.6578801780727917e-05,6.0667,3.0
0.32421875,0.0003564446890684368,8.770000205996857e-06,0.00010351272556191354,2.145930276493483e-05,6.0667,3.0
0.328125,0.00025047681144884417,-2.91269902494844e-06,0.00010888127664454114,2.731590394598312e-05,6.0667,3.0
0.33203125,0.00018748784562142373,-1.8042252075989867e-05,8.054386780498975e-05,2.3899553257038283e-05,6.0667,3.0
0.3359375,0.00011034542693980321,-3.219570493018991e-05,7.468726662394147e-05,1.5114651485465841e-05,6.0667,3.0
0.33984375,0.00014011648294346538,-1.2673700993362265e-05,0.0001220586293018998,2.487565345387967e-05,6.0667,3.0
0.34375,0.00022116330241245141,2.0483202568093447e-05,0.00010692907625085838,3.2196404930190034e-05,6.0667,3.0
0.34765625,8.444826859235528e-05,3.564325875028616e-05,8.249606819867253e-05,1.9019052272831373e-05,6.0667,3.0
0.3515625,6.590236485236903e-05,3.661935894712755e-05,7.615141691920354e-05,1.9995152469672756e-05,6.0667,3.0
0.35546875,0.00019627274739299615,2.29234530601969e-05,7.029481573815525e-05,2.633980374914174e-05,6.0667,3.0
0.359375,0.00016991804207827884,1.5602701583886534e-05,9.128096997024496e-05,2.2435402961776212e-05,6.0667,3.0
0.36328125,0.0001894400460151065,2.3411503158617595e-05,9.469732065918981e-05,2.731590394598312e-05,6.0667,3.0
0.3671875,0.00017528659316090643,8.770000205996857e-06,0.00010009637487296871,3.122030473334865e-05,6.0667,3.0
0.37109375,1.950710237125206e-05,-1.9506402371251944e-05,0.00010985737684138252,2.8292004142824504e-05,6.0667,3.0
0.375,7.956776760814838e-05,-1.1697600796520882e-05,8.249606819867253e-05,2.633980374914174e-05,6.0667,3.0
0.37890625,0.00020847399985351344,2.9133990249485615e-06,6.443821455710694e-05,2.3411503158617595e-05,6.0667,3.0
0.3828125,0.0002441321601693752,4.7314853284510536e-07,7.078286583657594e-05,2.3411503158617595e-05,6.0667,3.0
0.38671875,0.00011473787782558945,1.4492487296864879e-06,7.029481573815525e-05,2.145930276493483e-05,6.0667,3.0
0.390625,4.735646111238276e-05,1.9995152469672756e-05,7.76155672144656e-05,1.6090751682307226e-05,6.0667,3.0
0.39453125,9.274512026550703e-05,3.0244204536507272e-05,8.151996800183115e-05,2.29234530601969e-05,6.0667,3.0
0.3984375,2.4387603355458977e-05,3.170835483176934e-05,9.567342085603118e-05,3.3691058356603404e-05,6.0667,3.0
0.40234375,8.591241888761736e-05,5.370111239185174e-05,0.00013084353107347226,2.0483202568093447e-05,6.0667,3.0
0.40625,2.7803954044403816e-05,1.853100217441068e-05,0.00010595297605401699,7.305849910734783e-06,6.0667,3.0
0.41015625,-1.560200158388641e-05,-2.1458602764934706e-05,6.395016445868626e-05,1.0722200599679622e-05,6.0667,3.0
0.4140625,0.0001943205469993134,-2.91269902494844e-06,6.19979640650035e-05,1.1210250698100311e-05,6.0667,3.0
0.41796875,0.0002612139136140994,3.613130884870686e-05,8.591241888761736e-05,-4.7244853284498386e-07,6.0667,3.0
0.421875,0.0002455963104646373,3.515520865186548e-05,8.249606819867253e-05,-1.2185650894941574e-05,6.0667,3.0
0.42578125,0.00016503754109407193,1.413855128862446e-05,4.8332561309224135e-05,-1.560200158388641e-05,6.0667,3.0
0.4296875,0.00014646113422293435,2.731590394598312e-05,6.492626465552764e-05,-2.341080315861747e-05,6.0667,3.0
0.43359375,0.00017479854306248573,2.145930276493483e-05,6.541431475394834e-05,-3.27142581597619e-05,6.0667,3.0
0.4375,0.00014841333461661712,-4.376849320210514e-06,5.0284761702906907e-05,-3.6130608848706736e-05,6.0667,3.0
0.44140625,0.0001230347294987412,1.4626601387045152e-05,6.883066544289317e-05,-4.149915993133434e-05,6.0667,3.0
0.4453125,-3.369035835660328e-05,5.223696209658967e-05,8.591241888761736e-05,-4.6867711013961944e-05,6.0667,3.0
0.44921875,1.7554901977569296e-05,4.4916210620279296e-05,7.175896603341732e-05,-4.198721002975503e-05,6.0667,3.0
0.453125,0.00017040609217669952,2.585175365072105e-05,5.711746308079658e-05,-3.9058909439230884e-05,6.0667,3.0
0.45703125,0.0002045695990661479,4.638036091554137e-05,6.980676563973454e-05,-3.219570493018991e-05,6.0667,3.0
0.4609375,0.000179190993948272,6.834261534447247e-05,8.200801810025183e-05,-2.633910374914162e-05,6.0667,3.0
0.46484375,0.00011571397802243082,5.6629412982375886e-05,8.88407194781415e-05,-2.3898853257038162e-05,6.0667,3.0
0.46875,0.0001655255911924926,4.1011809832913766e-05,8.786461928130013e-05,-2.1946652863355397e-05,6.0667,3.0
0.47265625,0.00016991804207827884,3.613130884870686e-05,7.76155672144656e-05,-2.1946652863355397e-05,6.0667,3.0
0.4765625,0.00016259729060196846,5.1748911998168974e-05,8.640046898603806e-05,-1.8530302174410562e-05,6.0667,3.0
0.48046875,0.00011424982772716874,5.7605513179217276e-05,0.00010351272556191354,-2.1458602764934706e-05,6.0667,3.0
0.484375,0.00013718818235294126,6.395016445868626e-05,9.814417447928593e-05,-1.9994452469672632e-05,6.0667,3.0
0.48828125,0.00015280578550240335,8.88407194781415e-05,9.030486977340358e-05,-1.3649801190203646e-05,6.0667,3.0
0.4921875,0.0001449969839276723,6.980676563973454e-05,9.518537075761049e-05,-7.793200009155352e-06,6.0667,3.0
0.49609375,0.00022851455701991308,7.793900009155474e-06,9.176902006866566e-05,-4.8648994186312056e-06,6.0667,3.0
0.5,0.00012352277959716188,1.1210250698100311e-05,8.591241888761736e-05,-5.352949517051896e-06,6.0667,3.0
0.50390625,6.15099139665828e-05,2.487565345387967e-05,8.005581770656907e-05,4.7314853284510536e-07,6.0667,3.0
0.5078125,0.00020749789965667206,2.8292004142824504e-05,7.371116642710007e-05,9.611986312657966e-07,6.0667,3.0
0.51171875,0.00019334444680247203,5.370111239185174e-05,7.2247016131838e-05,-6.817099812313969e-06,6.0667,3.0
0.515625,0.00020945010005035485,5.467721258869312e-05,9.030486977340358e-05,-3.400749123369131e-06,6.0667,3.0
0.51953125,0.0002324189578072786,2.585175365072105e-05,9.863222457770664e-05,6.3297497138933995e-06,6.0667,3.0
0.5234375,0.00026853466509040974,3.0244204536507272e-05,7.175896603341732e-05,1.023415050125893e-05,6.0667,3.0
0.52734375,0.00031785822816205085,4.2475960128175846e-05,7.566336682078285e-05,1.5114651485465841e-05,6.0667,3.0
0.53125,0.0003012645248157474,2.8780054241245195e-05,9.323317036392774e-05,1.804295207598999e-05,6.0667,3.0
0.53515625,0.00021237840064087897,2.2435402961776212e-05,0.00010790517644769977,1.950710237125206e-05,6.0667,3.0
0.5390625,4.7844511210803443e-05,2.8292004142824504e-05,0.00011229762733348598,1.7554901977569296e-05,6.0667,3.0
0.54296875,0.00021286645073929965,3.954765953765169e-05,0.00010497687585717561,2.0483202568093447e-05,6.0667,3.0
0.546875,0.000374990592808423,2.731590394598312e-05,0.00010302467546349285,2.2435402961776212e-05,6.0667,3.0
0.55078125,0.00033591608180361647,5.841699615472709e-06,9.912027467612732e-05,1.853100217441068e-05,6.0667,3.0
0.5546875,0.0002895208193224995,2.731590394598312e-05,9.323317036392774e-05,1.9995152469672756e-05,6.0667,3.0
0.55859375,0.00021481865113298244,2.9756154438086578e-05,0.00010741712634927907,2.0483202568093447e-05,6.0667,3.0
0.5625,0.00032225067904783706,9.258050304417548e-06,0.00011717812831769289,2.2435402961776212e-05,6.0667,3.0
0.56640625,0.00029247962304417496,7.793900009155474e-06,0.00010644102615243768,2.4387603355458977e-05,6.0667,3.0
0.5703125,0.00023973970928358896,2.3411503158617595e-05,0.00010253662536507217,2.4387603355458977e-05,6.0667,3.0
0.57421875,0.0002455963104646373,9.74610040283824e-06,0.00010058442497138939,2.9268104339665886e-05,6.0667,3.0
0.578125,0.0002543812122362097,-4.376849320210514e-06,0.00010107247506981008,3.2196404930190034e-05,6.0667,3.0
0.58203125,0.0003183462782604716,1.7554901977569296e-05,0.00011034542693980321,2.7803954044403816e-05,6.0667,3.0
0.5859375,0.0002861044686335546,3.320300825818271e-05,0.0001166900782192722,2.4387603355458977e-05,6.0667,3.0
0.58984375,0.00032225067904783706,1.6090751682307226e-05,9.079291987182428e-05,2.0971252666514135e-05,6.0667,3.0
0.59375,0.00018797589571984443,-1.4485487296863663e-06,8.88407194781415e-05,2.2435402961776212e-05,6.0667,3.0
0.59765625,9.372122046234843e-05,2.0483202568093447e-05,0.00011766617841611358,2.9268104339665886e-05,6.0667,3.0
0.6015625,0.00037303839241474026,3.515520865186548e-05,0.00010497687585717561,2.8780054241245195e-05,6.0667,3.0
0.60546875,0.0004169629012726025,2.731590394598312e-05,8.737656918287943e-05,2.1947352863355517e-05,6.0667,3.0
0.609375,0.00028561641853513394,1.7066851879148608e-05,9.128096997024496e-05,2.4387603355458977e-05,6.0667,3.0
0.61328125,0.0002324189578072786,2.2435402961776212e-05,8.151996800183115e-05,2.8780054241245195e-05,6.0667,3.0
0.6171875,0.00026463026430304426,2.145930276493483e-05,7.175896603341732e-05,2.4387603355458977e-05,6.0667,3.0
0.62109375,0.0003217626289494164,1.9995152469672756e-05,8.103191790341046e-05,2.5363703552300356e-05,6.0667,3.0
0.625,0.00031492992757152673,2.9268104339665886e-05,7.907971750972768e-05,2.9756154438086578e-05,6.0667,3.0
0.62890625,0.0002104262002471962,3.889499221789944e-06,8.34721683955139e-05,2.9756154438086578e-05,6.0667,3.0
0.6328125,0.00015134163520714127,-6.817099812313969e-06,8.200801810025183e-05,2.8780054241245195e-05,6.0667,3.0
0.63671875,0.0003080972261936371,2.3899553257038283e-05,8.88407194781415e-05,3.564325875028616e-05,6.0667,3.0
0.640625,0.0004316349073563745,2.3411503158617595e-05,0.00010107247506981008,4.5404260718699994e-05,6.0667,3.0
0.64453125,0.00042431415588006414,8.281950107576165e-06,9.274512026550703e-05,4.4916210620279296e-05,6.0667,3.0
0.6484375,0.00034079658278782335,2.145930276493483e-05,8.298411829709321e-05,4.638036091554137e-05,6.0667,3.0
0.65234375,0.00011424982772716874,4.7844511210803443e-05,9.863222457770664e-05,3.4667158553444786e-05,6.0667,3.0
0.65625,0.00019188029650720994,2.145930276493483e-05,9.420927056076911e-05,2.3411503158617595e-05,6.0667,3.0
0.66015625,0.0003593729896589609,-5.1260161899748166e-05,2.29234530601969e-05,2.4387603355458977e-05,6.0667,3.0
0.6640625,0.00031785822816205085,-8.005511770656894e-05,-1.9994452469672632e-05,2.3899553257038283e-05,6.0667,3.0
0.66796875,0.00016796584168459608,-8.005511770656894e-05,-2.5851053650720927e-05,1.5114651485465841e-05,6.0667,3.0
0.671875,9.372122046234843e-05,-0.00012108182910505829,-7.517461672236203e-05,1.365050119020377e-05,6.0667,3.0
0.67578125,9.079291987182428e-05,-0.0001596377868802929,-0.00012108182910505829,1.5602701583886534e-05,6.0667,3.0
0.6796875,4.4428160521858605e-05,-0.00015036483501029975,-0.00014109188314030666,9.74610040283824e-06,6.0667,3.0
0.68359375,5.6629412982375886e-05,-0.00015182898530556184,-0.00017284564266880286,4.8655994186313265e-06,6.0667,3.0
0.6875,-7.761486721446549e-05,-0.0002040808489677271,-0.00020700914955825125,-1.9365988281070576e-06,6.0667,3.0
0.69140625,-0.00015280508550240322,-0.0002587729631219958,-0.00026609371459830616,-9.60498631265675e-07,6.0667,3.0
0.6953125,0.00016162119040512708,-0.0002495000112520027,-0.0003022399250125886,-4.7244853284498386e-07,6.0667,3.0
0.69921875,0.0002978481741268025,-0.0002358346084962233,-0.0003037040753078507,-1.07215005996795e-05,6.0667,3.0
0.703125,0.0002446202102677959,-0.00023485850829938195,-0.00026755786489356825,-1.511395148546572e-05,6.0667,3.0
0.70703125,0.00023534725839780276,-0.00023973900928358886,-0.00024120315957885092,-1.6578101780727793e-05,6.0667,3.0
0.7109375,0.00027927176725566497,-0.0002270497067246509,-0.00025584466253147166,-1.8042252075989867e-05,6.0667,3.0
0.71484375,0.0003696220417257954,-0.00018699909552300292,-0.00022900190711833365,-2.0482502568093324e-05,6.0667,3.0
0.71875,0.00047653551641107806,-0.00016747709158617527,-0.0001928556967040512,-2.341080315861747e-05,6.0667,3.0
0.72265625,0.0004716550154268712,-0.00014646043422293425,-0.0001767500434561684,-2.1946652863355397e-05,6.0667,3.0
0.7265625,0.00047458331601739535,-0.00012010572890821692,-0.00014157993323872734,-2.341080315861747e-05,6.0667,3.0
0.73046875,0.0005864077948180362,-7.663876701762412e-05,-0.00011327302753032725,-3.024350453650715e-05,6.0667,3.0
0.734375,0.0006132810533623255,-4.6379660915541246e-05,-8.981611967498277e-05,-3.9546959537651575e-05,6.0667,3.0
0.73828125,0.0005868958449164568,-6.150921396658268e-05,-8.542366878919655e-05,-3.320230825818259e-05,6.0667,3.0
0.7421875,0.0004941358230853743,-4.296331022659641e-05,-5.858091337605853e-05,-3.6130608848706736e-05,6.0667,3.0
0.74609375,0.00029443182343785767,2.9133990249485615e-06,-2.0482502568093324e-05,-4.784381121080333e-05,6.0667,3.0
0.75,0.0003227387291462578,1.950710237125206e-05,-2.9267404339665766e-05,-5.174821199816885e-05,6.0667,3.0
0.75390625,0.0005004804743648433,1.2674400993362385e-05,-1.4625901387045028e-05,-4.784381121080333e-05,6.0667,3.0
0.7578125,0.0004873031217074846,1.9019052272831373e-05,1.413855128862446e-05,-4.3451360325017105e-05,6.0667,3.0
0.76171875,0.000373526442513161,3.073225463492796e-05,2.145930276493483e-05,-5.516456268711369e-05,6.0667,3.0
0.765625,0.0003666937411352713,4.2475960128175846e-05,2.9268104339665886e-05,-5.321236229343093e-05,6.0667,3.0
0.76953125,0.00027390321617303735,6.931871554131387e-05,4.9308661506065524e-05,-4.589161081712056e-05,6.0667,3.0
0.7734375,0.00015719823638818956,6.590236485236903e-05,3.122030473334865e-05,-4.198721002975503e-05,6.0667,3.0
0.77734375,0.00029101547274891287,6.15099139665828e-05,3.0244204536507272e-05,-3.759475914396882e-05,6.0667,3.0
0.78125,0.00013523598195925847,8.591241888761736e-05,5.516526268711381e-05,-4.149915993133434e-05,6.0667,3.0
0.78515625,-4.9796011604486085e-05,0.00010497687585717561,7.615141691920354e-05,-2.9755454438086458e-05,6.0667,3.0
0.7890625,9.469732065918981e-05,9.518537075761049e-05,7.419921652552078e-05,-2.4874953453879545e-05,6.0667,3.0
0.79296875,8.688851908445875e-05,8.591241888761736e-05,5.7605513179217276e-05,-2.4874953453879545e-05,6.0667,3.0
0.796875,-4.589161081712056e-05,7.810361731288631e-05,6.931871554131387e-05,-1.9506402371251944e-05,6.0667,3.0
0.80078125,-0.00010058372497138927,6.346211436026556e-05,6.639041495078972e-05,-1.6090051682307102e-05,6.0667,3.0
0.8046875,-6.394946445868613e-05,5.809356327763797e-05,4.1011809832913766e-05,-1.6578101780727793e-05,6.0667,3.0
0.80859375,-5.028406170290678e-05,8.688851908445875e-05,6.1021863868162114e-05,-1.07215005996795e-05,6.0667,3.0
0.8125,-0.00010302397546349273,0.00010644102615243768,7.029481573815525e-05,-1.0233450501258807e-05,6.0667,3.0
0.81640625,-0.0002162821014282444,8.640046898603806e-05,6.931871554131387e-05,-1.3161751091782956e-05,6.0667,3.0
0.8203125,-0.0003583961894621194,9.912027467612732e-05,8.054386780498975e-05,-8.769300205996735e-06,6.0667,3.0
0.82421875,-0.000255356612433051,0.00012645108018768603,8.493631869077599e-05,-3.400749123369131e-06,6.0667,3.0
0.828125,-4.442746052185849e-05,9.716807428244456e-05,7.517531672236215e-05,-2.424648926527749e-06,6.0667,3.0
0.83203125,-4.101110983291365e-05,6.541431475394834e-05,6.73665151476311e-05,-6.817099812313969e-06,6.0667,3.0
0.8359375,-0.00011571327802243069,5.370111239185174e-05,7.517531672236215e-05,-8.281250107576044e-06,6.0667,3.0
0.83984375,-0.00014011578294346525,2.5363703552300356e-05,7.810361731288631e-05,-4.7244853284498386e-07,6.0667,3.0
0.84375,-4.6379660915541246e-05,6.68784650492104e-05,0.00010156052516823077,1.0722200599679622e-05,6.0667,3.0
0.84765625,-3.024350453650715e-05,8.688851908445875e-05,0.00010888127664454114,7.305849910734783e-06,6.0667,3.0
0.8515625,-2.341080315861747e-05,6.297406426184488e-05,8.34721683955139e-05,2.9133990249485615e-06,6.0667,3.0
0.85546875,-0.00014841263461661702,8.493631869077599e-05,8.054386780498975e-05,5.353649517052018e-06,6.0667,3.0
0.859375,-0.0001391396827466239,8.835266937972081e-05,6.931871554131387e-05,3.4014491233692527e-06,6.0667,3.0
0.86328125,-3.5642558750286045e-05,5.955771357290004e-05,7.419921652552078e-05,2.42534892652787e-06,6.0667,3.0
0.8671875,-0.0001323069813687342,3.954765953765169e-05,9.323317036392774e-05,7.793900009155474e-06,6.0667,3.0
0.87109375,4.3775493202106344e-06,3.759545914396893e-05,9.079291987182428e-05,1.1210250698100311e-05,6.0667,3.0
0.875,-2.2922753060196783e-05,6.0045763671320725e-05,9.079291987182428e-05,7.305849910734783e-06,6.0667,3.0
0.87890625,-0.0001327950314671549,8.054386780498975e-05,8.444826859235528e-05,-9.60498631265675e-07,6.0667,3.0
0.8828125,6.19979640650035e-05,7.2247016131838e-05,7.078286583657594e-05,-3.888799221789822e-06,6.0667,3.0
0.88671875,0.0001166900782192722,7.175896603341732e-05,0.00010351272556191354,-1.9365988281070576e-06,6.0667,3.0
0.890625,0.00014597308412451368,0.00011571397802243082,9.716807428244456e-05,-4.376849320210514e-06,6.0667,3.0
0.89453125,0.0001279152304829481,8.103191790341046e-05,6.73665151476311e-05,-7.305149910734661e-06,6.0667,3.0
0.8984375,0.00017675074345616852,4.003570963607239e-05,9.814417447928593e-05,-4.7244853284498386e-07,6.0667,3.0
0.90234375,0.00020115324837720309,7.029481573815525e-05,0.00010497687585717561,1.937298828107179e-06,6.0667,3.0
0.90625,0.0001835834448340582,6.0533813769741416e-05,0.00010644102615243768,-1.0233450501258807e-05,6.0667,3.0
0.91015625,8.688851908445875e-05,6.346211436026556e-05,0.00010400077566033424,-1.3649801190203646e-05,6.0667,3.0
0.9140625,-8.83519693797207e-05,7.663946701762422e-05,0.0001166900782192722,-6.3290497138932785e-06,6.0667,3.0
0.91796875,3.661935894712755e-05,5.516526268711381e-05,0.00013084353107347226,-1.9365988281070576e-06,6.0667,3.0
0.921875,0.00030419282540627155,5.906966347447934e-05,0.00014548503402609297,-3.400749123369131e-06,6.0667,3.0
0.92578125,0.0003427487831815061,6.0045763671320725e-05,0.00014694918432135506,-1.1209550698100191e-05,6.0667,3.0
0.9296875,0.00022705040672465102,5.126086189974828e-05,0.00010985737684138252,-1.755420197756918e-05,6.0667,3.0
0.93359375,0.0001440208837308309,5.467721258869312e-05,0.00010058442497138939,-1.8042252075989867e-05,6.0667,3.0
0.9375,0.000199689098081941,6.639041495078972e-05,0.00010253662536507217,-1.511395148546572e-05,6.0667,3.0
0.94140625,0.0001952966471961548,8.640046898603806e-05,0.00010936932674296185,-1.8042252075989867e-05,6.0667,3.0
0.9453125,0.00018553564522774094,3.954765953765169e-05,0.00011327372753032736,-2.0482502568093324e-05,6.0667,3.0
0.94921875,5.61413628839552e-05,-9.60498631265675e-07,0.00011229762733348598,-2.4874953453879545e-05,6.0667,3.0
0.953125,6.817799812314092e-06,4.394011042343792e-05,0.00012645108018768603,-2.2922753060196783e-05,6.0667,3.0
0.95703125,3.2196404930190034e-05,4.003570963607239e-05,0.00012693913028610673,-2.1458602764934706e-05,6.0667,3.0
0.9609375,6.817799812314092e-06,4.052375973449308e-05,0.0001342598817624171,-2.682715384756231e-05,6.0667,3.0
0.96484375,0.00012010642890821704,6.541431475394834e-05,0.0001449969839276723,-2.633910374914162e-05,6.0667,3.0
0.96875,-4.6379660915541246e-05,4.1011809832913766e-05,0.00011815422851453427,-2.5851053650720927e-05,6.0667,3.0
0.97265625,-0.0002475478108583199,4.7844511210803443e-05,0.00010058442497138939,-3.219570493018991e-05,6.0667,3.0
0.9765625,-3.710670904554812e-05,6.0045763671320725e-05,0.00010644102615243768,-3.320230825818259e-05,6.0667,3.0
0.98046875,4.5892310817120685e-05,3.073225463492796e-05,9.9608324774548e-05,-2.7803254044403693e-05,6.0667,3.0
0.984375,-1.2673700993362265e-05,4.052375973449308e-05,9.9608324774548e-05,-3.121960473334853e-05,6.0667,3.0
0.98828125,-9.765542438086512e-05,8.200801810025183e-05,0.00011522592792401013,-3.857085934081019e-05,6.0667,3.0
0.9921875,-0.00011278497743190655,6.73665151476311e-05,0.00014206868333714815,-4.540356071869987e-05,6.0667,3.0
0.99609375,-8.34714683955138e-05,5.321306229343105e-05,0.00012547497999084464,-5.223626209658955e-05,6.0667,3.0
1.0,-6.638971495078959e-05,6.931871554131387e-05,0.00012401082969558256,-5.662871298237577e-05,6.0667,3.0
1.00390625,-0.00014109188314030666,6.639041495078972e-05,0.00014255673343556885,-6.394946445868613e-05,6.0667,3.0
1.0078125,-0.00035693203916685733,5.467721258869312e-05,0.00011913032871137566,-6.248531416342406e-05,6.0667,3.0
1.01171875,-0.0002699981153856717,6.248601416342419e-05,9.079291987182428e-05,-5.272431219501024e-05,6.0667,3.0
1.015625,-4.442746052185849e-05,5.858161337605865e-05,8.981681967498289e-05,-5.418846249027231e-05,6.0667,3.0
1.01953125,-7.224631613183788e-05,7.810361731288631e-05,0.00014890138471503782,-5.516456268711369e-05,6.0667,3.0
1.0234375,-0.00011961767880979623,0.00011571397802243082,0.00018016709414511335,-5.1260161899748166e-05,6.0667,3.0
1.02734375,-0.00023095410751201642,6.0533813769741416e-05,0.00010888127664454114,-5.370041239185162e-05,6.0667,3.0
1.03125,-0.0002621893138109407,3.0244204536507272e-05,7.175896603341732e-05,-6.199726406500337e-05,6.0667,3.0
1.03515625,-0.0002094494000503547,5.321306229343105e-05,0.00010351272556191354,-6.54136147539482e-05,6.0667,3.0
1.0390625,-0.00016406074089723042,4.5892310817120685e-05,7.2247016131838e-05,-6.297336426184475e-05,6.0667,3.0
1.04296875,-0.00020603304936140987,4.735646111238276e-05,5.565331278553451e-05,-6.053311376974129e-05,6.0667,3.0
1.046875,-0.0002211626024124513,4.8655994186313265e-06,6.73665151476311e-05,-6.54136147539482e-05,6.0667,3.0
1.05078125,-0.0003154172776699473,-2.5851053650720927e-05,1.7554901977569296e-05,-8.884001947814139e-05,6.0667,3.0
1.0546875,-0.00035790813936369874,3.889499221789944e-06,2.1947352863355517e-05,-7.810291731288619e-05,6.0667,3.0
1.05859375,-0.0002656056644998855,2.145930276493483e-05,5.565331278553451e-05,-5.0772111801327474e-05,6.0667,3.0
1.0625,-0.00036034838985580213,3.515520865186548e-05,5.321306229343105e-05,-4.39394104234378e-05,6.0667,3.0
1.06640625,-0.0004443235099153124,4.735646111238276e-05,6.443821455710694e-05,-4.052305973449296e-05,6.0667,3.0
1.0703125,-0.0003022399250125886,7.127091593499662e-05,6.541431475394834e-05,-4.39394104234378e-05,6.0667,3.0
1.07421875,-0.0002910147727489127,5.711746308079658e-05,5.858161337605865e-05,-4.296331022659641e-05,6.0667,3.0
1.078125,-0.000288544019125658,4.1499859931334464e-05,5.565331278553451e-05,-4.198721002975503e-05,6.0667,3.0
1.08203125,-0.0003056562757015335,5.467721258869312e-05,6.15099139665828e-05,-4.6379660915541246e-05,6.0667,3.0
1.0859375,-0.00037303769241474013,5.467721258869312e-05,8.39602184939346e-05,-4.6379660915541246e-05,6.0667,3.0
1.08984375,-0.00041061754999313334,4.4428160521858605e-05,8.493631869077599e-05,-5.223626209658955e-05,6.0667,3.0
1.09375,-0.0003891433456626229,6.1021863868162114e-05,6.0045763671320725e-05,-5.1260161899748166e-05,6.0667,3.0
1.09765625,-0.00036132449005264354,7.175896603341732e-05,6.980676563973454e-05,-3.710670904554812e-05,6.0667,3.0
1.1015625,-0.0005009678244632639,6.834261534447247e-05,7.175896603341732e-05,-3.466645855344466e-05,6.0667,3.0
1.10546875,-0.0004179383014694438,7.8591667411307e-05,7.127091593499662e-05,-3.466645855344466e-05,6.0667,3.0
1.109375,-0.000236322658594644,7.419921652552078e-05,9.420927056076911e-05,-3.27142581597619e-05,6.0667,3.0
1.11328125,-0.0002587729631219958,6.19979640650035e-05,9.814417447928593e-05,-3.121960473334853e-05,6.0667,3.0
1.1171875,-0.0002915028228473334,7.27350662302587e-05,8.932876957656221e-05,-2.633910374914162e-05,6.0667,3.0
1.12109375,-0.0003320109810162508,7.712751711604493e-05,9.323317036392774e-05,-3.024350453650715e-05,6.0667,3.0
1.125,-0.00025438051223620957,8.688851908445875e-05,9.9608324774548e-05,-3.417840845502397e-05,6.0667,3.0
1.12890625,-0.00026267736390936136,9.518537075761049e-05,8.835266937972081e-05,-3.024350453650715e-05,6.0667,3.0
1.1328125,-0.0003383556322957198,6.395016445868626e-05,8.200801810025183e-05,-2.9267404339665766e-05,6.0667,3.0
1.13671875,-0.00038816724546578157,4.4916210620279296e-05,8.103191790341046e-05,-2.9755454438086458e-05,6.0667,3.0
1.140625,-0.000349092734460975,4.979671160448621e-05,8.103191790341046e-05,-3.0731554634927843e-05,6.0667,3.0
1.14453125,-0.0003149292275715266,6.395016445868626e-05,8.151996800183115e-05,-3.27142581597619e-05,6.0667,3.0
1.1484375,-0.000322249979047837,7.175896603341732e-05,8.34721683955139e-05,-2.8779354241245075e-05,6.0667,3.0
1.15234375,-0.00023485850829938195,7.078286583657594e-05,8.493631869077599e-05,-2.4874953453879545e-05,6.0667,3.0
1.15625,-0.00025291636194094754,8.34721683955139e-05,9.814417447928593e-05,-2.1458602764934706e-05,6.0667,3.0
1.16015625,-0.0002094494000503547,0.00010156052516823077,0.00010351272556191354,-1.4137851288624337e-05,6.0667,3.0
1.1640625,-1.511395148546572e-05,0.00011473787782558945,0.00011766617841611358,-1.4625901387045028e-05,6.0667,3.0
1.16796875,-2.4874953453879545e-05,8.88407194781415e-05,0.00014597308412451368,-1.8530302174410562e-05,6.0667,3.0
1.171875,-0.00013523528195925834,7.078286583657594e-05,0.0001288913306797895,-1.3161751091782956e-05,6.0667,3.0
1.17578125,-0.0001992003479835202,7.468726662394147e-05,0.0001166900782192722,-8.281250107576044e-06,6.0667,3.0
1.1796875,-0.00018943934601510636,6.785456524605179e-05,0.00013865233264820332,-8.281250107576044e-06,6.0667,3.0
1.18359375,-0.0001650368410940718,7.2247016131838e-05,0.00012693913028610673,-1.07215005996795e-05,6.0667,3.0
1.1875,-0.00020115254837720296,9.323317036392774e-05,9.765612438086524e-05,-1.4137851288624337e-05,6.0667,3.0
1.19140625,-0.000342748083181506,8.932876957656221e-05,6.15099139665828e-05,-1.6578101780727793e-05,6.0667,3.0
1.1953125,-0.0004980395238727397,8.981681967498289e-05,4.9308661506065524e-05,-1.6090051682307102e-05,6.0667,3.0
1.19921875,-0.0003618125401510642,8.88407194781415e-05,5.467721258869312e-05,-8.769300205996735e-06,6.0667,3.0
1.203125,-0.0001928556967040512,6.443821455710694e-05,6.931871554131387e-05,-4.376849320210514e-06,6.0667,3.0
1.20703125,-0.00021335380083772025,2.1947352863355517e-05,4.8332561309224135e-05,-9.745400402838117e-06,6.0667,3.0
1.2109375,-0.00031883362835889213,-4.8648994186312056e-06,7.793900009155474e-06,-1.4625901387045028e-05,6.0667,3.0
1.21484375,-0.00040329679851682296,-4.376849320210514e-06,1.0722200599679622e-05,-7.793200009155352e-06,6.0667,3.0
1.21875,-0.00036815719143053324,2.487565345387967e-05,-7.793200009155352e-06,1.4492487296864879e-06,6.0667,3.0
1.22265625,-0.0003510449348546577,2.9756154438086578e-05,-2.9267404339665766e-05,-3.400749123369131e-06,6.0667,3.0
1.2265625,-0.00032566632973678183,1.853100217441068e-05,-4.247526012817572e-05,-3.400749123369131e-06,6.0667,3.0
1.23046875,-0.0004882785219043259,1.937298828107179e-06,-6.980606563973443e-05,-6.3290497138932785e-06,6.0667,3.0
1.234375,-0.0005766460928496223,-9.745400402838117e-06,-8.83519693797207e-05,-6.817099812313969e-06,6.0667,3.0
1.23828125,-0.0005414759826321813,-1.8530302174410562e-05,-8.737586918287931e-05,-2.424648926527749e-06,6.0667,3.0
1.2421875,-0.0005732297421606774,-2.5363003552300236e-05,-8.737586918287931e-05,-2.424648926527749e-06,6.0667,3.0
1.24609375,-0.0004838860710185396,-5.516456268711369e-05,-0.00012303402949874107,-9.60498631265675e-07,6.0667,3.0
1.25,-0.0006127923032639047,-7.956706760814827e-05,-0.00015817363658503081,-4.7244853284498386e-07,6.0667,3.0
1.25390625,-0.0007397158319844357,-7.663876701762412e-05,-0.00017333369276722357,-2.91269902494844e-06,6.0667,3.0
1.2578125,-0.0005175615278095674,-0.00010058372497138927,-0.00018943934601510636,-5.840999615472587e-06,6.0667,3.0
1.26171875,-0.0004199210049942778,-0.0001269384302861066,-0.000221650652510872,-3.400749123369131e-06,6.0667,3.0
1.265625,-0.00037206159221789877,-0.0001323069813687342,-0.0002377868088899061,1.4492487296864879e-06,6.0667,3.0
1.26953125,-0.0003354273317051956,-0.0001479245845181963,-0.00025047611144884404,2.42534892652787e-06,6.0667,3.0
1.2734375,-0.000296871373929961,-0.00015670948628976875,-0.0002753666664682993,3.4014491233692527e-06,6.0667,3.0
1.27734375,-0.0002270497067246509,-0.0001366994322545204,-0.0002724383658777752,1.5601565575707353e-08,6.0667,3.0
1.28125,-0.00013377113166399628,-0.00016259659060196836,-0.0003017518749141679,-1.9365988281070576e-06,6.0667,3.0
1.28515625,-0.00011961767880979623,-0.00018797519571984428,-0.00031688142796520936,3.889499221789944e-06,6.0667,3.0
1.2890625,-0.00027585471656672,-0.00017870224384985116,-0.0003002877246189059,1.5602701583886534e-05,6.0667,3.0
1.29296875,-0.00018455884503089948,-0.0002099374501487754,-0.0002929669731425955,2.585175365072105e-05,6.0667,3.0
1.296875,3.515520865186548e-05,-0.00019480789709773398,-0.00027927106725566484,1.9019052272831373e-05,6.0667,3.0
1.30078125,7.956776760814838e-05,-0.0001479245845181963,-0.00023437045820096124,2.9133990249485615e-06,6.0667,3.0
1.3046875,4.882061140764483e-05,-0.0001371874823529411,-0.00021384185093614093,9.74610040283824e-06,6.0667,3.0
1.30859375,-3.024350453650715e-05,-0.0001332830815655756,-0.0002431553599725337,1.804295207598999e-05,6.0667,3.0
1.3125,2.8292004142824504e-05,-0.00014060383304188596,-0.0002265616566262302,1.853100217441068e-05,6.0667,3.0
1.31640625,-9.60498631265675e-07,-0.00011717742831769276,-0.00017919029394827186,1.365050119020377e-05,6.0667,3.0
1.3203125,1.3162451091783078e-05,-7.127021593499651e-05,-0.0001479245845181963,1.365050119020377e-05,6.0667,3.0
1.32421875,3.417910845502409e-05,-5.321236229343093e-05,-0.00010009567487296858,9.74610040283824e-06,6.0667,3.0
1.328125,-8.769300205996735e-06,-2.4874953453879545e-05,-6.102116386816199e-05,-2.424648926527749e-06,6.0667,3.0
1.33203125,-4.442746052185849e-05,-2.2922753060196783e-05,-4.101110983291365e-05,-1.9365988281070576e-06,6.0667,3.0
1.3359375,-7.468656662394134e-05,-1.4485487296863663e-06,-2.3898853257038162e-05,-2.424648926527749e-06,6.0667,3.0
1.33984375,9.518537075761049e-05,5.955771357290004e-05,3.2196404930190034e-05,-7.305149910734661e-06,6.0667,3.0
1.34375,1.7066851879148608e-05,6.834261534447247e-05,9.030486977340358e-05,-1.2673700993362265e-05,6.0667,3.0
1.34765625,-0.00010888057664454102,7.615141691920354e-05,0.0001113215271366446,-1.755420197756918e-05,6.0667,3.0
1.3515625,5.61413628839552e-05,9.912027467612732e-05,0.00011961837880979635,-1.560200158388641e-05,6.0667,3.0
1.35546875,5.272501219501036e-05,9.814417447928593e-05,0.0001284032805813688,-2.0970552666514015e-05,6.0667,3.0
1.359375,3.4014491233692527e-06,9.664952105287256e-05,0.00015378188569924474,-3.0731554634927843e-05,6.0667,3.0
1.36328125,-6.817099812313969e-06,0.00011522592792401013,0.00014646113422293435,-3.27142581597619e-05,6.0667,3.0
1.3671875,-3.0731554634927843e-05,0.00013523598195925847,0.0001332837815655757,-3.121960473334853e-05,6.0667,3.0
1.37109375,-4.833186130922402e-05,0.0001449969839276723,0.00013474793186083776,-3.320230825818259e-05,6.0667,3.0
1.375,-0.00015768558648661016,0.00015524603599450682,0.0001503655350102999,-3.5154508651865354e-05,6.0667,3.0
1.37890625,-0.00020066449827878228,0.00015719823638818956,0.00017723879355458923,-3.466645855344466e-05,6.0667,3.0
1.3828125,-0.00025730881282673375,0.00014304478353398953,0.00020408154896772723,-3.80828092423895e-05,6.0667,3.0
1.38671875,-0.00025291636194094754,0.00014694918432135506,0.0002104262002471962,-3.5154508651865354e-05,6.0667,3.0
1.390625,-0.0001327950314671549,0.00014011648294346538,0.00019724884758983756,-3.170765483176922e-05,6.0667,3.0
1.39453125,-0.0001493887348134584,0.00014743723441977576,0.00019236834660563064,-3.661865894712743e-05,6.0667,3.0
1.3984375,-0.0002201865022156099,0.0001601265369787137,0.00018065514424353405,-3.759475914396882e-05,6.0667,3.0
1.40234375,-0.00023388240810254057,0.00015622213619134818,0.0002045695990661479,-3.9058909439230884e-05,6.0667,3.0
1.40625,-0.00014548433402609287,0.00015622213619134818,0.00022949065721675446,-3.759475914396882e-05,6.0667,3.0
1.41015625,-0.000169429291979858,0.00015378188569924474,0.00022506770319981694,-3.6130608848706736e-05,6.0667,3.0
1.4140625,-0.00018602299532616154,0.00016110263717555512,0.0002319309077088579,-3.857085934081019e-05,6.0667,3.0
1.41796875,-0.00022409090300297546,0.00017431049296406508,0.00025779756292515455,-4.052305973449296e-05,6.0667,3.0
1.421875,-0.0002621893138109407,0.00018553564522774094,0.00027487931636987876,-4.0035009636072267e-05,6.0667,3.0
1.42578125,-0.0002431553599725337,0.00018114319434195473,0.0002670705147951477,-3.466645855344466e-05,6.0667,3.0
1.4296875,-0.0003217619289494163,0.00016796584168459608,0.00023290700790569931,-3.369035835660328e-05,6.0667,3.0
1.43359375,-0.00033933173249256113,0.0001557340860929275,0.0002118903505424583,-3.466645855344466e-05,6.0667,3.0
1.4375,-0.00040134459812314025,0.00014890138471503782,0.00020798594975509276,-3.466645855344466e-05,6.0667,3.0
1.44140625,-0.00041061754999313334,0.00016061458707713441,0.00021774695172350656,-3.417840845502397e-05,6.0667,3.0
1.4453125,-0.0002094494000503547,0.00015817433658503097,0.00023729945879148552,-3.320230825818259e-05,6.0667,3.0
1.44921875,-0.00020017644818036157,0.00014255673343556885,0.0002324189578072786,-3.857085934081019e-05,6.0667,3.0
1.453125,-0.0002641415142046234,0.00014255673343556885,0.00020310544877088585,-3.9058909439230884e-05,6.0667,3.0
1.45703125,-0.0003076084760952162,0.00014938943481345853,0.00019041614621194788,-4.0035009636072267e-05,6.0667,3.0
1.4609375,-0.0003178575281620507,0.0001396284328450447,0.00019041614621194788,-3.9058909439230884e-05,6.0667,3.0
1.46484375,-0.00025145221164568545,0.0001396284328450447,0.0001938324969008927,-3.5642558750286045e-05,6.0667,3.0
1.46875,-0.0002495000112520027,0.00014548503402609297,0.00020212934857404444,-3.024350453650715e-05,6.0667,3.0
1.47265625,-0.00034860468436255434,0.0001279152304829481,0.0001889519959166858,-2.8291304142824384e-05,6.0667,3.0
1.4765625,-0.00044529961011215374,0.0001279152304829481,0.0001826073446372168,-3.121960473334853e-05,6.0667,3.0
1.48046875,-0.0003329870812130922,0.00011961837880979635,0.00017626269335774782,-3.417840845502397e-05,6.0667,3.0
1.484375,-0.0001313308811718928,0.00011522592792401013,0.00015963848688029303,-3.27142581597619e-05,6.0667,3.0
1.48828125,-0.00019187959650720983,9.863222457770664e-05,0.00013474793186083776,-3.5154508651865354e-05,6.0667,3.0
1.4921875,-0.00032859463032730595,5.955771357290004e-05,0.00010253662536507217,-4.784381121080333e-05,6.0667,3.0
1.49609375,-0.00027439056627145795,4.9308661506065524e-05,8.88407194781415e-05,-4.491551062027918e-05,6.0667,3.0
1.5,-0.00015768558648661016,4.4428160521858605e-05,7.029481573815525e-05,-3.759475914396882e-05,6.0667,3.0
1.50390625,-0.0001493887348134584,2.29234530601969e-05,5.809356327763797e-05,-3.9546959537651575e-05,6.0667,3.0
1.5078125,-0.00016991734207827871,1.6578801780727917e-05,1.7066851879148608e-05,-4.247526012817572e-05,6.0667,3.0
1.51171875,-0.0002865918187319752,-3.320230825818259e-05,-2.7803254044403693e-05,-3.320230825818259e-05,6.0667,3.0
1.515625,-0.0002870798688303959,-0.00010400007566033411,-2.7315203945982998e-05,-3.320230825818259e-05,6.0667,3.0
1.51953125,-0.0002451075603662164,-0.00010400007566033411,-7.224631613183788e-05,-4.6379660915541246e-05,6.0667,3.0
1.5234375,-0.0001952959471961547,-0.00011083277703822379,-0.00010400007566033411,-4.881991140764471e-05,6.0667,3.0
1.52734375,-9.960762477454788e-05,-0.00010009567487296858,-6.882996544289306e-05,-4.39394104234378e-05,6.0667,3.0
1.53125,-0.00025730881282673375,-7.517461672236203e-05,-8.005511770656894e-05,-5.370041239185162e-05,6.0667,3.0
1.53515625,-0.000322249979047837,-9.664882105287245e-05,-0.00012010572890821692,-5.370041239185162e-05,6.0667,3.0
1.5390625,-0.00015475728589608602,-0.00010155982516823065,-0.00010644032615243757,-3.661865894712743e-05,6.0667,3.0
1.54296875,-0.00012742648038452728,-8.34714683955138e-05,-7.615071691920341e-05,-2.4386903355458854e-05,6.0667,3.0
1.546875,-0.00020066449827878228,-9.37205204623483e-05,-5.7116763080796454e-05,-1.4625901387045028e-05,6.0667,3.0
1.55078125,-0.0003144411774731059,-8.542366878919655e-05,-3.219570493018991e-05,-2.4874953453879545e-05,6.0667,3.0
1.5546875,-0.0002431553599725337,-5.565261278553439e-05,-1.560200158388641e-05,-3.320230825818259e-05,6.0667,3.0
1.55859375,-0.00019187959650720983,-5.0772111801327474e-05,-2.424648926527749e-06,-3.466645855344466e-05,6.0667,3.0
1.5625,-0.000215306001231403,7.793900009155474e-06,1.6090751682307226e-05,-3.80828092423895e-05,6.0667,3.0
1.56640625,-0.00027975911735408557,6.395016445868626e-05,3.564325875028616e-05,-4.247526012817572e-05,6.0667,3.0
1.5703125,-0.0004501801110963607,4.9308661506065524e-05,6.492626465552764e-05,-4.7355761112382635e-05,6.0667,3.0
1.57421875,-0.00038084649398947124,1.9995152469672756e-05,3.3691058356603404e-05,-4.7355761112382635e-05,6.0667,3.0
1.578125,-0.0001992003479835202,2.3899553257038283e-05,3.954765953765169e-05,-4.7355761112382635e-05,6.0667,3.0
1.58203125,-0.00017382174286564427,3.613130884870686e-05,9.372122046234843e-05,-4.39394104234378e-05,6.0667,3.0
1.5859375,-0.0002055449992629892,5.61413628839552e-05,0.00011522592792401013,-4.589161081712056e-05,6.0667,3.0
1.58984375,-0.0002485239110551613,7.32231163286794e-05,0.00012498692989242397,-5.516456268711369e-05,6.0667,3.0
1.59375,-0.00022360285290455475,8.298411829709321e-05,0.00013474793186083776,-5.418846249027231e-05,6.0667,3.0
1.59765625,-0.0001874871456214236,0.00010888127664454114,0.00013865233264820332,-4.6379660915541246e-05,6.0667,3.0
1.6015625,-0.00011571327802243069,0.00010888127664454114,0.0001332837815655757,-4.247526012817572e-05,6.0667,3.0
1.60546875,-0.00014548433402609287,0.00010692907625085838,0.00013035548097505156,-4.6867711013961944e-05,6.0667,3.0
1.609375,-0.0001371874823529411,0.00013133158117189294,0.00013718818235294126,-4.833186130922402e-05,6.0667,3.0
1.61328125,-7.761486721446549e-05,0.00013572403205767915,0.0001342598817624171,-4.9796011604486085e-05,6.0667,3.0
1.6171875,-4.7355761112382635e-05,0.00014792528451819641,0.00013035548097505156,-4.881991140764471e-05,6.0667,3.0
1.62109375,8.591241888761736e-05,0.0001503655350102999,0.00016308534070038917,-4.3451360325017105e-05,6.0667,3.0
1.625,2.8292004142824504e-05,0.0001376762324513619,0.00018065514424353405,-4.589161081712056e-05,6.0667,3.0
1.62890625,-0.00010107177506980996,0.000139140382746624,0.00013718818235294126,-4.7355761112382635e-05,6.0667,3.0
1.6328125,1.365050119020377e-05,0.00013474793186083776,0.00011180957723506529,-4.052305973449296e-05,6.0667,3.0
1.63671875,7.615141691920354e-05,0.00014597308412451368,0.00015280578550240335,-3.759475914396882e-05,6.0667,3.0
1.640625,7.175896603341732e-05,0.00016454949099565123,0.00017577464325932714,-3.6130608848706736e-05,6.0667,3.0
1.64453125,3.170835483176934e-05,0.00014841333461661712,0.0001601265369787137,-3.5154508651865354e-05,6.0667,3.0
1.6484375,-8.281250107576044e-06,0.00012059447900663773,0.00015280578550240335,-3.320230825818259e-05,6.0667,3.0
1.65234375,-4.540356071869987e-05,0.00012157057920347913,0.0001498774849118792,-3.661865894712743e-05,6.0667,3.0
1.65625,-0.00011327302753032725,0.0001288913306797895,0.00013474793186083776,-4.442746052185849e-05,6.0667,3.0
1.66015625,-0.0001542692357976653,0.00010692907625085838,0.00010936932674296185,-4.247526012817572e-05,6.0667,3.0
1.6640625,-0.00027585471656672,9.863222457770664e-05,0.00011229762733348598,-3.417840845502397e-05,6.0667,3.0
1.66796875,-0.0002465717106614785,0.00010009637487296871,0.00010204857526665146,-2.7315203945982998e-05,6.0667,3.0
1.671875,-9.518467075761037e-05,8.493631869077599e-05,6.19979640650035e-05,-2.682715384756231e-05,6.0667,3.0
1.67578125,-0.00013377113166399628,7.907971750972768e-05,4.882061140764483e-05,-3.170765483176922e-05,6.0667,3.0
1.6796875,-0.00017479784306248563,8.786461928130013e-05,5.6629412982375886e-05,-3.121960473334853e-05,6.0667,3.0
1.68359375,-0.0001542692357976653,9.420927056076911e-05,6.834261534447247e-05,-2.341080315861747e-05,6.0667,3.0
1.6875,-9.664882105287245e-05,4.9308661506065524e-05,4.1011809832913766e-05,-3.219570493018991e-05,6.0667,3.0
1.69140625,-0.00011912962871137554,5.353649517052018e-06,1.9995152469672756e-05,-4.6867711013961944e-05,6.0667,3.0
1.6953125,-0.00014206798333714802,3.759545914396893e-05,4.345206032501723e-05,-3.661865894712743e-05,6.0667,3.0
1.69921875,-0.00016991734207827871,5.6629412982375886e-05,5.809356327763797e-05,-2.0970552666514015e-05,6.0667,3.0
1.703125,-0.00017528589316090633,5.61413628839552e-05,4.5404260718699994e-05,-2.8779354241245075e-05,6.0667,3.0
1.70703125,-0.00018358274483405807,6.73665151476311e-05,2.8292004142824504e-05,-3.661865894712743e-05,6.0667,3.0
1.7109375,-0.00018553494522774083,5.711746308079658e-05,6.3297497138933995e-06,-3.417840845502397e-05,6.0667,3.0
1.71484375,-9.323247036392761e-05,4.052375973449308e-05,-1.4485487296863663e-06,-2.9755454438086458e-05,6.0667,3.0
1.71875,-0.00013962773284504455,1.7066851879148608e-05,-4.376849320210514e-06,-2.5851053650720927e-05,6.0667,3.0
1.72265625,-0.00017040539217669942,1.1698300796521003e-05,-1.3649801190203646e-05,-2.5363003552300236e-05,6.0667,3.0
1.7265625,-5.516456268711369e-05,2.9268104339665886e-05,-6.3290497138932785e-06,-2.4874953453879545e-05,6.0667,3.0
1.73046875,-8.542366878919655e-05,2.8780054241245195e-05,9.74610040283824e-06,-2.7803254044403693e-05,6.0667,3.0
1.734375,-8.298341829709309e-05,6.297406426184488e-05,2.3899553257038283e-05,-3.466645855344466e-05,6.0667,3.0
1.73828125,-0.0001489006847150377,6.590236485236903e-05,1.6578801780727917e-05,-3.27142581597619e-05,6.0667,3.0
1.7421875,-0.0001479245845181963,4.7314853284510536e-07,-2.5851053650720927e-05,-1.6578101780727793e-05,6.0667,3.0
1.74609375,-5.352949517051896e-06,-4.296331022659641e-05,-4.0035009636072267e-05,-2.91269902494844e-06,6.0667,3.0
1.75,-7.566266682078272e-05,-4.6379660915541246e-05,-3.9058909439230884e-05,1.4626601387045152e-05,6.0667,3.0
1.75390625,-0.00016259659060196836,-4.7355761112382635e-05,-3.857085934081019e-05,2.633980374914174e-05,6.0667,3.0
1.7578125,-0.0002714622656809338,-6.346141436026545e-05,-6.150921396658268e-05,2.145930276493483e-05,6.0667,3.0
1.76171875,-0.00017138149237354077,-5.418846249027231e-05,-7.615071691920341e-05,2.8292004142824504e-05,6.0667,3.0
1.765625,-1.3161751091782956e-05,-5.760481317921715e-05,-7.517461672236203e-05,3.710740904554824e-05,6.0667,3.0
1.76953125,-5.0772111801327474e-05,-7.371046642709996e-05,-7.71268171160448e-05,3.905960943923101e-05,6.0667,3.0
1.7734375,-0.00011815352851453416,-8.054316780498963e-05,-5.955701357289992e-05,4.686841101396207e-05,6.0667,3.0
1.77734375,-0.00021921040201876855,-0.00014450823382925149,-7.761486721446549e-05,5.809356327763797e-05,6.0667,3.0
1.78125,-0.00019041544621194775,-0.0001323069813687342,-8.493561869077587e-05,7.32231163286794e-05,6.0667,3.0
1.78515625,-0.00011864157861295484,-8.78639192813e-05,-5.858091337605853e-05,8.786461928130013e-05,6.0667,3.0
1.7890625,-0.00011180887723506516,-8.83519693797207e-05,-5.0772111801327474e-05,7.810361731288631e-05,6.0667,3.0
1.79296875,-0.00017479784306248563,-6.54136147539482e-05,-5.7116763080796454e-05,7.8591667411307e-05,6.0667,3.0
1.796875,-0.00019676009749141675,-7.273436623025859e-05,-5.516456268711369e-05,8.200801810025183e-05,6.0667,3.0
1.80078125,-0.0001996883980819409,-0.00010400007566033411,-7.224631613183788e-05,6.834261534447247e-05,6.0667,3.0
1.8046875,-0.00018553494522774083,-8.981611967498277e-05,-7.419851652552066e-05,6.73665151476311e-05,6.0667,3.0
1.80859375,-6.443751455710684e-05,-6.248531416342406e-05,-2.4386903355458854e-05,7.419921652552078e-05,6.0667,3.0
1.8125,-0.00016894124188143733,-6.150921396658268e-05,-1.1697600796520882e-05,6.68784650492104e-05,6.0667,3.0
1.81640625,-0.00028463961833829246,-3.759475914396882e-05,-5.840999615472587e-06,5.61413628839552e-05,6.0667,3.0
1.8203125,-8.639976898603794e-05,-2.341080315861747e-05,-9.257350304417426e-06,4.7844511210803443e-05,6.0667,3.0
1.82421875,-4.540356071869987e-05,-4.8648994186312056e-06,-1.6090051682307102e-05,4.735646111238276e-05,6.0667,3.0
1.828125,-0.0001264503801876859,-1.560200158388641e-05,-3.0731554634927843e-05,3.954765953765169e-05,6.0667,3.0
1.83203125,-0.00014206798333714802,-3.219570493018991e-05,-3.0731554634927843e-05,3.2196404930190034e-05,6.0667,3.0
1.8359375,-0.0001493887348134584,-3.9546959537651575e-05,-7.793200009155352e-06,3.0244204536507272e-05,6.0667,3.0
1.83984375,-7.615071691920341e-05,-1.2673700993362265e-05,-3.400749123369131e-06,2.29234530601969e-05,6.0667,3.0
1.84375,1.1698300796521003e-05,9.258050304417548e-06,-1.4485487296863663e-06,2.145930276493483e-05,6.0667,3.0
1.84765625,-8.884001947814139e-05,-2.91269902494844e-06,-1.1697600796520882e-05,1.6090751682307226e-05,6.0667,3.0
1.8515625,-0.00013377113166399628,-2.91269902494844e-06,-4.376849320210514e-06,1.0722200599679622e-05,6.0667,3.0
1.85546875,-4.540356071869987e-05,3.889499221789944e-06,7.793900009155474e-06,1.1698300796521003e-05,6.0667,3.0
1.859375,-2.682715384756231e-05,-1.9365988281070576e-06,1.7066851879148608e-05,1.413855128862446e-05,6.0667,3.0
1.86328125,-7.793200009155352e-06,-2.0970552666514015e-05,3.122030473334865e-05,1.7066851879148608e-05,6.0667,3.0
1.8671875,-1.901835227283125e-05,5.353649517052018e-06,3.2196404930190034e-05,1.023415050125893e-05,6.0667,3.0
1.87109375,-0.00020310474877088572,5.841699615472709e-06,1.853100217441068e-05,1.4492487296864879e-06,6.0667,3.0
1.875,-0.00015085288510872046,8.770000205996857e-06,1.950710237125206e-05,4.7314853284510536e-07,6.0667,3.0
1.87890625,3.613130884870686e-05,2.0971252666514135e-05,3.2196404930190034e-05,9.611986312657966e-07,6.0667,3.0
1.8828125,4.8332561309224135e-05,3.0244204536507272e-05,4.735646111238276e-05,-3.888799221789822e-06,6.0667,3.0
1.88671875,-9.257350304417426e-06,2.8292004142824504e-05,6.1021863868162114e-05,-1.1209550698100191e-05,6.0667,3.0
1.890625,-5.858091337605853e-05,1.023415050125893e-05,6.492626465552764e-05,-8.281250107576044e-06,6.0667,3.0
1.89453125,-8.737586918287931e-05,2.29234530601969e-05,4.9308661506065524e-05,-7.305149910734661e-06,6.0667,3.0
1.8984375,-0.00010400007566033411,2.585175365072105e-05,1.2674400993362385e-05,-1.1209550698100191e-05,6.0667,3.0
1.90234375,3.8083509242389625e-05,7.793900009155474e-06,-6.3290497138932785e-06,-1.1697600796520882e-05,6.0667,3.0
1.90625,-4.8648994186312056e-06,2.9133990249485615e-06,1.7066851879148608e-05,-7.305149910734661e-06,6.0667,3.0
1.91015625,-0.00012205792930189969,1.7554901977569296e-05,3.417910845502409e-05,-4.8648994186312056e-06,6.0667,3.0
1.9140625,1.1210250698100311e-05,2.3899553257038283e-05,6.817799812314092e-06,-6.3290497138932785e-06,6.0667,3.0
1.91796875,4.686841101396207e-05,2.8292004142824504e-05,1.5601565575707353e-08,-8.769300205996735e-06,6.0667,3.0
1.921875,6.19979640650035e-05,4.052375973449308e-05,3.122030473334865e-05,-1.6578101780727793e-05,6.0667,3.0
1.92578125,2.3411503158617595e-05,3.3691058356603404e-05,4.394011042343792e-05,-2.0970552666514015e-05,6.0667,3.0
1.9296875,2.42534892652787e-06,1.5114651485465841e-05,3.905960943923101e-05,-1.3649801190203646e-05,6.0667,3.0
1.93359375,2.585175365072105e-05,2.29234530601969e-05,2.585175365072105e-05,-1.901835227283125e-05,6.0667,3.0
1.9375,2.5363703552300356e-05,3.759545914396893e-05,4.1499859931334464e-05,-2.4874953453879545e-05,6.0667,3.0
1.94140625,3.320300825818271e-05,3.954765953765169e-05,6.248601416342419e-05,-1.3649801190203646e-05,6.0667,3.0
1.9453125,-9.274442026550692e-05,-2.424648926527749e-06,7.793900009155474e-06,-6.3290497138932785e-06,6.0667,3.0
1.94921875,-6.54136147539482e-05,-1.07215005996795e-05,2.42534892652787e-06,-4.376849320210514e-06,6.0667,3.0
1.953125,4.345206032501723e-05,4.3775493202106344e-06,9.74610040283824e-06,-1.9365988281070576e-06,6.0667,3.0
1.95703125,5.809356327763797e-05,-1.1209550698100191e-05,-3.27142581597619e-05,-1.9365988281070576e-06,6.0667,3.0
1.9609375,6.297406426184488e-05,-2.7803254044403693e-05,-3.759475914396882e-05,1.3162451091783078e-05,6.0667,3.0
1.96484375,2.7803954044403816e-05,-4.39394104234378e-05,-2.0970552666514015e-05,1.7554901977569296e-05,6.0667,3.0
1.96875,4.1987910029755155e-05,-9.960762477454788e-05,-4.833186130922402e-05,4.3775493202106344e-06,6.0667,3.0
1.97265625,3.271495815976202e-05,-0.00013035478097505145,-0.00010400007566033411,5.841699615472709e-06,6.0667,3.0
1.9765625,4.4428160521858605e-05,-9.616077095445176e-05,-0.00010692837625085826,1.2186350894941694e-05,6.0667,3.0
1.98046875,2.0483202568093447e-05,-0.00010595227605401688,-0.0001264503801876859,1.2674400993362385e-05,6.0667,3.0
1.984375,3.8083509242389625e-05,-9.420857056076899e-05,-0.00013816358254978249,9.611986312657966e-07,6.0667,3.0
1.98828125,2.0971252666514135e-05,-0.00010741642634927895,-0.00011522522792401001,1.5601565575707353e-08,6.0667,3.0
1.9921875,-1.6090051682307102e-05,-0.00012010572890821692,-0.00012254597940032037,1.1698300796521003e-05,6.0667,3.0
1.99609375,7.468726662394147e-05,-9.030416977340347e-05,-0.00010204787526665135,-5.840999615472587e-06,6.0667,3.0
2.0,1.023415050125893e-05,-9.37205204623483e-05,-7.761486721446549e-05,-3.5154508651865354e-05,6.0667,3.0
2.00390625,-3.9058909439230884e-05,-8.444756859235516e-05,-8.103121790341034e-05,-2.9755454438086458e-05,6.0667,3.0
2.0078125,5.906966347447934e-05,-5.858091337605853e-05,-7.419851652552066e-05,-1.2185650894941574e-05,6.0667,3.0
2.01171875,6.346211436026556e-05,-2.4386903355458854e-05,-3.6130608848706736e-05,-7.305149910734661e-06,6.0667,3.0
2.015625,8.88407194781415e-05,-2.0970552666514015e-05,-3.80828092423895e-05,-7.305149910734661e-06,6.0667,3.0
2.01953125,5.321306229343105e-05,-3.80828092423895e-05,-3.369035835660328e-05,-1.4625901387045028e-05,6.0667,3.0
2.0234375,8.151996800183115e-05,-3.170765483176922e-05,8.770000205996857e-06,-1.7066151879148485e-05,6.0667,3.0
2.02734375,0.00010888127664454114,-3.661865894712743e-05,-2.2922753060196783e-05,-2.243470296177609e-05,6.0667,3.0
2.03125,5.467721258869312e-05,-1.1209550698100191e-05,-3.9058909439230884e-05,-2.8291304142824384e-05,6.0667,3.0
2.03515625,7.305849910734783e-06,2.9133990249485615e-06,-3.400749123369131e-06,-3.219570493018991e-05,6.0667,3.0
2.0390625,-7.029411573815512e-05,-6.3290497138932785e-06,-9.257350304417426e-06,-3.710670904554812e-05,6.0667,3.0
2.04296875,1.804295207598999e-05,1.2674400993362385e-05,-1.1209550698100191e-05,-3.024350453650715e-05,6.0667,3.0
2.046875,0.00015915043678187233,2.9756154438086578e-05,1.5601565575707353e-08,-2.7803254044403693e-05,6.0667,3.0
2.05078125,0.0001337718316639964,3.8571559340810316e-05,1.853100217441068e-05,-2.5363003552300236e-05,6.0667,3.0
2.0546875,8.932876957656221e-05,1.950710237125206e-05,2.7803954044403816e-05,-2.1946652863355397e-05,6.0667,3.0
2.05859375,1.9995152469672756e-05,1.7554901977569296e-05,2.4387603355458977e-05,-2.3898853257038162e-05,6.0667,3.0
2.0625,8.493631869077599e-05,3.4667158553444786e-05,3.271495815976202e-05,-2.8779354241245075e-05,6.0667,3.0
2.06640625,7.810361731288631e-05,1.9995152469672756e-05,3.8571559340810316e-05,-4.149915993133434e-05,6.0667,3.0
2.0703125,3.661935894712755e-05,3.417910845502409e-05,2.145930276493483e-05,-4.3451360325017105e-05,6.0667,3.0
2.07421875,2.9268104339665886e-05,2.9756154438086578e-05,1.2674400993362385e-05,-3.6130608848706736e-05,6.0667,3.0
2.078125,3.3691058356603404e-05,1.950710237125206e-05,3.320300825818271e-05,-2.9755454438086458e-05,6.0667,3.0
2.08203125,6.395016445868626e-05,3.2196404930190034e-05,6.0533813769741416e-05,-2.8291304142824384e-05,6.0667,3.0
2.0859375,2.3411503158617595e-05,4.003570963607239e-05,6.68784650492104e-05,-3.024350453650715e-05,6.0667,3.0
2.08984375,9.518537075761049e-05,4.4428160521858605e-05,6.0533813769741416e-05,-2.8291304142824384e-05,6.0667,3.0
2.09375,3.8571559340810316e-05,3.2196404930190034e-05,4.9308661506065524e-05,-2.5363003552300236e-05,6.0667,3.0
2.09765625,-5.1260161899748166e-05,5.223696209658967e-05,4.4916210620279296e-05,-2.682715384756231e-05,6.0667,3.0
2.1015625,0.00010497687585717561,6.0533813769741416e-05,3.710740904554824e-05,-2.8291304142824384e-05,6.0667,3.0
2.10546875,0.00012937938077821017,5.955771357290004e-05,3.613130884870686e-05,-3.0731554634927843e-05,6.0667,3.0
2.109375,6.883066544289317e-05,5.1748911998168974e-05,4.9308661506065524e-05,-2.8291304142824384e-05,6.0667,3.0
2.11328125,2.3411503158617595e-05,3.8571559340810316e-05,4.1987910029755155e-05,-2.682715384756231e-05,6.0667,3.0
2.1171875,3.661935894712755e-05,5.6629412982375886e-05,3.271495815976202e-05,-2.633910374914162e-05,6.0667,3.0
2.12109375,9.323317036392774e-05,6.1021863868162114e-05,5.955771357290004e-05,-2.4874953453879545e-05,6.0667,3.0
2.125,4.882061140764483e-05,4.4428160521858605e-05,6.15099139665828e-05,-2.2922753060196783e-05,6.0667,3.0
2.12890625,-2.1946652863355397e-05,4.1011809832913766e-05,4.2475960128175846e-05,-2.1946652863355397e-05,6.0667,3.0
2.1328125,-9.814347447928582e-05,5.126086189974828e-05,5.858161337605865e-05,-2.4386903355458854e-05,6.0667,3.0
2.13671875,-3.466645855344466e-05,4.882061140764483e-05,5.126086189974828e-05,-2.633910374914162e-05,6.0667,3.0
2.140625,0.00011913032871137566,4.1011809832913766e-05,4.5892310817120685e-05,-2.7315203945982998e-05,6.0667,3.0
2.14453125,0.00012010642890821704,5.07728118013276e-05,5.906966347447934e-05,-2.0970552666514015e-05,6.0667,3.0
2.1484375,7.712751711604493e-05,5.711746308079658e-05,6.443821455710694e-05,-1.1209550698100191e-05,6.0667,3.0
2.15234375,8.281950107576165e-06,4.5404260718699994e-05,5.6629412982375886e-05,-1.6578101780727793e-05,6.0667,3.0
2.15625,5.223696209658967e-05,5.565331278553451e-05,5.418916249027244e-05,-1.755420197756918e-05,6.0667,3.0
2.16015625,0.00011473787782558945,6.0045763671320725e-05,5.565331278553451e-05,-1.755420197756918e-05,6.0667,3.0
2.1640625,0.00012352277959716188,4.4916210620279296e-05,5.223696209658967e-05,-2.4386903355458854e-05,6.0667,3.0
2.16796875,5.841699615472709e-06,3.564325875028616e-05,6.443821455710694e-05,-1.8042252075989867e-05,6.0667,3.0
2.171875,-2.3898853257038162e-05,4.1499859931334464e-05,5.61413628839552e-05,-7.793200009155352e-06,6.0667,3.0
2.17578125,1.7066851879148608e-05,5.0284761702906907e-05,2.5363703552300356e-05,-7.793200009155352e-06,6.0667,3.0
2.1796875,2.42534892652787e-06,3.170835483176934e-05,1.6090751682307226e-05,-1.3649801190203646e-05,6.0667,3.0
2.18359375,9.274512026550703e-05,4.052375973449308e-05,2.633980374914174e-05,-1.1209550698100191e-05,6.0667,3.0
2.1875,1.5114651485465841e-05,5.370111239185174e-05,3.122030473334865e-05,-1.07215005996795e-05,6.0667,3.0
2.19140625,-0.00010790447644769964,4.394011042343792e-05,3.661935894712755e-05,-1.3161751091782956e-05,6.0667,3.0
2.1953125,4.882061140764483e-05,4.4428160521858605e-05,2.1947352863355517e-05,-1.3161751091782956e-05,6.0667,3.0
2.19921875,0.00014548503402609297,4.8332561309224135e-05,1.5114651485465841e-05,-1.755420197756918e-05,6.0667,3.0
2.203125,0.00011815422851453427,3.4667158553444786e-05,3.122030473334865e-05,-1.9506402371251944e-05,6.0667,3.0
2.20703125,4.003570963607239e-05,3.122030473334865e-05,2.4387603355458977e-05,-1.7066151879148485e-05,6.0667,3.0
2.2109375,1.365050119020377e-05,4.1011809832913766e-05,3.515520865186548e-05,-1.2673700993362265e-05,6.0667,3.0
2.21484375,4.9308661506065524e-05,1.5602701583886534e-05,2.5363703552300356e-05,-8.281250107576044e-06,6.0667,3.0
2.21875,3.8571559340810316e-05,3.271495815976202e-05,1.6090751682307226e-05,-1.1697600796520882e-05,6.0667,3.0
2.22265625,3.564325875028616e-05,5.223696209658967e-05,3.320300825818271e-05,4.7314853284510536e-07,6.0667,3.0
2.2265625,-8.395951849393447e-05,1.4492487296864879e-06,4.8655994186313265e-06,1.853100217441068e-05,6.0667,3.0
2.23046875,-6.638971495078959e-05,-2.7803254044403693e-05,-2.1946652863355397e-05,1.2186350894941694e-05,6.0667,3.0
2.234375,9.420927056076911e-05,-4.589161081712056e-05,-5.370041239185162e-05,9.258050304417548e-06,6.0667,3.0
2.23828125,5.1748911998168974e-05,-5.614066288395508e-05,-6.394946445868613e-05,2.2435402961776212e-05,6.0667,3.0
2.2421875,8.770000205996857e-06,-5.0772111801327474e-05,-5.174821199816885e-05,4.052375973449308e-05,6.0667,3.0
2.24609375,4.7844511210803443e-05,-9.469662065918968e-05,-7.322241632867927e-05,5.467721258869312e-05,6.0667,3.0
2.25,2.9268104339665886e-05,-0.0001489006847150377,-0.00011620132812085139,4.1499859931334464e-05,6.0667,3.0
2.25390625,-3.888799221789822e-06,-0.00014157993323872734,-0.0001376755324513618,3.710740904554824e-05,6.0667,3.0
2.2578125,2.6827853847562433e-05,-0.00014255603343556872,-0.00014060383304188596,6.297406426184488e-05,6.0667,3.0
2.26171875,1.1210250698100311e-05,-0.00017723809355458907,-0.00016650099138933386,7.8591667411307e-05,6.0667,3.0
2.265625,3.4014491233692527e-06,-0.00020456889906614778,-0.00018943934601510636,7.8591667411307e-05,6.0667,3.0
2.26953125,-1.4137851288624337e-05,-0.0002368107086930647,-0.00021237770064087884,7.76155672144656e-05,6.0667,3.0
2.2734375,-3.0731554634927843e-05,-0.00025584466253147166,-0.0002480358609567406,8.542436878919668e-05,6.0667,3.0
2.27734375,5.1748911998168974e-05,-0.0002597490633188372,-0.00025242831184252686,9.912027467612732e-05,6.0667,3.0
2.28125,1.5602701583886534e-05,-0.0002714622656809338,-0.00023876290908674748,0.00010351272556191354,6.0667,3.0
2.28515625,-4.052305973449296e-05,-0.00026023711341725787,-0.0002162821014282444,9.912027467612732e-05,6.0667,3.0
2.2890625,5.223696209658967e-05,-0.00024022705938200957,-0.0002206745523140306,8.737656918287943e-05,6.0667,3.0
2.29296875,6.1021863868162114e-05,-0.00022457895310139614,-0.0002641415142046234,8.737656918287943e-05,6.0667,3.0
2.296875,2.9268104339665886e-05,-0.000215306001231403,-0.000255356612433051,9.274512026550703e-05,6.0667,3.0
2.30078125,8.770000205996857e-06,-0.00019090349631036843,-0.00019041544621194775,8.932876957656221e-05,6.0667,3.0
2.3046875,6.395016445868626e-05,-0.00017040539217669942,-0.00015914973678187222,8.444826859235528e-05,6.0667,3.0
2.30859375,8.39602184939346e-05,-0.00017089344227512012,-0.00017235759257038218,6.931871554131387e-05,6.0667,3.0
2.3125,3.710740904554824e-05,-0.00016308464070038906,-0.00014011578294346525,4.5404260718699994e-05,6.0667,3.0
2.31640625,7.305849910734783e-06,-0.00012205792930189969,-9.176832006866555e-05,2.9756154438086578e-05,6.0667,3.0
2.3203125,-9.079221987182415e-05,-0.00011717742831769276,-8.78639192813e-05,2.145930276493483e-05,6.0667,3.0
2.32421875,3.889499221789944e-06,-0.00011522522792401001,-7.566266682078272e-05,1.937298828107179e-06,6.0667,3.0
2.328125,0.0001835834448340582,-6.492556465552751e-05,-6.590166485236891e-05,-3.888799221789822e-06,6.0667,3.0
2.33203125,0.0001396284328450447,-2.9267404339665766e-05,-4.9796011604486085e-05,-1.1209550698100191e-05,6.0667,3.0
2.3359375,6.834261534447247e-05,-3.888799221789822e-06,-1.0233450501258807e-05,-2.7803254044403693e-05,6.0667,3.0
2.33984375,7.371116642710007e-05,4.8655994186313265e-06,1.023415050125893e-05,-3.857085934081019e-05,6.0667,3.0
2.34375,0.00013816428254978262,2.5363703552300356e-05,4.8655994186313265e-06,-4.6379660915541246e-05,6.0667,3.0
2.34765625,0.00010790517644769977,5.809356327763797e-05,1.7066851879148608e-05,-5.1260161899748166e-05,6.0667,3.0
2.3515625,8.932876957656221e-05,5.07728118013276e-05,3.613130884870686e-05,-5.809286327763784e-05,6.0667,3.0
2.35546875,3.4667158553444786e-05,2.7803954044403816e-05,1.9019052272831373e-05,-6.638971495078959e-05,6.0667,3.0
2.359375,7.2247016131838e-05,3.759545914396893e-05,4.296401022659653e-05,-6.736581514763098e-05,6.0667,3.0
2.36328125,0.0001225466794003205,5.809356327763797e-05,7.810361731288631e-05,-6.394946445868613e-05,6.0667,3.0
2.3671875,6.346211436026556e-05,6.980676563973454e-05,7.956776760814838e-05,-7.029411573815512e-05,6.0667,3.0
2.37109375,0.00012449887979400326,8.88407194781415e-05,8.34721683955139e-05,-6.980606563973443e-05,6.0667,3.0
2.375,6.297406426184488e-05,9.716807428244456e-05,9.176902006866566e-05,-6.736581514763098e-05,6.0667,3.0
2.37890625,1.2186350894941694e-05,9.420927056076911e-05,0.00011083347703822392,-7.127021593499651e-05,6.0667,3.0
2.3828125,0.0001938324969008927,0.00011522592792401013,0.00013133158117189294,-6.248531416342406e-05,6.0667,3.0
2.38671875,0.000199689098081941,0.00013865233264820332,0.00013230768136873432,-6.150921396658268e-05,6.0667,3.0
2.390625,0.00013230768136873432,0.0001220586293018998,0.00012596303008926535,-6.102116386816199e-05,6.0667,3.0
2.39453125,0.00010156052516823077,0.00011229762733348598,0.00012937938077821017,-5.809286327763784e-05,6.0667,3.0
2.3984375,0.00013181963127031362,0.00011864227861295497,0.00012596303008926535,-6.004506367132061e-05,6.0667,3.0
2.40234375,0.00013572403205767915,0.00011766617841611358,0.00014304478353398953,-5.174821199816885e-05,6.0667,3.0
2.40625,0.0001166900782192722,0.00012449887979400326,0.00014060453304188606,-5.321236229343093e-05,6.0667,3.0
2.41015625,9.274512026550703e-05,0.00011376177762874805,0.0001166900782192722,-5.4676512588693004e-05,6.0667,3.0
2.4140625,-3.661865894712743e-05,8.835266937972081e-05,0.00010888127664454114,-5.028406170290678e-05,6.0667,3.0
2.41796875,1.9019052272831373e-05,0.00010546492595559632,0.000132795731467155,-4.540356071869987e-05,6.0667,3.0
2.421875,0.0002099381501487755,0.0001396284328450447,0.00015329383560082406,-4.540356071869987e-05,6.0667,3.0
2.42578125,0.0002226274527077135,0.00014109258314030676,0.00013230768136873432,-4.7355761112382635e-05,6.0667,3.0
2.4296875,0.00015280578550240335,0.00013572403205767915,0.00011717812831769289,-4.442746052185849e-05,6.0667,3.0
2.43359375,7.32231163286794e-05,0.00013670013225452056,0.00012596303008926535,-4.247526012817572e-05,6.0667,3.0
2.4375,0.00012157057920347913,0.00012401082969558256,0.00013035548097505156,-4.0035009636072267e-05,6.0667,3.0
2.44140625,0.00017772684365300988,0.00014109258314030676,0.0001337718316639964,-4.149915993133434e-05,6.0667,3.0
2.4453125,0.00020164129847562376,0.0001503655350102999,0.00013084353107347226,-3.5642558750286045e-05,6.0667,3.0
2.44921875,0.00010692907625085838,0.00010936932674296185,0.0001113215271366446,-3.466645855344466e-05,6.0667,3.0
2.453125,3.8571559340810316e-05,0.00011278567743190667,0.0001113215271366446,-3.466645855344466e-05,6.0667,3.0
2.45703125,8.298411829709321e-05,0.00013084353107347226,0.0001220586293018998,-2.7315203945982998e-05,6.0667,3.0
2.4609375,0.00014255673343556885,0.00011864227861295497,0.00011864227861295497,-2.7315203945982998e-05,6.0667,3.0
2.46484375,0.00023485920829938208,0.0001337718316639964,0.00012010642890821704,-2.4874953453879545e-05,6.0667,3.0
2.46875,0.00010546492595559632,0.00014646113422293435,0.00011913032871137566,-2.0482502568093324e-05,6.0667,3.0
2.47265625,9.611986312657966e-07,0.00012547497999084464,0.00011717812831769289,-2.1458602764934706e-05,6.0667,3.0
2.4765625,0.00014841333461661712,0.00013181963127031362,0.00010644102615243768,-2.341080315861747e-05,6.0667,3.0
2.48046875,0.0001957846972945755,0.0001435328336324102,0.00010156052516823077,-2.341080315861747e-05,6.0667,3.0
2.484375,0.00015817433658503097,0.0001449969839276723,0.00011083347703822392,-2.4386903355458854e-05,6.0667,3.0
2.48828125,9.323317036392774e-05,0.0001376762324513619,0.00010009637487296871,-2.9755454438086458e-05,6.0667,3.0
2.4921875,0.00010448882575875492,0.00011229762733348598,8.005581770656907e-05,-3.170765483176922e-05,6.0667,3.0
2.49609375,0.00014011648294346538,0.00011620202812085152,7.371116642710007e-05,-2.0482502568093324e-05,6.0667,3.0
2.5,0.00013133158117189294,0.00011376177762874805,9.225707016708636e-05,-9.745400402838117e-06,6.0667,3.0
2.50390625,0.00012449887979400326,0.0001284032805813688,0.00011473787782558945,-7.305149910734661e-06,6.0667,3.0
2.5078125,1.9019052272831373e-05,0.0001225466794003205,0.00010253662536507217,-1.1697600796520882e-05,6.0667,3.0
2.51171875,4.345206032501723e-05,0.0001449969839276723,9.863222457770664e-05,-2.0482502568093324e-05,6.0667,3.0
2.515625,0.00016210924050354778,0.00016406144089723052,0.00010497687585717561,-2.0970552666514015e-05,6.0667,3.0
2.51953125,0.00016894194188143746,0.00013230768136873432,6.590236485236903e-05,-1.8530302174410562e-05,6.0667,3.0
2.5234375,0.00019090419631036856,0.00011424982772716874,3.515520865186548e-05,-3.024350453650715e-05,6.0667,3.0
2.52734375,9.765612438086524e-05,8.493631869077599e-05,6.931871554131387e-05,-2.0970552666514015e-05,6.0667,3.0
2.53125,6.980676563973454e-05,8.34721683955139e-05,7.615141691920354e-05,-2.91269902494844e-06,6.0667,3.0
2.53515625,0.00010400077566033424,0.00010644102615243768,4.638036091554137e-05,-1.4137851288624337e-05,6.0667,3.0
2.5390625,0.00014450893382925162,9.518537075761049e-05,3.661935894712755e-05,-1.8530302174410562e-05,6.0667,3.0
2.54296875,0.00012157057920347913,8.786461928130013e-05,6.297406426184488e-05,-1.560200158388641e-05,6.0667,3.0
2.546875,8.981681967498289e-05,6.980676563973454e-05,6.248601416342419e-05,-1.2185650894941574e-05,6.0667,3.0
2.55078125,8.591241888761736e-05,5.858161337605865e-05,4.1011809832913766e-05,-1.901835227283125e-05,6.0667,3.0
2.5546875,4.1987910029755155e-05,9.176902006866566e-05,4.394011042343792e-05,-1.9994452469672632e-05,6.0667,3.0
2.55859375,0.00013816428254978262,0.00011278567743190667,3.613130884870686e-05,-1.07215005996795e-05,6.0667,3.0
2.5625,8.103191790341046e-05,0.00010107247506981008,3.8083509242389625e-05,-3.400749123369131e-06,6.0667,3.0
2.56640625,6.817799812314092e-06,9.323317036392774e-05,5.7605513179217276e-05,1.5601565575707353e-08,6.0667,3.0
2.5703125,0.00011473787782558945,0.00010156052516823077,5.565331278553451e-05,-2.424648926527749e-06,6.0667,3.0
2.57421875,8.493631869077599e-05,9.079291987182428e-05,3.122030473334865e-05,-4.376849320210514e-06,6.0667,3.0
2.578125,0.00011864227861295497,9.469732065918981e-05,5.272501219501036e-05,-7.305149910734661e-06,6.0667,3.0
2.58203125,0.00014450893382925162,8.34721683955139e-05,7.8591667411307e-05,-6.3290497138932785e-06,6.0667,3.0
2.5859375,8.34721683955139e-05,6.395016445868626e-05,7.566336682078285e-05,-1.4485487296863663e-06,6.0667,3.0
2.58984375,0.00010204857526665146,7.907971750972768e-05,6.15099139665828e-05,-3.400749123369131e-06,6.0667,3.0
2.59375,0.00010644102615243768,7.127091593499662e-05,5.711746308079658e-05,-4.376849320210514e-06,6.0667,3.0
2.59765625,6.931871554131387e-05,6.541431475394834e-05,5.565331278553451e-05,-9.60498631265675e-07,6.0667,3.0
2.6015625,1.1210250698100311e-05,8.39602184939346e-05,5.955771357290004e-05,2.42534892652787e-06,6.0667,3.0
2.60546875,5.223696209658967e-05,8.151996800183115e-05,6.73665151476311e-05,1.937298828107179e-06,6.0667,3.0
2.609375,0.00013816428254978262,6.931871554131387e-05,3.710740904554824e-05,-7.793200009155352e-06,6.0667,3.0
2.61328125,9.716807428244456e-05,6.395016445868626e-05,2.5363703552300356e-05,-9.257350304417426e-06,6.0667,3.0
2.6171875,8.34721683955139e-05,7.8591667411307e-05,4.003570963607239e-05,-5.352949517051896e-06,6.0667,3.0
2.62109375,0.00010790517644769977,5.61413628839552e-05,4.4428160521858605e-05,-6.3290497138932785e-06,6.0667,3.0
2.625,0.00012547497999084464,4.882061140764483e-05,5.272501219501036e-05,-2.91269902494844e-06,6.0667,3.0
2.62890625,0.00012352277959716188,8.737656918287943e-05,5.516526268711381e-05,-3.888799221789822e-06,6.0667,3.0
2.6328125,0.00013133158117189294,9.420927056076911e-05,4.345206032501723e-05,-3.888799221789822e-06,6.0667,3.0
2.63671875,6.346211436026556e-05,8.200801810025183e-05,3.905960943923101e-05,-3.888799221789822e-06,6.0667,3.0
2.640625,7.27350662302587e-05,7.712751711604493e-05,4.1499859931334464e-05,-4.8648994186312056e-06,6.0667,3.0
2.64453125,0.00012059447900663773,6.834261534447247e-05,5.1748911998168974e-05,1.4492487296864879e-06,6.0667,3.0
2.6484375,5.955771357290004e-05,7.566336682078285e-05,6.395016445868626e-05,4.8655994186313265e-06,6.0667,3.0
2.65234375,8.34721683955139e-05,6.395016445868626e-05,4.638036091554137e-05,-3.888799221789822e-06,6.0667,3.0
2.65625,4.003570963607239e-05,5.565331278553451e-05,2.8292004142824504e-05,-8.769300205996735e-06,6.0667,3.0
2.66015625,8.770000205996857e-06,7.2247016131838e-05,4.5404260718699994e-05,4.8655994186313265e-06,6.0667,3.0
2.6640625,0.00016894194188143746,7.517531672236215e-05,4.7844511210803443e-05,5.841699615472709e-06,6.0667,3.0
2.66796875,0.00017772684365300988,6.248601416342419e-05,3.170835483176934e-05,-8.281250107576044e-06,6.0667,3.0
2.671875,0.00010448882575875492,4.638036091554137e-05,1.853100217441068e-05,-1.8530302174410562e-05,6.0667,3.0
2.67578125,4.686841101396207e-05,5.370111239185174e-05,2.0483202568093447e-05,-1.3649801190203646e-05,6.0667,3.0
2.6796875,9.128096997024496e-05,7.76155672144656e-05,4.4428160521858605e-05,2.42534892652787e-06,6.0667,3.0
2.68359375,0.00015768628648661027,7.810361731288631e-05,5.223696209658967e-05,4.3775493202106344e-06,6.0667,3.0
2.6875,0.00011717812831769289,7.32231163286794e-05,5.418916249027244e-05,1.4492487296864879e-06,6.0667,3.0
2.69140625,5.955771357290004e-05,5.858161337605865e-05,4.8332561309224135e-05,1.937298828107179e-06,6.0667,3.0
2.6953125,-6.687776504921028e-05,5.858161337605865e-05,3.954765953765169e-05,2.42534892652787e-06,6.0667,3.0
2.69921875,3.4014491233692527e-06,7.078286583657594e-05,4.052375973449308e-05,5.353649517052018e-06,6.0667,3.0
2.703125,0.00015182968530556197,6.590236485236903e-05,3.417910845502409e-05,4.3775493202106344e-06,6.0667,3.0
2.70703125,0.00014792528451819641,4.979671160448621e-05,2.9268104339665886e-05,6.3297497138933995e-06,6.0667,3.0
2.7109375,0.00012108252910505842,5.0284761702906907e-05,3.710740904554824e-05,8.281950107576165e-06,6.0667,3.0
2.71484375,8.054386780498975e-05,6.590236485236903e-05,3.8571559340810316e-05,1.937298828107179e-06,6.0667,3.0
2.71875,0.000132795731467155,6.931871554131387e-05,3.661935894712755e-05,2.42534892652787e-06,6.0667,3.0
2.72265625,0.00010497687585717561,7.907971750972768e-05,4.735646111238276e-05,6.3297497138933995e-06,6.0667,3.0
2.7265625,0.00011473787782558945,6.395016445868626e-05,5.61413628839552e-05,5.841699615472709e-06,6.0667,3.0
2.73046875,8.151996800183115e-05,4.4916210620279296e-05,4.003570963607239e-05,2.42534892652787e-06,6.0667,3.0
2.734375,2.3411503158617595e-05,5.126086189974828e-05,4.052375973449308e-05,1.937298828107179e-06,6.0667,3.0
2.73828125,6.0533813769741416e-05,5.272501219501036e-05,4.4428160521858605e-05,7.793900009155474e-06,6.0667,3.0
2.7421875,7.27350662302587e-05,5.711746308079658e-05,5.126086189974828e-05,6.3297497138933995e-06,6.0667,3.0
2.74609375,0.0001498774849118792,6.0533813769741416e-05,5.370111239185174e-05,7.305849910734783e-06,6.0667,3.0
2.75,7.8591667411307e-05,6.15099139665828e-05,3.759545914396893e-05,4.3775493202106344e-06,6.0667,3.0
2.75390625,-2.4874953453879545e-05,5.6629412982375886e-05,1.5602701583886534e-05,1.5601565575707353e-08,6.0667,3.0
2.7578125,7.8591667411307e-05,3.8083509242389625e-05,2.633980374914174e-05,4.3775493202106344e-06,6.0667,3.0
2.76171875,0.0001498774849118792,5.711746308079658e-05,5.07728118013276e-05,8.770000205996857e-06,6.0667,3.0
2.765625,0.0001830953947356375,6.68784650492104e-05,4.4916210620279296e-05,1.1698300796521003e-05,6.0667,3.0
2.76953125,0.00010888127664454114,5.1748911998168974e-05,4.052375973449308e-05,4.8655994186313265e-06,6.0667,3.0
2.7734375,7.029481573815525e-05,4.1499859931334464e-05,3.320300825818271e-05,4.7314853284510536e-07,6.0667,3.0
2.77734375,0.00011034542693980321,4.5404260718699994e-05,2.487565345387967e-05,3.4014491233692527e-06,6.0667,3.0
2.78125,9.814417447928593e-05,5.516526268711381e-05,2.2435402961776212e-05,-4.7244853284498386e-07,6.0667,3.0
2.78515625,9.372122046234843e-05,5.565331278553451e-05,3.661935894712755e-05,-4.7244853284498386e-07,6.0667,3.0
2.7890625,2.8292004142824504e-05,6.73665151476311e-05,4.1987910029755155e-05,-4.8648994186312056e-06,6.0667,3.0
2.79296875,5.272501219501036e-05,6.248601416342419e-05,4.003570963607239e-05,-7.305149910734661e-06,6.0667,3.0
2.796875,0.00016991804207827884,4.979671160448621e-05,3.564325875028616e-05,3.4014491233692527e-06,6.0667,3.0
2.80078125,0.00017431049296406508,6.15099139665828e-05,4.882061140764483e-05,4.3775493202106344e-06,6.0667,3.0
2.8046875,0.00012986743087663085,7.029481573815525e-05,5.272501219501036e-05,1.937298828107179e-06,6.0667,3.0
2.80859375,7.517531672236215e-05,5.467721258869312e-05,4.2475960128175846e-05,6.817799812314092e-06,6.0667,3.0
2.8125,0.00012498692989242397,5.1748911998168974e-05,4.1011809832913766e-05,2.42534892652787e-06,6.0667,3.0
2.81640625,0.00010741712634927907,5.906966347447934e-05,4.979671160448621e-05,-4.7244853284498386e-07,6.0667,3.0
2.8203125,0.00012498692989242397,4.686841101396207e-05,5.61413628839552e-05,6.3297497138933995e-06,6.0667,3.0
2.82421875,0.00014597308412451368,6.15099139665828e-05,4.8332561309224135e-05,3.889499221789944e-06,6.0667,3.0
2.828125,9.814417447928593e-05,6.980676563973454e-05,3.710740904554824e-05,4.7314853284510536e-07,6.0667,3.0
2.83203125,8.932876957656221e-05,5.272501219501036e-05,3.905960943923101e-05,-4.7244853284498386e-07,6.0667,3.0
2.8359375,7.175896603341732e-05,4.2475960128175846e-05,5.6629412982375886e-05,9.258050304417548e-06,6.0667,3.0
2.83984375,0.00017772684365300988,4.9308661506065524e-05,5.418916249027244e-05,1.3162451091783078e-05,6.0667,3.0
2.84375,0.00011083347703822392,5.565331278553451e-05,5.0284761702906907e-05,1.5601565575707353e-08,6.0667,3.0
2.84765625,4.3775493202106344e-06,3.905960943923101e-05,4.8332561309224135e-05,1.4492487296864879e-06,6.0667,3.0
2.8515625,0.00015426993579766541,5.0284761702906907e-05,3.8083509242389625e-05,6.817799812314092e-06,6.0667,3.0
2.85546875,0.00017723879355458923,5.1748911998168974e-05,3.564325875028616e-05,1.5601565575707353e-08,6.0667,3.0
2.859375,0.00017967904404669267,3.8083509242389625e-05,5.223696209658967e-05,-4.7244853284498386e-07,6.0667,3.0
2.86328125,0.0001835834448340582,4.394011042343792e-05,5.809356327763797e-05,5.353649517052018e-06,6.0667,3.0
2.8671875,0.00018016709414511335,5.955771357290004e-05,5.6629412982375886e-05,1.5602701583886534e-05,6.0667,3.0
2.87109375,0.00019188029650720994,5.955771357290004e-05,6.0533813769741416e-05,1.6090751682307226e-05,6.0667,3.0
2.875,0.00014694918432135506,3.954765953765169e-05,5.272501219501036e-05,1.6578801780727917e-05,6.0667,3.0
2.87890625,0.00016747779158617537,3.320300825818271e-05,4.8332561309224135e-05,1.365050119020377e-05,6.0667,3.0
2.8828125,0.00011961837880979635,3.710740904554824e-05,5.809356327763797e-05,9.258050304417548e-06,6.0667,3.0
2.88671875,0.000166501691389334,4.7314853284510536e-07,2.5363703552300356e-05,1.7066851879148608e-05,6.0667,3.0
2.890625,0.00029589597373311976,-2.7315203945982998e-05,-2.4874953453879545e-05,1.853100217441068e-05,6.0667,3.0
2.89453125,0.00026804661499198906,-3.759475914396882e-05,-4.39394104234378e-05,1.7066851879148608e-05,6.0667,3.0
2.8984375,0.00020700984955825135,-5.4676512588693004e-05,-5.565261278553439e-05,1.6578801780727917e-05,6.0667,3.0
2.90234375,0.00017528659316090643,-6.443751455710684e-05,-7.615071691920341e-05,1.6090751682307226e-05,6.0667,3.0
2.90625,0.00022900260711833376,-0.00010790447644769964,-9.37205204623483e-05,3.2196404930190034e-05,6.0667,3.0
2.91015625,0.00018065514424353405,-0.0001596377868802929,-0.00014060383304188596,4.1987910029755155e-05,6.0667,3.0
2.9140625,0.00013816428254978262,-0.0001767500434561684,-0.00016991734207827871,4.1499859931334464e-05,6.0667,3.0
2.91796875,9.912027467612732e-05,-0.0002035927988693064,-0.00018114249434195463,5.0284761702906907e-05,6.0667,3.0
2.921875,8.298411829709321e-05,-0.0002465717106614785,-0.00022506700319981684,5.858161337605865e-05,6.0667,3.0
2.92578125,0.00010546492595559632,-0.0002577968629251545,-0.00022851385701991295,7.127091593499662e-05,6.0667,3.0
2.9296875,5.321306229343105e-05,-0.00027292641597619587,-0.000236322658594644,6.346211436026556e-05,6.0667,3.0
2.93359375,9.469732065918981e-05,-0.00025828491302357516,-0.00023973900928358886,5.565331278553451e-05,6.0667,3.0
2.9375,4.4916210620279296e-05,-0.0002314421576104371,-0.00023388240810254057,6.785456524605179e-05,6.0667,3.0
2.94140625,7.305849910734783e-06,-0.0002319302077088578,-0.00022900190711833365,7.566336682078285e-05,6.0667,3.0
2.9453125,0.00017626269335774782,-0.00019187959650720983,-0.00018797519571984428,6.639041495078972e-05,6.0667,3.0
2.94921875,0.00017040609217669952,-0.00016406074089723042,-0.00016308464070038906,6.395016445868626e-05,6.0667,3.0
2.953125,0.00010204857526665146,-0.00016747709158617527,-0.00015914973678187222,6.541431475394834e-05,6.0667,3.0
2.95703125,0.00010058442497138939,-0.00014109188314030666,-0.00012498622989242384,5.955771357290004e-05,6.0667,3.0
2.9609375,0.00013865233264820332,-8.688781908445862e-05,-8.200731810025171e-05,5.858161337605865e-05,6.0667,3.0
2.96484375,0.00014450893382925162,-7.615071691920341e-05,-6.004506367132061e-05,5.467721258869312e-05,6.0667,3.0
2.96875,8.835266937972081e-05,-7.810291731288619e-05,-3.369035835660328e-05,4.345206032501723e-05,6.0667,3.0
2.97265625,4.5404260718699994e-05,-4.101110983291365e-05,1.804295207598999e-05,3.4667158553444786e-05,6.0667,3.0
2.9765625,-1.2185650894941574e-05,9.74610040283824e-06,5.07728118013276e-05,3.122030473334865e-05,6.0667,3.0
2.98046875,7.2247016131838e-05,5.126086189974828e-05,6.834261534447247e-05,2.487565345387967e-05,6.0667,3.0
2.984375,0.00020408154896772723,8.835266937972081e-05,0.00010839322654612045,1.7554901977569296e-05,6.0667,3.0
2.98828125,0.00015671018628976888,0.00010644102615243768,0.00014255673343556885,8.770000205996857e-06,6.0667,3.0
2.9921875,0.00010058442497138939,0.00012547497999084464,0.00015622213619134818,-3.400749123369131e-06,6.0667,3.0
2.99609375,5.321306229343105e-05,0.00015719823638818956,0.00017040609217669952,-1.3161751091782956e-05,6.0667,3.0
3.0,0.00013523598195925847,0.00016308534070038917,0.00019236834660563064,-1.9994452469672632e-05,6.0667,3.0
3.00390625,0.00018407149493247888,0.00019090419631036856,0.00019139224640878926,-3.024350453650715e-05,6.0667,3.0
3.0078125,0.00011766617841611358,0.00022018720221561006,0.0001830953947356375,-3.661865894712743e-05,6.0667,3.0
3.01171875,3.515520865186548e-05,0.0002001771481803617,0.00018748784562142373,-3.759475914396882e-05,6.0667,3.0
3.015625,8.281950107576165e-06,0.000199689098081941,0.00019285639670405135,-3.320230825818259e-05,6.0667,3.0
3.01953125,1.853100217441068e-05,0.00022116330241245141,0.00020261739867246515,-3.170765483176922e-05,6.0667,3.0
3.0234375,4.2475960128175846e-05,0.0002109142503456169,0.00022949065721675446,-3.27142581597619e-05,6.0667,3.0
3.02734375,0.00011180957723506529,0.00019773689768825823,0.00023339505800412002,-3.369035835660328e-05,6.0667,3.0
3.03125,-2.0482502568093324e-05,0.00018016709414511335,0.00020749789965667206,-2.8291304142824384e-05,6.0667,3.0
3.03515625,-0.00012889063067978937,0.00018211929453879614,0.00018211929453879614,-2.9267404339665766e-05,6.0667,3.0
3.0390625,3.759545914396893e-05,0.00019188029650720994,0.00017821489375143058,-2.8291304142824384e-05,6.0667,3.0
3.04296875,0.00011473787782558945,0.0001787029438498513,0.00019285639670405135,-2.1946652863355397e-05,6.0667,3.0
3.046875,1.365050119020377e-05,0.00018748784562142373,0.00019236834660563064,-2.243470296177609e-05,6.0667,3.0
3.05078125,-6.199726406500337e-05,0.00019139224640878926,0.000179190993948272,-2.2922753060196783e-05,6.0667,3.0
3.0546875,2.731590394598312e-05,0.0001669897414877547,0.00017040609217669952,-1.8530302174410562e-05,6.0667,3.0
3.05859375,6.248601416342419e-05,0.00015475798589608612,0.00016796584168459608,-1.3161751091782956e-05,6.0667,3.0
3.0625,1.7066851879148608e-05,0.00016454949099565123,0.00015719823638818956,-1.2185650894941574e-05,6.0667,3.0
3.06640625,-2.91269902494844e-06,0.00015622213619134818,0.00014450893382925162,-1.4137851288624337e-05,6.0667,3.0
3.0703125,-0.00012596233008926522,0.00014694918432135506,0.0001225466794003205,-8.281250107576044e-06,6.0667,3.0
3.07421875,-7.859096741130687e-05,0.00014597308412451368,0.00011473787782558945,4.8655994186313265e-06,6.0667,3.0
3.078125,8.054386780498975e-05,0.0001220586293018998,0.00011571397802243082,5.841699615472709e-06,6.0667,3.0
3.08203125,7.956776760814838e-05,0.00012059447900663773,0.00011376177762874805,4.7314853284510536e-07,6.0667,3.0
3.0859375,6.68784650492104e-05,0.00010985737684138252,9.664952105287256e-05,-2.91269902494844e-06,6.0667,3.0
3.08984375,1.9019052272831373e-05,7.029481573815525e-05,6.346211436026556e-05,1.937298828107179e-06,6.0667,3.0
3.09375,3.905960943923101e-05,5.955771357290004e-05,3.170835483176934e-05,1.0722200599679622e-05,6.0667,3.0
3.09765625,6.73665151476311e-05,2.2435402961776212e-05,4.3775493202106344e-06,1.9019052272831373e-05,6.0667,3.0
3.1015625,8.835266937972081e-05,-2.4874953453879545e-05,-4.101110983291365e-05,2.633980374914174e-05,6.0667,3.0
3.10546875,5.321306229343105e-05,-5.370041239185162e-05,-8.005511770656894e-05,2.6827853847562433e-05,6.0667,3.0
3.109375,5.0284761702906907e-05,-9.128026997024484e-05,-0.00010790447644769964,3.4667158553444786e-05,6.0667,3.0
3.11328125,8.005581770656907e-05,-0.00012303402949874107,-0.00014109188314030666,5.0284761702906907e-05,6.0667,3.0
3.1171875,8.34721683955139e-05,-0.00013377113166399628,-0.00015573338609292737,5.1748911998168974e-05,6.0667,3.0
3.12109375,0.0001938324969008927,-0.0001596377868802929,-0.00017967834404669254,4.4428160521858605e-05,6.0667,3.0
3.125,0.00012986743087663085,-0.0001767500434561684,-0.00018602299532616154,4.003570963607239e-05,6.0667,3.0
3.12890625,2.731590394598312e-05,-0.0001264503801876859,-0.0001440201837308308,4.1011809832913766e-05,6.0667,3.0
3.1328125,0.00015280578550240335,-8.493561869077587e-05,-0.00013523528195925834,3.8571559340810316e-05,6.0667,3.0
3.13671875,0.00017772684365300988,-6.785386524605166e-05,-0.00012498622989242384,3.4667158553444786e-05,6.0667,3.0
3.140625,0.00015475798589608612,-4.149915993133434e-05,-8.884001947814139e-05,1.5114651485465841e-05,6.0667,3.0
3.14453125,0.00011327372753032736,-4.7244853284498386e-07,-3.661865894712743e-05,1.5601565575707353e-08,6.0667,3.0
3.1484375,9.716807428244456e-05,4.735646111238276e-05,3.320300825818271e-05,-5.352949517051896e-06,6.0667,3.0
3.15234375,9.9608324774548e-05,6.590236485236903e-05,5.565331278553451e-05,-7.305149910734661e-06,6.0667,3.0
3.15625,8.39602184939346e-05,0.00010156052516823077,7.175896603341732e-05,-5.840999615472587e-06,6.0667,3.0
3.16015625,8.298411829709321e-05,0.00014158063323872747,9.863222457770664e-05,-1.9506402371251944e-05,6.0667,3.0
3.1640625,-6.817099812313969e-06,0.00015426993579766541,0.00013084353107347226,-2.3898853257038162e-05,6.0667,3.0
3.16796875,2.2435402961776212e-05,0.00020310544877088585,0.000166501691389334,-2.633910374914162e-05,6.0667,3.0
3.171875,0.0001557340860929275,0.0002221394026092928,0.000172846342668803,-2.5851053650720927e-05,6.0667,3.0
3.17578125,0.00013133158117189294,0.0002226274527077135,0.00018699979552300303,-2.8291304142824384e-05,6.0667,3.0
3.1796875,7.8591667411307e-05,0.00023095480751201652,0.00020798594975509276,-3.417840845502397e-05,6.0667,3.0
3.18359375,6.19979640650035e-05,0.00023095480751201652,0.0002109142503456169,-2.9267404339665766e-05,6.0667,3.0
3.1875,0.00010790517644769977,0.0002548692623346304,0.00022656235662623031,-3.369035835660328e-05,6.0667,3.0
3.19140625,8.932876957656221e-05,0.00026804661499198906,0.0002495007112520028,-3.5642558750286045e-05,6.0667,3.0
3.1953125,7.127091593499662e-05,0.000260237813417258,0.00024071580948043037,-3.320230825818259e-05,6.0667,3.0
3.19921875,4.638036091554137e-05,0.0002573095128267338,0.00022165135251087212,-3.5154508651865354e-05,6.0667,3.0
3.203125,6.73665151476311e-05,0.00024071580948043037,0.00023046675741359584,-3.121960473334853e-05,6.0667,3.0
3.20703125,5.809356327763797e-05,0.00021823500182192727,0.00022360355290455486,-3.121960473334853e-05,6.0667,3.0
3.2109375,3.122030473334865e-05,0.00020749789965667206,0.0001992010479835203,-2.682715384756231e-05,6.0667,3.0
3.21484375,0.00011327372753032736,0.0002114023004440376,0.0001894400460151065,-2.1946652863355397e-05,6.0667,3.0
3.21875,4.1987910029755155e-05,0.00021286645073929965,0.00018602369532616164,-1.9994452469672632e-05,6.0667,3.0
3.22265625,-1.9365988281070576e-06,0.00020408154896772723,0.00018651174542458235,-2.0970552666514015e-05,6.0667,3.0
3.2265625,0.000139140382746624,0.0001992010479835203,0.00017675074345616852,-1.8042252075989867e-05,6.0667,3.0
3.23046875,0.00014450893382925162,0.0001957846972945755,0.00015231773540398268,-1.3161751091782956e-05,6.0667,3.0
3.234375,9.176902006866566e-05,0.00018065514424353405,0.00015622213619134818,-1.07215005996795e-05,6.0667,3.0
3.23828125,6.19979640650035e-05,0.0001669897414877547,0.00016845389178301678,-1.2673700993362265e-05,6.0667,3.0
3.2421875,0.00010351272556191354,0.0001655255911924926,0.00015817433658503097,-9.745400402838117e-06,6.0667,3.0
3.24609375,0.00012449887979400326,0.00016406144089723052,0.00013523598195925847,-1.9365988281070576e-06,6.0667,3.0
3.25,8.591241888761736e-05,0.00016747779158617537,0.00011620202812085152,-8.281250107576044e-06,6.0667,3.0
3.25390625,3.905960943923101e-05,0.0001435328336324102,0.0001113215271366446,-8.769300205996735e-06,6.0667,3.0
3.2578125,-5.760481317921715e-05,0.00012059447900663773,0.00011766617841611358,-3.888799221789822e-06,6.0667,3.0
3.26171875,2.9268104339665886e-05,0.0001274271803845274,0.00011327372753032736,-6.3290497138932785e-06,6.0667,3.0
3.265625,0.00017723879355458923,0.00011913032871137566,0.00011376177762874805,-4.7244853284498386e-07,6.0667,3.0
3.26953125,0.0001220586293018998,9.912027467612732e-05,0.00011766617841611358,-9.60498631265675e-07,6.0667,3.0
3.2734375,0.00010107247506981008,0.00010400077566033424,0.00010351272556191354,-5.840999615472587e-06,6.0667,3.0
3.27734375,3.3691058356603404e-05,0.00010985737684138252,9.225707016708636e-05,-5.840999615472587e-06,6.0667,3.0
3.28125,5.711746308079658e-05,0.00010888127664454114,8.932876957656221e-05,4.7314853284510536e-07,6.0667,3.0
3.28515625,0.00013670013225452056,0.00010302467546349285,7.712751711604493e-05,3.889499221789944e-06,6.0667,3.0
3.2890625,0.00011717812831769289,9.518537075761049e-05,8.054386780498975e-05,1.937298828107179e-06,6.0667,3.0
3.29296875,2.5363703552300356e-05,8.200801810025183e-05,7.956776760814838e-05,9.611986312657966e-07,6.0667,3.0
3.296875,1.2674400993362385e-05,7.371116642710007e-05,6.883066544289317e-05,3.4014491233692527e-06,6.0667,3.0
3.30078125,4.4428160521858605e-05,8.493631869077599e-05,7.615141691920354e-05,4.3775493202106344e-06,6.0667,3.0
3.3046875,1.853100217441068e-05,7.8591667411307e-05,8.640046898603806e-05,1.4492487296864879e-06,6.0667,3.0
3.30859375,0.00010888127664454114,7.27350662302587e-05,6.834261534447247e-05,4.8655994186313265e-06,6.0667,3.0
3.3125,1.0722200599679622e-05,9.372122046234843e-05,6.883066544289317e-05,1.1210250698100311e-05,6.0667,3.0
3.31640625,-8.688781908445862e-05,0.00010058442497138939,8.103191790341046e-05,4.8655994186313265e-06,6.0667,3.0
3.3203125,7.175896603341732e-05,6.492626465552764e-05,5.1748911998168974e-05,-4.7244853284498386e-07,6.0667,3.0
3.32421875,0.0001435328336324102,7.419921652552078e-05,5.0284761702906907e-05,1.4492487296864879e-06,6.0667,3.0
3.328125,0.00012059447900663773,0.00010985737684138252,5.7605513179217276e-05,-4.8648994186312056e-06,6.0667,3.0
3.33203125,4.394011042343792e-05,0.00010497687585717561,5.61413628839552e-05,-1.3161751091782956e-05,6.0667,3.0
3.3359375,2.3899553257038283e-05,0.0001113215271366446,6.590236485236903e-05,-1.6090051682307102e-05,6.0667,3.0
3.33984375,0.00010692907625085838,0.00014304478353398953,0.00011717812831769289,-2.243470296177609e-05,6.0667,3.0
3.34375,0.00011424982772716874,0.00012693913028610673,0.0001337718316639964,-2.7803254044403693e-05,6.0667,3.0
3.34765625,5.223696209658967e-05,0.00011620202812085152,0.00013572403205767915,-2.9267404339665766e-05,6.0667,3.0
3.3515625,-1.901835227283125e-05,0.00013230768136873432,0.00015475798589608612,-3.80828092423895e-05,6.0667,3.0
3.35546875,3.320300825818271e-05,0.00012547497999084464,0.00014060453304188606,-3.80828092423895e-05,6.0667,3.0
3.359375,0.0001723582925703823,0.00012449887979400326,0.0001376762324513619,-3.121960473334853e-05,6.0667,3.0
3.36328125,0.00018163124444037543,0.00014792528451819641,0.0001449969839276723,-3.661865894712743e-05,6.0667,3.0
3.3671875,0.00013181963127031362,0.00017479854306248573,0.00013035548097505156,-3.9058909439230884e-05,6.0667,3.0
3.37109375,8.200801810025183e-05,0.00016845389178301678,0.00012401082969558256,-2.9755454438086458e-05,6.0667,3.0
3.375,0.00010741712634927907,0.0001503655350102999,0.00011961837880979635,-2.4386903355458854e-05,6.0667,3.0
3.37890625,0.00012596303008926535,0.00014646113422293435,0.00010888127664454114,-2.1946652863355397e-05,6.0667,3.0
3.3828125,0.00014158063323872747,0.00014158063323872747,9.323317036392774e-05,-1.901835227283125e-05,6.0667,3.0
3.38671875,0.00011180957723506529,0.00011961837880979635,9.716807428244456e-05,-1.8042252075989867e-05,6.0667,3.0
3.390625,8.249606819867253e-05,0.00010692907625085838,8.88407194781415e-05,-1.901835227283125e-05,6.0667,3.0
3.39453125,5.516526268711381e-05,9.716807428244456e-05,7.078286583657594e-05,-1.511395148546572e-05,6.0667,3.0
3.3984375,3.661935894712755e-05,9.765612438086524e-05,8.542436878919668e-05,-1.3649801190203646e-05,6.0667,3.0
3.40234375,0.0001230347294987412,9.567342085603118e-05,8.200801810025183e-05,-1.07215005996795e-05,6.0667,3.0
3.40625,7.029481573815525e-05,8.200801810025183e-05,7.32231163286794e-05,-9.257350304417426e-06,6.0667,3.0
3.41015625,-7.305149910734661e-06,8.444826859235528e-05,6.68784650492104e-05,-7.793200009155352e-06,6.0667,3.0
3.4140625,7.663946701762422e-05,8.591241888761736e-05,5.858161337605865e-05,-5.352949517051896e-06,6.0667,3.0
3.41796875,7.419921652552078e-05,8.786461928130013e-05,6.931871554131387e-05,-5.840999615472587e-06,6.0667,3.0
3.421875,0.00011229762733348598,8.493631869077599e-05,7.127091593499662e-05,4.7314853284510536e-07,6.0667,3.0
3.42578125,0.00011864227861295497,5.906966347447934e-05,7.810361731288631e-05,6.3297497138933995e-06,6.0667,3.0
3.4296875,0.00010156052516823077,5.126086189974828e-05,5.418916249027244e-05,5.841699615472709e-06,6.0667,3.0
3.43359375,0.0001113215271366446,4.686841101396207e-05,4.1011809832913766e-05,4.3775493202106344e-06,6.0667,3.0
3.4375,8.103191790341046e-05,5.7605513179217276e-05,4.4428160521858605e-05,3.4014491233692527e-06,6.0667,3.0
3.44140625,4.1499859931334464e-05,5.272501219501036e-05,2.487565345387967e-05,1.5601565575707353e-08,6.0667,3.0
3.4453125,-3.417840845502397e-05,2.5363703552300356e-05,2.9756154438086578e-05,2.42534892652787e-06,6.0667,3.0
3.44921875,2.9268104339665886e-05,2.6827853847562433e-05,2.3899553257038283e-05,7.305849910734783e-06,6.0667,3.0
3.453125,0.00011961837880979635,4.882061140764483e-05,3.271495815976202e-05,4.7314853284510536e-07,6.0667,3.0
3.45703125,0.00011620202812085152,5.370111239185174e-05,6.248601416342419e-05,1.2674400993362385e-05,6.0667,3.0
3.4609375,0.0001279152304829481,3.3691058356603404e-05,4.1499859931334464e-05,2.633980374914174e-05,6.0667,3.0
3.46484375,9.9608324774548e-05,-2.3898853257038162e-05,-1.6578101780727793e-05,1.2674400993362385e-05,6.0667,3.0
3.46875,0.00011913032871137566,-8.395951849393447e-05,-6.443751455710684e-05,1.365050119020377e-05,6.0667,3.0
3.47265625,9.274512026550703e-05,-0.0001264503801876859,-0.00011620132812085139,2.7803954044403816e-05,6.0667,3.0
3.4765625,9.420927056076911e-05,-0.00018943934601510636,-0.0001606138870771343,3.564325875028616e-05,6.0667,3.0
3.48046875,7.517531672236215e-05,-0.00023388240810254057,-0.00020164059847562363,3.515520865186548e-05,6.0667,3.0
3.484375,5.07728118013276e-05,-0.0002929669731425955,-0.0002748786163698786,1.7554901977569296e-05,6.0667,3.0
3.48828125,8.39602184939346e-05,-0.00036718109123369183,-0.00034470028357518875,1.4626601387045152e-05,6.0667,3.0
3.4921875,6.248601416342419e-05,-0.00040427289871366437,-0.0004204090550926985,2.9756154438086578e-05,6.0667,3.0
3.49609375,0.00012498692989242397,-0.0004257776061753261,-0.0004687260148363469,3.613130884870686e-05,6.0667,3.0
3.5,8.542436878919668e-05,-0.00044237130952162957,-0.00044383545981689166,4.979671160448621e-05,6.0667,3.0
3.50390625,1.6578801780727917e-05,-0.0004692140649347676,-0.000457500862572671,7.810361731288631e-05,6.0667,3.0
3.5078125,9.567342085603118e-05,-0.0004784870168047607,-0.0004672618645410849,8.688851908445875e-05,6.0667,3.0
3.51171875,9.274512026550703e-05,-0.0004443235099153124,-0.0004257776061753261,8.591241888761736e-05,6.0667,3.0
3.515625,9.323317036392774e-05,-0.00041696220127260237,-0.00040622509910734713,9.518537075761049e-05,6.0667,3.0
3.51953125,6.883066544289317e-05,-0.0003974401973357747,-0.0003803584438910505,9.518537075761049e-05,6.0667,3.0
3.5234375,5.61413628839552e-05,-0.00036034838985580213,-0.00032127387885099557,9.225707016708636e-05,6.0667,3.0
3.52734375,5.0284761702906907e-05,-0.0003124889770794231,-0.00029540722363469895,9.176902006866566e-05,6.0667,3.0
3.53125,1.413855128862446e-05,-0.000282199367846189,-0.00028903206922407867,8.688851908445875e-05,6.0667,3.0
3.53515625,-2.2922753060196783e-05,-0.00025438051223620957,-0.00026267736390936136,7.907971750972768e-05,6.0667,3.0
3.5390625,-0.00010692837625085826,-0.00021921040201876855,-0.00022457895310139614,7.419921652552078e-05,6.0667,3.0
3.54296875,-4.198721002975503e-05,-0.00018651104542458222,-0.0001816305444403753,6.15099139665828e-05,6.0667,3.0
3.546875,7.27350662302587e-05,-0.0001650368410940718,-0.0001498767849118791,5.711746308079658e-05,6.0667,3.0
3.55078125,1.9995152469672756e-05,-0.00013377113166399628,-0.00011620132812085139,5.61413628839552e-05,6.0667,3.0
3.5546875,-2.7803254044403693e-05,-0.00011034472693980308,-8.591171888761724e-05,4.7844511210803443e-05,6.0667,3.0
3.55859375,-4.540356071869987e-05,-8.591171888761724e-05,-5.9068963474479226e-05,4.394011042343792e-05,6.0667,3.0
3.5625,2.5363703552300356e-05,-4.149915993133434e-05,-3.219570493018991e-05,4.296401022659653e-05,6.0667,3.0
3.56640625,1.413855128862446e-05,-2.1946652863355397e-05,-2.1458602764934706e-05,4.4428160521858605e-05,6.0667,3.0
3.5703125,-4.8648994186312056e-06,-6.817099812313969e-06,-3.888799221789822e-06,3.8571559340810316e-05,6.0667,3.0
3.57421875,-3.320230825818259e-05,-8.281250107576044e-06,1.6090751682307226e-05,3.0244204536507272e-05,6.0667,3.0
3.578125,-5.321236229343093e-05,-4.8648994186312056e-06,3.905960943923101e-05,2.9756154438086578e-05,6.0667,3.0
3.58203125,1.937298828107179e-06,1.9019052272831373e-05,6.68784650492104e-05,2.585175365072105e-05,6.0667,3.0
3.5859375,-2.4874953453879545e-05,3.271495815976202e-05,5.7605513179217276e-05,2.3411503158617595e-05,6.0667,3.0
3.58984375,2.9268104339665886e-05,3.3691058356603404e-05,5.370111239185174e-05,2.2435402961776212e-05,6.0667,3.0
3.59375,-3.0731554634927843e-05,4.2475960128175846e-05,5.07728118013276e-05,1.5114651485465841e-05,6.0667,3.0
3.59765625,-0.00013621138215609975,4.9308661506065524e-05,4.1011809832913766e-05,9.74610040283824e-06,6.0667,3.0
3.6015625,2.8292004142824504e-05,5.223696209658967e-05,5.1748911998168974e-05,1.3162451091783078e-05,6.0667,3.0
3.60546875,7.419921652552078e-05,6.443821455710694e-05,5.858161337605865e-05,1.6090751682307226e-05,6.0667,3.0
3.609375,2.8292004142824504e-05,7.615141691920354e-05,6.395016445868626e-05,9.74610040283824e-06,6.0667,3.0
3.61328125,-1.07215005996795e-05,7.810361731288631e-05,6.980676563973454e-05,5.841699615472709e-06,6.0667,3.0
3.6171875,-1.4137851288624337e-05,7.8591667411307e-05,7.663946701762422e-05,7.793900009155474e-06,6.0667,3.0
3.62109375,2.5363703552300356e-05,8.39602184939346e-05,9.176902006866566e-05,4.3775493202106344e-06,6.0667,3.0
3.625,-2.91269902494844e-06,8.249606819867253e-05,0.00010302467546349285,4.3775493202106344e-06,6.0667,3.0
3.62890625,-4.589161081712056e-05,8.200801810025183e-05,0.00010156052516823077,2.42534892652787e-06,6.0667,3.0
3.6328125,-3.9546959537651575e-05,8.737656918287943e-05,8.932876957656221e-05,-4.7244853284498386e-07,6.0667,3.0
3.63671875,2.3411503158617595e-05,0.00010107247506981008,8.640046898603806e-05,2.9133990249485615e-06,6.0667,3.0
3.640625,5.1748911998168974e-05,9.912027467612732e-05,9.176902006866566e-05,2.9133990249485615e-06,6.0667,3.0
3.64453125,3.759545914396893e-05,9.567342085603118e-05,9.716807428244456e-05,1.937298828107179e-06,6.0667,3.0
3.6484375,2.1947352863355517e-05,8.39602184939346e-05,0.00010058442497138939,1.4492487296864879e-06,6.0667,3.0
3.65234375,-9.765542438086512e-05,8.34721683955139e-05,8.444826859235528e-05,-4.8648994186312056e-06,6.0667,3.0
3.65625,-3.6130608848706736e-05,0.00010156052516823077,7.517531672236215e-05,-3.888799221789822e-06,6.0667,3.0
3.66015625,0.00010546492595559632,8.444826859235528e-05,8.981681967498289e-05,-1.9365988281070576e-06,6.0667,3.0
3.6640625,8.444826859235528e-05,7.127091593499662e-05,0.00010156052516823077,-2.91269902494844e-06,6.0667,3.0
3.66796875,2.5363703552300356e-05,8.200801810025183e-05,9.079291987182428e-05,-4.7244853284498386e-07,6.0667,3.0
3.671875,-1.7066151879148485e-05,8.005581770656907e-05,8.981681967498289e-05,-1.9365988281070576e-06,6.0667,3.0
3.67578125,2.9133990249485615e-06,7.27350662302587e-05,8.981681967498289e-05,-3.400749123369131e-06,6.0667,3.0
3.6796875,-4.7244853284498386e-07,6.19979640650035e-05,7.566336682078285e-05,-3.888799221789822e-06,6.0667,3.0
3.68359375,6.785456524605179e-05,6.492626465552764e-05,8.39602184939346e-05,-3.888799221789822e-06,6.0667,3.0
3.6875,1.950710237125206e-05,6.492626465552764e-05,8.542436878919668e-05,-4.376849320210514e-06,6.0667,3.0
3.69140625,-6.053311376974129e-05,5.0284761702906907e-05,6.785456524605179e-05,-2.91269902494844e-06,6.0667,3.0
3.6953125,7.907971750972768e-05,4.5892310817120685e-05,7.76155672144656e-05,1.5601565575707353e-08,6.0667,3.0
3.69921875,8.737656918287943e-05,4.735646111238276e-05,6.492626465552764e-05,1.937298828107179e-06,6.0667,3.0
3.703125,5.955771357290004e-05,5.0284761702906907e-05,5.711746308079658e-05,9.611986312657966e-07,6.0667,3.0
3.70703125,7.029481573815525e-05,6.590236485236903e-05,8.34721683955139e-05,-2.424648926527749e-06,6.0667,3.0
3.7109375,5.467721258869312e-05,6.931871554131387e-05,7.27350662302587e-05,2.9133990249485615e-06,6.0667,3.0
3.71484375,3.8571559340810316e-05,7.2247016131838e-05,7.615141691920354e-05,1.4492487296864879e-06,6.0667,3.0
3.71875,4.5892310817120685e-05,0.00010741712634927907,0.00010888127664454114,-5.840999615472587e-06,6.0667,3.0
3.72265625,3.710740904554824e-05,7.615141691920354e-05,8.151996800183115e-05,9.611986312657966e-07,6.0667,3.0
3.7265625,-6.297336426184475e-05,2.4387603355458977e-05,3.710740904554824e-05,3.4014491233692527e-06,6.0667,3.0
3.73046875,-2.3898853257038162e-05,2.585175365072105e-05,3.954765953765169e-05,-4.8648994186312056e-06,6.0667,3.0
3.734375,0.000139140382746624,6.3297497138933995e-06,1.4626601387045152e-05,-4.376849320210514e-06,6.0667,3.0
3.73828125,8.542436878919668e-05,-1.4137851288624337e-05,-1.8042252075989867e-05,-4.376849320210514e-06,6.0667,3.0
3.7421875,3.0244204536507272e-05,1.5601565575707353e-08,-3.888799221789822e-06,-2.91269902494844e-06,6.0667,3.0
3.74609375,5.223696209658967e-05,-5.352949517051896e-06,5.353649517052018e-06,-2.424648926527749e-06,6.0667,3.0
3.75,7.371116642710007e-05,-3.400749123369131e-06,2.4387603355458977e-05,-3.888799221789822e-06,6.0667,3.0
3.75390625,7.078286583657594e-05,1.804295207598999e-05,4.296401022659653e-05,3.889499221789944e-06,6.0667,3.0
3.7578125,4.8332561309224135e-05,2.9756154438086578e-05,3.417910845502409e-05,6.817799812314092e-06,6.0667,3.0
3.76171875,3.2196404930190034e-05,4.003570963607239e-05,3.710740904554824e-05,1.937298828107179e-06,6.0667,3.0
3.765625,4.296401022659653e-05,4.296401022659653e-05,3.073225463492796e-05,1.937298828107179e-06,6.0667,3.0
3.76953125,4.882061140764483e-05,2.6827853847562433e-05,2.8292004142824504e-05,1.937298828107179e-06,6.0667,3.0
3.7734375,1.4492487296864879e-06,2.4387603355458977e-05,3.613130884870686e-05,1.4492487296864879e-06,6.0667,3.0
3.77734375,8.151996800183115e-05,3.759545914396893e-05,4.1499859931334464e-05,2.9133990249485615e-06,6.0667,3.0
3.78125,6.0533813769741416e-05,3.661935894712755e-05,5.858161337605865e-05,9.611986312657966e-07,6.0667,3.0
3.78515625,-3.170765483176922e-05,2.731590394598312e-05,6.785456524605179e-05,9.611986312657966e-07,6.0667,3.0
3.7890625,0.00010497687585717561,2.9756154438086578e-05,5.565331278553451e-05,1.937298828107179e-06,6.0667,3.0
3.79296875,0.00012401082969558256,4.1011809832913766e-05,5.321306229343105e-05,-9.60498631265675e-07,6.0667,3.0
3.796875,1.3162451091783078e-05,3.3691058356603404e-05,4.296401022659653e-05,-2.91269902494844e-06,6.0667,3.0
3.80078125,1.9995152469672756e-05,2.2435402961776212e-05,4.296401022659653e-05,4.7314853284510536e-07,6.0667,3.0
3.8046875,0.00011327372753032736,4.1987910029755155e-05,5.516526268711381e-05,2.9133990249485615e-06,6.0667,3.0
3.80859375,0.00011180957723506529,5.370111239185174e-05,4.686841101396207e-05,1.5601565575707353e-08,6.0667,3.0
3.8125,5.6629412982375886e-05,3.613130884870686e-05,4.2475960128175846e-05,-3.400749123369131e-06,6.0667,3.0
3.81640625,1.3162451091783078e-05,2.633980374914174e-05,4.2475960128175846e-05,1.5601565575707353e-08,6.0667,3.0
3.8203125,-6.297336426184475e-05,2.731590394598312e-05,3.170835483176934e-05,-4.7244853284498386e-07,6.0667,3.0
3.82421875,2.3899553257038283e-05,3.8083509242389625e-05,4.052375973449308e-05,9.611986312657966e-07,6.0667,3.0
3.828125,0.00013865233264820332,4.345206032501723e-05,5.955771357290004e-05,1.4492487296864879e-06,6.0667,3.0
3.83203125,7.371116642710007e-05,2.487565345387967e-05,4.2475960128175846e-05,1.5601565575707353e-08,6.0667,3.0
3.8359375,2.3411503158617595e-05,1.6578801780727917e-05,2.8780054241245195e-05,4.8655994186313265e-06,6.0667,3.0
3.83984375,1.365050119020377e-05,2.9756154438086578e-05,2.7803954044403816e-05,3.4014491233692527e-06,6.0667,3.0
3.84375,7.517531672236215e-05,2.7803954044403816e-05,2.8292004142824504e-05,1.937298828107179e-06,6.0667,3.0
3.84765625,7.517531672236215e-05,1.1698300796521003e-05,4.1499859931334464e-05,8.281950107576165e-06,6.0667,3.0
3.8515625,4.394011042343792e-05,2.2435402961776212e-05,3.122030473334865e-05,7.305849910734783e-06,6.0667,3.0
3.85546875,-3.400749123369131e-06,2.145930276493483e-05,1.023415050125893e-05,-4.7244853284498386e-07,6.0667,3.0
3.859375,1.2674400993362385e-05,1.9019052272831373e-05,1.1698300796521003e-05,-9.60498631265675e-07,6.0667,3.0
3.86328125,7.029481573815525e-05,3.2196404930190034e-05,2.6827853847562433e-05,2.9133990249485615e-06,6.0667,3.0
3.8671875,4.735646111238276e-05,2.145930276493483e-05,2.0483202568093447e-05,3.889499221789944e-06,6.0667,3.0
3.87109375,6.68784650492104e-05,1.7554901977569296e-05,7.305849910734783e-06,2.42534892652787e-06,6.0667,3.0
3.875,-1.901835227283125e-05,1.7066851879148608e-05,1.5602701583886534e-05,1.4492487296864879e-06,6.0667,3.0
3.87890625,-7.127021593499651e-05,1.6090751682307226e-05,1.853100217441068e-05,1.6090751682307226e-05,6.0667,3.0
3.8828125,9.128096997024496e-05,1.4626601387045152e-05,9.258050304417548e-06,1.1210250698100311e-05,6.0667,3.0
3.88671875,9.616147095445189e-05,9.611986312657966e-07,1.7554901977569296e-05,9.611986312657966e-07,6.0667,3.0
3.890625,6.0045763671320725e-05,-3.417840845502397e-05,-1.7066151879148485e-05,-5.352949517051896e-06,6.0667,3.0
3.89453125,2.585175365072105e-05,-4.3451360325017105e-05,-6.346141436026545e-05,2.42534892652787e-06,6.0667,3.0
3.8984375,4.296401022659653e-05,-5.4676512588693004e-05,-7.71268171160448e-05,1.1210250698100311e-05,6.0667,3.0
3.90234375,8.688851908445875e-05,-9.420857056076899e-05,-0.00011620132812085139,1.9019052272831373e-05,6.0667,3.0
3.90625,6.785456524605179e-05,-0.00015573338609292737,-0.00017430979296406492,2.9268104339665886e-05,6.0667,3.0
3.91015625,5.6629412982375886e-05,-0.0002196984521171892,-0.00023388240810254057,1.4626601387045152e-05,6.0667,3.0
3.9140625,-2.4874953453879545e-05,-0.00027975911735408557,-0.0002826874179446097,3.2196404930190034e-05,6.0667,3.0
3.91796875,3.710740904554824e-05,-0.0003373795320988784,-0.0003310348808194094,5.0284761702906907e-05,6.0667,3.0
3.921875,0.0002324189578072786,-0.00036230059024948495,-0.0003632766904463263,4.979671160448621e-05,6.0667,3.0
3.92578125,0.0002260743065278096,-0.0003949999468436713,-0.00039890434763103675,6.297406426184488e-05,6.0667,3.0
3.9296875,0.000139140382746624,-0.00041696220127260237,-0.00042675370637216745,6.68784650492104e-05,6.0667,3.0
3.93359375,8.444826859235528e-05,-0.00038963139576104366,-0.0004154980509773403,6.883066544289317e-05,6.0667,3.0
3.9375,0.00013084353107347226,-0.00038279869438315395,-0.00040573704900892646,6.883066544289317e-05,6.0667,3.0
3.94140625,0.00018163124444037543,-0.00039304774644998846,-0.00040476094881208505,6.68784650492104e-05,6.0667,3.0
3.9453125,0.000166501691389334,-0.00038279869438315395,-0.00037059744192263674,7.078286583657594e-05,6.0667,3.0
3.94921875,9.225707016708636e-05,-0.00037401379261158154,-0.00035153298495307846,6.0533813769741416e-05,6.0667,3.0
3.953125,6.590236485236903e-05,-0.00034518833367360943,-0.0003466524839688715,6.15099139665828e-05,6.0667,3.0
3.95703125,4.9308661506065524e-05,-0.00031883362835889213,-0.0003305468307209887,7.956776760814838e-05,6.0667,3.0
3.9609375,7.127091593499662e-05,-0.00032420217944151975,-0.0003281065802288853,0.00010302467546349285,6.0667,3.0
3.96484375,0.00018992809611352717,-0.00029491917353627827,-0.0002919908729457541,0.00010400077566033424,6.0667,3.0
3.96875,9.176902006866566e-05,-0.0002324182578072785,-0.0002382748589883268,6.834261534447247e-05,6.0667,3.0
3.97265625,-9.257350304417426e-06,-0.00023534655839780265,-0.00022262675270771337,5.0284761702906907e-05,6.0667,3.0
3.9765625,0.00014450893382925162,-0.00022555505329823752,-0.00022506700319981684,5.321306229343105e-05,6.0667,3.0
3.98046875,0.00017187024247196158,-0.0001928556967040512,-0.00019041544621194775,6.492626465552764e-05,6.0667,3.0
3.984375,0.00013084353107347226,-0.00015768558648661016,-0.0001391396827466239,6.541431475394834e-05,6.0667,3.0
3.98828125,8.835266937972081e-05,-9.616077095445176e-05,-0.00011083277703822379,4.735646111238276e-05,6.0667,3.0
3.9921875,5.0284761702906907e-05,-6.394946445868613e-05,-7.371046642709996e-05,4.2475960128175846e-05,6.0667,3.0
3.99609375,6.785456524605179e-05,-3.5642558750286045e-05,-3.417840845502397e-05,3.564325875028616e-05,6.0667,3.0
4.0,5.6629412982375886e-05,-2.682715384756231e-05,-2.1458602764934706e-05,1.5114651485465841e-05,6.0667,3.0
4.00390625,-6.3290497138932785e-06,-2.4874953453879545e-05,-1.4137851288624337e-05,2.9133990249485615e-06,6.0667,3.0
4.0078125,-2.2922753060196783e-05,1.5114651485465841e-05,2.9133990249485615e-06,-3.400749123369131e-06,6.0667,3.0
4.01171875,-8.281250107576044e-06,5.467721258869312e-05,3.8571559340810316e-05,-1.1209550698100191e-05,6.0667,3.0
4.015625,-4.442746052185849e-05,7.76155672144656e-05,6.15099139665828e-05,-1.9506402371251944e-05,6.0667,3.0
4.01953125,-9.616077095445176e-05,0.00011473787782558945,9.079291987182428e-05,-1.7066151879148485e-05,6.0667,3.0
4.0234375,-0.0001474365344197756,0.0001288913306797895,0.00011717812831769289,-1.9994452469672632e-05,6.0667,3.0
4.02734375,-0.00030516822560311277,0.00011571397802243082,0.00012498692989242397,-2.8291304142824384e-05,6.0667,3.0
4.03125,-0.0003149292275715266,0.00011961837880979635,0.00015426993579766541,-2.1458602764934706e-05,6.0667,3.0
4.03515625,-0.000221650652510872,0.00014548503402609297,0.00016503754109407193,-1.6090051682307102e-05,6.0667,3.0
4.0390625,-0.0002201865022156099,0.00016747779158617537,0.00016942999197985814,-1.9994452469672632e-05,6.0667,3.0
4.04296875,-0.0002817113177477683,0.00018065514424353405,0.00019188029650720994,-1.901835227283125e-05,6.0667,3.0
4.046875,-0.000336403431902037,0.000199689098081941,0.00019480859709773409,-1.4625901387045028e-05,6.0667,3.0
4.05078125,-0.0003354273317051956,0.00018992809611352717,0.00018797589571984443,-1.0233450501258807e-05,6.0667,3.0
4.0546875,-0.00037401379261158154,0.00017333439276722367,0.0001938324969008927,-7.305149910734661e-06,6.0667,3.0
4.05859375,-0.0003090726263904783,0.00018748784562142373,0.00020847399985351344,-8.281250107576044e-06,6.0667,3.0
4.0625,-0.000323714129343099,0.00019139224640878926,0.00020749789965667206,-6.817099812313969e-06,6.0667,3.0
4.06640625,-0.0004037848486152437,0.00020066519827878238,0.00020749789965667206,-1.07215005996795e-05,6.0667,3.0
4.0703125,-0.00032322607924467834,0.0001957846972945755,0.00020798594975509276,-1.2185650894941574e-05,6.0667,3.0
4.07421875,-0.000315905327768368,0.0001943205469993134,0.00019773689768825823,-1.4137851288624337e-05,6.0667,3.0
4.078125,-0.0003593722896589608,0.00019480859709773409,0.00020408154896772723,-1.511395148546572e-05,6.0667,3.0
4.08203125,-0.00037791819339894707,0.0001957846972945755,0.00020066519827878238,-8.281250107576044e-06,6.0667,3.0
4.0859375,-0.0003993923977294575,0.00021286645073929965,0.00020066519827878238,-9.745400402838117e-06,6.0667,3.0
4.08984375,-0.00037059744192263674,0.00020505764916456862,0.00020798594975509276,-1.2185650894941574e-05,6.0667,3.0
4.09375,-0.00035644398906843665,0.0001943205469993134,0.00020066519827878238,-8.281250107576044e-06,6.0667,3.0
4.09765625,-0.00039988044782787816,0.00018748784562142373,0.00019822494778667894,-1.0233450501258807e-05,6.0667,3.0
4.1015625,-0.0004457876602105745,0.00018748784562142373,0.00020359349886930656,-1.07215005996795e-05,6.0667,3.0
4.10546875,-0.00038328674448157463,0.0001894400460151065,0.00020408154896772723,-9.257350304417426e-06,6.0667,3.0
4.109375,-0.0002782949670588235,0.00017967904404669267,0.0001850475951293203,-9.257350304417426e-06,6.0667,3.0
4.11328125,-0.0003163933778667887,0.00018602369532616164,0.00016259729060196846,-1.1697600796520882e-05,6.0667,3.0
4.1171875,-0.0003813345440878919,0.00019285639670405135,0.00017528659316090643,-3.400749123369131e-06,6.0667,3.0
4.12109375,-0.00039695214723735404,0.00016454949099565123,0.00018114319434195473,3.889499221789944e-06,6.0667,3.0
4.125,-0.0003368914820004577,0.00016845389178301678,0.000172846342668803,-1.4485487296863663e-06,6.0667,3.0
4.12890625,-0.00033152293091783013,0.00019041614621194788,0.00017333439276722367,-2.91269902494844e-06,6.0667,3.0
4.1328125,-0.0003349392816067749,0.00016357339079880987,0.00017528659316090643,2.42534892652787e-06,6.0667,3.0
4.13671875,-0.00037840624349736774,0.00014206868333714815,0.00017187024247196158,-4.7244853284498386e-07,6.0667,3.0
4.140625,-0.0003618125401510642,0.000139140382746624,0.00016259729060196846,-9.60498631265675e-07,6.0667,3.0
4.14453125,-0.0003398197825909818,0.00013865233264820332,0.00016942999197985814,5.841699615472709e-06,6.0667,3.0
4.1484375,-0.00036571694093842974,0.00014304478353398953,0.00016110263717555512,6.817799812314092e-06,6.0667,3.0
4.15234375,-0.0003276185301304646,0.00014206868333714815,0.00014646113422293435,6.817799812314092e-06,6.0667,3.0
4.15625,-0.0003481166342641336,0.00014597308412451368,0.00014060453304188606,8.281950107576165e-06,6.0667,3.0
4.16015625,-0.00033591538180361634,0.00015866238668345165,0.00015622213619134818,7.793900009155474e-06,6.0667,3.0
4.1640625,-0.00018504689512932013,0.00016210924050354778,0.0001787029438498513,4.7314853284510536e-07,6.0667,3.0
4.16796875,-0.00016894124188143733,0.00012547497999084464,0.00014890138471503782,2.42534892652787e-06,6.0667,3.0
4.171875,-0.00022506700319981684,0.00010888127664454114,0.0001166900782192722,9.611986312657966e-07,6.0667,3.0
4.17578125,-0.00025145221164568545,0.00012401082969558256,0.0001279152304829481,-1.0233450501258807e-05,6.0667,3.0
4.1796875,-0.0002035927988693064,0.0001332837815655757,0.00012352277959716188,-1.3161751091782956e-05,6.0667,3.0
4.18359375,-0.0001327950314671549,0.00013230768136873432,0.00011376177762874805,-2.0482502568093324e-05,6.0667,3.0
