timestamp,TP9,AF7,AF8,TP10,Valence,Arousal
0.0,3.2690771828793776e-05,2.7322049205767912e-05,1.8040528738841847e-05,3.708887793240254e-05,4.2,3.6
0.00390625,2.9778922270542466e-05,2.9778922270542466e-05,2.3924891387808045e-05,2.2438634842450603e-05,4.2,3.6
0.0078125,3.123484704966812e-05,2.829266572518502e-05,3.123484704966812e-05,2.6351432686350808e-05,4.2,3.6
0.01171875,3.172015530937667e-05,2.340925136186771e-05,3.2205463569085226e-05,2.880830575112536e-05,4.2,3.6
0.015625,2.7807357465476466e-05,1.1215881336690323e-05,2.1468018323033498e-05,2.7807357465476466e-05,4.2,3.6
0.01953125,2.7807357465476466e-05,1.3157114375524532e-05,2.0982710063324944e-05,2.7322049205767912e-05,4.2,3.6
0.0234375,2.829266572518502e-05,2.683674094605936e-05,3.514764489356832e-05,3.123484704966812e-05,4.2,3.6
0.02734375,3.2690771828793776e-05,2.7807357465476466e-05,3.026423053025101e-05,3.514764489356832e-05,4.2,3.6
0.03125,3.466233663385977e-05,1.7555220479133293e-05,2.2923943102159157e-05,3.708887793240254e-05,4.2,3.6
0.03515625,3.074953878995957e-05,1.9041477024490736e-05,2.1468018323033498e-05,2.880830575112536e-05,4.2,3.6
0.0390625,3.172015530937667e-05,3.3176080088502327e-05,2.9293614010833912e-05,2.9293614010833912e-05,4.2,3.6
0.04296875,3.2690771828793776e-05,3.563295315327688e-05,2.829266572518502e-05,3.757418619211109e-05,4.2,3.6
0.046875,2.829266572518502e-05,2.6351432686350808e-05,2.44101996475166e-05,3.9545750997177086e-05,4.2,3.6
0.05078125,2.44101996475166e-05,1.9526785284199286e-05,2.489550790722515e-05,3.514764489356832e-05,4.2,3.6
0.0546875,2.683674094605936e-05,2.001209354390784e-05,2.3924891387808045e-05,3.074953878995957e-05,4.2,3.6
0.05859375,2.829266572518502e-05,2.195332658274205e-05,2.2923943102159157e-05,3.611826141298543e-05,4.2,3.6
0.0625,2.683674094605936e-05,3.172015530937667e-05,1.8525836998550394e-05,2.9778922270542466e-05,4.2,3.6
0.06640625,2.829266572518502e-05,3.563295315327688e-05,2.1468018323033498e-05,2.44101996475166e-05,4.2,3.6
0.0703125,2.7322049205767912e-05,2.829266572518502e-05,2.5380816166933704e-05,3.466233663385977e-05,4.2,3.6
0.07421875,2.880830575112536e-05,2.6351432686350808e-05,2.5866124426642258e-05,3.123484704966812e-05,4.2,3.6
0.078125,2.880830575112536e-05,2.829266572518502e-05,2.2923943102159157e-05,3.172015530937667e-05,4.2,3.6
0.08203125,2.7322049205767912e-05,2.0497401803616394e-05,2.683674094605936e-05,3.708887793240254e-05,4.2,3.6
0.0859375,2.683674094605936e-05,2.5866124426642258e-05,3.172015530937667e-05,3.660356967269398e-05,4.2,3.6
0.08984375,2.829266572518502e-05,3.026423053025101e-05,2.9778922270542466e-05,3.563295315327688e-05,4.2,3.6
0.09375,3.563295315327688e-05,2.6351432686350808e-05,3.514764489356832e-05,3.8059494451819647e-05,4.2,3.6
0.09765625,3.708887793240254e-05,3.026423053025101e-05,3.3661388348210884e-05,4.0031059256885636e-05,4.2,3.6
0.1015625,3.026423053025101e-05,2.489550790722515e-05,3.2205463569085226e-05,3.514764489356832e-05,4.2,3.6
0.10546875,2.9778922270542466e-05,3.074953878995957e-05,3.074953878995957e-05,3.3661388348210884e-05,4.2,3.6
0.109375,3.2205463569085226e-05,3.611826141298543e-05,2.1468018323033498e-05,3.85448027115282e-05,4.2,3.6
0.11328125,3.466233663385977e-05,3.611826141298543e-05,1.9041477024490736e-05,3.3176080088502327e-05,4.2,3.6
0.1171875,3.172015530937667e-05,2.880830575112536e-05,3.172015530937667e-05,2.683674094605936e-05,4.2,3.6
0.12109375,3.074953878995957e-05,2.489550790722515e-05,3.2690771828793776e-05,3.4177028374151215e-05,4.2,3.6
0.125,3.708887793240254e-05,2.195332658274205e-05,2.3924891387808045e-05,3.466233663385977e-05,4.2,3.6
0.12890625,3.8059494451819647e-05,3.074953878995957e-05,2.7807357465476466e-05,3.757418619211109e-05,4.2,3.6
0.1328125,4.1001675776302744e-05,3.3661388348210884e-05,2.2923943102159157e-05,3.757418619211109e-05,4.2,3.6
0.13671875,4.148698403601129e-05,2.9778922270542466e-05,2.340925136186771e-05,3.3176080088502327e-05,4.2,3.6
0.140625,3.708887793240254e-05,3.123484704966812e-05,2.489550790722515e-05,3.563295315327688e-05,4.2,3.6
0.14453125,3.611826141298543e-05,3.466233663385977e-05,2.44101996475166e-05,3.611826141298543e-05,4.2,3.6
0.1484375,3.3176080088502327e-05,3.660356967269398e-05,2.44101996475166e-05,2.880830575112536e-05,4.2,3.6
0.15234375,3.2690771828793776e-05,2.3924891387808045e-05,2.7807357465476466e-05,2.6351432686350808e-05,4.2,3.6
0.15625,3.514764489356832e-05,1.7555220479133293e-05,3.4177028374151215e-05,3.026423053025101e-05,4.2,3.6
0.16015625,3.3661388348210884e-05,2.489550790722515e-05,3.3661388348210884e-05,3.466233663385977e-05,4.2,3.6
0.1640625,3.3176080088502327e-05,1.9041477024490736e-05,2.5380816166933704e-05,3.026423053025101e-05,4.2,3.6
0.16796875,3.4177028374151215e-05,2.2923943102159157e-05,2.44101996475166e-05,3.3176080088502327e-05,4.2,3.6
0.171875,3.757418619211109e-05,2.44101996475166e-05,2.829266572518502e-05,3.9545750997177086e-05,4.2,3.6
0.17578125,4.1972292295719845e-05,2.195332658274205e-05,3.466233663385977e-05,3.611826141298543e-05,4.2,3.6
0.1796875,4.2457600555428396e-05,2.001209354390784e-05,3.4177028374151215e-05,3.611826141298543e-05,4.2,3.6
0.18359375,3.660356967269398e-05,1.4158062661173424e-05,2.340925136186771e-05,3.514764489356832e-05,4.2,3.6
0.1875,3.514764489356832e-05,1.9041477024490736e-05,2.0497401803616394e-05,3.2690771828793776e-05,4.2,3.6
0.19140625,3.611826141298543e-05,2.7807357465476466e-05,1.3642422635233084e-05,3.3176080088502327e-05,4.2,3.6
0.1953125,3.514764489356832e-05,2.7807357465476466e-05,2.001209354390784e-05,3.4177028374151215e-05,4.2,3.6
0.19921875,3.9060442737468535e-05,2.44101996475166e-05,1.9041477024490736e-05,3.3661388348210884e-05,4.2,3.6
0.203125,3.9545750997177086e-05,2.1468018323033498e-05,1.4158062661173424e-05,3.026423053025101e-05,4.2,3.6
0.20703125,3.611826141298543e-05,2.1468018323033498e-05,1.7555220479133293e-05,2.829266572518502e-05,4.2,3.6
0.2109375,3.9545750997177086e-05,3.026423053025101e-05,2.0497401803616394e-05,3.3176080088502327e-05,4.2,3.6
0.21484375,3.757418619211109e-05,3.074953878995957e-05,2.5866124426642258e-05,2.9778922270542466e-05,4.2,3.6
0.21875,3.757418619211109e-05,2.6351432686350808e-05,2.5866124426642258e-05,2.489550790722515e-05,4.2,3.6
0.22265625,4.394385710078584e-05,2.2923943102159157e-05,1.706991221942474e-05,3.026423053025101e-05,4.2,3.6
0.2265625,4.0516367516594194e-05,2.195332658274205e-05,1.7555220479133293e-05,3.026423053025101e-05,4.2,3.6
0.23046875,3.466233663385977e-05,2.829266572518502e-05,2.5380816166933704e-05,3.172015530937667e-05,4.2,3.6
0.234375,3.466233663385977e-05,3.563295315327688e-05,2.489550790722515e-05,3.466233663385977e-05,4.2,3.6
0.23828125,4.0516367516594194e-05,2.9778922270542466e-05,2.2923943102159157e-05,3.2690771828793776e-05,4.2,3.6
0.2421875,4.2457600555428396e-05,2.2923943102159157e-05,2.5866124426642258e-05,3.026423053025101e-05,4.2,3.6
0.24609375,3.611826141298543e-05,2.340925136186771e-05,2.9778922270542466e-05,2.489550790722515e-05,4.2,3.6
0.25,3.3661388348210884e-05,1.9526785284199286e-05,2.489550790722515e-05,2.7322049205767912e-05,4.2,3.6
0.25390625,3.514764489356832e-05,1.561398744029908e-05,2.5380816166933704e-05,2.9293614010833912e-05,4.2,3.6
0.2578125,3.3661388348210884e-05,2.7322049205767912e-05,3.026423053025101e-05,2.829266572518502e-05,4.2,3.6
0.26171875,3.563295315327688e-05,3.660356967269398e-05,3.3661388348210884e-05,3.026423053025101e-05,4.2,3.6
0.265625,4.0516367516594194e-05,3.123484704966812e-05,3.2205463569085226e-05,2.6351432686350808e-05,4.2,3.6
0.26953125,4.2457600555428396e-05,2.9778922270542466e-05,3.4177028374151215e-05,2.829266572518502e-05,4.2,3.6
0.2734375,4.1972292295719845e-05,3.611826141298543e-05,3.466233663385977e-05,3.074953878995957e-05,4.2,3.6
0.27734375,3.660356967269398e-05,3.563295315327688e-05,3.563295315327688e-05,2.829266572518502e-05,4.2,3.6
0.28125,3.466233663385977e-05,3.123484704966812e-05,3.514764489356832e-05,3.3176080088502327e-05,4.2,3.6
0.28515625,4.148698403601129e-05,2.829266572518502e-05,3.2205463569085226e-05,3.2205463569085226e-05,4.2,3.6
0.2890625,4.0516367516594194e-05,3.660356967269398e-05,3.563295315327688e-05,3.172015530937667e-05,4.2,3.6
0.29296875,3.3661388348210884e-05,3.563295315327688e-05,3.514764489356832e-05,2.489550790722515e-05,4.2,3.6
0.296875,3.611826141298543e-05,1.6584603959716185e-05,3.708887793240254e-05,2.0982710063324944e-05,4.2,3.6
0.30078125,3.514764489356832e-05,1.1215881336690323e-05,4.0516367516594194e-05,2.880830575112536e-05,4.2,3.6
0.3046875,3.3661388348210884e-05,2.6351432686350808e-05,3.2690771828793776e-05,2.7807357465476466e-05,4.2,3.6
0.30859375,3.611826141298543e-05,3.3661388348210884e-05,2.829266572518502e-05,2.9778922270542466e-05,4.2,3.6
0.3125,3.757418619211109e-05,2.1468018323033498e-05,3.611826141298543e-05,3.3661388348210884e-05,4.2,3.6
0.31640625,3.9545750997177086e-05,1.8525836998550394e-05,3.757418619211109e-05,3.4177028374151215e-05,4.2,3.6
0.3203125,3.85448027115282e-05,2.5866124426642258e-05,3.466233663385977e-05,3.3176080088502327e-05,4.2,3.6
0.32421875,3.563295315327688e-05,3.757418619211109e-05,4.0031059256885636e-05,2.880830575112536e-05,4.2,3.6
0.328125,3.8059494451819647e-05,3.514764489356832e-05,3.9545750997177086e-05,3.611826141298543e-05,4.2,3.6
0.33203125,3.514764489356832e-05,2.7807357465476466e-05,3.9060442737468535e-05,4.0031059256885636e-05,4.2,3.6
0.3359375,3.3661388348210884e-05,2.3924891387808045e-05,3.85448027115282e-05,3.708887793240254e-05,4.2,3.6
0.33984375,3.3176080088502327e-05,2.0982710063324944e-05,3.172015530937667e-05,4.148698403601129e-05,4.2,3.6
0.34375,2.7807357465476466e-05,2.880830575112536e-05,5.028319624322881e-05,4.0516367516594194e-05,4.2,3.6
0.34765625,3.466233663385977e-05,5.8563768424505993e-05,7.861306590371558e-05,3.3176080088502327e-05,4.2,3.6
0.3515625,4.0031059256885636e-05,5.270973754177157e-05,5.371068582742047e-05,2.7322049205767912e-05,4.2,3.6
0.35546875,4.979788798352026e-05,1.9041477024490736e-05,2.2923943102159157e-05,3.2205463569085226e-05,4.2,3.6
0.359375,5.516661060654612e-05,2.9293614010833912e-05,2.0497401803616394e-05,4.2457600555428396e-05,4.2,3.6
0.36328125,4.685570665903716e-05,3.611826141298543e-05,2.489550790722515e-05,3.514764489356832e-05,4.2,3.6
0.3671875,4.7826323178454266e-05,3.466233663385977e-05,2.7807357465476466e-05,2.9778922270542466e-05,4.2,3.6
0.37109375,5.319504580148012e-05,3.9060442737468535e-05,1.6584603959716185e-05,3.466233663385977e-05,4.2,3.6
0.375,5.8078460164797436e-05,2.001209354390784e-05,1.561398744029908e-05,3.563295315327688e-05,4.2,3.6
0.37890625,5.516661060654612e-05,1.1215881336690323e-05,2.0982710063324944e-05,2.829266572518502e-05,4.2,3.6
0.3828125,4.394385710078584e-05,-8.772752610055689e-06,1.8525836998550394e-05,2.1468018323033498e-05,4.2,3.6
0.38671875,4.53997818799115e-05,-1.1229625674830238e-05,1.1701189596398875e-05,2.1468018323033498e-05,4.2,3.6
0.390625,5.468130234683757e-05,3.905925674830248e-06,1.073057307698177e-05,2.44101996475166e-05,4.2,3.6
0.39453125,5.662253538567178e-05,1.4158062661173424e-05,1.706991221942474e-05,2.2438634842450603e-05,4.2,3.6
0.3984375,5.7107843645380335e-05,1.8040528738841847e-05,1.8040528738841847e-05,2.2438634842450603e-05,4.2,3.6
0.40234375,5.270973754177157e-05,1.0245264817273217e-05,2.3924891387808045e-05,2.7807357465476466e-05,4.2,3.6
0.40625,4.979788798352026e-05,2.5866124426642258e-05,3.4177028374151215e-05,2.195332658274205e-05,4.2,3.6
0.41015625,4.831163143816282e-05,1.4643370920881978e-05,1.4158062661173424e-05,1.561398744029908e-05,4.2,3.6
0.4140625,4.831163143816282e-05,1.2671806115815981e-05,1.8040528738841847e-05,1.9526785284199286e-05,4.2,3.6
0.41796875,5.028319624322881e-05,1.9526785284199286e-05,3.026423053025101e-05,2.1468018323033498e-05,4.2,3.6
0.421875,5.0768504502937364e-05,2.683674094605936e-05,3.172015530937667e-05,1.9526785284199286e-05,4.2,3.6
0.42578125,5.613722712596323e-05,3.2690771828793776e-05,2.5866124426642258e-05,2.683674094605936e-05,4.2,3.6
0.4296875,4.8827271464103155e-05,2.340925136186771e-05,2.904977389181358e-06,2.5380816166933704e-05,4.2,3.6
0.43359375,3.611826141298543e-05,3.2690771828793776e-05,1.2671806115815981e-05,1.9041477024490736e-05,4.2,3.6
0.4375,3.708887793240254e-05,3.85448027115282e-05,1.6584603959716185e-05,2.44101996475166e-05,4.2,3.6
0.44140625,3.708887793240254e-05,3.85448027115282e-05,1.4643370920881978e-05,1.9041477024490736e-05,4.2,3.6
0.4453125,3.563295315327688e-05,3.2205463569085226e-05,1.9526785284199286e-05,8.759008271915774e-06,4.2,3.6
0.44921875,3.4177028374151215e-05,3.123484704966812e-05,2.340925136186771e-05,1.2671806115815981e-05,4.2,3.6
0.453125,3.466233663385977e-05,4.442916536049439e-05,3.708887793240254e-05,2.0982710063324944e-05,4.2,3.6
0.45703125,3.708887793240254e-05,4.53997818799115e-05,3.611826141298543e-05,2.3924891387808045e-05,4.2,3.6
0.4609375,3.563295315327688e-05,4.53997818799115e-05,3.660356967269398e-05,2.5380816166933704e-05,4.2,3.6
0.46484375,3.3176080088502327e-05,5.0768504502937364e-05,3.660356967269398e-05,2.5866124426642258e-05,4.2,3.6
0.46875,3.026423053025101e-05,6.24765662684062e-05,3.2690771828793776e-05,3.074953878995957e-05,4.2,3.6
0.47265625,3.172015530937667e-05,4.831163143816282e-05,2.7807357465476466e-05,3.4177028374151215e-05,4.2,3.6
0.4765625,3.172015530937667e-05,2.7322049205767912e-05,2.44101996475166e-05,2.9778922270542466e-05,4.2,3.6
0.48046875,3.026423053025101e-05,4.0516367516594194e-05,3.3661388348210884e-05,2.5866124426642258e-05,4.2,3.6
0.484375,3.3176080088502327e-05,4.588509013962005e-05,2.9293614010833912e-05,2.44101996475166e-05,4.2,3.6
0.48828125,3.3176080088502327e-05,4.2457600555428396e-05,2.195332658274205e-05,2.5866124426642258e-05,4.2,3.6
0.4921875,3.3176080088502327e-05,5.173912102235447e-05,3.563295315327688e-05,3.514764489356832e-05,4.2,3.6
0.49609375,3.3661388348210884e-05,5.270973754177157e-05,3.026423053025101e-05,3.514764489356832e-05,4.2,3.6
0.5,3.172015530937667e-05,2.9293614010833912e-05,2.3924891387808045e-05,2.6351432686350808e-05,4.2,3.6
0.50390625,3.2205463569085226e-05,4.0516367516594194e-05,3.123484704966812e-05,2.683674094605936e-05,4.2,3.6
0.5078125,3.708887793240254e-05,5.270973754177157e-05,2.7807357465476466e-05,2.880830575112536e-05,4.2,3.6
0.51171875,3.3176080088502327e-05,2.2923943102159157e-05,1.4158062661173424e-05,2.5866124426642258e-05,4.2,3.6
0.515625,2.683674094605936e-05,4.491447362020294e-05,4.784360906385946e-07,2.0982710063324944e-05,4.2,3.6
0.51953125,2.7322049205767912e-05,4.491447362020294e-05,1.8525836998550394e-05,2.3924891387808045e-05,4.2,3.6
0.5234375,3.172015530937667e-05,3.708887793240254e-05,3.074953878995957e-05,3.2690771828793776e-05,4.2,3.6
0.52734375,3.123484704966812e-05,4.8827271464103155e-05,3.757418619211109e-05,3.3176080088502327e-05,4.2,3.6
0.53125,3.074953878995957e-05,4.637039839932861e-05,3.466233663385977e-05,3.026423053025101e-05,4.2,3.6
0.53515625,3.514764489356832e-05,6.590405585259784e-05,3.563295315327688e-05,3.563295315327688e-05,4.2,3.6
0.5390625,3.9060442737468535e-05,6.34471827878233e-05,4.9312579723811705e-05,4.394385710078584e-05,4.2,3.6
0.54296875,4.0516367516594194e-05,3.9545750997177086e-05,4.0516367516594194e-05,4.637039839932861e-05,4.2,3.6
0.546875,3.660356967269398e-05,5.468130234683757e-05,3.660356967269398e-05,3.074953878995957e-05,4.2,3.6
0.55078125,3.026423053025101e-05,5.028319624322881e-05,3.9545750997177086e-05,3.074953878995957e-05,4.2,3.6
0.5546875,2.195332658274205e-05,3.563295315327688e-05,4.1001675776302744e-05,3.563295315327688e-05,4.2,3.6
0.55859375,2.829266572518502e-05,4.1972292295719845e-05,4.0516367516594194e-05,3.3176080088502327e-05,4.2,3.6
0.5625,2.9778922270542466e-05,5.173912102235447e-05,4.831163143816282e-05,3.563295315327688e-05,4.2,3.6
0.56640625,2.5380816166933704e-05,3.563295315327688e-05,5.222442928206303e-05,3.2690771828793776e-05,4.2,3.6
0.5703125,2.9293614010833912e-05,2.6351432686350808e-05,4.442916536049439e-05,3.026423053025101e-05,4.2,3.6
0.57421875,3.3176080088502327e-05,4.7826323178454266e-05,4.394385710078584e-05,3.466233663385977e-05,4.2,3.6
0.578125,3.514764489356832e-05,4.685570665903716e-05,3.172015530937667e-05,3.2690771828793776e-05,4.2,3.6
0.58203125,3.466233663385977e-05,4.491447362020294e-05,4.685570665903716e-05,3.514764489356832e-05,4.2,3.6
0.5859375,3.563295315327688e-05,3.8059494451819647e-05,6.199125800869764e-05,3.3176080088502327e-05,4.2,3.6
0.58984375,3.563295315327688e-05,3.9060442737468535e-05,4.8827271464103155e-05,3.3661388348210884e-05,4.2,3.6
0.59375,2.9778922270542466e-05,4.637039839932861e-05,5.125381276264592e-05,4.3428217074845503e-05,4.2,3.6
0.59765625,2.6351432686350808e-05,3.660356967269398e-05,4.734101491874571e-05,3.9545750997177086e-05,4.2,3.6
0.6015625,3.4177028374151215e-05,2.2923943102159157e-05,4.0031059256885636e-05,3.466233663385977e-05,4.2,3.6
0.60546875,3.660356967269398e-05,3.074953878995957e-05,4.1972292295719845e-05,3.611826141298543e-05,4.2,3.6
0.609375,3.172015530937667e-05,3.123484704966812e-05,3.660356967269398e-05,3.563295315327688e-05,4.2,3.6
0.61328125,3.123484704966812e-05,2.0982710063324944e-05,3.3661388348210884e-05,3.514764489356832e-05,4.2,3.6
0.6171875,2.9293614010833912e-05,1.6584603959716185e-05,3.611826141298543e-05,3.514764489356832e-05,4.2,3.6
0.62109375,2.829266572518502e-05,2.2438634842450603e-05,4.0516367516594194e-05,3.757418619211109e-05,4.2,3.6
0.625,3.026423053025101e-05,2.3924891387808045e-05,3.4177028374151215e-05,3.9060442737468535e-05,4.2,3.6
0.62890625,3.4177028374151215e-05,3.026423053025101e-05,3.123484704966812e-05,3.563295315327688e-05,4.2,3.6
0.6328125,3.466233663385977e-05,3.757418619211109e-05,3.9545750997177086e-05,3.708887793240254e-05,4.2,3.6
0.63671875,3.3176080088502327e-05,1.706991221942474e-05,3.2205463569085226e-05,3.9060442737468535e-05,4.2,3.6
0.640625,3.611826141298543e-05,2.2438634842450603e-05,2.683674094605936e-05,3.757418619211109e-05,4.2,3.6
0.64453125,3.708887793240254e-05,3.026423053025101e-05,2.683674094605936e-05,3.2690771828793776e-05,4.2,3.6
0.6484375,3.563295315327688e-05,2.9293614010833912e-05,3.466233663385977e-05,4.1001675776302744e-05,4.2,3.6
0.65234375,3.2690771828793776e-05,2.880830575112536e-05,3.660356967269398e-05,4.148698403601129e-05,4.2,3.6
0.65625,2.9778922270542466e-05,2.7322049205767912e-05,2.6351432686350808e-05,3.9545750997177086e-05,4.2,3.6
0.66015625,3.563295315327688e-05,3.3176080088502327e-05,2.5866124426642258e-05,3.611826141298543e-05,4.2,3.6
0.6640625,3.3176080088502327e-05,3.4177028374151215e-05,3.3176080088502327e-05,3.2690771828793776e-05,4.2,3.6
0.66796875,2.9293614010833912e-05,2.3924891387808045e-05,3.85448027115282e-05,3.466233663385977e-05,4.2,3.6
0.671875,3.4177028374151215e-05,2.44101996475166e-05,4.1972292295719845e-05,3.466233663385977e-05,4.2,3.6
0.67578125,3.172015530937667e-05,2.195332658274205e-05,4.0516367516594194e-05,3.9545750997177086e-05,4.2,3.6
0.6796875,3.026423053025101e-05,2.2438634842450603e-05,2.7322049205767912e-05,3.8059494451819647e-05,4.2,3.6
0.68359375,3.563295315327688e-05,3.563295315327688e-05,2.1468018323033498e-05,3.3661388348210884e-05,4.2,3.6
0.6875,3.8059494451819647e-05,2.880830575112536e-05,2.2923943102159157e-05,3.2690771828793776e-05,4.2,3.6
0.69140625,3.2205463569085226e-05,2.6351432686350808e-05,2.880830575112536e-05,3.611826141298543e-05,4.2,3.6
0.6953125,2.829266572518502e-05,2.9293614010833912e-05,2.880830575112536e-05,3.708887793240254e-05,4.2,3.6
0.69921875,3.2690771828793776e-05,4.8827271464103155e-05,2.2438634842450603e-05,3.3661388348210884e-05,4.2,3.6
0.703125,3.2205463569085226e-05,3.708887793240254e-05,2.340925136186771e-05,3.123484704966812e-05,4.2,3.6
0.70703125,3.2690771828793776e-05,2.2923943102159157e-05,2.5380816166933704e-05,3.172015530937667e-05,4.2,3.6
0.7109375,3.2690771828793776e-05,3.563295315327688e-05,1.706991221942474e-05,2.9778922270542466e-05,4.2,3.6
0.71484375,3.123484704966812e-05,2.9778922270542466e-05,2.0982710063324944e-05,2.3924891387808045e-05,4.2,3.6
0.71875,3.2205463569085226e-05,1.5128679180590527e-05,3.172015530937667e-05,2.880830575112536e-05,4.2,3.6
0.72265625,2.9778922270542466e-05,5.361850453955906e-06,2.7807357465476466e-05,3.3661388348210884e-05,4.2,3.6
0.7265625,3.123484704966812e-05,9.759956557564665e-06,2.195332658274205e-05,2.880830575112536e-05,4.2,3.6
0.73046875,3.026423053025101e-05,1.6099295700007635e-05,2.1468018323033498e-05,2.880830575112536e-05,4.2,3.6
0.734375,3.3176080088502327e-05,1.6584603959716185e-05,2.44101996475166e-05,3.2205463569085226e-05,4.2,3.6
0.73828125,3.2690771828793776e-05,1.7555220479133293e-05,2.489550790722515e-05,2.880830575112536e-05,4.2,3.6
0.7421875,3.123484704966812e-05,1.8525836998550394e-05,2.5866124426642258e-05,2.6351432686350808e-05,4.2,3.6
0.74609375,3.563295315327688e-05,1.6099295700007635e-05,2.001209354390784e-05,2.44101996475166e-05,4.2,3.6
0.75,3.708887793240254e-05,2.0497401803616394e-05,1.3157114375524532e-05,2.7322049205767912e-05,4.2,3.6
0.75390625,3.757418619211109e-05,1.706991221942474e-05,1.6584603959716185e-05,2.9778922270542466e-05,4.2,3.6
0.7578125,3.660356967269398e-05,1.7555220479133293e-05,2.6351432686350808e-05,2.880830575112536e-05,4.2,3.6
0.76171875,4.1001675776302744e-05,2.001209354390784e-05,2.829266572518502e-05,3.123484704966812e-05,4.2,3.6
0.765625,4.2457600555428396e-05,1.073057307698177e-05,1.8040528738841847e-05,2.880830575112536e-05,4.2,3.6
0.76953125,3.172015530937667e-05,1.3642422635233084e-05,1.1701189596398875e-05,3.2205463569085226e-05,4.2,3.6
0.7734375,2.829266572518502e-05,2.44101996475166e-05,1.561398744029908e-05,3.757418619211109e-05,4.2,3.6
0.77734375,2.9293614010833912e-05,1.7555220479133293e-05,1.2671806115815981e-05,3.3176080088502327e-05,4.2,3.6
0.78125,2.683674094605936e-05,1.8525836998550394e-05,1.0245264817273217e-05,2.9778922270542466e-05,4.2,3.6
0.78515625,2.5866124426642258e-05,2.489550790722515e-05,2.001209354390784e-05,3.2690771828793776e-05,4.2,3.6
0.7890625,3.4177028374151215e-05,1.6584603959716185e-05,2.3924891387808045e-05,3.026423053025101e-05,4.2,3.6
0.79296875,3.757418619211109e-05,1.561398744029908e-05,2.6351432686350808e-05,2.829266572518502e-05,4.2,3.6
0.796875,2.7807357465476466e-05,2.0497401803616394e-05,2.9293614010833912e-05,3.563295315327688e-05,4.2,3.6
0.80078125,3.2205463569085226e-05,3.8059494451819647e-05,3.3661388348210884e-05,3.708887793240254e-05,4.2,3.6
0.8046875,3.708887793240254e-05,3.3661388348210884e-05,2.340925136186771e-05,2.9778922270542466e-05,4.2,3.6
0.80859375,3.172015530937667e-05,1.8040528738841847e-05,1.6099295700007635e-05,2.5380816166933704e-05,4.2,3.6
0.8125,3.172015530937667e-05,1.6099295700007635e-05,1.7555220479133293e-05,2.829266572518502e-05,4.2,3.6
0.81640625,3.3176080088502327e-05,1.8040528738841847e-05,2.0497401803616394e-05,3.3176080088502327e-05,4.2,3.6
0.8203125,3.514764489356832e-05,1.9041477024490736e-05,2.0497401803616394e-05,3.026423053025101e-05,4.2,3.6
0.82421875,3.3661388348210884e-05,1.1701189596398875e-05,1.561398744029908e-05,3.172015530937667e-05,4.2,3.6
0.828125,3.466233663385977e-05,1.3157114375524532e-05,1.2671806115815981e-05,2.9778922270542466e-05,4.2,3.6
0.83203125,3.3176080088502327e-05,2.489550790722515e-05,2.3924891387808045e-05,2.6351432686350808e-05,4.2,3.6
0.8359375,3.026423053025101e-05,2.829266572518502e-05,2.7322049205767912e-05,3.074953878995957e-05,4.2,3.6
0.83984375,3.708887793240254e-05,2.2438634842450603e-05,2.195332658274205e-05,3.85448027115282e-05,4.2,3.6
0.84375,3.708887793240254e-05,1.073057307698177e-05,1.8040528738841847e-05,3.611826141298543e-05,4.2,3.6
0.84765625,3.074953878995957e-05,9.274648297856113e-06,1.7555220479133293e-05,2.9778922270542466e-05,4.2,3.6
0.8515625,2.683674094605936e-05,1.9526785284199286e-05,2.489550790722515e-05,2.9778922270542466e-05,4.2,3.6
0.85546875,3.026423053025101e-05,1.2186497856107427e-05,2.489550790722515e-05,3.026423053025101e-05,4.2,3.6
0.859375,3.757418619211109e-05,1.073057307698177e-05,2.0497401803616394e-05,3.172015530937667e-05,4.2,3.6
0.86328125,3.466233663385977e-05,2.489550790722515e-05,2.2438634842450603e-05,3.123484704966812e-05,4.2,3.6
0.8671875,3.3176080088502327e-05,2.340925136186771e-05,3.172015530937667e-05,3.172015530937667e-05,4.2,3.6
0.87109375,3.660356967269398e-05,2.1468018323033498e-05,2.829266572518502e-05,3.3661388348210884e-05,4.2,3.6
0.875,3.466233663385977e-05,1.9526785284199286e-05,1.8040528738841847e-05,3.611826141298543e-05,4.2,3.6
0.87890625,2.880830575112536e-05,8.759008271915774e-06,1.3642422635233084e-05,3.2690771828793776e-05,4.2,3.6
0.8828125,2.7807357465476466e-05,1.2186497856107427e-05,2.001209354390784e-05,3.466233663385977e-05,4.2,3.6
0.88671875,2.9778922270542466e-05,1.6584603959716185e-05,3.026423053025101e-05,3.466233663385977e-05,4.2,3.6
0.890625,2.9293614010833912e-05,1.6584603959716185e-05,2.9293614010833912e-05,2.9293614010833912e-05,4.2,3.6
0.89453125,3.3176080088502327e-05,1.9526785284199286e-05,2.6351432686350808e-05,3.074953878995957e-05,4.2,3.6
0.8984375,3.123484704966812e-05,2.2923943102159157e-05,2.880830575112536e-05,3.172015530937667e-05,4.2,3.6
0.90234375,3.123484704966812e-05,2.7322049205767912e-05,2.829266572518502e-05,2.7807357465476466e-05,4.2,3.6
0.90625,3.3176080088502327e-05,2.340925136186771e-05,2.683674094605936e-05,2.683674094605936e-05,4.2,3.6
0.91015625,3.4177028374151215e-05,2.001209354390784e-05,2.6351432686350808e-05,3.2205463569085226e-05,4.2,3.6
0.9140625,4.1001675776302744e-05,2.340925136186771e-05,2.7807357465476466e-05,3.466233663385977e-05,4.2,3.6
0.91796875,3.514764489356832e-05,1.561398744029908e-05,2.683674094605936e-05,3.3176080088502327e-05,4.2,3.6
0.921875,3.074953878995957e-05,1.4643370920881978e-05,2.3924891387808045e-05,3.2205463569085226e-05,4.2,3.6
0.92578125,3.3176080088502327e-05,1.8525836998550394e-05,2.0497401803616394e-05,3.2690771828793776e-05,4.2,3.6
0.9296875,2.9778922270542466e-05,8.759008271915774e-06,1.6099295700007635e-05,3.4177028374151215e-05,4.2,3.6
0.93359375,2.9293614010833912e-05,7.303083492790117e-06,2.0497401803616394e-05,3.757418619211109e-05,4.2,3.6
0.9375,3.3661388348210884e-05,1.8525836998550394e-05,2.5380816166933704e-05,4.0031059256885636e-05,4.2,3.6
0.94140625,3.3176080088502327e-05,2.0497401803616394e-05,1.9526785284199286e-05,3.514764489356832e-05,4.2,3.6
0.9453125,3.074953878995957e-05,2.001209354390784e-05,2.3924891387808045e-05,3.026423053025101e-05,4.2,3.6
0.94921875,3.026423053025101e-05,1.8040528738841847e-05,4.148698403601129e-05,3.757418619211109e-05,4.2,3.6
0.953125,3.026423053025101e-05,2.7807357465476466e-05,3.708887793240254e-05,3.611826141298543e-05,4.2,3.6
0.95703125,3.3661388348210884e-05,3.660356967269398e-05,3.8059494451819647e-05,2.9778922270542466e-05,4.2,3.6
0.9609375,3.85448027115282e-05,2.2438634842450603e-05,4.3428217074845503e-05,3.466233663385977e-05,4.2,3.6
0.96484375,3.466233663385977e-05,1.6099295700007635e-05,3.611826141298543e-05,3.3661388348210884e-05,4.2,3.6
0.96875,3.026423053025101e-05,2.7322049205767912e-05,4.148698403601129e-05,2.9778922270542466e-05,4.2,3.6
0.97265625,3.4177028374151215e-05,3.123484704966812e-05,4.442916536049439e-05,3.2205463569085226e-05,4.2,3.6
0.9765625,3.514764489356832e-05,2.9778922270542466e-05,3.466233663385977e-05,3.2205463569085226e-05,4.2,3.6
0.98046875,3.4177028374151215e-05,3.2690771828793776e-05,3.9545750997177086e-05,2.7807357465476466e-05,4.2,3.6
0.984375,3.4177028374151215e-05,3.123484704966812e-05,4.3428217074845503e-05,3.3661388348210884e-05,4.2,3.6
0.98828125,3.611826141298543e-05,3.3176080088502327e-05,3.708887793240254e-05,3.9060442737468535e-05,4.2,3.6
0.9921875,3.563295315327688e-05,3.660356967269398e-05,3.708887793240254e-05,3.123484704966812e-05,4.2,3.6
0.99609375,3.074953878995957e-05,2.829266572518502e-05,4.1001675776302744e-05,2.880830575112536e-05,4.2,3.6
1.0,3.074953878995957e-05,3.172015530937667e-05,4.0031059256885636e-05,2.9778922270542466e-05,4.2,3.6
1.00390625,3.514764489356832e-05,2.5380816166933704e-05,3.708887793240254e-05,2.5866124426642258e-05,4.2,3.6
1.0078125,3.563295315327688e-05,2.5866124426642258e-05,4.148698403601129e-05,2.44101996475166e-05,4.2,3.6
1.01171875,3.563295315327688e-05,3.8059494451819647e-05,3.9060442737468535e-05,2.5380816166933704e-05,4.2,3.6
1.015625,3.3176080088502327e-05,3.660356967269398e-05,3.563295315327688e-05,2.9778922270542466e-05,4.2,3.6
1.01953125,3.466233663385977e-05,3.2205463569085226e-05,2.880830575112536e-05,3.026423053025101e-05,4.2,3.6
1.0234375,3.9060442737468535e-05,3.708887793240254e-05,2.195332658274205e-05,2.683674094605936e-05,4.2,3.6
1.02734375,3.8059494451819647e-05,3.3176080088502327e-05,2.9778922270542466e-05,2.829266572518502e-05,4.2,3.6
1.03125,3.2690771828793776e-05,2.9778922270542466e-05,3.660356967269398e-05,3.074953878995957e-05,4.2,3.6
1.03515625,3.074953878995957e-05,3.660356967269398e-05,3.514764489356832e-05,3.2205463569085226e-05,4.2,3.6
1.0390625,3.514764489356832e-05,3.3661388348210884e-05,3.3176080088502327e-05,3.2205463569085226e-05,4.2,3.6
1.04296875,3.563295315327688e-05,3.2205463569085226e-05,3.3661388348210884e-05,3.3176080088502327e-05,4.2,3.6
1.046875,3.074953878995957e-05,3.466233663385977e-05,3.3661388348210884e-05,3.466233663385977e-05,4.2,3.6
1.05078125,3.660356967269398e-05,3.9060442737468535e-05,2.5866124426642258e-05,3.4177028374151215e-05,4.2,3.6
1.0546875,3.9060442737468535e-05,3.123484704966812e-05,2.5380816166933704e-05,3.466233663385977e-05,4.2,3.6
1.05859375,3.172015530937667e-05,2.195332658274205e-05,2.7807357465476466e-05,2.683674094605936e-05,4.2,3.6
1.0625,3.2690771828793776e-05,3.563295315327688e-05,2.7322049205767912e-05,2.5866124426642258e-05,4.2,3.6
1.06640625,3.2690771828793776e-05,3.8059494451819647e-05,3.2205463569085226e-05,3.074953878995957e-05,4.2,3.6
1.0703125,3.2690771828793776e-05,3.172015530937667e-05,2.7322049205767912e-05,2.829266572518502e-05,4.2,3.6
1.07421875,3.466233663385977e-05,3.026423053025101e-05,2.7807357465476466e-05,2.9293614010833912e-05,4.2,3.6
1.078125,3.611826141298543e-05,2.9293614010833912e-05,2.7322049205767912e-05,2.880830575112536e-05,4.2,3.6
1.08203125,4.0516367516594194e-05,3.2205463569085226e-05,1.9526785284199286e-05,2.3924891387808045e-05,4.2,3.6
1.0859375,4.148698403601129e-05,3.3661388348210884e-05,2.340925136186771e-05,2.9293614010833912e-05,4.2,3.6
1.08984375,4.1001675776302744e-05,3.611826141298543e-05,2.3924891387808045e-05,3.611826141298543e-05,4.2,3.6
1.09375,3.8059494451819647e-05,4.491447362020294e-05,1.9041477024490736e-05,3.2205463569085226e-05,4.2,3.6
1.09765625,3.466233663385977e-05,4.831163143816282e-05,2.195332658274205e-05,2.340925136186771e-05,4.2,3.6
1.1015625,3.466233663385977e-05,3.660356967269398e-05,2.2923943102159157e-05,1.9526785284199286e-05,4.2,3.6
1.10546875,3.123484704966812e-05,2.7807357465476466e-05,2.1468018323033498e-05,2.340925136186771e-05,4.2,3.6
1.109375,2.9293614010833912e-05,2.9293614010833912e-05,2.3924891387808045e-05,2.5866124426642258e-05,4.2,3.6
1.11328125,3.563295315327688e-05,3.172015530937667e-05,2.7807357465476466e-05,3.2205463569085226e-05,4.2,3.6
1.1171875,3.514764489356832e-05,3.3661388348210884e-05,3.3661388348210884e-05,3.172015530937667e-05,4.2,3.6
1.12109375,3.172015530937667e-05,3.2690771828793776e-05,3.4177028374151215e-05,2.7322049205767912e-05,4.2,3.6
1.125,2.9778922270542466e-05,3.026423053025101e-05,3.123484704966812e-05,2.7807357465476466e-05,4.2,3.6
1.12890625,3.172015530937667e-05,3.172015530937667e-05,2.2923943102159157e-05,2.9293614010833912e-05,4.2,3.6
1.1328125,3.4177028374151215e-05,2.2438634842450603e-05,1.7555220479133293e-05,2.880830575112536e-05,4.2,3.6
1.13671875,3.466233663385977e-05,2.7807357465476466e-05,1.706991221942474e-05,2.7807357465476466e-05,4.2,3.6
1.140625,3.708887793240254e-05,3.123484704966812e-05,2.195332658274205e-05,2.9293614010833912e-05,4.2,3.6
1.14453125,3.172015530937667e-05,1.073057307698177e-05,2.880830575112536e-05,3.172015530937667e-05,4.2,3.6
1.1484375,2.880830575112536e-05,9.274648297856113e-06,2.44101996475166e-05,3.123484704966812e-05,4.2,3.6
1.15234375,3.026423053025101e-05,1.0245264817273217e-05,9.759956557564665e-06,2.9293614010833912e-05,4.2,3.6
1.15625,2.829266572518502e-05,8.273700012207222e-06,5.361850453955906e-06,2.880830575112536e-05,4.2,3.6
1.16015625,3.123484704966812e-05,6.817775233081564e-06,5.361850453955906e-06,3.074953878995957e-05,4.2,3.6
1.1640625,3.2205463569085226e-05,9.274648297856113e-06,1.4490526100557001e-06,3.172015530937667e-05,4.2,3.6
1.16796875,3.026423053025101e-05,9.274648297856113e-06,5.847158713664459e-06,3.2690771828793776e-05,4.2,3.6
1.171875,2.9778922270542466e-05,-2.949053493553058e-06,1.934360869764253e-06,3.2205463569085226e-05,4.2,3.6
1.17578125,2.7807357465476466e-05,-5.8305712855725905e-06,-1.2685550453955896e-05,2.0497401803616394e-05,4.2,3.6
1.1796875,2.2923943102159157e-05,-4.8599547661554836e-06,-1.9510197856107418e-05,1.7555220479133293e-05,4.2,3.6
1.18359375,2.5380816166933704e-05,-7.802136090638585e-06,-2.2937687440299073e-05,2.340925136186771e-05,4.2,3.6
1.1875,2.3924891387808045e-05,-4.374646506446931e-06,-1.9024889596398864e-05,2.6351432686350808e-05,4.2,3.6
1.19140625,1.9526785284199286e-05,-1.2200242194247344e-05,-1.9024889596398864e-05,2.2438634842450603e-05,4.2,3.6
1.1953125,2.0497401803616394e-05,-1.999550611581597e-05,-2.7821101803616383e-05,1.8525836998550394e-05,4.2,3.6
1.19921875,2.0982710063324944e-05,-1.853958133669031e-05,-2.6365177024490724e-05,1.7555220479133293e-05,4.2,3.6
1.203125,2.0982710063324944e-05,-1.3656166973373002e-05,-2.733579354390783e-05,1.561398744029908e-05,4.2,3.6
1.20703125,2.0982710063324944e-05,-1.9510197856107418e-05,-3.6132005751125344e-05,1.706991221942474e-05,4.2,3.6
1.2109375,1.9041477024490736e-05,-2.6850485284199275e-05,-3.36751326863508e-05,1.9526785284199286e-05,4.2,3.6
1.21484375,2.2923943102159157e-05,-1.5112091752498659e-05,-2.733579354390783e-05,2.001209354390784e-05,4.2,3.6
1.21875,2.340925136186771e-05,-2.1967070920881965e-05,-3.07329513618677e-05,2.2923943102159157e-05,4.2,3.6
1.22265625,1.7555220479133293e-05,-2.3422995700007623e-05,-3.124859138780804e-05,2.2438634842450603e-05,4.2,3.6
1.2265625,1.9526785284199286e-05,-1.1229625674830238e-05,-2.2937687440299073e-05,2.44101996475166e-05,4.2,3.6
1.23046875,2.2923943102159157e-05,-1.65983482978561e-05,-1.9510197856107418e-05,2.5380816166933704e-05,4.2,3.6
1.234375,2.2438634842450603e-05,-1.2685550453955896e-05,-1.999550611581597e-05,2.340925136186771e-05,4.2,3.6
1.23828125,2.1468018323033498e-05,-1.756896481727321e-05,-2.0966122635233076e-05,2.1468018323033498e-05,4.2,3.6
1.2421875,2.2923943102159157e-05,-2.4878920479133282e-05,-1.2200242194247344e-05,1.9526785284199286e-05,4.2,3.6
1.24609375,2.489550790722515e-05,-1.2200242194247344e-05,-1.4931287144274002e-06,2.340925136186771e-05,4.2,3.6
1.25,2.489550790722515e-05,-1.1714933934538792e-05,-2.4637452338445057e-06,2.683674094605936e-05,4.2,3.6
1.25390625,2.683674094605936e-05,-1.1229625674830238e-05,-1.2200242194247344e-05,2.5380816166933704e-05,4.2,3.6
1.2578125,2.683674094605936e-05,-6.831519571221479e-06,-1.0228677389181349e-05,2.5866124426642258e-05,4.2,3.6
1.26171875,2.829266572518502e-05,-6.872169069957578e-09,-3.889338246738379e-06,2.683674094605936e-05,4.2,3.6
1.265625,2.9778922270542466e-05,-2.949053493553058e-06,-7.316827830930032e-06,2.5866124426642258e-05,4.2,3.6
1.26953125,2.44101996475166e-05,-1.5112091752498659e-05,-3.889338246738379e-06,2.5380816166933704e-05,4.2,3.6
1.2734375,2.195332658274205e-05,-1.9510197856107418e-05,-1.4141475233081553e-05,2.3924891387808045e-05,4.2,3.6
1.27734375,2.683674094605936e-05,-1.7083656557564655e-05,-1.9024889596398864e-05,3.026423053025101e-05,4.2,3.6
1.28125,2.7322049205767912e-05,-8.287444350347137e-06,-9.743369129472797e-06,3.3661388348210884e-05,4.2,3.6
1.28515625,2.44101996475166e-05,-1.3170858713664448e-05,-1.2685550453955896e-05,2.9778922270542466e-05,4.2,3.6
1.2890625,2.7322049205767912e-05,-1.5112091752498659e-05,-1.4141475233081553e-05,3.123484704966812e-05,4.2,3.6
1.29296875,2.9293614010833912e-05,-1.4626783492790107e-05,-1.1229625674830238e-05,2.9293614010833912e-05,4.2,3.6
1.296875,2.5380816166933704e-05,-1.1714933934538792e-05,-4.8599547661554836e-06,2.683674094605936e-05,4.2,3.6
1.30078125,2.489550790722515e-05,-5.8305712855725905e-06,-4.8599547661554836e-06,2.195332658274205e-05,4.2,3.6
1.3046875,2.5866124426642258e-05,-1.2685550453955896e-05,-7.316827830930032e-06,2.1468018323033498e-05,4.2,3.6
1.30859375,2.7322049205767912e-05,-1.4141475233081553e-05,9.63744350347148e-07,2.829266572518502e-05,4.2,3.6
1.3125,3.2205463569085226e-05,-1.4141475233081553e-05,4.8765421942473524e-06,3.514764489356832e-05,4.2,3.6
1.31640625,3.123484704966812e-05,-1.756896481727321e-05,-6.346211311512927e-06,3.466233663385977e-05,4.2,3.6
1.3203125,2.5866124426642258e-05,-1.1714933934538792e-05,-4.374646506446931e-06,2.7807357465476466e-05,4.2,3.6
1.32421875,2.5380816166933704e-05,-5.8305712855725905e-06,-4.921804287785103e-07,2.7807357465476466e-05,4.2,3.6
1.328125,2.9778922270542466e-05,-3.434361753261611e-06,-2.949053493553058e-06,3.2205463569085226e-05,4.2,3.6
1.33203125,2.9778922270542466e-05,-6.872169069957578e-09,3.390285648889911e-06,3.123484704966812e-05,4.2,3.6
1.3359375,2.829266572518502e-05,4.784360906385946e-07,6.332466973373011e-06,2.7807357465476466e-05,4.2,3.6
1.33984375,2.5866124426642258e-05,-1.4931287144274002e-06,3.390285648889911e-06,3.074953878995957e-05,4.2,3.6
1.34375,2.44101996475166e-05,-6.831519571221479e-06,1.2671806115815981e-05,3.123484704966812e-05,4.2,3.6
1.34765625,2.3924891387808045e-05,-5.345263025864037e-06,1.4158062661173424e-05,2.829266572518502e-05,4.2,3.6
1.3515625,2.5866124426642258e-05,1.934360869764253e-06,9.63744350347148e-07,2.5380816166933704e-05,4.2,3.6
1.35546875,2.880830575112536e-05,6.817775233081564e-06,5.847158713664459e-06,2.489550790722515e-05,4.2,3.6
1.359375,2.7807357465476466e-05,1.0245264817273217e-05,4.784360906385946e-07,2.7322049205767912e-05,4.2,3.6
1.36328125,3.3176080088502327e-05,1.5128679180590527e-05,4.391233934538801e-06,2.6351432686350808e-05,4.2,3.6
1.3671875,3.3176080088502327e-05,1.6584603959716185e-05,9.274648297856113e-06,2.5866124426642258e-05,4.2,3.6
1.37109375,2.9293614010833912e-05,1.4158062661173424e-05,1.3157114375524532e-05,2.683674094605936e-05,4.2,3.6
1.375,3.074953878995957e-05,7.303083492790117e-06,2.001209354390784e-05,2.5866124426642258e-05,4.2,3.6
1.37890625,3.123484704966812e-05,3.390285648889911e-06,1.1701189596398875e-05,2.9778922270542466e-05,4.2,3.6
1.3828125,2.9778922270542466e-05,5.361850453955906e-06,1.0245264817273217e-05,3.026423053025101e-05,4.2,3.6
1.38671875,2.9293614010833912e-05,3.905925674830248e-06,1.5128679180590527e-05,2.7322049205767912e-05,4.2,3.6
1.390625,2.9778922270542466e-05,1.5128679180590527e-05,2.2438634842450603e-05,2.9778922270542466e-05,4.2,3.6
1.39453125,2.7807357465476466e-05,1.8040528738841847e-05,1.2671806115815981e-05,2.5866124426642258e-05,4.2,3.6
1.3984375,2.6351432686350808e-05,1.8525836998550394e-05,7.303083492790117e-06,2.5380816166933704e-05,4.2,3.6
1.40234375,2.7807357465476466e-05,2.001209354390784e-05,1.5128679180590527e-05,2.683674094605936e-05,4.2,3.6
1.40625,3.026423053025101e-05,1.073057307698177e-05,1.073057307698177e-05,2.9293614010833912e-05,4.2,3.6
1.41015625,3.3176080088502327e-05,1.4158062661173424e-05,1.8525836998550394e-05,3.4177028374151215e-05,4.2,3.6
1.4140625,3.563295315327688e-05,9.274648297856113e-06,1.7555220479133293e-05,2.6351432686350808e-05,4.2,3.6
1.41796875,3.2205463569085226e-05,9.274648297856113e-06,1.073057307698177e-05,2.340925136186771e-05,4.2,3.6
1.421875,2.6351432686350808e-05,1.9526785284199286e-05,3.074953878995957e-05,2.7322049205767912e-05,4.2,3.6
1.42578125,2.683674094605936e-05,1.7555220479133293e-05,3.026423053025101e-05,2.340925136186771e-05,4.2,3.6
1.4296875,3.514764489356832e-05,1.0245264817273217e-05,1.2186497856107427e-05,2.44101996475166e-05,4.2,3.6
1.43359375,3.3176080088502327e-05,-9.77488688487063e-07,8.273700012207222e-06,3.2205463569085226e-05,4.2,3.6
1.4375,2.5866124426642258e-05,1.073057307698177e-05,2.0982710063324944e-05,1.8040528738841847e-05,4.2,3.6
1.44140625,2.2923943102159157e-05,5.125381276264592e-05,5.613722712596323e-05,2.2438634842450603e-05,4.2,3.6
1.4453125,2.2923943102159157e-05,2.1468018323033498e-05,2.9778922270542466e-05,4.588509013962005e-05,4.2,3.6
1.44921875,2.6351432686350808e-05,-2.3908303959716177e-05,-1.1714933934538792e-05,4.394385710078584e-05,4.2,3.6
1.453125,2.0982710063324944e-05,-5.8305712855725905e-06,1.2671806115815981e-05,4.3428217074845503e-05,4.2,3.6
1.45703125,1.9041477024490736e-05,-4.374646506446931e-06,4.391233934538801e-06,5.371068582742047e-05,4.2,3.6
1.4609375,2.44101996475166e-05,-1.3170858713664448e-05,-1.2685550453955896e-05,4.294290881513695e-05,4.2,3.6
1.46484375,2.3924891387808045e-05,-2.949053493553058e-06,6.332466973373011e-06,3.708887793240254e-05,4.2,3.6
1.46875,1.706991221942474e-05,-1.1714933934538792e-05,8.759008271915774e-06,5.9079408450446325e-05,4.2,3.6
1.47265625,1.4643370920881978e-05,-1.9024889596398864e-05,2.904977389181358e-06,6.833059715114062e-05,4.2,3.6
1.4765625,1.706991221942474e-05,-9.743369129472797e-06,1.7555220479133293e-05,5.0768504502937364e-05,4.2,3.6
1.48046875,1.2671806115815981e-05,-7.802136090638585e-06,1.2186497856107427e-05,5.516661060654612e-05,4.2,3.6
1.484375,1.1215881336690323e-05,-1.978436974135953e-06,-9.258060869764243e-06,6.54187475928893e-05,4.2,3.6
1.48828125,1.7555220479133293e-05,-9.258060869764243e-06,-2.4637452338445057e-06,4.0031059256885636e-05,4.2,3.6
1.4921875,2.1468018323033498e-05,-1.978436974135953e-06,6.332466973373011e-06,4.491447362020294e-05,4.2,3.6
1.49609375,1.561398744029908e-05,1.4490526100557001e-06,9.759956557564665e-06,5.8563768424505993e-05,4.2,3.6
1.5,1.8040528738841847e-05,6.332466973373011e-06,2.683674094605936e-05,3.9545750997177086e-05,4.2,3.6
1.50390625,1.7555220479133293e-05,5.361850453955906e-06,3.563295315327688e-05,3.757418619211109e-05,4.2,3.6
1.5078125,1.706991221942474e-05,-1.7083656557564655e-05,1.6584603959716185e-05,3.660356967269398e-05,4.2,3.6
1.51171875,2.195332658274205e-05,-2.733579354390783e-05,-1.9024889596398864e-05,3.3176080088502327e-05,4.2,3.6
1.515625,1.3157114375524532e-05,-2.3422995700007623e-05,-2.3908303959716177e-05,5.319504580148012e-05,4.2,3.6
1.51953125,2.195332658274205e-05,-9.743369129472797e-06,-2.2937687440299073e-05,6.735998063172352e-05,4.2,3.6
1.5234375,2.5380816166933704e-05,-1.999550611581597e-05,-3.434361753261611e-06,2.880830575112536e-05,4.2,3.6
1.52734375,7.78839175249867e-06,-1.999550611581597e-05,1.7555220479133293e-05,2.7322049205767912e-05,4.2,3.6
1.53125,1.4158062661173424e-05,3.172015530937667e-05,4.588509013962005e-05,4.442916536049439e-05,4.2,3.6
1.53515625,2.7807357465476466e-05,1.9041477024490736e-05,2.5866124426642258e-05,3.611826141298543e-05,4.2,3.6
1.5390625,1.4643370920881978e-05,6.817775233081564e-06,4.685570665903716e-05,6.396282281376364e-05,4.2,3.6
1.54296875,2.2438634842450603e-05,-9.258060869764243e-06,-7.802136090638585e-06,7.567088457923248e-05,4.2,3.6
1.546875,3.563295315327688e-05,-1.3170858713664448e-05,-3.36751326863508e-05,2.001209354390784e-05,4.2,3.6
1.55078125,3.708887793240254e-05,-2.4878920479133282e-05,2.683674094605936e-05,1.3642422635233084e-05,4.2,3.6
1.5546875,3.123484704966812e-05,-1.0228677389181349e-05,9.63744350347148e-07,2.489550790722515e-05,4.2,3.6
1.55859375,1.6584603959716185e-05,3.466233663385977e-05,1.934360869764253e-06,3.074953878995957e-05,4.2,3.6
1.5625,2.001209354390784e-05,4.685570665903716e-05,1.6099295700007635e-05,3.8059494451819647e-05,4.2,3.6
1.56640625,3.3661388348210884e-05,5.222442928206303e-05,4.7826323178454266e-05,3.8059494451819647e-05,4.2,3.6
1.5703125,2.1468018323033498e-05,2.7807357465476466e-05,5.419599408712902e-05,3.3661388348210884e-05,4.2,3.6
1.57421875,1.8525836998550394e-05,3.390285648889911e-06,3.2205463569085226e-05,2.5380816166933704e-05,4.2,3.6
1.578125,2.5866124426642258e-05,5.847158713664459e-06,2.340925136186771e-05,2.3924891387808045e-05,4.2,3.6
1.58203125,2.880830575112536e-05,9.759956557564665e-06,2.6351432686350808e-05,1.3642422635233084e-05,4.2,3.6
1.5859375,2.340925136186771e-05,-2.4878920479133282e-05,2.2923943102159157e-05,9.759956557564665e-06,4.2,3.6
1.58984375,2.1468018323033498e-05,1.3642422635233084e-05,-2.733579354390783e-05,1.1701189596398875e-05,4.2,3.6
1.59375,4.294290881513695e-05,4.0031059256885636e-05,-7.802136090638585e-06,1.9041477024490736e-05,4.2,3.6
1.59765625,2.001209354390784e-05,6.590405585259784e-05,7.615619283894102e-05,2.2438634842450603e-05,4.2,3.6
1.6015625,2.3924891387808045e-05,5.270973754177157e-05,5.9079408450446325e-05,3.8059494451819647e-05,4.2,3.6
1.60546875,3.757418619211109e-05,-3.270451616693369e-05,-1.8054273076981756e-05,3.074953878995957e-05,4.2,3.6
1.609375,2.9778922270542466e-05,2.44101996475166e-05,5.613722712596323e-05,5.847158713664459e-06,4.2,3.6
1.61328125,2.5866124426642258e-05,3.9060442737468535e-05,4.734101491874571e-05,2.9293614010833912e-05,4.2,3.6
1.6171875,2.4196691294728054e-06,3.466233663385977e-05,6.150594974898909e-05,5.956471671015488e-05,4.2,3.6
1.62109375,1.3642422635233084e-05,8.592302156557564e-05,0.00011619412426489662,3.708887793240254e-05,4.2,3.6
1.625,1.4158062661173424e-05,4.734101491874571e-05,0.00011179601816128786,3.660356967269398e-05,4.2,3.6
1.62890625,3.9545750997177086e-05,6.54187475928893e-05,0.00013915527130235752,2.2923943102159157e-05,4.2,3.6
1.6328125,5.613722712596323e-05,9.568985029221027e-05,0.00011082540164187075,2.829266572518502e-05,4.2,3.6
1.63671875,2.0982710063324944e-05,0.00010299980595407035,0.00010691260379797056,4.1972292295719845e-05,4.2,3.6
1.640625,2.829266572518502e-05,0.00011473819948577096,0.00012499033647211412,3.074953878995957e-05,4.2,3.6
1.64453125,3.3661388348210884e-05,7.224339499504082e-05,0.00010985478512245365,3.3661388348210884e-05,4.2,3.6
1.6484375,3.514764489356832e-05,2.0982710063324944e-05,5.319504580148012e-05,4.3428217074845503e-05,4.2,3.6
1.65234375,3.563295315327688e-05,3.172015530937667e-05,8.886520289005875e-05,2.001209354390784e-05,4.2,3.6
1.65625,3.2205463569085226e-05,1.8040528738841847e-05,7.958368242313268e-05,1.073057307698177e-05,4.2,3.6
1.66015625,2.5866124426642258e-05,6.687467237201495e-05,7.470026805981537e-05,3.3661388348210884e-05,4.2,3.6
1.6640625,1.4490526100557001e-06,9.03211276691844e-05,0.0001073979120576791,4.3428217074845503e-05,4.2,3.6
1.66796875,2.5866124426642258e-05,4.394385710078584e-05,5.7107843645380335e-05,3.8059494451819647e-05,4.2,3.6
1.671875,5.173912102235447e-05,5.222442928206303e-05,4.294290881513695e-05,4.8765421942473524e-06,4.2,3.6
1.67578125,4.0031059256885636e-05,7.42149598001068e-05,1.3642422635233084e-05,1.561398744029908e-05,4.2,3.6
1.6796875,3.85448027115282e-05,8.15249154619669e-05,5.613722712596323e-05,2.683674094605936e-05,4.2,3.6
1.68359375,3.466233663385977e-05,6.24765662684062e-05,8.201022372167544e-05,2.829266572518502e-05,4.2,3.6
1.6875,1.9041477024490736e-05,5.270973754177157e-05,7.761211761806668e-05,4.148698403601129e-05,4.2,3.6
1.69140625,2.195332658274205e-05,6.493343933318074e-05,9.226236070801861e-05,2.880830575112536e-05,4.2,3.6
1.6953125,1.6584603959716185e-05,6.1020641489280534e-05,5.956471671015488e-05,3.708887793240254e-05,4.2,3.6
1.69921875,3.172015530937667e-05,5.8078460164797436e-05,8.73789463447013e-05,4.734101491874571e-05,4.2,3.6
1.703125,3.123484704966812e-05,4.831163143816282e-05,8.201022372167544e-05,3.172015530937667e-05,4.2,3.6
1.70703125,4.734101491874571e-05,5.516661060654612e-05,4.9312579723811705e-05,1.8525836998550394e-05,4.2,3.6
1.7109375,5.7107843645380335e-05,5.319504580148012e-05,5.8563768424505993e-05,2.0497401803616394e-05,4.2,3.6
1.71484375,2.1468018323033498e-05,3.611826141298543e-05,6.590405585259784e-05,3.708887793240254e-05,4.2,3.6
1.71875,2.9778922270542466e-05,7.809742587777523e-05,7.272870325474937e-05,3.563295315327688e-05,4.2,3.6
1.72265625,3.074953878995957e-05,8.05542989425498e-05,6.493343933318074e-05,2.6351432686350808e-05,4.2,3.6
1.7265625,3.172015530937667e-05,4.294290881513695e-05,6.493343933318074e-05,3.9545750997177086e-05,4.2,3.6
1.73046875,1.5128679180590527e-05,3.708887793240254e-05,8.05542989425498e-05,5.9079408450446325e-05,4.2,3.6
1.734375,8.273700012207222e-06,8.935051114976729e-05,8.398178852674144e-05,4.7826323178454266e-05,4.2,3.6
1.73828125,3.172015530937667e-05,9.520454203250172e-05,9.763108333104447e-05,3.4177028374151215e-05,4.2,3.6
1.7421875,3.8059494451819647e-05,4.7826323178454266e-05,6.884623717708095e-05,3.611826141298543e-05,4.2,3.6
1.74609375,3.708887793240254e-05,2.9778922270542466e-05,8.592302156557564e-05,3.8059494451819647e-05,4.2,3.6
1.75,5.613722712596323e-05,5.468130234683757e-05,8.298084024109255e-05,1.073057307698177e-05,4.2,3.6
1.75390625,3.757418619211109e-05,8.05542989425498e-05,6.296187452811474e-05,1.3157114375524532e-05,4.2,3.6
1.7578125,2.829266572518502e-05,6.296187452811474e-05,8.495240504615854e-05,3.4177028374151215e-05,4.2,3.6
1.76171875,2.340925136186771e-05,4.294290881513695e-05,7.761211761806668e-05,2.7322049205767912e-05,4.2,3.6
1.765625,1.3642422635233084e-05,3.757418619211109e-05,6.396282281376364e-05,3.2690771828793776e-05,4.2,3.6
1.76953125,2.9293614010833912e-05,5.662253538567178e-05,6.54187475928893e-05,3.9545750997177086e-05,4.2,3.6
1.7734375,4.394385710078584e-05,5.662253538567178e-05,3.3176080088502327e-05,2.2438634842450603e-05,4.2,3.6
1.77734375,4.637039839932861e-05,2.880830575112536e-05,5.222442928206303e-05,4.148698403601129e-05,4.2,3.6
1.78125,4.491447362020294e-05,3.611826141298543e-05,4.9312579723811705e-05,5.371068582742047e-05,4.2,3.6
1.78515625,3.2205463569085226e-05,5.419599408712902e-05,4.2457600555428396e-05,2.1468018323033498e-05,4.2,3.6
1.7890625,1.4158062661173424e-05,4.1001675776302744e-05,8.2495531981384e-05,4.442916536049439e-05,4.2,3.6
1.79296875,2.7322049205767912e-05,3.708887793240254e-05,4.979788798352026e-05,3.563295315327688e-05,4.2,3.6
1.796875,4.637039839932861e-05,4.831163143816282e-05,4.294290881513695e-05,1.6584603959716185e-05,4.2,3.6
1.80078125,2.9293614010833912e-05,7.127277847562372e-05,7.712680935835813e-05,4.491447362020294e-05,4.2,3.6
1.8046875,1.073057307698177e-05,3.3176080088502327e-05,4.979788798352026e-05,5.9079408450446325e-05,4.2,3.6
1.80859375,2.5866124426642258e-05,1.706991221942474e-05,3.4177028374151215e-05,2.5866124426642258e-05,4.2,3.6
1.8125,2.9778922270542466e-05,3.757418619211109e-05,5.371068582742047e-05,1.6099295700007635e-05,4.2,3.6
1.81640625,1.8525836998550394e-05,1.7555220479133293e-05,3.3661388348210884e-05,4.294290881513695e-05,4.2,3.6
1.8203125,3.466233663385977e-05,3.514764489356832e-05,6.817775233081564e-06,1.706991221942474e-05,4.2,3.6
1.82421875,3.8059494451819647e-05,3.074953878995957e-05,2.6351432686350808e-05,3.8059494451819647e-05,4.2,3.6
1.828125,3.026423053025101e-05,1.1701189596398875e-05,3.611826141298543e-05,4.442916536049439e-05,4.2,3.6
1.83203125,2.5380816166933704e-05,3.9060442737468535e-05,6.199125800869764e-05,2.829266572518502e-05,4.2,3.6
1.8359375,4.3428217074845503e-05,4.1972292295719845e-05,4.442916536049439e-05,3.757418619211109e-05,4.2,3.6
1.83984375,5.319504580148012e-05,3.4177028374151215e-05,1.2186497856107427e-05,5.516661060654612e-05,4.2,3.6
1.84375,3.2205463569085226e-05,3.074953878995957e-05,4.8827271464103155e-05,2.7807357465476466e-05,4.2,3.6
1.84765625,3.026423053025101e-05,2.7807357465476466e-05,7.030216195620662e-05,2.001209354390784e-05,4.2,3.6
1.8515625,3.611826141298543e-05,3.026423053025101e-05,2.2923943102159157e-05,4.588509013962005e-05,4.2,3.6
1.85546875,3.9545750997177086e-05,5.8078460164797436e-05,1.8525836998550394e-05,2.829266572518502e-05,4.2,3.6
1.859375,2.9293614010833912e-05,6.005002496986343e-05,5.468130234683757e-05,3.2205463569085226e-05,4.2,3.6
1.86328125,3.2690771828793776e-05,2.0982710063324944e-05,3.563295315327688e-05,2.9778922270542466e-05,4.2,3.6
1.8671875,3.563295315327688e-05,3.9060442737468535e-05,4.685570665903716e-05,2.5866124426642258e-05,4.2,3.6
1.87109375,3.026423053025101e-05,4.9312579723811705e-05,4.685570665903716e-05,3.563295315327688e-05,4.2,3.6
1.875,2.6351432686350808e-05,2.2438634842450603e-05,1.2186497856107427e-05,3.3661388348210884e-05,4.2,3.6
1.87890625,1.8525836998550394e-05,1.706991221942474e-05,2.904977389181358e-06,5.419599408712902e-05,4.2,3.6
1.8828125,4.0516367516594194e-05,1.7555220479133293e-05,2.0497401803616394e-05,3.026423053025101e-05,4.2,3.6
1.88671875,3.708887793240254e-05,-9.258060869764243e-06,1.3642422635233084e-05,3.708887793240254e-05,4.2,3.6
1.890625,1.2671806115815981e-05,3.390285648889911e-06,3.708887793240254e-05,5.419599408712902e-05,4.2,3.6
1.89453125,3.4177028374151215e-05,4.685570665903716e-05,6.444813107347219e-05,3.2690771828793776e-05,4.2,3.6
1.8984375,5.371068582742047e-05,4.442916536049439e-05,1.2671806115815981e-05,3.611826141298543e-05,4.2,3.6
1.90234375,4.148698403601129e-05,4.0031059256885636e-05,-4.374646506446931e-06,3.8059494451819647e-05,4.2,3.6
1.90625,4.1972292295719845e-05,2.880830575112536e-05,8.759008271915774e-06,3.4177028374151215e-05,4.2,3.6
1.91015625,5.222442928206303e-05,-1.978436974135953e-06,1.1701189596398875e-05,4.0516367516594194e-05,4.2,3.6
1.9140625,5.270973754177157e-05,-1.8054273076981756e-05,-1.0713985648889901e-05,4.3428217074845503e-05,4.2,3.6
1.91796875,4.685570665903716e-05,9.63744350347148e-07,5.361850453955906e-06,4.442916536049439e-05,4.2,3.6
1.921875,5.270973754177157e-05,5.847158713664459e-06,-3.889338246738379e-06,3.563295315327688e-05,4.2,3.6
1.92578125,6.1020641489280534e-05,1.8040528738841847e-05,-1.4141475233081553e-05,3.3176080088502327e-05,4.2,3.6
1.9296875,6.296187452811474e-05,1.561398744029908e-05,-7.802136090638585e-06,3.9060442737468535e-05,4.2,3.6
1.93359375,6.053533322957199e-05,-5.8305712855725905e-06,-4.049978008850232e-05,3.2205463569085226e-05,4.2,3.6
1.9375,5.222442928206303e-05,-1.65983482978561e-05,-3.710262227054245e-05,3.85448027115282e-05,4.2,3.6
1.94140625,6.296187452811474e-05,-1.999550611581597e-05,-2.3908303959716177e-05,3.9060442737468535e-05,4.2,3.6
1.9453125,5.8563768424505993e-05,2.4196691294728054e-06,-1.6082708271915763e-05,4.8827271464103155e-05,4.2,3.6
1.94921875,6.1020641489280534e-05,-1.3656166973373002e-05,-3.855854704966811e-05,5.173912102235447e-05,4.2,3.6
1.953125,6.884623717708095e-05,-3.36751326863508e-05,-5.906282102235446e-05,3.2690771828793776e-05,4.2,3.6
1.95703125,5.173912102235447e-05,-9.77488688487063e-07,-1.6082708271915763e-05,1.1701189596398875e-05,4.2,3.6
1.9609375,5.8078460164797436e-05,3.2205463569085226e-05,1.073057307698177e-05,8.273700012207222e-06,4.2,3.6
1.96484375,6.296187452811474e-05,1.9041477024490736e-05,1.073057307698177e-05,1.6584603959716185e-05,4.2,3.6
1.96875,5.222442928206303e-05,-8.772752610055689e-06,2.340925136186771e-05,2.3924891387808045e-05,4.2,3.6
1.97265625,3.85448027115282e-05,2.5380816166933704e-05,5.847158713664459e-06,2.683674094605936e-05,4.2,3.6
1.9765625,4.394385710078584e-05,5.222442928206303e-05,-3.889338246738379e-06,1.5128679180590527e-05,4.2,3.6
1.98046875,6.493343933318074e-05,7.303083492790117e-06,5.847158713664459e-06,1.3157114375524532e-05,4.2,3.6
1.984375,5.662253538567178e-05,2.3924891387808045e-05,1.8525836998550394e-05,2.0497401803616394e-05,4.2,3.6
1.98828125,4.8827271464103155e-05,4.2457600555428396e-05,4.2457600555428396e-05,1.2186497856107427e-05,4.2,3.6
1.9921875,3.026423053025101e-05,2.0982710063324944e-05,5.8563768424505993e-05,2.683674094605936e-05,4.2,3.6
1.99609375,3.757418619211109e-05,5.419599408712902e-05,5.028319624322881e-05,1.6584603959716185e-05,4.2,3.6
2.0,4.53997818799115e-05,5.8078460164797436e-05,5.173912102235447e-05,2.0982710063324944e-05,4.2,3.6
2.00390625,3.9060442737468535e-05,1.561398744029908e-05,2.340925136186771e-05,2.6351432686350808e-05,4.2,3.6
2.0078125,4.9312579723811705e-05,3.514764489356832e-05,8.273700012207222e-06,1.5128679180590527e-05,4.2,3.6
2.01171875,3.074953878995957e-05,7.518557631952392e-05,6.296187452811474e-05,1.8040528738841847e-05,4.2,3.6
2.015625,3.123484704966812e-05,7.470026805981537e-05,6.396282281376364e-05,1.561398744029908e-05,4.2,3.6
2.01953125,3.2690771828793776e-05,3.611826141298543e-05,3.563295315327688e-05,3.074953878995957e-05,4.2,3.6
2.0234375,2.7322049205767912e-05,1.073057307698177e-05,3.2690771828793776e-05,2.7807357465476466e-05,4.2,3.6
2.02734375,2.0982710063324944e-05,1.7555220479133293e-05,1.8040528738841847e-05,2.1468018323033498e-05,4.2,3.6
2.03125,2.0982710063324944e-05,2.829266572518502e-05,2.7322049205767912e-05,2.6351432686350808e-05,4.2,3.6
2.03515625,2.44101996475166e-05,5.7107843645380335e-05,7.078747021591517e-05,2.2923943102159157e-05,4.2,3.6
2.0390625,3.2205463569085226e-05,2.880830575112536e-05,5.371068582742047e-05,3.3661388348210884e-05,4.2,3.6
2.04296875,4.588509013962005e-05,4.0516367516594194e-05,4.0031059256885636e-05,2.7807357465476466e-05,4.2,3.6
2.046875,3.660356967269398e-05,6.93315454367895e-05,5.7107843645380335e-05,3.2205463569085226e-05,4.2,3.6
2.05078125,2.44101996475166e-05,4.831163143816282e-05,4.685570665903716e-05,4.8827271464103155e-05,4.2,3.6
2.0546875,3.4177028374151215e-05,4.588509013962005e-05,6.053533322957199e-05,3.074953878995957e-05,4.2,3.6
2.05859375,4.1972292295719845e-05,2.829266572518502e-05,4.734101491874571e-05,2.489550790722515e-05,4.2,3.6
2.0625,3.8059494451819647e-05,2.2923943102159157e-05,3.8059494451819647e-05,2.5866124426642258e-05,4.2,3.6
2.06640625,4.685570665903716e-05,5.0768504502937364e-05,4.734101491874571e-05,1.5128679180590527e-05,4.2,3.6
2.0703125,4.3428217074845503e-05,5.9079408450446325e-05,4.1001675776302744e-05,1.3642422635233084e-05,4.2,3.6
2.07421875,1.8525836998550394e-05,4.1972292295719845e-05,5.7593151905088886e-05,4.491447362020294e-05,4.2,3.6
2.078125,2.195332658274205e-05,3.9545750997177086e-05,5.9079408450446325e-05,4.0516367516594194e-05,4.2,3.6
2.08203125,3.85448027115282e-05,3.2690771828793776e-05,4.2457600555428396e-05,2.0982710063324944e-05,4.2,3.6
2.0859375,4.7826323178454266e-05,3.123484704966812e-05,3.3661388348210884e-05,2.1468018323033498e-05,4.2,3.6
2.08984375,3.123484704966812e-05,2.5380816166933704e-05,5.028319624322881e-05,2.5866124426642258e-05,4.2,3.6
2.09375,2.9293614010833912e-05,1.1701189596398875e-05,4.979788798352026e-05,3.3176080088502327e-05,4.2,3.6
2.09765625,3.9545750997177086e-05,4.7826323178454266e-05,5.419599408712902e-05,1.1215881336690323e-05,4.2,3.6
2.1015625,2.880830575112536e-05,6.833059715114062e-05,5.419599408712902e-05,2.1468018323033498e-05,4.2,3.6
2.10546875,2.6351432686350808e-05,2.7807357465476466e-05,5.222442928206303e-05,3.611826141298543e-05,4.2,3.6
2.109375,3.4177028374151215e-05,2.7322049205767912e-05,5.565191886625467e-05,2.829266572518502e-05,4.2,3.6
2.11328125,2.9778922270542466e-05,7.030216195620662e-05,4.294290881513695e-05,3.466233663385977e-05,4.2,3.6
2.1171875,3.2690771828793776e-05,5.565191886625467e-05,3.563295315327688e-05,3.172015530937667e-05,4.2,3.6
2.12109375,4.1972292295719845e-05,3.123484704966812e-05,3.123484704966812e-05,1.561398744029908e-05,4.2,3.6
2.125,3.8059494451819647e-05,3.9060442737468535e-05,3.172015530937667e-05,2.1468018323033498e-05,4.2,3.6
2.12890625,3.2690771828793776e-05,6.493343933318074e-05,4.3428217074845503e-05,3.660356967269398e-05,4.2,3.6
2.1328125,4.491447362020294e-05,3.8059494451819647e-05,1.2671806115815981e-05,2.6351432686350808e-05,4.2,3.6
2.13671875,4.831163143816282e-05,1.1215881336690323e-05,-1.978436974135953e-06,2.1468018323033498e-05,4.2,3.6
2.140625,2.9293614010833912e-05,2.7322049205767912e-05,2.7807357465476466e-05,3.757418619211109e-05,4.2,3.6
2.14453125,3.172015530937667e-05,4.8827271464103155e-05,4.0516367516594194e-05,3.3661388348210884e-05,4.2,3.6
2.1484375,3.708887793240254e-05,6.296187452811474e-05,4.294290881513695e-05,2.0982710063324944e-05,4.2,3.6
2.15234375,2.9293614010833912e-05,4.7826323178454266e-05,2.829266572518502e-05,3.8059494451819647e-05,4.2,3.6
2.15625,3.563295315327688e-05,3.514764489356832e-05,3.466233663385977e-05,3.708887793240254e-05,4.2,3.6
2.16015625,3.514764489356832e-05,3.4177028374151215e-05,4.588509013962005e-05,2.6351432686350808e-05,4.2,3.6
2.1640625,2.7807357465476466e-05,2.7322049205767912e-05,1.9041477024490736e-05,3.3176080088502327e-05,4.2,3.6
2.16796875,3.563295315327688e-05,2.5866124426642258e-05,3.905925674830248e-06,2.5380816166933704e-05,4.2,3.6
2.171875,3.563295315327688e-05,2.829266572518502e-05,3.9060442737468535e-05,3.026423053025101e-05,4.2,3.6
2.17578125,2.489550790722515e-05,2.6351432686350808e-05,3.2205463569085226e-05,3.8059494451819647e-05,4.2,3.6
2.1796875,2.683674094605936e-05,3.9060442737468535e-05,3.514764489356832e-05,3.660356967269398e-05,4.2,3.6
2.18359375,3.757418619211109e-05,4.1972292295719845e-05,6.150594974898909e-05,2.880830575112536e-05,4.2,3.6
2.1875,3.660356967269398e-05,2.7807357465476466e-05,3.2205463569085226e-05,2.829266572518502e-05,4.2,3.6
2.19140625,3.466233663385977e-05,2.6351432686350808e-05,3.2690771828793776e-05,3.9060442737468535e-05,4.2,3.6
2.1953125,2.9778922270542466e-05,3.172015530937667e-05,4.637039839932861e-05,3.9545750997177086e-05,4.2,3.6
2.19921875,3.026423053025101e-05,2.2923943102159157e-05,2.5380816166933704e-05,2.195332658274205e-05,4.2,3.6
2.203125,3.074953878995957e-05,2.7807357465476466e-05,2.7807357465476466e-05,2.489550790722515e-05,4.2,3.6
2.20703125,2.9778922270542466e-05,3.611826141298543e-05,4.53997818799115e-05,3.8059494451819647e-05,4.2,3.6
2.2109375,3.3661388348210884e-05,1.561398744029908e-05,2.7807357465476466e-05,3.466233663385977e-05,4.2,3.6
2.21484375,3.026423053025101e-05,4.8765421942473524e-06,1.9526785284199286e-05,3.074953878995957e-05,4.2,3.6
2.21875,2.683674094605936e-05,2.2438634842450603e-05,3.514764489356832e-05,3.074953878995957e-05,4.2,3.6
2.22265625,2.6351432686350808e-05,2.44101996475166e-05,3.660356967269398e-05,4.1972292295719845e-05,4.2,3.6
2.2265625,2.683674094605936e-05,3.3176080088502327e-05,2.5380816166933704e-05,4.2457600555428396e-05,4.2,3.6
2.23046875,2.9778922270542466e-05,2.0497401803616394e-05,2.6351432686350808e-05,3.708887793240254e-05,4.2,3.6
2.234375,3.3661388348210884e-05,4.784360906385946e-07,5.361850453955906e-06,3.4177028374151215e-05,4.2,3.6
2.23828125,3.172015530937667e-05,1.8525836998550394e-05,1.4643370920881978e-05,3.2690771828793776e-05,4.2,3.6
2.2421875,2.829266572518502e-05,2.001209354390784e-05,2.195332658274205e-05,3.563295315327688e-05,4.2,3.6
2.24609375,2.880830575112536e-05,1.8040528738841847e-05,1.5128679180590527e-05,3.708887793240254e-05,4.2,3.6
2.25,3.466233663385977e-05,4.148698403601129e-05,4.148698403601129e-05,3.514764489356832e-05,4.2,3.6
2.25390625,2.7807357465476466e-05,3.85448027115282e-05,4.394385710078584e-05,3.8059494451819647e-05,4.2,3.6
2.2578125,2.9293614010833912e-05,3.123484704966812e-05,3.074953878995957e-05,3.9545750997177086e-05,4.2,3.6
2.26171875,3.123484704966812e-05,3.3176080088502327e-05,3.074953878995957e-05,3.9545750997177086e-05,4.2,3.6
2.265625,2.683674094605936e-05,7.303083492790117e-06,3.466233663385977e-05,3.611826141298543e-05,4.2,3.6
2.26953125,3.3176080088502327e-05,1.073057307698177e-05,2.5380816166933704e-05,3.757418619211109e-05,4.2,3.6
2.2734375,2.683674094605936e-05,2.489550790722515e-05,2.7322049205767912e-05,4.294290881513695e-05,4.2,3.6
2.27734375,2.489550790722515e-05,2.0982710063324944e-05,3.026423053025101e-05,3.757418619211109e-05,4.2,3.6
2.28125,2.7322049205767912e-05,3.563295315327688e-05,3.172015530937667e-05,4.0031059256885636e-05,4.2,3.6
2.28515625,2.9778922270542466e-05,3.2690771828793776e-05,2.9778922270542466e-05,2.9293614010833912e-05,4.2,3.6
2.2890625,3.2690771828793776e-05,1.6584603959716185e-05,3.123484704966812e-05,2.6351432686350808e-05,4.2,3.6
2.29296875,3.026423053025101e-05,1.4643370920881978e-05,6.332466973373011e-06,3.708887793240254e-05,4.2,3.6
2.296875,3.172015530937667e-05,2.7807357465476466e-05,5.847158713664459e-06,3.2205463569085226e-05,4.2,3.6
2.30078125,3.172015530937667e-05,7.78839175249867e-06,1.3157114375524532e-05,3.514764489356832e-05,4.2,3.6
2.3046875,2.683674094605936e-05,9.63744350347148e-07,1.7555220479133293e-05,3.708887793240254e-05,4.2,3.6
2.30859375,2.9778922270542466e-05,2.489550790722515e-05,2.3924891387808045e-05,3.3661388348210884e-05,4.2,3.6
2.3125,3.3176080088502327e-05,1.3642422635233084e-05,1.0245264817273217e-05,3.4177028374151215e-05,4.2,3.6
2.31640625,3.172015530937667e-05,5.847158713664459e-06,8.273700012207222e-06,4.1001675776302744e-05,4.2,3.6
2.3203125,3.514764489356832e-05,1.4643370920881978e-05,6.817775233081564e-06,3.2205463569085226e-05,4.2,3.6
2.32421875,3.4177028374151215e-05,1.4490526100557001e-06,-6.872169069957578e-09,2.9293614010833912e-05,4.2,3.6
2.328125,3.2690771828793776e-05,1.073057307698177e-05,2.4196691294728054e-06,3.3661388348210884e-05,4.2,3.6
2.33203125,3.3176080088502327e-05,1.7555220479133293e-05,1.2186497856107427e-05,3.466233663385977e-05,4.2,3.6
2.3359375,3.708887793240254e-05,7.78839175249867e-06,2.4196691294728054e-06,3.074953878995957e-05,4.2,3.6
2.33984375,3.2205463569085226e-05,1.7555220479133293e-05,-4.921804287785103e-07,2.5380816166933704e-05,4.2,3.6
2.34375,2.6351432686350808e-05,1.073057307698177e-05,4.784360906385946e-07,3.466233663385977e-05,4.2,3.6
2.34765625,3.514764489356832e-05,2.904977389181358e-06,-4.921804287785103e-07,3.757418619211109e-05,4.2,3.6
2.3515625,4.1972292295719845e-05,1.0245264817273217e-05,8.759008271915774e-06,3.2690771828793776e-05,4.2,3.6
2.35546875,3.660356967269398e-05,1.3642422635233084e-05,1.2671806115815981e-05,3.2690771828793776e-05,4.2,3.6
2.359375,3.123484704966812e-05,1.5128679180590527e-05,9.274648297856113e-06,3.708887793240254e-05,4.2,3.6
2.36328125,3.172015530937667e-05,9.63744350347148e-07,9.759956557564665e-06,3.563295315327688e-05,4.2,3.6
2.3671875,3.757418619211109e-05,-3.889338246738379e-06,1.934360869764253e-06,2.9778922270542466e-05,4.2,3.6
2.37109375,3.514764489356832e-05,1.4158062661173424e-05,2.4196691294728054e-06,2.7807357465476466e-05,4.2,3.6
2.375,2.9778922270542466e-05,1.6584603959716185e-05,-3.889338246738379e-06,3.3176080088502327e-05,4.2,3.6
2.37890625,3.3176080088502327e-05,-4.8599547661554836e-06,-2.148176266117341e-05,2.7807357465476466e-05,4.2,3.6
2.3828125,3.708887793240254e-05,1.073057307698177e-05,-1.7083656557564655e-05,1.9041477024490736e-05,4.2,3.6
2.38671875,3.2205463569085226e-05,2.880830575112536e-05,2.4196691294728054e-06,2.6351432686350808e-05,4.2,3.6
2.390625,3.563295315327688e-05,1.073057307698177e-05,-4.374646506446931e-06,2.880830575112536e-05,4.2,3.6
2.39453125,3.466233663385977e-05,-3.889338246738379e-06,-1.4626783492790107e-05,2.9778922270542466e-05,4.2,3.6
2.3984375,3.2205463569085226e-05,1.9041477024490736e-05,-1.0228677389181349e-05,2.9293614010833912e-05,4.2,3.6
2.40234375,3.074953878995957e-05,4.491447362020294e-05,-6.831519571221479e-06,3.026423053025101e-05,4.2,3.6
2.40625,2.9293614010833912e-05,2.489550790722515e-05,-1.1229625674830238e-05,3.2205463569085226e-05,4.2,3.6
2.41015625,2.5866124426642258e-05,-7.802136090638585e-06,-4.374646506446931e-06,2.683674094605936e-05,4.2,3.6
2.4140625,2.7807357465476466e-05,2.904977389181358e-06,-2.4637452338445057e-06,2.44101996475166e-05,4.2,3.6
2.41796875,3.85448027115282e-05,1.9041477024490736e-05,-7.316827830930032e-06,2.3924891387808045e-05,4.2,3.6
2.421875,3.660356967269398e-05,3.074953878995957e-05,-5.345263025864037e-06,2.5866124426642258e-05,4.2,3.6
2.42578125,3.123484704966812e-05,2.195332658274205e-05,-2.949053493553058e-06,2.6351432686350808e-05,4.2,3.6
2.4296875,3.9060442737468535e-05,5.847158713664459e-06,-1.9024889596398864e-05,1.7555220479133293e-05,4.2,3.6
2.43359375,4.294290881513695e-05,6.817775233081564e-06,-1.9510197856107418e-05,1.9526785284199286e-05,4.2,3.6
2.4375,2.9778922270542466e-05,1.2186497856107427e-05,9.274648297856113e-06,3.466233663385977e-05,4.2,3.6
2.44140625,3.172015530937667e-05,1.8525836998550394e-05,-8.287444350347137e-06,3.3661388348210884e-05,4.2,3.6
2.4453125,4.1001675776302744e-05,2.880830575112536e-05,-1.9510197856107418e-05,2.195332658274205e-05,4.2,3.6
2.44921875,3.2205463569085226e-05,1.706991221942474e-05,-5.8305712855725905e-06,2.0982710063324944e-05,4.2,3.6
2.453125,2.6351432686350808e-05,-1.65983482978561e-05,-2.245237918059052e-05,3.3661388348210884e-05,4.2,3.6
2.45703125,2.9778922270542466e-05,-2.1967070920881965e-05,-3.4160440946059354e-05,3.2690771828793776e-05,4.2,3.6
2.4609375,3.3661388348210884e-05,1.2186497856107427e-05,7.303083492790117e-06,2.2438634842450603e-05,4.2,3.6
2.46484375,4.0516367516594194e-05,1.3642422635233084e-05,1.4490526100557001e-06,1.7555220479133293e-05,4.2,3.6
2.46875,2.9293614010833912e-05,1.8525836998550394e-05,-5.345263025864037e-06,2.44101996475166e-05,4.2,3.6
2.47265625,2.44101996475166e-05,1.073057307698177e-05,6.332466973373011e-06,1.9526785284199286e-05,4.2,3.6
2.4765625,3.708887793240254e-05,-3.124859138780804e-05,-2.5364228738841832e-05,2.001209354390784e-05,4.2,3.6
2.48046875,3.9060442737468535e-05,-2.927702658274204e-05,-3.66173140108339e-05,1.9041477024490736e-05,4.2,3.6
2.484375,2.44101996475166e-05,4.784360906385946e-07,-2.6365177024490724e-05,3.708887793240254e-05,4.2,3.6
2.48828125,2.0497401803616394e-05,8.759008271915774e-06,-3.952916356908521e-05,4.1001675776302744e-05,4.2,3.6
2.4921875,1.9041477024490736e-05,2.195332658274205e-05,-1.9510197856107418e-05,2.195332658274205e-05,4.2,3.6
2.49609375,3.026423053025101e-05,-6.831519571221479e-06,-1.853958133669031e-05,1.9526785284199286e-05,4.2,3.6
2.5,2.9778922270542466e-05,-3.904385530937667e-05,-5.1267557100785834e-05,1.3157114375524532e-05,4.2,3.6
2.50390625,1.561398744029908e-05,-5.8305712855725905e-06,-3.710262227054245e-05,2.0982710063324944e-05,4.2,3.6
2.5078125,1.7555220479133293e-05,-2.245237918059052e-05,-1.5112091752498659e-05,2.0497401803616394e-05,4.2,3.6
2.51171875,2.3924891387808045e-05,-3.124859138780804e-05,-3.904385530937667e-05,2.3924891387808045e-05,4.2,3.6
2.515625,3.611826141298543e-05,-2.927702658274204e-05,-4.9781300555428395e-05,1.073057307698177e-05,4.2,3.6
2.51953125,2.6351432686350808e-05,-5.075191707484549e-05,-5.0266608815136945e-05,1.7555220479133293e-05,4.2,3.6
2.5234375,1.2186497856107427e-05,-1.3656166973373002e-05,-2.6365177024490724e-05,2.9778922270542466e-05,4.2,3.6
2.52734375,2.2923943102159157e-05,9.274648297856113e-06,-2.148176266117341e-05,1.073057307698177e-05,4.2,3.6
2.53125,2.9293614010833912e-05,-1.4626783492790107e-05,-3.270451616693369e-05,2.195332658274205e-05,4.2,3.6
2.53515625,3.2690771828793776e-05,-3.5131057465476455e-05,-4.3441961412985416e-05,3.074953878995957e-05,4.2,3.6
2.5390625,3.466233663385977e-05,-5.8577512762645906e-05,-5.76068962432288e-05,1.706991221942474e-05,4.2,3.6
2.54296875,2.3924891387808045e-05,-4.2956653153276866e-05,-5.369409839932859e-05,3.2690771828793776e-05,4.2,3.6
2.546875,7.78839175249867e-06,-3.710262227054245e-05,-4.1500728374151214e-05,3.3176080088502327e-05,4.2,3.6
2.55078125,1.2186497856107427e-05,-2.3908303959716177e-05,-5.515002317845425e-05,3.2690771828793776e-05,4.2,3.6
2.5546875,2.9293614010833912e-05,-1.65983482978561e-05,-6.1034385827420454e-05,2.880830575112536e-05,4.2,3.6
2.55859375,4.0516367516594194e-05,-2.733579354390783e-05,-9.258060869764243e-06,6.817775233081564e-06,4.2,3.6
2.5625,4.442916536049439e-05,-3.5616365725185006e-05,-1.1229625674830238e-05,2.44101996475166e-05,4.2,3.6
2.56640625,3.466233663385977e-05,-2.0966122635233076e-05,-3.5616365725185006e-05,2.829266572518502e-05,4.2,3.6
2.5703125,1.2671806115815981e-05,-1.756896481727321e-05,-2.8306410063324933e-05,3.4177028374151215e-05,4.2,3.6
2.57421875,1.4158062661173424e-05,-4.489788619211108e-05,-4.586850271152818e-05,3.2690771828793776e-05,4.2,3.6
2.578125,2.2923943102159157e-05,-1.5112091752498659e-05,-3.221920790722514e-05,1.1701189596398875e-05,4.2,3.6
2.58203125,3.390285648889911e-06,-2.949053493553058e-06,6.817775233081564e-06,2.001209354390784e-05,4.2,3.6
2.5859375,1.3157114375524532e-05,-3.434361753261611e-06,1.4490526100557001e-06,2.9778922270542466e-05,4.2,3.6
2.58984375,3.466233663385977e-05,-1.4626783492790107e-05,-7.316827830930032e-06,3.3661388348210884e-05,4.2,3.6
2.59375,3.3661388348210884e-05,-1.2200242194247344e-05,-2.9762334842450595e-05,2.829266572518502e-05,4.2,3.6
2.59765625,2.6351432686350808e-05,-1.3170858713664448e-05,-2.4878920479133282e-05,2.829266572518502e-05,4.2,3.6
2.6015625,1.8525836998550394e-05,-4.2471344893568315e-05,6.817775233081564e-06,3.660356967269398e-05,4.2,3.6
2.60546875,2.340925136186771e-05,-1.4931287144274002e-06,-1.0228677389181349e-05,3.9060442737468535e-05,4.2,3.6
2.609375,3.2690771828793776e-05,2.340925136186771e-05,-8.287444350347137e-06,3.8059494451819647e-05,4.2,3.6
2.61328125,1.3157114375524532e-05,-9.258060869764243e-06,9.759956557564665e-06,4.394385710078584e-05,4.2,3.6
2.6171875,1.1701189596398875e-05,-7.316827830930032e-06,-5.345263025864037e-06,2.829266572518502e-05,4.2,3.6
2.62109375,1.7555220479133293e-05,-1.5597400012207213e-05,-9.77488688487063e-07,3.026423053025101e-05,4.2,3.6
2.625,3.172015530937667e-05,-2.2937687440299073e-05,1.1215881336690323e-05,2.5380816166933704e-05,4.2,3.6
2.62890625,3.3176080088502327e-05,7.303083492790117e-06,-1.9510197856107418e-05,1.8525836998550394e-05,4.2,3.6
2.6328125,2.829266572518502e-05,-8.772752610055689e-06,-1.853958133669031e-05,2.829266572518502e-05,4.2,3.6
2.63671875,3.2205463569085226e-05,6.817775233081564e-06,2.489550790722515e-05,3.708887793240254e-05,4.2,3.6
2.640625,2.5380816166933704e-05,3.3661388348210884e-05,3.2205463569085226e-05,3.514764489356832e-05,4.2,3.6
2.64453125,4.1001675776302744e-05,8.273700012207222e-06,3.390285648889911e-06,2.683674094605936e-05,4.2,3.6
2.6484375,4.637039839932861e-05,1.073057307698177e-05,1.4643370920881978e-05,2.340925136186771e-05,4.2,3.6
2.65234375,1.706991221942474e-05,3.2205463569085226e-05,4.294290881513695e-05,3.3176080088502327e-05,4.2,3.6
2.65625,1.3157114375524532e-05,1.7555220479133293e-05,1.3642422635233084e-05,3.85448027115282e-05,4.2,3.6
2.66015625,1.7555220479133293e-05,-1.8054273076981756e-05,7.78839175249867e-06,2.2438634842450603e-05,4.2,3.6
2.6640625,2.5866124426642258e-05,6.332466973373011e-06,2.6351432686350808e-05,2.340925136186771e-05,4.2,3.6
2.66796875,2.5380816166933704e-05,1.2671806115815981e-05,2.001209354390784e-05,4.734101491874571e-05,4.2,3.6
2.671875,2.5380816166933704e-05,1.3157114375524532e-05,8.273700012207222e-06,3.85448027115282e-05,4.2,3.6
2.67578125,3.563295315327688e-05,3.9545750997177086e-05,3.514764489356832e-05,1.4490526100557001e-06,4.2,3.6
2.6796875,2.340925136186771e-05,7.78839175249867e-06,4.148698403601129e-05,2.2923943102159157e-05,4.2,3.6
2.68359375,2.2923943102159157e-05,-1.1714933934538792e-05,8.273700012207222e-06,3.4177028374151215e-05,4.2,3.6
2.6875,2.7807357465476466e-05,-9.77488688487063e-07,2.9778922270542466e-05,2.9293614010833912e-05,4.2,3.6
2.69140625,2.1468018323033498e-05,1.4158062661173424e-05,3.9060442737468535e-05,3.123484704966812e-05,4.2,3.6
2.6953125,2.001209354390784e-05,5.847158713664459e-06,2.3924891387808045e-05,2.829266572518502e-05,4.2,3.6
2.69921875,2.9293614010833912e-05,2.7322049205767912e-05,3.3176080088502327e-05,2.340925136186771e-05,4.2,3.6
2.703125,3.172015530937667e-05,4.294290881513695e-05,4.637039839932861e-05,3.123484704966812e-05,4.2,3.6
2.70703125,2.3924891387808045e-05,2.3924891387808045e-05,3.8059494451819647e-05,3.2690771828793776e-05,4.2,3.6
2.7109375,2.6351432686350808e-05,2.340925136186771e-05,8.759008271915774e-06,2.7807357465476466e-05,4.2,3.6
2.71484375,2.3924891387808045e-05,3.3176080088502327e-05,3.074953878995957e-05,3.2690771828793776e-05,4.2,3.6
2.71875,3.123484704966812e-05,3.660356967269398e-05,4.394385710078584e-05,3.2205463569085226e-05,4.2,3.6
2.72265625,2.7322049205767912e-05,2.9293614010833912e-05,4.734101491874571e-05,3.074953878995957e-05,4.2,3.6
2.7265625,1.4643370920881978e-05,1.706991221942474e-05,5.419599408712902e-05,3.611826141298543e-05,4.2,3.6
2.73046875,2.44101996475166e-05,2.489550790722515e-05,3.563295315327688e-05,3.9060442737468535e-05,4.2,3.6
2.734375,2.9778922270542466e-05,3.9060442737468535e-05,3.2690771828793776e-05,3.563295315327688e-05,4.2,3.6
2.73828125,2.195332658274205e-05,3.3661388348210884e-05,5.0768504502937364e-05,4.0031059256885636e-05,4.2,3.6
2.7421875,2.001209354390784e-05,1.3642422635233084e-05,4.588509013962005e-05,4.2457600555428396e-05,4.2,3.6
2.74609375,3.026423053025101e-05,1.3642422635233084e-05,2.3924891387808045e-05,3.172015530937667e-05,4.2,3.6
2.75,2.880830575112536e-05,1.561398744029908e-05,3.466233663385977e-05,3.466233663385977e-05,4.2,3.6
2.75390625,2.880830575112536e-05,2.195332658274205e-05,3.514764489356832e-05,3.85448027115282e-05,4.2,3.6
2.7578125,3.2690771828793776e-05,3.3176080088502327e-05,3.2205463569085226e-05,3.611826141298543e-05,4.2,3.6
2.76171875,2.9293614010833912e-05,4.442916536049439e-05,5.468130234683757e-05,3.757418619211109e-05,4.2,3.6
2.765625,2.5866124426642258e-05,4.7826323178454266e-05,7.272870325474937e-05,4.148698403601129e-05,4.2,3.6
2.76953125,2.5380816166933704e-05,3.611826141298543e-05,3.708887793240254e-05,3.660356967269398e-05,4.2,3.6
2.7734375,3.2205463569085226e-05,3.3661388348210884e-05,1.0245264817273217e-05,3.3176080088502327e-05,4.2,3.6
2.77734375,3.563295315327688e-05,4.0031059256885636e-05,3.2205463569085226e-05,3.660356967269398e-05,4.2,3.6
2.78125,3.4177028374151215e-05,3.563295315327688e-05,4.0031059256885636e-05,3.8059494451819647e-05,4.2,3.6
2.78515625,2.9293614010833912e-05,3.466233663385977e-05,4.637039839932861e-05,3.9545750997177086e-05,4.2,3.6
2.7890625,2.489550790722515e-05,1.706991221942474e-05,4.53997818799115e-05,4.148698403601129e-05,4.2,3.6
2.79296875,3.026423053025101e-05,1.8525836998550394e-05,4.294290881513695e-05,4.0031059256885636e-05,4.2,3.6
2.796875,3.2205463569085226e-05,3.514764489356832e-05,4.294290881513695e-05,3.8059494451819647e-05,4.2,3.6
2.80078125,3.074953878995957e-05,2.9778922270542466e-05,4.294290881513695e-05,3.85448027115282e-05,4.2,3.6
2.8046875,3.4177028374151215e-05,4.3428217074845503e-05,3.9060442737468535e-05,3.757418619211109e-05,4.2,3.6
2.80859375,3.074953878995957e-05,3.026423053025101e-05,2.683674094605936e-05,3.8059494451819647e-05,4.2,3.6
2.8125,3.3661388348210884e-05,2.2923943102159157e-05,2.195332658274205e-05,3.2690771828793776e-05,4.2,3.6
2.81640625,3.3661388348210884e-05,2.880830575112536e-05,2.5866124426642258e-05,3.172015530937667e-05,4.2,3.6
2.8203125,3.026423053025101e-05,2.0497401803616394e-05,3.074953878995957e-05,3.4177028374151215e-05,4.2,3.6
2.82421875,2.9778922270542466e-05,2.5380816166933704e-05,3.074953878995957e-05,3.3176080088502327e-05,4.2,3.6
2.828125,3.3661388348210884e-05,2.001209354390784e-05,2.1468018323033498e-05,3.2690771828793776e-05,4.2,3.6
2.83203125,3.123484704966812e-05,1.561398744029908e-05,2.829266572518502e-05,3.563295315327688e-05,4.2,3.6
2.8359375,2.7322049205767912e-05,2.2438634842450603e-05,3.172015530937667e-05,3.2690771828793776e-05,4.2,3.6
2.83984375,3.172015530937667e-05,2.001209354390784e-05,2.340925136186771e-05,2.880830575112536e-05,4.2,3.6
2.84375,2.7807357465476466e-05,2.5866124426642258e-05,3.074953878995957e-05,3.074953878995957e-05,4.2,3.6
2.84765625,2.7807357465476466e-05,1.3157114375524532e-05,2.489550790722515e-05,2.880830575112536e-05,4.2,3.6
2.8515625,2.44101996475166e-05,-1.978436974135953e-06,2.2438634842450603e-05,3.563295315327688e-05,4.2,3.6
2.85546875,2.7807357465476466e-05,1.0245264817273217e-05,2.5866124426642258e-05,3.514764489356832e-05,4.2,3.6
2.859375,3.074953878995957e-05,2.0982710063324944e-05,3.2690771828793776e-05,3.3661388348210884e-05,4.2,3.6
2.86328125,2.683674094605936e-05,1.3642422635233084e-05,3.172015530937667e-05,4.2457600555428396e-05,4.2,3.6
2.8671875,3.172015530937667e-05,1.6584603959716185e-05,3.026423053025101e-05,4.3428217074845503e-05,4.2,3.6
2.87109375,3.074953878995957e-05,8.759008271915774e-06,2.0497401803616394e-05,3.85448027115282e-05,4.2,3.6
2.875,2.5380816166933704e-05,2.904977389181358e-06,1.9526785284199286e-05,3.3176080088502327e-05,4.2,3.6
2.87890625,3.2690771828793776e-05,2.1468018323033498e-05,2.829266572518502e-05,3.026423053025101e-05,4.2,3.6
2.8828125,3.757418619211109e-05,1.6099295700007635e-05,2.2438634842450603e-05,2.9293614010833912e-05,4.2,3.6
2.88671875,3.123484704966812e-05,8.273700012207222e-06,2.0982710063324944e-05,2.9778922270542466e-05,4.2,3.6
2.890625,3.757418619211109e-05,1.6584603959716185e-05,1.2671806115815981e-05,3.172015530937667e-05,4.2,3.6
2.89453125,4.0031059256885636e-05,1.2186497856107427e-05,1.706991221942474e-05,2.880830575112536e-05,4.2,3.6
2.8984375,2.7807357465476466e-05,8.273700012207222e-06,3.172015530937667e-05,3.3661388348210884e-05,4.2,3.6
2.90234375,3.074953878995957e-05,1.6099295700007635e-05,2.0497401803616394e-05,3.8059494451819647e-05,4.2,3.6
2.90625,3.4177028374151215e-05,1.8525836998550394e-05,5.361850453955906e-06,3.2205463569085226e-05,4.2,3.6
2.91015625,3.466233663385977e-05,6.817775233081564e-06,4.8765421942473524e-06,2.9293614010833912e-05,4.2,3.6
2.9140625,3.708887793240254e-05,7.78839175249867e-06,1.1215881336690323e-05,2.9778922270542466e-05,4.2,3.6
2.91796875,3.563295315327688e-05,2.0982710063324944e-05,2.489550790722515e-05,3.3661388348210884e-05,4.2,3.6
2.921875,3.514764489356832e-05,1.4643370920881978e-05,4.1001675776302744e-05,3.708887793240254e-05,4.2,3.6
2.92578125,3.85448027115282e-05,2.489550790722515e-05,2.7807357465476466e-05,3.3661388348210884e-05,4.2,3.6
2.9296875,3.85448027115282e-05,3.3661388348210884e-05,1.073057307698177e-05,2.7807357465476466e-05,4.2,3.6
2.93359375,3.9060442737468535e-05,2.2438634842450603e-05,1.0245264817273217e-05,2.489550790722515e-05,4.2,3.6
2.9375,3.9545750997177086e-05,1.8040528738841847e-05,2.6351432686350808e-05,3.123484704966812e-05,4.2,3.6
2.94140625,3.660356967269398e-05,1.9526785284199286e-05,3.2690771828793776e-05,3.8059494451819647e-05,4.2,3.6
2.9453125,3.026423053025101e-05,1.6099295700007635e-05,2.683674094605936e-05,3.611826141298543e-05,4.2,3.6
2.94921875,3.3661388348210884e-05,2.195332658274205e-05,1.6099295700007635e-05,2.9778922270542466e-05,4.2,3.6
2.953125,4.588509013962005e-05,3.563295315327688e-05,9.759956557564665e-06,2.5380816166933704e-05,4.2,3.6
2.95703125,4.294290881513695e-05,2.9778922270542466e-05,2.195332658274205e-05,3.123484704966812e-05,4.2,3.6
2.9609375,3.2690771828793776e-05,1.7555220479133293e-05,2.0982710063324944e-05,3.3176080088502327e-05,4.2,3.6
2.96484375,3.660356967269398e-05,3.123484704966812e-05,3.466233663385977e-05,3.3176080088502327e-05,4.2,3.6
2.96875,4.637039839932861e-05,3.9545750997177086e-05,4.0516367516594194e-05,3.074953878995957e-05,4.2,3.6
2.97265625,4.394385710078584e-05,2.880830575112536e-05,2.7322049205767912e-05,2.9778922270542466e-05,4.2,3.6
2.9765625,3.514764489356832e-05,2.7807357465476466e-05,2.5866124426642258e-05,3.3661388348210884e-05,4.2,3.6
2.98046875,2.829266572518502e-05,2.340925136186771e-05,3.074953878995957e-05,3.611826141298543e-05,4.2,3.6
2.984375,2.9778922270542466e-05,2.2438634842450603e-05,3.9545750997177086e-05,3.85448027115282e-05,4.2,3.6
2.98828125,3.9545750997177086e-05,3.2205463569085226e-05,2.489550790722515e-05,3.85448027115282e-05,4.2,3.6
2.9921875,3.8059494451819647e-05,2.340925136186771e-05,2.7807357465476466e-05,3.563295315327688e-05,4.2,3.6
2.99609375,3.466233663385977e-05,2.880830575112536e-05,3.026423053025101e-05,3.074953878995957e-05,4.2,3.6
3.0,3.8059494451819647e-05,5.319504580148012e-05,1.561398744029908e-05,2.829266572518502e-05,4.2,3.6
3.00390625,3.660356967269398e-05,3.611826141298543e-05,2.3924891387808045e-05,2.9293614010833912e-05,4.2,3.6
3.0078125,3.466233663385977e-05,1.561398744029908e-05,3.85448027115282e-05,3.85448027115282e-05,4.2,3.6
3.01171875,3.611826141298543e-05,2.880830575112536e-05,4.685570665903716e-05,4.294290881513695e-05,4.2,3.6
3.015625,3.4177028374151215e-05,3.2205463569085226e-05,4.3428217074845503e-05,4.1001675776302744e-05,4.2,3.6
3.01953125,2.9293614010833912e-05,3.3661388348210884e-05,3.9060442737468535e-05,4.1001675776302744e-05,4.2,3.6
3.0234375,3.466233663385977e-05,2.5866124426642258e-05,2.7807357465476466e-05,3.4177028374151215e-05,4.2,3.6
3.02734375,3.514764489356832e-05,1.1701189596398875e-05,1.8040528738841847e-05,2.5866124426642258e-05,4.2,3.6
3.03125,3.4177028374151215e-05,2.7322049205767912e-05,3.2690771828793776e-05,2.880830575112536e-05,4.2,3.6
3.03515625,3.660356967269398e-05,4.0516367516594194e-05,3.3176080088502327e-05,3.563295315327688e-05,4.2,3.6
3.0390625,3.611826141298543e-05,2.683674094605936e-05,3.074953878995957e-05,3.466233663385977e-05,4.2,3.6
3.04296875,2.829266572518502e-05,1.561398744029908e-05,2.489550790722515e-05,3.3176080088502327e-05,4.2,3.6
3.046875,2.7322049205767912e-05,2.1468018323033498e-05,1.706991221942474e-05,3.466233663385977e-05,4.2,3.6
3.05078125,3.172015530937667e-05,1.9526785284199286e-05,1.8525836998550394e-05,3.563295315327688e-05,4.2,3.6
3.0546875,3.514764489356832e-05,2.1468018323033498e-05,2.9778922270542466e-05,3.660356967269398e-05,4.2,3.6
3.05859375,3.514764489356832e-05,3.85448027115282e-05,3.563295315327688e-05,3.9545750997177086e-05,4.2,3.6
3.0625,3.3661388348210884e-05,2.9293614010833912e-05,1.6584603959716185e-05,3.9060442737468535e-05,4.2,3.6
3.06640625,3.563295315327688e-05,1.6584603959716185e-05,2.2923943102159157e-05,3.611826141298543e-05,4.2,3.6
3.0703125,3.466233663385977e-05,3.172015530937667e-05,2.829266572518502e-05,3.563295315327688e-05,4.2,3.6
3.07421875,3.3176080088502327e-05,1.6099295700007635e-05,2.195332658274205e-05,3.514764489356832e-05,4.2,3.6
3.078125,2.9778922270542466e-05,8.759008271915774e-06,1.8525836998550394e-05,3.660356967269398e-05,4.2,3.6
3.08203125,3.2205463569085226e-05,2.2923943102159157e-05,1.9041477024490736e-05,3.660356967269398e-05,4.2,3.6
3.0859375,3.123484704966812e-05,2.5380816166933704e-05,2.44101996475166e-05,3.660356967269398e-05,4.2,3.6
3.08984375,3.3661388348210884e-05,1.4643370920881978e-05,1.8525836998550394e-05,3.4177028374151215e-05,4.2,3.6
3.09375,3.708887793240254e-05,1.6584603959716185e-05,2.44101996475166e-05,3.123484704966812e-05,4.2,3.6
3.09765625,3.123484704966812e-05,3.074953878995957e-05,3.2690771828793776e-05,3.2205463569085226e-05,4.2,3.6
3.1015625,3.074953878995957e-05,3.026423053025101e-05,2.7807357465476466e-05,3.172015530937667e-05,4.2,3.6
3.10546875,2.9778922270542466e-05,2.489550790722515e-05,3.466233663385977e-05,3.9060442737468535e-05,4.2,3.6
3.109375,3.2690771828793776e-05,2.1468018323033498e-05,2.44101996475166e-05,3.514764489356832e-05,4.2,3.6
3.11328125,3.611826141298543e-05,1.3157114375524532e-05,1.6584603959716185e-05,2.829266572518502e-05,4.2,3.6
3.1171875,2.683674094605936e-05,1.3157114375524532e-05,3.026423053025101e-05,3.85448027115282e-05,4.2,3.6
3.12109375,3.074953878995957e-05,2.9293614010833912e-05,3.708887793240254e-05,3.172015530937667e-05,4.2,3.6
3.125,3.563295315327688e-05,2.9293614010833912e-05,3.611826141298543e-05,2.880830575112536e-05,4.2,3.6
3.12890625,3.8059494451819647e-05,2.195332658274205e-05,2.1468018323033498e-05,3.9545750997177086e-05,4.2,3.6
3.1328125,3.4177028374151215e-05,1.6099295700007635e-05,1.6099295700007635e-05,3.660356967269398e-05,4.2,3.6
3.13671875,2.6351432686350808e-05,5.361850453955906e-06,1.3157114375524532e-05,3.3176080088502327e-05,4.2,3.6
3.140625,2.3924891387808045e-05,1.4490526100557001e-06,1.2671806115815981e-05,3.074953878995957e-05,4.2,3.6
3.14453125,2.489550790722515e-05,1.7555220479133293e-05,3.611826141298543e-05,3.3176080088502327e-05,4.2,3.6
3.1484375,3.2205463569085226e-05,2.6351432686350808e-05,3.172015530937667e-05,3.2690771828793776e-05,4.2,3.6
3.15234375,3.660356967269398e-05,2.2923943102159157e-05,9.759956557564665e-06,2.9293614010833912e-05,4.2,3.6
3.15625,3.4177028374151215e-05,2.340925136186771e-05,1.5128679180590527e-05,3.026423053025101e-05,4.2,3.6
3.16015625,2.829266572518502e-05,3.026423053025101e-05,2.001209354390784e-05,2.9293614010833912e-05,4.2,3.6
3.1640625,3.3176080088502327e-05,2.9778922270542466e-05,2.2438634842450603e-05,3.026423053025101e-05,4.2,3.6
3.16796875,3.2205463569085226e-05,2.44101996475166e-05,1.561398744029908e-05,3.2205463569085226e-05,4.2,3.6
3.171875,2.7807357465476466e-05,2.195332658274205e-05,1.5128679180590527e-05,3.660356967269398e-05,4.2,3.6
3.17578125,2.9778922270542466e-05,2.1468018323033498e-05,1.561398744029908e-05,3.2205463569085226e-05,4.2,3.6
3.1796875,2.683674094605936e-05,1.073057307698177e-05,1.3642422635233084e-05,3.074953878995957e-05,4.2,3.6
3.18359375,2.683674094605936e-05,1.2671806115815981e-05,2.7322049205767912e-05,3.172015530937667e-05,4.2,3.6
3.1875,3.026423053025101e-05,2.489550790722515e-05,2.683674094605936e-05,2.9293614010833912e-05,4.2,3.6
3.19140625,2.880830575112536e-05,1.2186497856107427e-05,1.9041477024490736e-05,2.9293614010833912e-05,4.2,3.6
3.1953125,3.172015530937667e-05,1.1701189596398875e-05,1.5128679180590527e-05,2.9293614010833912e-05,4.2,3.6
3.19921875,3.85448027115282e-05,2.2438634842450603e-05,1.2671806115815981e-05,2.6351432686350808e-05,4.2,3.6
3.203125,3.123484704966812e-05,1.1215881336690323e-05,1.9526785284199286e-05,2.683674094605936e-05,4.2,3.6
3.20703125,2.5380816166933704e-05,3.390285648889911e-06,2.5380816166933704e-05,3.2690771828793776e-05,4.2,3.6
3.2109375,3.3176080088502327e-05,1.9041477024490736e-05,2.9293614010833912e-05,3.563295315327688e-05,4.2,3.6
3.21484375,3.611826141298543e-05,2.0982710063324944e-05,2.195332658274205e-05,3.172015530937667e-05,4.2,3.6
3.21875,3.3661388348210884e-05,1.6099295700007635e-05,1.2671806115815981e-05,3.172015530937667e-05,4.2,3.6
3.22265625,3.2205463569085226e-05,1.4158062661173424e-05,1.706991221942474e-05,3.2690771828793776e-05,4.2,3.6
3.2265625,3.074953878995957e-05,5.361850453955906e-06,2.0982710063324944e-05,3.172015530937667e-05,4.2,3.6
3.23046875,2.7807357465476466e-05,1.7555220479133293e-05,3.466233663385977e-05,3.611826141298543e-05,4.2,3.6
3.234375,3.074953878995957e-05,3.757418619211109e-05,4.2457600555428396e-05,3.563295315327688e-05,4.2,3.6
3.23828125,3.514764489356832e-05,3.123484704966812e-05,2.6351432686350808e-05,3.172015530937667e-05,4.2,3.6
3.2421875,3.708887793240254e-05,2.880830575112536e-05,1.8040528738841847e-05,3.4177028374151215e-05,4.2,3.6
3.24609375,3.2690771828793776e-05,2.0982710063324944e-05,2.001209354390784e-05,3.563295315327688e-05,4.2,3.6
3.25,2.7807357465476466e-05,1.706991221942474e-05,2.7322049205767912e-05,3.4177028374151215e-05,4.2,3.6
3.25390625,3.3176080088502327e-05,1.6099295700007635e-05,2.829266572518502e-05,3.3176080088502327e-05,4.2,3.6
3.2578125,3.4177028374151215e-05,8.273700012207222e-06,2.2923943102159157e-05,3.4177028374151215e-05,4.2,3.6
3.26171875,3.611826141298543e-05,1.4643370920881978e-05,1.9526785284199286e-05,3.3661388348210884e-05,4.2,3.6
3.265625,4.2457600555428396e-05,2.9778922270542466e-05,2.2923943102159157e-05,3.026423053025101e-05,4.2,3.6
3.26953125,3.85448027115282e-05,2.829266572518502e-05,2.340925136186771e-05,3.074953878995957e-05,4.2,3.6
3.2734375,3.611826141298543e-05,2.6351432686350808e-05,2.2438634842450603e-05,3.074953878995957e-05,4.2,3.6
3.27734375,3.8059494451819647e-05,3.026423053025101e-05,1.4158062661173424e-05,2.880830575112536e-05,4.2,3.6
3.28125,3.466233663385977e-05,2.2923943102159157e-05,1.5128679180590527e-05,3.2690771828793776e-05,4.2,3.6
3.28515625,3.8059494451819647e-05,3.708887793240254e-05,2.489550790722515e-05,3.3661388348210884e-05,4.2,3.6
3.2890625,4.0031059256885636e-05,3.660356967269398e-05,2.5380816166933704e-05,3.3176080088502327e-05,4.2,3.6
3.29296875,3.074953878995957e-05,1.3642422635233084e-05,2.2923943102159157e-05,3.123484704966812e-05,4.2,3.6
3.296875,2.9778922270542466e-05,2.0982710063324944e-05,2.3924891387808045e-05,2.9778922270542466e-05,4.2,3.6
3.30078125,3.2205463569085226e-05,3.611826141298543e-05,3.2205463569085226e-05,3.074953878995957e-05,4.2,3.6
3.3046875,3.026423053025101e-05,2.340925136186771e-05,2.9293614010833912e-05,2.880830575112536e-05,4.2,3.6
3.30859375,3.123484704966812e-05,2.1468018323033498e-05,2.340925136186771e-05,2.7807357465476466e-05,4.2,3.6
3.3125,3.026423053025101e-05,2.9293614010833912e-05,1.8525836998550394e-05,2.9293614010833912e-05,4.2,3.6
3.31640625,3.172015530937667e-05,2.2923943102159157e-05,1.7555220479133293e-05,3.172015530937667e-05,4.2,3.6
3.3203125,3.074953878995957e-05,2.3924891387808045e-05,2.001209354390784e-05,3.4177028374151215e-05,4.2,3.6
3.32421875,2.9293614010833912e-05,2.5866124426642258e-05,2.6351432686350808e-05,3.660356967269398e-05,4.2,3.6
3.328125,3.660356967269398e-05,3.123484704966812e-05,3.2690771828793776e-05,3.4177028374151215e-05,4.2,3.6
3.33203125,4.0516367516594194e-05,2.829266572518502e-05,2.7322049205767912e-05,3.4177028374151215e-05,4.2,3.6
3.3359375,3.708887793240254e-05,3.2205463569085226e-05,2.489550790722515e-05,3.2205463569085226e-05,4.2,3.6
3.33984375,3.8059494451819647e-05,4.0031059256885636e-05,1.8525836998550394e-05,3.026423053025101e-05,4.2,3.6
3.34375,3.466233663385977e-05,3.3176080088502327e-05,2.7807357465476466e-05,3.514764489356832e-05,4.2,3.6
3.34765625,3.2205463569085226e-05,3.9060442737468535e-05,3.757418619211109e-05,3.3661388348210884e-05,4.2,3.6
3.3515625,3.172015530937667e-05,3.85448027115282e-05,3.3176080088502327e-05,2.9293614010833912e-05,4.2,3.6
3.35546875,3.466233663385977e-05,3.660356967269398e-05,2.6351432686350808e-05,2.880830575112536e-05,4.2,3.6
3.359375,3.9060442737468535e-05,3.172015530937667e-05,3.123484704966812e-05,3.074953878995957e-05,4.2,3.6
3.36328125,3.563295315327688e-05,2.9778922270542466e-05,3.4177028374151215e-05,3.563295315327688e-05,4.2,3.6
3.3671875,3.9060442737468535e-05,1.8040528738841847e-05,1.6584603959716185e-05,3.3176080088502327e-05,4.2,3.6
3.37109375,3.9060442737468535e-05,2.0497401803616394e-05,1.561398744029908e-05,2.7322049205767912e-05,4.2,3.6
3.375,3.563295315327688e-05,4.3428217074845503e-05,2.9293614010833912e-05,2.9778922270542466e-05,4.2,3.6
3.37890625,3.4177028374151215e-05,4.0516367516594194e-05,2.2438634842450603e-05,2.880830575112536e-05,4.2,3.6
3.3828125,2.880830575112536e-05,2.001209354390784e-05,2.0497401803616394e-05,2.829266572518502e-05,4.2,3.6
3.38671875,3.2690771828793776e-05,2.6351432686350808e-05,2.44101996475166e-05,3.2690771828793776e-05,4.2,3.6
3.390625,3.466233663385977e-05,3.8059494451819647e-05,3.172015530937667e-05,3.3661388348210884e-05,4.2,3.6
3.39453125,4.2457600555428396e-05,3.660356967269398e-05,3.9060442737468535e-05,2.829266572518502e-05,4.2,3.6
3.3984375,4.442916536049439e-05,3.2205463569085226e-05,3.4177028374151215e-05,2.6351432686350808e-05,4.2,3.6
3.40234375,3.563295315327688e-05,3.3176080088502327e-05,3.2205463569085226e-05,2.7322049205767912e-05,4.2,3.6
3.40625,3.611826141298543e-05,4.0031059256885636e-05,3.074953878995957e-05,2.6351432686350808e-05,4.2,3.6
3.41015625,3.172015530937667e-05,3.563295315327688e-05,2.195332658274205e-05,2.3924891387808045e-05,4.2,3.6
3.4140625,3.123484704966812e-05,2.880830575112536e-05,2.340925136186771e-05,2.7322049205767912e-05,4.2,3.6
3.41796875,3.514764489356832e-05,2.1468018323033498e-05,1.8525836998550394e-05,2.6351432686350808e-05,4.2,3.6
3.421875,3.660356967269398e-05,2.9293614010833912e-05,2.2438634842450603e-05,2.683674094605936e-05,4.2,3.6
3.42578125,4.148698403601129e-05,3.708887793240254e-05,2.683674094605936e-05,2.7807357465476466e-05,4.2,3.6
3.4296875,4.53997818799115e-05,3.2205463569085226e-05,2.1468018323033498e-05,2.44101996475166e-05,4.2,3.6
3.43359375,4.53997818799115e-05,4.3428217074845503e-05,3.3661388348210884e-05,3.2205463569085226e-05,4.2,3.6
3.4375,3.85448027115282e-05,4.0031059256885636e-05,3.2690771828793776e-05,3.514764489356832e-05,4.2,3.6
3.44140625,3.123484704966812e-05,3.074953878995957e-05,3.2690771828793776e-05,3.4177028374151215e-05,4.2,3.6
3.4453125,3.611826141298543e-05,3.466233663385977e-05,3.611826141298543e-05,3.4177028374151215e-05,4.2,3.6
3.44921875,3.757418619211109e-05,3.466233663385977e-05,1.6584603959716185e-05,3.466233663385977e-05,4.2,3.6
3.453125,3.8059494451819647e-05,3.4177028374151215e-05,9.759956557564665e-06,3.026423053025101e-05,4.2,3.6
3.45703125,4.0516367516594194e-05,4.0031059256885636e-05,1.7555220479133293e-05,2.6351432686350808e-05,4.2,3.6
3.4609375,3.660356967269398e-05,4.1001675776302744e-05,2.340925136186771e-05,3.074953878995957e-05,4.2,3.6
3.46484375,3.3661388348210884e-05,3.85448027115282e-05,3.563295315327688e-05,3.563295315327688e-05,4.2,3.6
3.46875,3.172015530937667e-05,3.8059494451819647e-05,3.2690771828793776e-05,3.611826141298543e-05,4.2,3.6
3.47265625,3.8059494451819647e-05,3.466233663385977e-05,2.1468018323033498e-05,3.2205463569085226e-05,4.2,3.6
3.4765625,3.85448027115282e-05,1.6099295700007635e-05,1.9526785284199286e-05,2.880830575112536e-05,4.2,3.6
3.48046875,3.123484704966812e-05,2.5866124426642258e-05,3.074953878995957e-05,3.2205463569085226e-05,4.2,3.6
3.484375,3.123484704966812e-05,2.880830575112536e-05,2.683674094605936e-05,3.563295315327688e-05,4.2,3.6
3.48828125,3.4177028374151215e-05,2.44101996475166e-05,1.4158062661173424e-05,3.3661388348210884e-05,4.2,3.6
3.4921875,3.9545750997177086e-05,3.123484704966812e-05,2.195332658274205e-05,3.2690771828793776e-05,4.2,3.6
3.49609375,4.1972292295719845e-05,3.85448027115282e-05,1.9526785284199286e-05,3.026423053025101e-05,4.2,3.6
3.5,3.8059494451819647e-05,4.1972292295719845e-05,1.6584603959716185e-05,2.9778922270542466e-05,4.2,3.6
3.50390625,3.611826141298543e-05,3.2690771828793776e-05,2.7807357465476466e-05,3.026423053025101e-05,4.2,3.6
3.5078125,3.514764489356832e-05,2.880830575112536e-05,2.6351432686350808e-05,2.6351432686350808e-05,4.2,3.6
3.51171875,3.123484704966812e-05,2.0497401803616394e-05,2.0497401803616394e-05,2.829266572518502e-05,4.2,3.6
3.515625,2.880830575112536e-05,1.9526785284199286e-05,2.2438634842450603e-05,3.2690771828793776e-05,4.2,3.6
3.51953125,3.172015530937667e-05,2.195332658274205e-05,2.195332658274205e-05,3.611826141298543e-05,4.2,3.6
3.5234375,3.563295315327688e-05,2.195332658274205e-05,2.7807357465476466e-05,3.3176080088502327e-05,4.2,3.6
3.52734375,3.611826141298543e-05,2.1468018323033498e-05,2.195332658274205e-05,2.6351432686350808e-05,4.2,3.6
3.53125,3.514764489356832e-05,2.2438634842450603e-05,1.3157114375524532e-05,2.9293614010833912e-05,4.2,3.6
3.53515625,3.8059494451819647e-05,2.7807357465476466e-05,2.1468018323033498e-05,3.3176080088502327e-05,4.2,3.6
3.5390625,3.757418619211109e-05,3.2205463569085226e-05,2.6351432686350808e-05,3.026423053025101e-05,4.2,3.6
3.54296875,3.466233663385977e-05,2.9293614010833912e-05,2.0982710063324944e-05,2.9293614010833912e-05,4.2,3.6
3.546875,3.2690771828793776e-05,2.2438634842450603e-05,1.6584603959716185e-05,3.026423053025101e-05,4.2,3.6
3.55078125,3.8059494451819647e-05,1.9041477024490736e-05,2.1468018323033498e-05,3.026423053025101e-05,4.2,3.6
3.5546875,3.563295315327688e-05,8.273700012207222e-06,2.0497401803616394e-05,3.074953878995957e-05,4.2,3.6
3.55859375,3.172015530937667e-05,1.4643370920881978e-05,1.561398744029908e-05,2.7807357465476466e-05,4.2,3.6
3.5625,3.3661388348210884e-05,2.9778922270542466e-05,2.3924891387808045e-05,2.7322049205767912e-05,4.2,3.6
3.56640625,3.466233663385977e-05,3.2205463569085226e-05,2.6351432686350808e-05,2.6351432686350808e-05,4.2,3.6
3.5703125,3.563295315327688e-05,2.489550790722515e-05,2.1468018323033498e-05,2.7807357465476466e-05,4.2,3.6
3.57421875,2.683674094605936e-05,1.2186497856107427e-05,2.195332658274205e-05,3.172015530937667e-05,4.2,3.6
3.578125,2.44101996475166e-05,1.2186497856107427e-05,3.466233663385977e-05,3.3176080088502327e-05,4.2,3.6
3.58203125,3.2690771828793776e-05,2.829266572518502e-05,4.3428217074845503e-05,3.3661388348210884e-05,4.2,3.6
3.5859375,3.611826141298543e-05,3.2205463569085226e-05,3.514764489356832e-05,3.123484704966812e-05,4.2,3.6
3.58984375,3.611826141298543e-05,3.2690771828793776e-05,2.5866124426642258e-05,2.9293614010833912e-05,4.2,3.6
3.59375,3.757418619211109e-05,4.0516367516594194e-05,2.829266572518502e-05,2.683674094605936e-05,4.2,3.6
3.59765625,3.2205463569085226e-05,2.5866124426642258e-05,2.489550790722515e-05,2.683674094605936e-05,4.2,3.6
3.6015625,3.2690771828793776e-05,4.442916536049439e-05,3.708887793240254e-05,3.026423053025101e-05,4.2,3.6
3.60546875,4.2457600555428396e-05,5.956471671015488e-05,5.662253538567178e-05,2.9293614010833912e-05,4.2,3.6
3.609375,4.0516367516594194e-05,2.1468018323033498e-05,2.2438634842450603e-05,2.5380816166933704e-05,4.2,3.6
3.61328125,3.4177028374151215e-05,2.880830575112536e-05,2.2923943102159157e-05,2.5380816166933704e-05,4.2,3.6
3.6171875,3.708887793240254e-05,4.3428217074845503e-05,4.148698403601129e-05,2.2923943102159157e-05,4.2,3.6
3.62109375,4.148698403601129e-05,2.9778922270542466e-05,2.6351432686350808e-05,2.0497401803616394e-05,4.2,3.6
3.625,4.1972292295719845e-05,3.660356967269398e-05,2.7322049205767912e-05,2.195332658274205e-05,4.2,3.6
3.62890625,4.394385710078584e-05,3.708887793240254e-05,2.7807357465476466e-05,1.9526785284199286e-05,4.2,3.6
3.6328125,4.53997818799115e-05,3.074953878995957e-05,3.074953878995957e-05,1.706991221942474e-05,4.2,3.6
3.63671875,4.7826323178454266e-05,2.5866124426642258e-05,2.6351432686350808e-05,1.6584603959716185e-05,4.2,3.6
3.640625,4.53997818799115e-05,2.2438634842450603e-05,1.1215881336690323e-05,1.6099295700007635e-05,4.2,3.6
3.64453125,3.9545750997177086e-05,4.394385710078584e-05,2.2438634842450603e-05,1.9526785284199286e-05,4.2,3.6
3.6484375,4.637039839932861e-05,4.491447362020294e-05,2.683674094605936e-05,2.001209354390784e-05,4.2,3.6
3.65234375,4.734101491874571e-05,2.0497401803616394e-05,1.5128679180590527e-05,1.6584603959716185e-05,4.2,3.6
3.65625,4.442916536049439e-05,2.5380816166933704e-05,1.561398744029908e-05,1.561398744029908e-05,4.2,3.6
3.66015625,4.685570665903716e-05,3.074953878995957e-05,1.4643370920881978e-05,1.706991221942474e-05,4.2,3.6
3.6640625,5.125381276264592e-05,2.7322049205767912e-05,1.6099295700007635e-05,1.7555220479133293e-05,4.2,3.6
3.66796875,5.125381276264592e-05,2.340925136186771e-05,1.561398744029908e-05,1.6099295700007635e-05,4.2,3.6
3.671875,4.491447362020294e-05,2.2438634842450603e-05,1.561398744029908e-05,1.6584603959716185e-05,4.2,3.6
3.67578125,4.0516367516594194e-05,3.514764489356832e-05,2.9293614010833912e-05,1.706991221942474e-05,4.2,3.6
3.6796875,4.394385710078584e-05,4.294290881513695e-05,3.3661388348210884e-05,2.1468018323033498e-05,4.2,3.6
3.68359375,4.7826323178454266e-05,3.9060442737468535e-05,3.2205463569085226e-05,2.2438634842450603e-05,4.2,3.6
3.6875,4.53997818799115e-05,4.9312579723811705e-05,3.074953878995957e-05,2.001209354390784e-05,4.2,3.6
3.69140625,4.442916536049439e-05,5.7107843645380335e-05,2.2438634842450603e-05,2.195332658274205e-05,4.2,3.6
3.6953125,4.294290881513695e-05,4.685570665903716e-05,2.340925136186771e-05,2.2923943102159157e-05,4.2,3.6
3.69921875,4.491447362020294e-05,4.685570665903716e-05,2.3924891387808045e-05,2.001209354390784e-05,4.2,3.6
3.703125,4.148698403601129e-05,5.270973754177157e-05,3.4177028374151215e-05,2.489550790722515e-05,4.2,3.6
3.70703125,4.0031059256885636e-05,5.222442928206303e-05,4.0031059256885636e-05,2.683674094605936e-05,4.2,3.6
3.7109375,4.1972292295719845e-05,3.466233663385977e-05,2.7322049205767912e-05,2.340925136186771e-05,4.2,3.6
3.71484375,3.660356967269398e-05,2.829266572518502e-05,2.489550790722515e-05,2.7322049205767912e-05,4.2,3.6
3.71875,3.8059494451819647e-05,3.514764489356832e-05,3.4177028374151215e-05,3.074953878995957e-05,4.2,3.6
3.72265625,4.148698403601129e-05,3.2690771828793776e-05,2.829266572518502e-05,2.829266572518502e-05,4.2,3.6
3.7265625,3.8059494451819647e-05,3.514764489356832e-05,2.683674094605936e-05,2.2923943102159157e-05,4.2,3.6
3.73046875,3.563295315327688e-05,3.074953878995957e-05,3.514764489356832e-05,2.6351432686350808e-05,4.2,3.6
3.734375,3.4177028374151215e-05,3.3661388348210884e-05,4.2457600555428396e-05,2.9293614010833912e-05,4.2,3.6
3.73828125,3.514764489356832e-05,3.9545750997177086e-05,4.53997818799115e-05,2.7322049205767912e-05,4.2,3.6
3.7421875,3.660356967269398e-05,4.442916536049439e-05,4.3428217074845503e-05,3.026423053025101e-05,4.2,3.6
3.74609375,3.514764489356832e-05,3.9060442737468535e-05,3.563295315327688e-05,2.880830575112536e-05,4.2,3.6
3.75,3.2690771828793776e-05,3.3661388348210884e-05,4.1001675776302744e-05,3.172015530937667e-05,4.2,3.6
3.75390625,3.2205463569085226e-05,3.8059494451819647e-05,4.442916536049439e-05,3.514764489356832e-05,4.2,3.6
3.7578125,3.660356967269398e-05,3.4177028374151215e-05,3.466233663385977e-05,3.074953878995957e-05,4.2,3.6
3.76171875,3.466233663385977e-05,2.829266572518502e-05,2.7807357465476466e-05,3.074953878995957e-05,4.2,3.6
3.765625,2.7807357465476466e-05,3.466233663385977e-05,2.829266572518502e-05,3.2205463569085226e-05,4.2,3.6
3.76953125,3.074953878995957e-05,3.514764489356832e-05,4.148698403601129e-05,3.2690771828793776e-05,4.2,3.6
3.7734375,3.2205463569085226e-05,3.3176080088502327e-05,3.026423053025101e-05,2.9778922270542466e-05,4.2,3.6
3.77734375,3.3661388348210884e-05,4.1001675776302744e-05,1.7555220479133293e-05,2.7807357465476466e-05,4.2,3.6
3.78125,3.4177028374151215e-05,3.85448027115282e-05,2.195332658274205e-05,2.7322049205767912e-05,4.2,3.6
3.78515625,3.074953878995957e-05,2.829266572518502e-05,2.0497401803616394e-05,3.026423053025101e-05,4.2,3.6
3.7890625,3.026423053025101e-05,3.2690771828793776e-05,1.6099295700007635e-05,3.3661388348210884e-05,4.2,3.6
3.79296875,3.466233663385977e-05,3.3661388348210884e-05,2.0497401803616394e-05,2.9293614010833912e-05,4.2,3.6
3.796875,3.074953878995957e-05,3.3176080088502327e-05,3.466233663385977e-05,3.026423053025101e-05,4.2,3.6
3.80078125,2.880830575112536e-05,3.4177028374151215e-05,2.9293614010833912e-05,3.3176080088502327e-05,4.2,3.6
3.8046875,3.514764489356832e-05,2.9293614010833912e-05,2.683674094605936e-05,3.2205463569085226e-05,4.2,3.6
3.80859375,3.660356967269398e-05,3.2690771828793776e-05,2.683674094605936e-05,2.7807357465476466e-05,4.2,3.6
3.8125,3.8059494451819647e-05,3.3176080088502327e-05,1.706991221942474e-05,2.7322049205767912e-05,4.2,3.6
3.81640625,3.708887793240254e-05,2.3924891387808045e-05,2.2923943102159157e-05,3.3661388348210884e-05,4.2,3.6
3.8203125,3.123484704966812e-05,2.2923943102159157e-05,3.074953878995957e-05,3.466233663385977e-05,4.2,3.6
3.82421875,3.172015530937667e-05,3.3661388348210884e-05,2.44101996475166e-05,3.074953878995957e-05,4.2,3.6
3.828125,3.3661388348210884e-05,3.611826141298543e-05,2.195332658274205e-05,3.3661388348210884e-05,4.2,3.6
3.83203125,3.563295315327688e-05,3.514764489356832e-05,2.489550790722515e-05,3.611826141298543e-05,4.2,3.6
3.8359375,3.3661388348210884e-05,3.757418619211109e-05,3.2205463569085226e-05,3.2205463569085226e-05,4.2,3.6
3.83984375,3.074953878995957e-05,3.3661388348210884e-05,2.6351432686350808e-05,3.026423053025101e-05,4.2,3.6
3.84375,3.074953878995957e-05,2.340925136186771e-05,2.5866124426642258e-05,3.3661388348210884e-05,4.2,3.6
3.84765625,3.172015530937667e-05,2.3924891387808045e-05,4.1972292295719845e-05,3.660356967269398e-05,4.2,3.6
3.8515625,3.2205463569085226e-05,2.2923943102159157e-05,2.340925136186771e-05,3.4177028374151215e-05,4.2,3.6
3.85546875,3.172015530937667e-05,2.5866124426642258e-05,1.9526785284199286e-05,3.514764489356832e-05,4.2,3.6
3.859375,3.466233663385977e-05,3.2205463569085226e-05,3.9545750997177086e-05,3.757418619211109e-05,4.2,3.6
3.86328125,3.708887793240254e-05,3.2690771828793776e-05,3.2690771828793776e-05,3.514764489356832e-05,4.2,3.6
3.8671875,3.074953878995957e-05,3.466233663385977e-05,2.683674094605936e-05,3.2205463569085226e-05,4.2,3.6
3.87109375,2.6351432686350808e-05,3.123484704966812e-05,2.9778922270542466e-05,3.3661388348210884e-05,4.2,3.6
3.875,2.7322049205767912e-05,3.3176080088502327e-05,2.880830575112536e-05,3.026423053025101e-05,4.2,3.6
3.87890625,2.7807357465476466e-05,3.2690771828793776e-05,2.340925136186771e-05,2.9778922270542466e-05,4.2,3.6
3.8828125,2.880830575112536e-05,2.6351432686350808e-05,2.44101996475166e-05,3.026423053025101e-05,4.2,3.6
3.88671875,3.2690771828793776e-05,3.466233663385977e-05,2.7322049205767912e-05,3.026423053025101e-05,4.2,3.6
3.890625,3.2205463569085226e-05,3.514764489356832e-05,2.6351432686350808e-05,3.172015530937667e-05,4.2,3.6
3.89453125,3.026423053025101e-05,2.7807357465476466e-05,2.2438634842450603e-05,3.2205463569085226e-05,4.2,3.6
3.8984375,3.172015530937667e-05,2.683674094605936e-05,2.683674094605936e-05,3.4177028374151215e-05,4.2,3.6
3.90234375,3.2205463569085226e-05,3.708887793240254e-05,3.611826141298543e-05,3.3661388348210884e-05,4.2,3.6
3.90625,3.563295315327688e-05,3.8059494451819647e-05,3.757418619211109e-05,3.611826141298543e-05,4.2,3.6
3.91015625,3.3661388348210884e-05,3.660356967269398e-05,4.1001675776302744e-05,3.466233663385977e-05,4.2,3.6
3.9140625,2.9778922270542466e-05,3.563295315327688e-05,3.8059494451819647e-05,3.3176080088502327e-05,4.2,3.6
3.91796875,3.026423053025101e-05,3.074953878995957e-05,3.172015530937667e-05,3.123484704966812e-05,4.2,3.6
3.921875,2.683674094605936e-05,3.3661388348210884e-05,2.880830575112536e-05,3.123484704966812e-05,4.2,3.6
3.92578125,2.9293614010833912e-05,3.123484704966812e-05,2.3924891387808045e-05,3.074953878995957e-05,4.2,3.6
3.9296875,3.2690771828793776e-05,2.6351432686350808e-05,2.340925136186771e-05,2.829266572518502e-05,4.2,3.6
3.93359375,3.026423053025101e-05,2.683674094605936e-05,3.074953878995957e-05,3.026423053025101e-05,4.2,3.6
3.9375,3.123484704966812e-05,3.4177028374151215e-05,3.074953878995957e-05,3.3661388348210884e-05,4.2,3.6
3.94140625,2.829266572518502e-05,2.5380816166933704e-05,3.660356967269398e-05,3.708887793240254e-05,4.2,3.6
3.9453125,2.5866124426642258e-05,2.2923943102159157e-05,4.588509013962005e-05,3.3176080088502327e-05,4.2,3.6
3.94921875,2.9293614010833912e-05,3.3661388348210884e-05,4.1972292295719845e-05,3.2205463569085226e-05,4.2,3.6
3.953125,3.2205463569085226e-05,2.683674094605936e-05,3.708887793240254e-05,3.466233663385977e-05,4.2,3.6
3.95703125,3.026423053025101e-05,3.172015530937667e-05,2.5866124426642258e-05,2.9293614010833912e-05,4.2,3.6
3.9609375,3.466233663385977e-05,3.757418619211109e-05,3.123484704966812e-05,2.683674094605936e-05,4.2,3.6
3.96484375,3.466233663385977e-05,3.074953878995957e-05,4.8827271464103155e-05,2.9293614010833912e-05,4.2,3.6
3.96875,3.3176080088502327e-05,2.2923943102159157e-05,3.9545750997177086e-05,3.123484704966812e-05,4.2,3.6
3.97265625,3.074953878995957e-05,3.3176080088502327e-05,3.3661388348210884e-05,2.829266572518502e-05,4.2,3.6
3.9765625,2.829266572518502e-05,2.9293614010833912e-05,3.3176080088502327e-05,2.7807357465476466e-05,4.2,3.6
3.98046875,3.172015530937667e-05,2.0982710063324944e-05,2.2438634842450603e-05,3.123484704966812e-05,4.2,3.6
3.984375,3.3176080088502327e-05,3.9545750997177086e-05,1.706991221942474e-05,3.3176080088502327e-05,4.2,3.6
3.98828125,3.3661388348210884e-05,3.660356967269398e-05,2.5866124426642258e-05,3.4177028374151215e-05,4.2,3.6
3.9921875,3.172015530937667e-05,2.5380816166933704e-05,3.2205463569085226e-05,3.3176080088502327e-05,4.2,3.6
3.99609375,3.2690771828793776e-05,2.829266572518502e-05,3.660356967269398e-05,3.4177028374151215e-05,4.2,3.6
4.0,3.4177028374151215e-05,3.026423053025101e-05,4.394385710078584e-05,3.3176080088502327e-05,4.2,3.6
4.00390625,3.4177028374151215e-05,2.683674094605936e-05,3.514764489356832e-05,3.123484704966812e-05,4.2,3.6
4.0078125,3.563295315327688e-05,2.829266572518502e-05,2.683674094605936e-05,3.172015530937667e-05,4.2,3.6
4.01171875,3.514764489356832e-05,3.708887793240254e-05,2.2438634842450603e-05,3.2205463569085226e-05,4.2,3.6
4.015625,3.757418619211109e-05,4.294290881513695e-05,1.561398744029908e-05,2.7807357465476466e-05,4.2,3.6
4.01953125,3.3661388348210884e-05,2.880830575112536e-05,2.683674094605936e-05,2.7322049205767912e-05,4.2,3.6
4.0234375,3.172015530937667e-05,2.683674094605936e-05,2.3924891387808045e-05,3.3176080088502327e-05,4.2,3.6
4.02734375,3.466233663385977e-05,3.9060442737468535e-05,2.489550790722515e-05,3.2205463569085226e-05,4.2,3.6
4.03125,3.466233663385977e-05,2.7807357465476466e-05,3.563295315327688e-05,3.123484704966812e-05,4.2,3.6
4.03515625,3.611826141298543e-05,2.9293614010833912e-05,2.9293614010833912e-05,3.074953878995957e-05,4.2,3.6
4.0390625,3.2690771828793776e-05,2.2438634842450603e-05,1.9526785284199286e-05,2.7322049205767912e-05,4.2,3.6
4.04296875,2.9778922270542466e-05,2.195332658274205e-05,2.7322049205767912e-05,2.9778922270542466e-05,4.2,3.6
4.046875,3.2690771828793776e-05,2.489550790722515e-05,2.9778922270542466e-05,2.9778922270542466e-05,4.2,3.6
4.05078125,3.708887793240254e-05,2.44101996475166e-05,1.3157114375524532e-05,2.7322049205767912e-05,4.2,3.6
4.0546875,3.4177028374151215e-05,2.340925136186771e-05,1.1215881336690323e-05,3.074953878995957e-05,4.2,3.6
4.05859375,3.3661388348210884e-05,2.7322049205767912e-05,2.0982710063324944e-05,2.9778922270542466e-05,4.2,3.6
4.0625,3.611826141298543e-05,2.7322049205767912e-05,2.0497401803616394e-05,3.074953878995957e-05,4.2,3.6
4.06640625,3.563295315327688e-05,1.6584603959716185e-05,2.195332658274205e-05,3.514764489356832e-05,4.2,3.6
4.0703125,4.1001675776302744e-05,2.7807357465476466e-05,2.0982710063324944e-05,4.1972292295719845e-05,4.2,3.6
4.07421875,4.491447362020294e-05,3.3176080088502327e-05,2.195332658274205e-05,4.0031059256885636e-05,4.2,3.6
4.078125,4.588509013962005e-05,3.2205463569085226e-05,2.3924891387808045e-05,3.3661388348210884e-05,4.2,3.6
4.08203125,4.3428217074845503e-05,2.683674094605936e-05,2.5866124426642258e-05,4.148698403601129e-05,4.2,3.6
4.0859375,3.85448027115282e-05,1.0245264817273217e-05,1.073057307698177e-05,3.3661388348210884e-05,4.2,3.6
4.08984375,4.0031059256885636e-05,1.2186497856107427e-05,-6.346211311512927e-06,2.44101996475166e-05,4.2,3.6
4.09375,4.9312579723811705e-05,3.708887793240254e-05,1.8040528738841847e-05,3.757418619211109e-05,4.2,3.6
4.09765625,5.319504580148012e-05,3.3661388348210884e-05,2.5380816166933704e-05,4.3428217074845503e-05,4.2,3.6
4.1015625,5.0768504502937364e-05,-4.374646506446931e-06,1.934360869764253e-06,4.588509013962005e-05,4.2,3.6
4.10546875,5.319504580148012e-05,-2.4637452338445057e-06,-3.434361753261611e-06,5.468130234683757e-05,4.2,3.6
4.109375,5.8078460164797436e-05,5.847158713664459e-06,-4.374646506446931e-06,5.468130234683757e-05,4.2,3.6
4.11328125,6.493343933318074e-05,-7.316827830930032e-06,-9.258060869764243e-06,5.956471671015488e-05,4.2,3.6
4.1171875,6.493343933318074e-05,-7.316827830930032e-06,-1.0713985648889901e-05,6.053533322957199e-05,4.2,3.6
4.12109375,6.150594974898909e-05,2.904977389181358e-06,-4.8599547661554836e-06,6.296187452811474e-05,4.2,3.6
4.125,6.590405585259784e-05,-4.374646506446931e-06,-1.2200242194247344e-05,6.981685369649805e-05,4.2,3.6
4.12890625,6.784528889143206e-05,-2.148176266117341e-05,-1.2685550453955896e-05,7.127277847562372e-05,4.2,3.6
4.1328125,7.175808673533227e-05,-3.270451616693369e-05,-1.6082708271915763e-05,6.687467237201495e-05,4.2,3.6
4.13671875,7.761211761806668e-05,-3.4645749205767905e-05,-2.927702658274204e-05,6.24765662684062e-05,4.2,3.6
4.140625,7.909837416342413e-05,-2.3908303959716177e-05,-1.7083656557564655e-05,7.664150109864958e-05,4.2,3.6
4.14453125,7.321401151445792e-05,-3.66173140108339e-05,-2.7821101803616383e-05,7.615619283894102e-05,4.2,3.6
4.1484375,7.712680935835813e-05,-4.3441961412985416e-05,-4.586850271152818e-05,6.93315454367895e-05,4.2,3.6
4.15234375,8.103960720225833e-05,-5.1267557100785834e-05,-4.784006751659418e-05,7.42149598001068e-05,4.2,3.6
4.15625,7.615619283894102e-05,-5.320879013962004e-05,-3.66173140108339e-05,7.470026805981537e-05,4.2,3.6
4.16015625,8.103960720225833e-05,-3.5616365725185006e-05,-2.4393612219424728e-05,8.201022372167544e-05,4.2,3.6
4.1640625,7.809742587777523e-05,-5.46647149187457e-05,-3.5131057465476455e-05,8.398178852674144e-05,4.2,3.6
4.16796875,7.518557631952392e-05,-5.8092204502937356e-05,-2.4393612219424728e-05,8.103960720225833e-05,4.2,3.6
4.171875,7.861306590371558e-05,-3.952916356908521e-05,-3.855854704966811e-05,8.398178852674144e-05,4.2,3.6
4.17578125,7.664150109864958e-05,-5.515002317845425e-05,-5.8092204502937356e-05,8.592302156557564e-05,4.2,3.6
4.1796875,6.884623717708095e-05,-6.588746842450599e-05,-3.6132005751125344e-05,8.786425460440986e-05,4.2,3.6
4.18359375,6.884623717708095e-05,-5.320879013962004e-05,-3.5131057465476455e-05,8.398178852674144e-05,4.2,3.6
4.1875,6.590405585259784e-05,-5.1267557100785834e-05,-3.904385530937667e-05,8.15249154619669e-05,4.2,3.6
4.19140625,5.8078460164797436e-05,-5.1752865360494385e-05,-3.3189824426642246e-05,8.201022372167544e-05,4.2,3.6
4.1953125,5.419599408712902e-05,-7.028557452811473e-05,-4.929599229571984e-05,7.861306590371558e-05,4.2,3.6
4.19921875,4.491447362020294e-05,-5.46647149187457e-05,-3.124859138780804e-05,7.321401151445792e-05,4.2,3.6
4.203125,4.1972292295719845e-05,-2.8791718323033487e-05,-2.0480814375524522e-05,6.590405585259784e-05,4.2,3.6
4.20703125,4.394385710078584e-05,-3.5131057465476455e-05,-2.7821101803616383e-05,5.8563768424505993e-05,4.2,3.6
4.2109375,4.1972292295719845e-05,-1.5112091752498659e-05,4.391233934538801e-06,5.371068582742047e-05,4.2,3.6
4.21484375,3.563295315327688e-05,5.361850453955906e-06,-5.345263025864037e-06,4.734101491874571e-05,4.2,3.6
4.21875,2.9778922270542466e-05,-6.831519571221479e-06,-1.0228677389181349e-05,3.757418619211109e-05,4.2,3.6
4.22265625,1.9041477024490736e-05,-1.0228677389181349e-05,1.561398744029908e-05,3.3661388348210884e-05,4.2,3.6
4.2265625,1.3157114375524532e-05,-4.374646506446931e-06,1.6099295700007635e-05,3.172015530937667e-05,4.2,3.6
4.23046875,1.6099295700007635e-05,4.391233934538801e-06,3.026423053025101e-05,2.5380816166933704e-05,4.2,3.6
4.234375,1.2671806115815981e-05,1.9041477024490736e-05,3.8059494451819647e-05,1.7555220479133293e-05,4.2,3.6
4.23828125,7.78839175249867e-06,2.829266572518502e-05,1.9041477024490736e-05,1.3157114375524532e-05,4.2,3.6
4.2421875,1.073057307698177e-05,3.3176080088502327e-05,2.489550790722515e-05,1.073057307698177e-05,4.2,3.6
4.24609375,1.073057307698177e-05,6.150594974898909e-05,4.1972292295719845e-05,5.361850453955906e-06,4.2,3.6
4.25,1.0245264817273217e-05,5.956471671015488e-05,5.173912102235447e-05,4.391233934538801e-06,4.2,3.6
4.25390625,3.905925674830248e-06,4.294290881513695e-05,5.516661060654612e-05,6.332466973373011e-06,4.2,3.6
4.2578125,9.63744350347148e-07,5.419599408712902e-05,5.956471671015488e-05,4.8765421942473524e-06,4.2,3.6
4.26171875,4.8765421942473524e-06,5.468130234683757e-05,6.833059715114062e-05,1.934360869764253e-06,4.2,3.6
4.265625,1.934360869764253e-06,5.7593151905088886e-05,7.078747021591517e-05,6.332466973373011e-06,4.2,3.6
4.26953125,-6.872169069957578e-09,5.565191886625467e-05,6.833059715114062e-05,6.817775233081564e-06,4.2,3.6
4.2734375,8.759008271915774e-06,6.54187475928893e-05,6.93315454367895e-05,-4.921804287785103e-07,4.2,3.6
4.27734375,1.0245264817273217e-05,7.470026805981537e-05,7.224339499504082e-05,4.8765421942473524e-06,4.2,3.6
4.28125,5.361850453955906e-06,8.786425460440986e-05,6.833059715114062e-05,3.905925674830248e-06,4.2,3.6
4.28515625,6.332466973373011e-06,8.201022372167544e-05,7.272870325474937e-05,3.390285648889911e-06,4.2,3.6
4.2890625,5.847158713664459e-06,6.833059715114062e-05,7.321401151445792e-05,8.759008271915774e-06,4.2,3.6
4.29296875,2.904977389181358e-06,6.884623717708095e-05,7.567088457923248e-05,1.0245264817273217e-05,4.2,3.6
4.296875,1.934360869764253e-06,6.005002496986343e-05,7.372965154039826e-05,9.274648297856113e-06,4.2,3.6
4.30078125,5.847158713664459e-06,5.7593151905088886e-05,6.296187452811474e-05,8.273700012207222e-06,4.2,3.6
4.3046875,8.273700012207222e-06,6.053533322957199e-05,5.8078460164797436e-05,9.759956557564665e-06,4.2,3.6
4.30859375,7.303083492790117e-06,6.590405585259784e-05,5.956471671015488e-05,9.759956557564665e-06,4.2,3.6
4.3125,4.8765421942473524e-06,6.784528889143206e-05,7.175808673533227e-05,9.274648297856113e-06,4.2,3.6
4.31640625,8.759008271915774e-06,7.615619283894102e-05,6.687467237201495e-05,9.274648297856113e-06,4.2,3.6
4.3203125,1.4158062661173424e-05,6.93315454367895e-05,5.9079408450446325e-05,7.78839175249867e-06,4.2,3.6
4.32421875,1.3642422635233084e-05,6.199125800869764e-05,6.884623717708095e-05,1.3157114375524532e-05,4.2,3.6
4.328125,1.5128679180590527e-05,7.127277847562372e-05,6.444813107347219e-05,1.1701189596398875e-05,4.2,3.6
