timestamp,TP9,AF7,AF8,TP10,Valence,Arousal
0.0,-4.490062438391692e-05,9.29220080262462e-06,-2.8319632904554734e-05,-5.467440370641634e-05,5.8667,7.0667
0.00390625,-5.761448366521699e-05,-1.2188923941405292e-05,-2.9776429280537056e-05,-5.954804976424805e-05,5.8667,7.0667
0.0078125,-4.2463801355001064e-05,-3.36700486854352e-05,-1.2692180871290076e-05,-5.711122673533219e-05,5.8667,7.0667
0.01171875,-3.5153332268253534e-05,-4.198703163195233e-05,-9.752100912489439e-06,-5.1257554024566953e-05,5.8667,7.0667
0.015625,-4.784070434271757e-05,-5.369437705348281e-05,-3.173648258640415e-05,-5.1257554024566953e-05,5.8667,7.0667
0.01953125,-4.442385466086816e-05,-5.954804976424805e-05,-6.150810307011514e-05,-5.271435040054925e-05,5.8667,7.0667
0.0234375,-3.025319900358579e-05,-3.904695167315168e-05,-6.005130669413284e-05,-5.613120008239866e-05,5.8667,7.0667
0.02734375,-2.7816375974669965e-05,-3.36700486854352e-05,-2.927317235065226e-05,-5.369437705348281e-05,5.8667,7.0667
0.03125,-2.7816375974669965e-05,-4.002697832608524e-05,-1.4625746970321131e-05,-4.5403881313801714e-05,5.8667,7.0667
0.03515625,-2.6836349321736405e-05,-4.344382800793463e-05,-3.759015529716939e-05,-4.929750071869986e-05,5.8667,7.0667
0.0390625,-2.0982676610971166e-05,-3.7086898367284586e-05,-5.1257554024566953e-05,-6.19848727931639e-05,5.8667,7.0667
0.04296875,-1.756582692912178e-05,5.372094190890436e-06,-1.8545853582055315e-05,-5.51511734294651e-05,5.8667,7.0667
0.046875,-1.2692180871290076e-05,2.248282980697344e-05,-7.3152778835736e-06,-4.686067768978401e-05,5.8667,7.0667
0.05078125,-2.1962703263904726e-05,1.710592681925695e-05,-5.0277527371633424e-05,-6.296489944609742e-05,5.8667,7.0667
0.0546875,-3.904695167315168e-05,-6.335251230640054e-06,-6.492495275196453e-05,-7.615552845044626e-05,5.8667,7.0667
0.05859375,-2.341949963988702e-05,-4.490062438391692e-05,-6.786503271076517e-05,-8.007563506218045e-05,5.8667,7.0667
0.0625,-2.0002649958037636e-05,-4.83174740657663e-05,-6.24881297230487e-05,-8.25124580910963e-05,5.8667,7.0667
0.06640625,-2.7816375974669965e-05,-3.759015529716939e-05,-2.4399526292820554e-05,-6.979859880979623e-05,5.8667,7.0667
0.0703125,-2.1962703263904726e-05,-4.5880651036850475e-05,-1.4148977247272383e-05,-6.542820968184933e-05,5.8667,7.0667
0.07421875,-1.8042596652170515e-05,-5.078078430151819e-05,-2.927317235065226e-05,-6.103133334706638e-05,5.8667,7.0667
0.078125,-1.3645720317387584e-05,-2.243947298695346e-05,-3.806692502021815e-05,-5.954804976424805e-05,5.8667,7.0667
0.08203125,-1.4148977247272383e-05,-9.275331189440691e-06,-1.9525880234988875e-05,-6.542820968184933e-05,5.8667,7.0667
0.0859375,-2.0982676610971166e-05,-1.171215421835653e-05,-2.4876296015869315e-05,-7.371870542153041e-05,5.8667,7.0667
0.08984375,-1.2692180871290076e-05,-7.3152778835736e-06,-1.8545853582055315e-05,-8.007563506218045e-05,5.8667,7.0667
0.09375,-2.537955294575411e-05,-9.752100912489439e-06,2.3939626182955747e-05,-8.298922781414503e-05,5.8667,7.0667
0.09765625,-2.8319632904554734e-05,-1.512900390020593e-05,-2.7816375974669965e-05,-8.836613080186154e-05,5.8667,7.0667
0.1015625,-2.6359579598687644e-05,-9.275331189440691e-06,-6.3944926099031e-05,-9.71598834714274e-05,5.8667,7.0667
0.10546875,-4.392059773098339e-05,-1.0732127565422984e-05,-5.954804976424805e-05,-0.00010690717558709082,5.8667,7.0667
0.109375,-2.0002649958037636e-05,-2.7816375974669965e-05,-5.856802311131448e-05,-0.00011424413188067438,5.8667,7.0667
0.11328125,-3.395171271839402e-06,-2.4399526292820554e-05,-2.145944633401993e-05,-9.861667984740972e-05,5.8667,7.0667
0.1171875,-2.294272991683826e-05,-1.1208897288471746e-05,1.3689077137407565e-05,-7.077862546272976e-05,5.8667,7.0667
0.12109375,-2.0002649958037636e-05,-4.878454854657746e-06,3.915297814908129e-06,-6.492495275196453e-05,5.8667,7.0667
0.125,-1.0732127565422984e-05,-1.938374895857109e-06,-4.490062438391692e-05,-8.542605084306089e-05,5.8667,7.0667
0.12890625,-1.512900390020593e-05,9.768970525673367e-06,-3.857018195010292e-05,-9.472306044251157e-05,5.8667,7.0667
0.1328125,-7.3152778835736e-06,-1.4148977247272383e-05,-1.938374895857109e-06,-8.102917450827794e-05,5.8667,7.0667
0.13671875,5.372094190890436e-06,-1.171215421835653e-05,1.3689077137407565e-05,-7.665878538033107e-05,5.8667,7.0667
0.140625,-7.792047606622347e-06,-1.0732127565422984e-05,1.856272319523926e-05,-7.859235147936212e-05,5.8667,7.0667
0.14453125,-8.295304536507146e-06,-3.173648258640415e-05,1.7582696542305712e-05,-7.128188239261455e-05,5.8667,7.0667
0.1484375,-5.355224577706494e-06,-1.2188923941405292e-05,9.768970525673367e-06,-7.419547514457918e-05,5.8667,7.0667
0.15234375,1.4784747859922902e-06,2.935271161974583e-06,3.1276582476539315e-05,-7.567875872739751e-05,5.8667,7.0667
0.15625,1.906598012512404e-05,-2.918401548790655e-06,5.079765391470213e-05,-7.419547514457918e-05,5.8667,7.0667
0.16015625,7.835404426642327e-06,2.935271161974583e-06,2.6879706141756384e-05,-8.396925446707859e-05,5.8667,7.0667
0.1640625,-8.295304536507146e-06,2.3462856459906986e-05,2.00460067780576e-05,-8.934615745479507e-05,5.8667,7.0667
0.16796875,-1.1208897288471746e-05,4.836083088578629e-05,4.054710486915395e-05,-7.859235147936212e-05,5.8667,7.0667
0.171875,-6.812020953688801e-06,2.6376449211871588e-05,6.78819023239491e-05,-7.51755017975127e-05,5.8667,7.0667
0.17578125,-2.918401548790655e-06,5.875351120775221e-06,7.423883196459914e-05,-7.665878538033107e-05,5.8667,7.0667
0.1796875,-4.815785198748017e-07,-2.0982676610971166e-05,3.9063821286335606e-05,-6.150810307011514e-05,5.8667,7.0667
0.18359375,-1.4616051728083475e-06,-4.5403881313801714e-05,-2.341949963988702e-05,-6.052807641718158e-05,5.8667,7.0667
0.1875,1.1252254108491712e-05,-1.6109030553139477e-05,-3.955020860303648e-05,-5.4197633983367604e-05,5.8667,7.0667
0.19140625,5.372094190890436e-06,-9.752100912489439e-06,-1.4148977247272383e-05,-5.613120008239866e-05,5.8667,7.0667
0.1953125,2.458501438925836e-06,-2.7339606251621204e-05,-1.3168950594338838e-05,-6.884505936369871e-05,5.8667,7.0667
0.19921875,-3.8984282017242e-06,-4.638390796673528e-05,-2.927317235065226e-05,-8.444602419012736e-05,5.8667,7.0667
0.203125,-1.2692180871290076e-05,-5.223758067750052e-05,-1.5605773623254678e-05,-8.982292717784383e-05,5.8667,7.0667
0.20703125,1.4784747859922902e-06,-4.442385466086816e-05,9.29220080262462e-06,-7.226190904554812e-05,5.8667,7.0667
0.2109375,-1.4616051728083475e-06,-2.8319632904554734e-05,5.372094190890436e-06,-6.979859880979623e-05,5.8667,7.0667
0.21484375,-1.3168950594338838e-05,-1.8545853582055315e-05,1.7582696542305712e-05,-7.615552845044626e-05,5.8667,7.0667
0.21875,-1.171215421835653e-05,-4.878454854657746e-06,4.3460697621118554e-05,-7.175865211566332e-05,5.8667,7.0667
0.22265625,-6.812020953688801e-06,4.984481330587442e-07,1.6125900166323404e-05,-6.979859880979623e-05,5.8667,7.0667
0.2265625,-2.0505906887922405e-05,3.811028184023811e-05,-1.3645720317387584e-05,-8.153243143816275e-05,5.8667,7.0667
0.23046875,-2.7816375974669965e-05,7.129875200579849e-05,1.1252254108491712e-05,-8.982292717784383e-05,5.8667,7.0667
0.234375,-9.275331189440691e-06,2.4416395906004494e-05,4.640077757991919e-05,-6.979859880979623e-05,5.8667,7.0667
0.23828125,7.835404426642327e-06,-1.9022623305104076e-05,5.763135327840093e-05,-3.173648258640415e-05,5.8667,7.0667
0.2421875,-1.8545853582055315e-05,-2.341949963988702e-05,2.9793298893720986e-05,-4.2967058284885867e-05,5.8667,7.0667
0.24609375,-2.9776429280537056e-05,-4.980075764858466e-05,-4.815785198748017e-07,-9.08029538307774e-05,5.8667,7.0667
0.25,-1.3168950594338838e-05,-5.856802311131448e-05,1.8085953472190494e-05,-8.25124580910963e-05,5.8667,7.0667
0.25390625,-1.5605773623254678e-05,-4.88207309956511e-05,1.3185820207522765e-05,-8.102917450827794e-05,5.8667,7.0667
0.2578125,-3.221325230945288e-05,-5.711122673533219e-05,-1.0732127565422984e-05,-0.00010253678645914391,5.8667,7.0667
0.26171875,-3.075645593347059e-05,-4.929750071869986e-05,1.9552445090410374e-06,-9.421980351262678e-05,5.8667,7.0667
0.265625,-3.025319900358579e-05,-5.321760733043405e-05,1.6125900166323404e-05,-9.08029538307774e-05,5.8667,7.0667
0.26953125,-2.537955294575411e-05,-5.078078430151819e-05,2.3462856459906986e-05,-8.349248474402983e-05,5.8667,7.0667
0.2734375,-1.02288706355382e-05,-2.341949963988702e-05,2.9316529170672225e-05,-7.51755017975127e-05,5.8667,7.0667
0.27734375,-1.708905720607302e-05,-2.341949963988702e-05,1.7582696542305712e-05,-8.444602419012736e-05,5.8667,7.0667
0.28125,-2.537955294575411e-05,-2.7339606251621204e-05,-1.4625746970321131e-05,-8.396925446707859e-05,5.8667,7.0667
0.28515625,-9.752100912489439e-06,-2.5856322668802875e-05,-2.1962703263904726e-05,-8.298922781414503e-05,5.8667,7.0667
0.2890625,-9.752100912489439e-06,-1.658580027618822e-05,1.1252254108491712e-05,-7.811558175631336e-05,5.8667,7.0667
0.29296875,-2.537955294575411e-05,-4.375197924772948e-06,2.539642255893804e-05,-7.371870542153041e-05,5.8667,7.0667
0.296875,-4.878454854657746e-06,2.881327224078744e-05,1.6602669889372165e-05,-6.005130669413284e-05,5.8667,7.0667
0.30078125,-1.02288706355382e-05,3.2733378852521626e-05,-1.756582692912178e-05,-7.128188239261455e-05,5.8667,7.0667
0.3046875,-2.8319632904554734e-05,2.0999546224155096e-05,-3.904695167315168e-05,-8.05524047852292e-05,5.8667,7.0667
0.30859375,-2.243947298695346e-05,8.312174149691075e-06,-1.3645720317387584e-05,-6.979859880979623e-05,5.8667,7.0667
0.3125,-2.8319632904554734e-05,-4.490062438391692e-05,-6.812020953688801e-06,-6.150810307011514e-05,5.8667,7.0667
0.31640625,-3.025319900358579e-05,-7.761232482642856e-05,-1.658580027618822e-05,-5.321760733043405e-05,5.8667,7.0667
0.3203125,-2.7816375974669965e-05,-6.296489944609742e-05,-2.5856322668802875e-05,-5.321760733043405e-05,5.8667,7.0667
0.32421875,-1.9525880234988875e-05,-4.5880651036850475e-05,-3.025319900358579e-05,-4.5403881313801714e-05,5.8667,7.0667
0.328125,-1.658580027618822e-05,-4.002697832608524e-05,-2.927317235065226e-05,-5.1257554024566953e-05,5.8667,7.0667
0.33203125,-2.7816375974669965e-05,-3.904695167315168e-05,-2.9776429280537056e-05,-5.56544303593499e-05,5.8667,7.0667
0.3359375,-1.756582692912178e-05,-2.341949963988702e-05,-1.3168950594338838e-05,-3.610687171435103e-05,5.8667,7.0667
0.33984375,-2.0982676610971166e-05,-3.2690022032501644e-05,-3.173648258640415e-05,-4.638390796673528e-05,5.8667,7.0667
0.34375,-3.6610128644235825e-05,-4.344382800793463e-05,-5.613120008239866e-05,-6.346815637598223e-05,5.8667,7.0667
0.34765625,-4.2463801355001064e-05,-2.9776429280537056e-05,-4.490062438391692e-05,-5.8091253388265756e-05,5.8667,7.0667
0.3515625,-4.929750071869986e-05,-3.123322565651935e-05,-4.002697832608524e-05,-5.856802311131448e-05,5.8667,7.0667
0.35546875,-3.319327896238644e-05,-5.355224577706494e-06,-3.221325230945288e-05,-5.1734323747615714e-05,5.8667,7.0667
0.359375,-2.392275656977182e-05,3.6150228534371024e-05,-4.784070434271757e-05,-3.857018195010292e-05,5.8667,7.0667
0.36328125,-1.8042596652170515e-05,3.713025518730457e-05,-4.442385466086816e-05,-2.7339606251621204e-05,5.8667,7.0667
0.3671875,-2.145944633401993e-05,-3.4173305615320004e-05,-2.7339606251621204e-05,-2.4876296015869315e-05,5.8667,7.0667
0.37109375,-3.465007533836874e-05,-6.979859880979623e-05,-1.2692180871290076e-05,-1.9525880234988875e-05,5.8667,7.0667
0.375,-3.5153332268253534e-05,-7.957237813229565e-05,-1.4625746970321131e-05,-2.243947298695346e-05,5.8667,7.0667
0.37890625,-5.0277527371633424e-05,-8.884290052491027e-05,-3.904695167315168e-05,-4.100700497901877e-05,5.8667,7.0667
0.3828125,-5.663445701228343e-05,-7.128188239261455e-05,-4.88207309956511e-05,-4.638390796673528e-05,5.8667,7.0667
0.38671875,-3.904695167315168e-05,-5.369437705348281e-05,-3.5630101991302295e-05,-3.319327896238644e-05,5.8667,7.0667
0.390625,-3.36700486854352e-05,-3.4173305615320004e-05,-1.6109030553139477e-05,-3.025319900358579e-05,5.8667,7.0667
0.39453125,-4.442385466086816e-05,-4.733744741283277e-05,-2.537955294575411e-05,-3.123322565651935e-05,5.8667,7.0667
0.3984375,-4.392059773098339e-05,-5.467440370641634e-05,-1.6109030553139477e-05,-2.1962703263904726e-05,5.8667,7.0667
0.40234375,-3.610687171435103e-05,-4.050374804913397e-05,-1.4625746970321131e-05,-2.0002649958037636e-05,5.8667,7.0667
0.40625,-3.759015529716939e-05,-2.0982676610971166e-05,-2.145944633401993e-05,-1.3645720317387584e-05,5.8667,7.0667
0.41015625,-4.442385466086816e-05,-2.0982676610971166e-05,-5.858481507591292e-06,-1.708905720607302e-05,5.8667,7.0667
0.4140625,-3.465007533836874e-05,-1.708905720607302e-05,1.6125900166323404e-05,-8.772074259555893e-06,5.8667,7.0667
0.41796875,-3.075645593347059e-05,-6.335251230640054e-06,-6.335251230640054e-06,-1.4616051728083475e-06,5.8667,7.0667
0.421875,-3.36700486854352e-05,-2.392275656977182e-05,-3.025319900358579e-05,-3.8984282017242e-06,5.8667,7.0667
0.42578125,-3.857018195010292e-05,-4.1483774702067534e-05,-6.812020953688801e-06,1.4784747859922902e-06,5.8667,7.0667
0.4296875,-4.83174740657663e-05,-3.806692502021815e-05,6.855377773708781e-06,-1.0732127565422984e-05,5.8667,7.0667
0.43359375,-3.955020860303648e-05,-2.537955294575411e-05,-1.4148977247272383e-05,-9.275331189440691e-06,5.8667,7.0667
0.4375,-4.392059773098339e-05,-9.275331189440691e-06,-2.87964026276035e-05,-6.335251230640054e-06,5.8667,7.0667
0.44140625,-4.2967058284885867e-05,-9.752100912489439e-06,-2.0002649958037636e-05,-8.772074259555893e-06,5.8667,7.0667
0.4453125,-4.784070434271757e-05,-8.494928112001213e-05,-6.150810307011514e-05,-2.145944633401993e-05,5.8667,7.0667
0.44921875,-6.688500605783161e-05,-0.0001440422395712214,-6.444818302891578e-05,-2.145944633401993e-05,5.8667,7.0667
0.453125,-5.954804976424805e-05,-9.617985681849387e-05,-3.759015529716939e-05,-1.02288706355382e-05,5.8667,7.0667
0.45703125,-4.83174740657663e-05,-5.954804976424805e-05,-3.6610128644235825e-05,-5.858481507591292e-06,5.8667,7.0667
0.4609375,-4.2463801355001064e-05,-4.344382800793463e-05,-4.5403881313801714e-05,-1.3168950594338838e-05,5.8667,7.0667
0.46484375,-3.955020860303648e-05,-4.733744741283277e-05,-4.733744741283277e-05,-1.658580027618822e-05,5.8667,7.0667
0.46875,-3.123322565651935e-05,-5.711122673533219e-05,-1.9525880234988875e-05,-1.4616051728083475e-06,5.8667,7.0667
0.47265625,-2.6359579598687644e-05,-1.4148977247272383e-05,-4.815785198748017e-07,3.915297814908129e-06,5.8667,7.0667
0.4765625,-4.83174740657663e-05,9.29220080262462e-06,-2.7339606251621204e-05,-4.878454854657746e-06,5.8667,7.0667
0.48046875,-5.0277527371633424e-05,3.438528091859382e-06,-2.8319632904554734e-05,-1.4616051728083475e-06,5.8667,7.0667
0.484375,-3.857018195010292e-05,-1.0732127565422984e-05,-3.025319900358579e-05,-4.878454854657746e-06,5.8667,7.0667
0.48828125,-4.442385466086816e-05,-2.4876296015869315e-05,-2.1962703263904726e-05,-8.772074259555893e-06,5.8667,7.0667
0.4921875,-4.100700497901877e-05,-1.4616051728083475e-06,-2.145944633401993e-05,-1.4148977247272383e-05,5.8667,7.0667
0.49609375,-4.198703163195233e-05,3.3210148575570374e-05,-3.5630101991302295e-05,-1.02288706355382e-05,5.8667,7.0667
0.5,-4.198703163195233e-05,3.419017522850392e-05,-4.929750071869986e-05,-1.0732127565422984e-05,5.8667,7.0667
0.50390625,-3.5153332268253534e-05,-3.173648258640415e-05,-3.6610128644235825e-05,-8.295304536507146e-06,5.8667,7.0667
0.5078125,-3.857018195010292e-05,-0.00010301355618219267,-2.0002649958037636e-05,-4.815785198748017e-07,5.8667,7.0667
0.51171875,-3.123322565651935e-05,-8.690933442587925e-05,-2.0982676610971166e-05,2.935271161974583e-06,5.8667,7.0667
0.515625,-2.4876296015869315e-05,-4.198703163195233e-05,-1.3645720317387584e-05,5.875351120775221e-06,5.8667,7.0667
0.51953125,-4.002697832608524e-05,-2.0002649958037636e-05,-1.756582692912178e-05,2.458501438925836e-06,5.8667,7.0667
0.5234375,-4.980075764858466e-05,-4.784070434271757e-05,-2.537955294575411e-05,-2.918401548790655e-06,5.8667,7.0667
0.52734375,-4.83174740657663e-05,-7.615552845044626e-05,-2.0982676610971166e-05,-1.4148977247272383e-05,5.8667,7.0667
0.53125,-4.2463801355001064e-05,-5.663445701228343e-05,3.438528091859382e-06,-1.1208897288471746e-05,5.8667,7.0667
0.53515625,-3.806692502021815e-05,-5.51511734294651e-05,-2.294272991683826e-05,-1.2188923941405292e-05,5.8667,7.0667
0.5390625,-4.050374804913397e-05,-5.4197633983367604e-05,-5.663445701228343e-05,-2.392275656977182e-05,5.8667,7.0667
0.54296875,-3.075645593347059e-05,-2.4399526292820554e-05,-4.002697832608524e-05,-1.512900390020593e-05,5.8667,7.0667
0.546875,-2.5856322668802875e-05,-3.123322565651935e-05,-1.8545853582055315e-05,-1.3168950594338838e-05,5.8667,7.0667
0.55078125,-4.2463801355001064e-05,-9.275331189440691e-06,-3.173648258640415e-05,-2.392275656977182e-05,5.8667,7.0667
0.5546875,-4.88207309956511e-05,-1.3168950594338838e-05,-3.5153332268253534e-05,-1.2188923941405292e-05,5.8667,7.0667
0.55859375,-4.002697832608524e-05,-7.321544849164562e-05,-4.88207309956511e-05,-5.858481507591292e-06,5.8667,7.0667
0.5625,-4.002697832608524e-05,-0.0001039935828351262,-6.444818302891578e-05,-1.171215421835653e-05,5.8667,7.0667
0.56640625,-5.4197633983367604e-05,-8.542605084306089e-05,-4.490062438391692e-05,-1.3645720317387584e-05,5.8667,7.0667
0.5703125,-6.736177578088038e-05,-4.5880651036850475e-05,-5.954804976424805e-05,-2.6836349321736405e-05,5.8667,7.0667
0.57421875,-5.8091253388265756e-05,-3.6610128644235825e-05,-7.713555510337979e-05,-3.319327896238644e-05,5.8667,7.0667
0.578125,-4.88207309956511e-05,-2.7816375974669965e-05,-5.369437705348281e-05,-2.6359579598687644e-05,5.8667,7.0667
0.58203125,-4.2463801355001064e-05,-3.8984282017242e-06,-4.2463801355001064e-05,-2.537955294575411e-05,5.8667,7.0667
0.5859375,-2.5856322668802875e-05,1.5649130443274657e-05,-4.002697832608524e-05,-2.1962703263904726e-05,5.8667,7.0667
0.58984375,-2.9776429280537056e-05,-1.5605773623254678e-05,-3.221325230945288e-05,-2.0505906887922405e-05,5.8667,7.0667
0.59375,-3.806692502021815e-05,-6.492495275196453e-05,-2.4399526292820554e-05,-2.6836349321736405e-05,5.8667,7.0667
0.59765625,-2.7339606251621204e-05,-5.467440370641634e-05,-1.3645720317387584e-05,-1.8042596652170515e-05,5.8667,7.0667
0.6015625,-2.9776429280537056e-05,-2.0002649958037636e-05,-1.938374895857109e-06,-1.4616051728083475e-06,5.8667,7.0667
0.60546875,-3.610687171435103e-05,-9.752100912489439e-06,-2.294272991683826e-05,-4.375197924772948e-06,5.8667,7.0667
0.609375,-3.221325230945288e-05,-5.4197633983367604e-05,-4.5880651036850475e-05,-2.6836349321736405e-05,5.8667,7.0667
0.61328125,-3.075645593347059e-05,-8.738610414892799e-05,-3.075645593347059e-05,-2.8319632904554734e-05,5.8667,7.0667
0.6171875,-2.87964026276035e-05,-6.19848727931639e-05,-2.1962703263904726e-05,-1.4148977247272383e-05,5.8667,7.0667
0.62109375,-4.2967058284885867e-05,-5.51511734294651e-05,-4.344382800793463e-05,-3.6610128644235825e-05,5.8667,7.0667
0.625,-3.319327896238644e-05,-1.512900390020593e-05,-4.5880651036850475e-05,-3.806692502021815e-05,5.8667,7.0667
0.62890625,-2.0505906887922405e-05,2.1502803154039896e-05,-2.415144618905856e-06,-1.6109030553139477e-05,5.8667,7.0667
0.6328125,-3.319327896238644e-05,-4.375197924772948e-06,1.7582696542305712e-05,-2.145944633401993e-05,5.8667,7.0667
0.63671875,-3.123322565651935e-05,-2.0505906887922405e-05,-3.395171271839402e-06,-4.050374804913397e-05,5.8667,7.0667
0.640625,-3.36700486854352e-05,-1.02288706355382e-05,2.458501438925836e-06,-3.7086898367284586e-05,5.8667,7.0667
0.64453125,-4.2967058284885867e-05,-3.904695167315168e-05,4.984481330587442e-07,-1.0732127565422984e-05,5.8667,7.0667
0.6484375,-1.8545853582055315e-05,-3.806692502021815e-05,-2.4399526292820554e-05,-9.275331189440691e-06,5.8667,7.0667
0.65234375,-2.0982676610971166e-05,-3.221325230945288e-05,-2.6359579598687644e-05,-2.6836349321736405e-05,5.8667,7.0667
0.65625,-4.638390796673528e-05,-6.19848727931639e-05,-3.075645593347059e-05,-3.319327896238644e-05,5.8667,7.0667
0.66015625,-4.1483774702067534e-05,-5.1257554024566953e-05,-4.83174740657663e-05,-3.6610128644235825e-05,5.8667,7.0667
0.6640625,-2.8319632904554734e-05,-3.759015529716939e-05,-3.4173305615320004e-05,-2.5856322668802875e-05,5.8667,7.0667
0.66796875,-3.319327896238644e-05,-1.2692180871290076e-05,-4.375197924772948e-06,-2.341949963988702e-05,5.8667,7.0667
0.671875,-5.223758067750052e-05,1.4165846860456312e-05,-7.3152778835736e-06,-3.2690022032501644e-05,5.8667,7.0667
0.67578125,-3.5630101991302295e-05,-1.4148977247272383e-05,-2.0505906887922405e-05,-2.0982676610971166e-05,5.8667,7.0667
0.6796875,-1.512900390020593e-05,-3.025319900358579e-05,-2.294272991683826e-05,-1.708905720607302e-05,5.8667,7.0667
0.68359375,-2.1962703263904726e-05,-1.512900390020593e-05,7.835404426642327e-06,-2.0982676610971166e-05,5.8667,7.0667
0.6875,-2.0505906887922405e-05,7.332147496757528e-06,6.855377773708781e-06,-1.9022623305104076e-05,5.8667,7.0667
0.69140625,-3.2690022032501644e-05,6.855377773708781e-06,-1.2692180871290076e-05,-2.6836349321736405e-05,5.8667,7.0667
0.6953125,-3.465007533836874e-05,-6.335251230640054e-06,-1.02288706355382e-05,-2.537955294575411e-05,5.8667,7.0667
0.69921875,-3.025319900358579e-05,-4.929750071869986e-05,-1.1208897288471746e-05,-2.537955294575411e-05,5.8667,7.0667
0.703125,-3.5630101991302295e-05,-4.5880651036850475e-05,-2.415144618905856e-06,-2.9776429280537056e-05,5.8667,7.0667
0.70703125,-3.857018195010292e-05,-2.9776429280537056e-05,-2.7339606251621204e-05,-3.904695167315168e-05,5.8667,7.0667
0.7109375,-2.537955294575411e-05,-1.4625746970321131e-05,-2.6359579598687644e-05,-4.490062438391692e-05,5.8667,7.0667
0.71484375,-2.7339606251621204e-05,-3.025319900358579e-05,-2.4399526292820554e-05,-3.6610128644235825e-05,5.8667,7.0667
0.71875,-5.4197633983367604e-05,-6.736177578088038e-05,-3.7086898367284586e-05,-3.904695167315168e-05,5.8667,7.0667
0.72265625,-4.392059773098339e-05,-4.002697832608524e-05,-2.243947298695346e-05,-1.9022623305104076e-05,5.8667,7.0667
0.7265625,-3.465007533836874e-05,-4.638390796673528e-05,-4.375197924772948e-06,-1.02288706355382e-05,5.8667,7.0667
0.73046875,-3.857018195010292e-05,-7.665878538033107e-05,-9.275331189440691e-06,-3.857018195010292e-05,5.8667,7.0667
0.734375,-3.5153332268253534e-05,-6.979859880979623e-05,-9.275331189440691e-06,-3.6610128644235825e-05,5.8667,7.0667
0.73828125,-3.759015529716939e-05,-5.4197633983367604e-05,-2.537955294575411e-05,-2.7816375974669965e-05,5.8667,7.0667
0.7421875,-3.904695167315168e-05,-1.3168950594338838e-05,-3.319327896238644e-05,-2.7339606251621204e-05,5.8667,7.0667
0.74609375,-3.173648258640415e-05,-1.8042596652170515e-05,-1.9022623305104076e-05,-2.6836349321736405e-05,5.8667,7.0667
0.75,-3.319327896238644e-05,-5.1257554024566953e-05,-6.812020953688801e-06,-2.4876296015869315e-05,5.8667,7.0667
0.75390625,-3.904695167315168e-05,-3.123322565651935e-05,-1.3168950594338838e-05,-2.4876296015869315e-05,5.8667,7.0667
0.7578125,-1.8545853582055315e-05,2.1979572877088643e-05,-1.6109030553139477e-05,-2.7816375974669965e-05,5.8667,7.0667
0.76171875,-1.4625746970321131e-05,4.396395455100335e-05,5.372094190890436e-06,-1.8042596652170515e-05,5.8667,7.0667
0.765625,-4.1483774702067534e-05,-3.221325230945288e-05,-9.275331189440691e-06,-2.7816375974669965e-05,5.8667,7.0667
0.76953125,-3.2690022032501644e-05,-3.904695167315168e-05,-1.2692180871290076e-05,-3.7086898367284586e-05,5.8667,7.0667
0.7734375,-2.4876296015869315e-05,6.352120843823982e-06,9.29220080262462e-06,-2.537955294575411e-05,5.8667,7.0667
0.77734375,-4.2967058284885867e-05,-4.002697832608524e-05,-1.3168950594338838e-05,-3.123322565651935e-05,5.8667,7.0667
0.78125,-4.490062438391692e-05,-7.909560840924689e-05,-4.88207309956511e-05,-3.221325230945288e-05,5.8667,7.0667
0.78515625,-4.2463801355001064e-05,-6.3944926099031e-05,-4.5880651036850475e-05,-3.5153332268253534e-05,5.8667,7.0667
0.7890625,-4.1483774702067534e-05,-4.686067768978401e-05,-1.6109030553139477e-05,-3.075645593347059e-05,5.8667,7.0667
0.79296875,-3.4173305615320004e-05,-4.2463801355001064e-05,-3.025319900358579e-05,-3.025319900358579e-05,5.8667,7.0667
0.796875,-1.8545853582055315e-05,-1.02288706355382e-05,-4.050374804913397e-05,-2.392275656977182e-05,5.8667,7.0667
0.80078125,-8.772074259555893e-06,-1.658580027618822e-05,-3.075645593347059e-05,-1.658580027618822e-05,5.8667,7.0667
0.8046875,-2.5856322668802875e-05,-5.663445701228343e-05,-4.392059773098339e-05,-3.075645593347059e-05,5.8667,7.0667
0.80859375,-3.7086898367284586e-05,-4.929750071869986e-05,-3.2690022032501644e-05,-3.025319900358579e-05,5.8667,7.0667
0.8125,-3.7086898367284586e-05,-4.1483774702067534e-05,-2.7339606251621204e-05,-2.4399526292820554e-05,5.8667,7.0667
0.81640625,-3.36700486854352e-05,-3.465007533836874e-05,-3.221325230945288e-05,-3.4173305615320004e-05,5.8667,7.0667
0.8203125,-3.36700486854352e-05,-4.5880651036850475e-05,-3.075645593347059e-05,-3.5630101991302295e-05,5.8667,7.0667
0.82421875,-4.5880651036850475e-05,-4.2967058284885867e-05,-3.075645593347059e-05,-2.7339606251621204e-05,5.8667,7.0667
0.828125,-3.955020860303648e-05,-2.0002649958037636e-05,-2.0505906887922405e-05,-2.87964026276035e-05,5.8667,7.0667
0.83203125,-2.145944633401993e-05,-2.243947298695346e-05,-4.375197924772948e-06,-2.4876296015869315e-05,5.8667,7.0667
0.8359375,-3.075645593347059e-05,-3.025319900358579e-05,-2.392275656977182e-05,-2.927317235065226e-05,5.8667,7.0667
0.83984375,-3.806692502021815e-05,-3.319327896238644e-05,-5.613120008239866e-05,-3.904695167315168e-05,5.8667,7.0667
0.84375,-3.5630101991302295e-05,-3.7086898367284586e-05,-7.371870542153041e-05,-3.904695167315168e-05,5.8667,7.0667
0.84765625,-3.610687171435103e-05,-3.7086898367284586e-05,-5.369437705348281e-05,-3.025319900358579e-05,5.8667,7.0667
0.8515625,-4.784070434271757e-05,-6.688500605783161e-05,-2.294272991683826e-05,-2.4399526292820554e-05,5.8667,7.0667
0.85546875,-3.6610128644235825e-05,-7.567875872739751e-05,-2.6359579598687644e-05,-2.0002649958037636e-05,5.8667,7.0667
0.859375,-2.294272991683826e-05,-6.638174912794685e-05,-3.5153332268253534e-05,-2.6836349321736405e-05,5.8667,7.0667
0.86328125,-2.4876296015869315e-05,-4.344382800793463e-05,-4.050374804913397e-05,-3.857018195010292e-05,5.8667,7.0667
0.8671875,-2.9776429280537056e-05,-4.344382800793463e-05,-2.5856322668802875e-05,-2.9776429280537056e-05,5.8667,7.0667
0.87109375,-3.221325230945288e-05,-5.0277527371633424e-05,-7.792047606622347e-06,-1.4625746970321131e-05,5.8667,7.0667
0.875,-1.3645720317387584e-05,-3.6610128644235825e-05,3.915297814908129e-06,-1.3168950594338838e-05,5.8667,7.0667
0.87890625,-3.955020860303648e-05,-4.002697832608524e-05,3.438528091859382e-06,-3.025319900358579e-05,5.8667,7.0667
0.8828125,-5.613120008239866e-05,-4.050374804913397e-05,-1.8042596652170515e-05,-4.002697832608524e-05,5.8667,7.0667
0.88671875,-4.392059773098339e-05,-3.173648258640415e-05,-3.2690022032501644e-05,-3.319327896238644e-05,5.8667,7.0667
0.890625,-3.904695167315168e-05,-1.8545853582055315e-05,-1.512900390020593e-05,-1.5605773623254678e-05,5.8667,7.0667
0.89453125,-4.490062438391692e-05,-2.537955294575411e-05,-2.415144618905856e-06,-1.2692180871290076e-05,5.8667,7.0667
0.8984375,-3.857018195010292e-05,-3.075645593347059e-05,-3.123322565651935e-05,-2.6359579598687644e-05,5.8667,7.0667
0.90234375,-3.5153332268253534e-05,-4.392059773098339e-05,-4.100700497901877e-05,-3.806692502021815e-05,5.8667,7.0667
0.90625,-3.7086898367284586e-05,-4.442385466086816e-05,-3.025319900358579e-05,-4.344382800793463e-05,5.8667,7.0667
0.91015625,-3.075645593347059e-05,-2.0982676610971166e-05,-1.6109030553139477e-05,-3.857018195010292e-05,5.8667,7.0667
0.9140625,-3.857018195010292e-05,-6.590497940489808e-05,-4.88207309956511e-05,-3.465007533836874e-05,5.8667,7.0667
0.91796875,-2.0982676610971166e-05,-6.736177578088038e-05,-3.857018195010292e-05,-2.6836349321736405e-05,5.8667,7.0667
0.921875,-2.0982676610971166e-05,-2.4399526292820554e-05,-2.918401548790655e-06,-1.9525880234988875e-05,5.8667,7.0667
0.92578125,-3.6610128644235825e-05,-2.9776429280537056e-05,-1.2692180871290076e-05,-3.610687171435103e-05,5.8667,7.0667
0.9296875,-3.465007533836874e-05,-2.6836349321736405e-05,-8.772074259555893e-06,-3.123322565651935e-05,5.8667,7.0667
0.93359375,-4.5880651036850475e-05,-3.2690022032501644e-05,-1.0732127565422984e-05,-2.6359579598687644e-05,5.8667,7.0667
0.9375,-5.56544303593499e-05,-3.904695167315168e-05,-2.6836349321736405e-05,-3.6610128644235825e-05,5.8667,7.0667
0.94140625,-4.5403881313801714e-05,-2.4876296015869315e-05,-8.772074259555893e-06,-2.8319632904554734e-05,5.8667,7.0667
0.9453125,-4.2463801355001064e-05,-4.686067768978401e-05,-2.6359579598687644e-05,-3.759015529716939e-05,5.8667,7.0667
0.94921875,-3.955020860303648e-05,-4.490062438391692e-05,-3.8984282017242e-06,-3.2690022032501644e-05,5.8667,7.0667
0.953125,-2.87964026276035e-05,-1.756582692912178e-05,1.4165846860456312e-05,-1.5605773623254678e-05,5.8667,7.0667
0.95703125,-3.857018195010292e-05,-2.537955294575411e-05,-2.294272991683826e-05,-2.87964026276035e-05,5.8667,7.0667
0.9609375,-3.5153332268253534e-05,-7.792047606622347e-06,-6.335251230640054e-06,-3.221325230945288e-05,5.8667,7.0667
0.96484375,-3.465007533836874e-05,-1.3645720317387584e-05,6.855377773708781e-06,-2.243947298695346e-05,5.8667,7.0667
0.96875,-2.341949963988702e-05,-2.8319632904554734e-05,2.1979572877088643e-05,-1.708905720607302e-05,5.8667,7.0667
0.97265625,-3.465007533836874e-05,-1.708905720607302e-05,3.811028184023811e-05,-3.173648258640415e-05,5.8667,7.0667
0.9765625,-4.2967058284885867e-05,-2.6836349321736405e-05,-1.2188923941405292e-05,-3.857018195010292e-05,5.8667,7.0667
0.98046875,-3.025319900358579e-05,-6.542820968184933e-05,-2.8319632904554734e-05,-2.0002649958037636e-05,5.8667,7.0667
0.984375,-3.075645593347059e-05,-5.51511734294651e-05,-8.295304536507146e-06,-1.9022623305104076e-05,5.8667,7.0667
0.98828125,-2.243947298695346e-05,-3.173648258640415e-05,1.4784747859922902e-06,-1.658580027618822e-05,5.8667,7.0667
0.9921875,-3.4173305615320004e-05,-3.123322565651935e-05,3.438528091859382e-06,4.984481330587442e-07,5.8667,7.0667
0.99609375,-2.927317235065226e-05,-4.980075764858466e-05,-1.8545853582055315e-05,-1.3645720317387584e-05,5.8667,7.0667
1.0,5.372094190890436e-06,-2.87964026276035e-05,4.984481330587442e-07,-3.395171271839402e-06,5.8667,7.0667
1.00390625,-2.6359579598687644e-05,-2.0505906887922405e-05,-6.812020953688801e-06,-2.392275656977182e-05,5.8667,7.0667
1.0078125,-5.223758067750052e-05,-5.613120008239866e-05,-4.344382800793463e-05,-5.0277527371633424e-05,5.8667,7.0667
1.01171875,-4.88207309956511e-05,-4.198703163195233e-05,-2.5856322668802875e-05,-1.4625746970321131e-05,5.8667,7.0667
1.015625,-2.341949963988702e-05,-2.7816375974669965e-05,-4.815785198748017e-07,-1.708905720607302e-05,5.8667,7.0667
1.01953125,-1.9525880234988875e-05,-9.752100912489439e-06,1.6125900166323404e-05,-1.5605773623254678e-05,5.8667,7.0667
1.0234375,-3.955020860303648e-05,-2.6836349321736405e-05,-5.355224577706494e-06,-1.171215421835653e-05,5.8667,7.0667
1.02734375,-5.856802311131448e-05,-6.590497940489808e-05,-3.955020860303648e-05,-4.002697832608524e-05,5.8667,7.0667
1.03125,-6.492495275196453e-05,-5.078078430151819e-05,-1.5605773623254678e-05,-3.2690022032501644e-05,5.8667,7.0667
1.03515625,-4.5403881313801714e-05,-3.36700486854352e-05,-8.772074259555893e-06,-4.100700497901877e-05,5.8667,7.0667
1.0390625,-4.2967058284885867e-05,-2.243947298695346e-05,-2.0505906887922405e-05,-5.271435040054925e-05,5.8667,7.0667
1.04296875,-4.5880651036850475e-05,-4.375197924772948e-06,-5.355224577706494e-06,-3.759015529716939e-05,5.8667,7.0667
1.046875,-3.36700486854352e-05,-8.772074259555893e-06,2.735647586480513e-05,-2.8319632904554734e-05,5.8667,7.0667
1.05078125,-3.075645593347059e-05,-1.4148977247272383e-05,3.077332554665453e-05,-2.927317235065226e-05,5.8667,7.0667
1.0546875,-3.36700486854352e-05,-2.87964026276035e-05,4.895324467841675e-06,-3.221325230945288e-05,5.8667,7.0667
1.05859375,-3.5153332268253534e-05,-3.5630101991302295e-05,-1.4616051728083475e-06,-3.2690022032501644e-05,5.8667,7.0667
1.0625,-3.5153332268253534e-05,-4.050374804913397e-05,-2.341949963988702e-05,-1.9525880234988875e-05,5.8667,7.0667
1.06640625,-3.173648258640415e-05,-2.9776429280537056e-05,-1.512900390020593e-05,-1.8545853582055315e-05,5.8667,7.0667
1.0703125,-1.6109030553139477e-05,-1.02288706355382e-05,3.419017522850392e-05,-1.8042596652170515e-05,5.8667,7.0667
1.07421875,-1.3645720317387584e-05,-2.0002649958037636e-05,2.735647586480513e-05,-1.4625746970321131e-05,5.8667,7.0667
1.078125,-5.51511734294651e-05,-2.145944633401993e-05,-3.395171271839402e-06,-3.2690022032501644e-05,5.8667,7.0667
1.08203125,-7.077862546272976e-05,-2.341949963988702e-05,-1.938374895857109e-06,-3.759015529716939e-05,5.8667,7.0667
1.0859375,-5.51511734294651e-05,-4.490062438391692e-05,-3.5630101991302295e-05,-3.36700486854352e-05,5.8667,7.0667
1.08984375,-5.369437705348281e-05,-6.688500605783161e-05,-7.859235147936212e-05,-1.4148977247272383e-05,5.8667,7.0667
1.09375,-6.296489944609742e-05,-4.5403881313801714e-05,-5.467440370641634e-05,-3.2690022032501644e-05,5.8667,7.0667
1.09765625,-6.932182908674747e-05,-2.0982676610971166e-05,-4.344382800793463e-05,-4.83174740657663e-05,5.8667,7.0667
1.1015625,-5.856802311131448e-05,-3.857018195010292e-05,-4.733744741283277e-05,-4.344382800793463e-05,5.8667,7.0667
1.10546875,-4.392059773098339e-05,-6.296489944609742e-05,-3.319327896238644e-05,-4.392059773098339e-05,5.8667,7.0667
1.109375,-4.686067768978401e-05,-5.078078430151819e-05,-1.0732127565422984e-05,-2.7339606251621204e-05,5.8667,7.0667
1.11328125,-4.83174740657663e-05,-2.8319632904554734e-05,1.0017050629435289e-06,-7.3152778835736e-06,5.8667,7.0667
1.1171875,-4.198703163195233e-05,-3.319327896238644e-05,-4.815785198748017e-07,1.9552445090410374e-06,5.8667,7.0667
1.12109375,-2.6836349321736405e-05,-2.87964026276035e-05,-2.145944633401993e-05,-2.392275656977182e-05,5.8667,7.0667
1.125,-5.663445701228343e-05,-4.490062438391692e-05,-3.025319900358579e-05,-4.5880651036850475e-05,5.8667,7.0667
1.12890625,-5.4197633983367604e-05,-4.198703163195233e-05,-2.145944633401993e-05,-2.0505906887922405e-05,5.8667,7.0667
1.1328125,-3.5630101991302295e-05,-2.7339606251621204e-05,-1.756582692912178e-05,-2.0002649958037636e-05,5.8667,7.0667
1.13671875,-5.51511734294651e-05,-2.0505906887922405e-05,-2.918401548790655e-06,-5.321760733043405e-05,5.8667,7.0667
1.140625,-5.271435040054925e-05,-2.4876296015869315e-05,-4.5403881313801714e-05,-5.1257554024566953e-05,5.8667,7.0667
1.14453125,-3.610687171435103e-05,-4.88207309956511e-05,-5.663445701228343e-05,-3.025319900358579e-05,5.8667,7.0667
1.1484375,-3.465007533836874e-05,-6.979859880979623e-05,-2.294272991683826e-05,-2.5856322668802875e-05,5.8667,7.0667
1.15234375,-5.0277527371633424e-05,-5.321760733043405e-05,2.458501438925836e-06,-3.2690022032501644e-05,5.8667,7.0667
1.15625,-5.078078430151819e-05,-3.904695167315168e-05,8.815431079575872e-06,-2.0505906887922405e-05,5.8667,7.0667
1.16015625,-5.369437705348281e-05,-5.856802311131448e-05,1.8085953472190494e-05,6.855377773708781e-06,5.8667,7.0667
1.1640625,-5.078078430151819e-05,-6.492495275196453e-05,5.4691273319600285e-05,-8.295304536507146e-06,5.8667,7.0667
1.16796875,-3.173648258640415e-05,-5.51511734294651e-05,6.740513260090034e-05,-1.8042596652170515e-05,5.8667,7.0667
1.171875,-3.4173305615320004e-05,-3.36700486854352e-05,-2.87964026276035e-05,-4.815785198748017e-07,5.8667,7.0667
1.17578125,-4.198703163195233e-05,-5.1734323747615714e-05,-6.492495275196453e-05,-2.8319632904554734e-05,5.8667,7.0667
1.1796875,-4.88207309956511e-05,-6.3944926099031e-05,-8.05524047852292e-05,-3.4173305615320004e-05,5.8667,7.0667
1.18359375,-4.392059773098339e-05,-4.490062438391692e-05,-3.123322565651935e-05,-1.8042596652170515e-05,5.8667,7.0667
1.1875,-3.955020860303648e-05,-2.4876296015869315e-05,3.7607024910353315e-05,-2.537955294575411e-05,5.8667,7.0667
1.19140625,-4.490062438391692e-05,6.352120843823982e-06,0.00010742730213015953,-1.3645720317387584e-05,5.8667,7.0667
1.1953125,-4.980075764858466e-05,1.5649130443274657e-05,0.00011423451428702227,-1.6109030553139477e-05,5.8667,7.0667
1.19921875,-4.198703163195233e-05,-1.8545853582055315e-05,-5.223758067750052e-05,-2.9776429280537056e-05,5.8667,7.0667
1.203125,-3.173648258640415e-05,-3.5630101991302295e-05,-0.00013670528327763785,-2.7816375974669965e-05,5.8667,7.0667
1.20703125,-4.1483774702067534e-05,-1.1208897288471746e-05,-9.813991012436096e-05,-3.759015529716939e-05,5.8667,7.0667
1.2109375,-4.392059773098339e-05,-1.0732127565422984e-05,-5.51511734294651e-05,-5.1734323747615714e-05,5.8667,7.0667
1.21484375,-3.7086898367284586e-05,-9.275331189440691e-06,-2.145944633401993e-05,-4.5880651036850475e-05,5.8667,7.0667
1.21875,-2.87964026276035e-05,-1.1208897288471746e-05,-2.87964026276035e-05,-3.2690022032501644e-05,5.8667,7.0667
1.22265625,-3.759015529716939e-05,-3.465007533836874e-05,-3.36700486854352e-05,-3.5630101991302295e-05,5.8667,7.0667
1.2265625,-3.904695167315168e-05,-1.3645720317387584e-05,-8.295304536507146e-06,-3.4173305615320004e-05,5.8667,7.0667
1.23046875,-3.173648258640415e-05,-1.8042596652170515e-05,3.713025518730457e-05,-2.0002649958037636e-05,5.8667,7.0667
1.234375,-3.123322565651935e-05,-4.5403881313801714e-05,2.9316529170672225e-05,-1.02288706355382e-05,5.8667,7.0667
1.23828125,-3.36700486854352e-05,-3.610687171435103e-05,-9.752100912489439e-06,-1.6109030553139477e-05,5.8667,7.0667
1.2421875,-4.198703163195233e-05,-3.610687171435103e-05,-3.759015529716939e-05,-3.075645593347059e-05,5.8667,7.0667
1.24609375,-2.1962703263904726e-05,-3.465007533836874e-05,-2.6836349321736405e-05,-1.1208897288471746e-05,5.8667,7.0667
1.25,-2.294272991683826e-05,-3.857018195010292e-05,-2.1962703263904726e-05,-1.4616051728083475e-06,5.8667,7.0667
1.25390625,-5.467440370641634e-05,-4.100700497901877e-05,-1.4625746970321131e-05,-9.752100912489439e-06,5.8667,7.0667
1.2578125,-2.145944633401993e-05,-4.5880651036850475e-05,-1.4625746970321131e-05,-2.5856322668802875e-05,5.8667,7.0667
1.26171875,-3.857018195010292e-05,-3.2690022032501644e-05,-3.2690022032501644e-05,-3.36700486854352e-05,5.8667,7.0667
1.265625,-4.344382800793463e-05,-6.335251230640054e-06,-2.918401548790655e-06,-5.078078430151819e-05,5.8667,7.0667
1.26953125,-2.1962703263904726e-05,5.875351120775221e-06,2.4416395906004494e-05,-4.442385466086816e-05,5.8667,7.0667
1.2734375,-3.025319900358579e-05,-1.512900390020593e-05,-7.3152778835736e-06,-1.5605773623254678e-05,5.8667,7.0667
1.27734375,-2.7816375974669965e-05,-9.275331189440691e-06,-4.815785198748017e-07,-2.392275656977182e-05,5.8667,7.0667
1.28125,-4.784070434271757e-05,2.167841000998294e-08,1.0272227455558167e-05,-5.761448366521699e-05,5.8667,7.0667
1.28515625,-6.150810307011514e-05,-2.4399526292820554e-05,-4.2967058284885867e-05,-6.638174912794685e-05,5.8667,7.0667
1.2890625,-3.610687171435103e-05,-2.145944633401993e-05,-6.103133334706638e-05,-5.467440370641634e-05,5.8667,7.0667
1.29296875,-1.0732127565422984e-05,-1.708905720607302e-05,-4.490062438391692e-05,-3.36700486854352e-05,5.8667,7.0667
1.296875,-2.0002649958037636e-05,-1.0732127565422984e-05,-1.3645720317387584e-05,-3.904695167315168e-05,5.8667,7.0667
1.30078125,-3.075645593347059e-05,2.1502803154039896e-05,3.9063821286335606e-05,-3.6610128644235825e-05,5.8667,7.0667
1.3046875,-1.4148977247272383e-05,2.935271161974583e-06,2.9793298893720986e-05,-1.02288706355382e-05,5.8667,7.0667
1.30859375,-9.752100912489439e-06,-3.5630101991302295e-05,-1.3168950594338838e-05,-1.5605773623254678e-05,5.8667,7.0667
1.3125,-3.36700486854352e-05,-3.36700486854352e-05,-2.341949963988702e-05,-3.5630101991302295e-05,5.8667,7.0667
1.31640625,-5.663445701228343e-05,-2.243947298695346e-05,-8.772074259555893e-06,-3.5153332268253534e-05,5.8667,7.0667
1.3203125,-4.442385466086816e-05,-2.0505906887922405e-05,1.2232280761425257e-05,-2.294272991683826e-05,5.8667,7.0667
1.32421875,-2.392275656977182e-05,7.835404426642327e-06,2.2959599530022186e-05,-2.4399526292820554e-05,5.8667,7.0667
1.328125,-2.9776429280537056e-05,-1.512900390020593e-05,2.167841000998294e-08,-4.198703163195233e-05,5.8667,7.0667
1.33203125,-3.025319900358579e-05,-3.4173305615320004e-05,-4.878454854657746e-06,-4.050374804913397e-05,5.8667,7.0667
1.3359375,-2.243947298695346e-05,-9.752100912489439e-06,4.984481330587442e-07,-3.2690022032501644e-05,5.8667,7.0667
1.33984375,-1.0732127565422984e-05,-2.5856322668802875e-05,-2.243947298695346e-05,-2.8319632904554734e-05,5.8667,7.0667
1.34375,-5.355224577706494e-06,-3.806692502021815e-05,-4.733744741283277e-05,-2.537955294575411e-05,5.8667,7.0667
1.34765625,-3.123322565651935e-05,-3.904695167315168e-05,-2.8319632904554734e-05,-4.733744741283277e-05,5.8667,7.0667
1.3515625,-3.5153332268253534e-05,-3.904695167315168e-05,-1.3168950594338838e-05,-3.4173305615320004e-05,5.8667,7.0667
1.35546875,-2.537955294575411e-05,-4.344382800793463e-05,-3.7086898367284586e-05,-1.756582692912178e-05,5.8667,7.0667
1.359375,-3.123322565651935e-05,-4.442385466086816e-05,-3.2690022032501644e-05,-3.7086898367284586e-05,5.8667,7.0667
1.36328125,-1.4148977247272383e-05,-6.638174912794685e-05,-4.5403881313801714e-05,-3.465007533836874e-05,5.8667,7.0667
1.3671875,-3.610687171435103e-05,-4.2967058284885867e-05,4.895324467841675e-06,-4.733744741283277e-05,5.8667,7.0667
1.37109375,-5.711122673533219e-05,-1.9525880234988875e-05,4.298392789806981e-05,-5.223758067750052e-05,5.8667,7.0667
1.375,-4.442385466086816e-05,-4.050374804913397e-05,-2.537955294575411e-05,-3.221325230945288e-05,5.8667,7.0667
1.37890625,-4.638390796673528e-05,-1.4625746970321131e-05,-2.6836349321736405e-05,-5.4197633983367604e-05,5.8667,7.0667
1.3828125,-2.7339606251621204e-05,1.4165846860456312e-05,-4.490062438391692e-05,-5.1734323747615714e-05,5.8667,7.0667
1.38671875,-3.5153332268253534e-05,-1.4616051728083475e-06,-4.442385466086816e-05,-3.857018195010292e-05,5.8667,7.0667
1.390625,-4.686067768978401e-05,-7.3152778835736e-06,-9.275331189440691e-06,-4.88207309956511e-05,5.8667,7.0667
1.39453125,-3.025319900358579e-05,-3.2690022032501644e-05,-3.7086898367284586e-05,-4.686067768978401e-05,5.8667,7.0667
1.3984375,-3.173648258640415e-05,-4.980075764858466e-05,-4.980075764858466e-05,-4.686067768978401e-05,5.8667,7.0667
1.40234375,-2.5856322668802875e-05,-9.752100912489439e-06,-2.0505906887922405e-05,-3.465007533836874e-05,5.8667,7.0667
1.40625,-2.145944633401993e-05,-1.938374895857109e-06,-1.02288706355382e-05,-3.123322565651935e-05,5.8667,7.0667
1.41015625,-3.6610128644235825e-05,-3.857018195010292e-05,-1.1208897288471746e-05,-3.075645593347059e-05,5.8667,7.0667
1.4140625,-3.2690022032501644e-05,-2.294272991683826e-05,1.710592681925695e-05,-2.145944633401993e-05,5.8667,7.0667
1.41796875,-2.8319632904554734e-05,-5.858481507591292e-06,6.352120843823982e-06,-2.7339606251621204e-05,5.8667,7.0667
1.421875,-3.6610128644235825e-05,-3.955020860303648e-05,-4.686067768978401e-05,-2.87964026276035e-05,5.8667,7.0667
1.42578125,-3.5153332268253534e-05,-5.271435040054925e-05,-4.1483774702067534e-05,-2.392275656977182e-05,5.8667,7.0667
1.4296875,-2.7816375974669965e-05,-4.5403881313801714e-05,-2.0002649958037636e-05,-2.145944633401993e-05,5.8667,7.0667
1.43359375,-4.638390796673528e-05,-5.56544303593499e-05,-1.9022623305104076e-05,-2.243947298695346e-05,5.8667,7.0667
1.4375,-5.56544303593499e-05,-6.005130669413284e-05,-2.1962703263904726e-05,-1.9022623305104076e-05,5.8667,7.0667
1.44140625,-3.904695167315168e-05,-4.344382800793463e-05,-1.756582692912178e-05,-3.4173305615320004e-05,5.8667,7.0667
1.4453125,-4.490062438391692e-05,-5.369437705348281e-05,-2.145944633401993e-05,-5.9071280041199286e-05,5.8667,7.0667
1.44921875,-5.0277527371633424e-05,-4.1483774702067534e-05,-1.3168950594338838e-05,-4.392059773098339e-05,5.8667,7.0667
1.453125,-2.392275656977182e-05,-4.980075764858466e-05,-1.8545853582055315e-05,-3.36700486854352e-05,5.8667,7.0667
1.45703125,-3.5153332268253534e-05,-2.9776429280537056e-05,9.768970525673367e-06,-3.4173305615320004e-05,5.8667,7.0667
1.4609375,-3.319327896238644e-05,-3.395171271839402e-06,2.4919652835889294e-05,-2.145944633401993e-05,5.8667,7.0667
1.46484375,-1.2692180871290076e-05,2.458501438925836e-06,2.052277650110635e-05,-3.173648258640415e-05,5.8667,7.0667
1.46875,-1.9525880234988875e-05,1.6125900166323404e-05,1.3689077137407565e-05,-2.4876296015869315e-05,5.8667,7.0667
1.47265625,-3.173648258640415e-05,2.1502803154039896e-05,-8.295304536507146e-06,-2.392275656977182e-05,5.8667,7.0667
1.4765625,-3.806692502021815e-05,-2.4399526292820554e-05,-3.075645593347059e-05,-4.002697832608524e-05,5.8667,7.0667
1.48046875,-3.5153332268253534e-05,-4.733744741283277e-05,-2.9776429280537056e-05,-4.344382800793463e-05,5.8667,7.0667
1.484375,-3.36700486854352e-05,-2.87964026276035e-05,-2.4399526292820554e-05,-3.123322565651935e-05,5.8667,7.0667
1.48828125,-2.6836349321736405e-05,-2.7816375974669965e-05,-3.610687171435103e-05,-3.173648258640415e-05,5.8667,7.0667
1.4921875,-1.9525880234988875e-05,-1.512900390020593e-05,-1.5605773623254678e-05,-3.36700486854352e-05,5.8667,7.0667
1.49609375,-1.2188923941405292e-05,1.6125900166323404e-05,2.00460067780576e-05,-2.0982676610971166e-05,5.8667,7.0667
1.5,-2.87964026276035e-05,-2.4876296015869315e-05,-1.756582692912178e-05,-2.87964026276035e-05,5.8667,7.0667
1.50390625,-4.442385466086816e-05,-6.103133334706638e-05,-4.100700497901877e-05,-4.344382800793463e-05,5.8667,7.0667
1.5078125,-3.2690022032501644e-05,-4.2967058284885867e-05,-1.9525880234988875e-05,-4.100700497901877e-05,5.8667,7.0667
1.51171875,-3.025319900358579e-05,-3.221325230945288e-05,-9.275331189440691e-06,-4.784070434271757e-05,5.8667,7.0667
1.515625,-3.806692502021815e-05,-2.0982676610971166e-05,-3.8984282017242e-06,-4.5880651036850475e-05,5.8667,7.0667
1.51953125,-3.759015529716939e-05,-4.2463801355001064e-05,-3.465007533836874e-05,-5.0277527371633424e-05,5.8667,7.0667
1.5234375,-3.36700486854352e-05,-6.979859880979623e-05,-4.392059773098339e-05,-5.4197633983367604e-05,5.8667,7.0667
1.52734375,-4.002697832608524e-05,-6.932182908674747e-05,-3.075645593347059e-05,-4.2463801355001064e-05,5.8667,7.0667
1.53125,-3.955020860303648e-05,-7.713555510337979e-05,-3.319327896238644e-05,-3.123322565651935e-05,5.8667,7.0667
1.53515625,-3.36700486854352e-05,-4.929750071869986e-05,-1.0732127565422984e-05,-4.050374804913397e-05,5.8667,7.0667
1.5390625,-1.756582692912178e-05,-2.0505906887922405e-05,2.167841000998294e-08,-3.36700486854352e-05,5.8667,7.0667
1.54296875,-4.002697832608524e-05,-2.6359579598687644e-05,-1.5605773623254678e-05,-2.4399526292820554e-05,5.8667,7.0667
1.546875,-5.078078430151819e-05,-4.2967058284885867e-05,1.4165846860456312e-05,-4.2967058284885867e-05,5.8667,7.0667
1.55078125,-2.7816375974669965e-05,-4.686067768978401e-05,6.78819023239491e-05,-4.392059773098339e-05,5.8667,7.0667
1.5546875,-4.002697832608524e-05,-5.078078430151819e-05,4.2003901245136264e-05,-4.392059773098339e-05,5.8667,7.0667
1.55859375,-5.613120008239866e-05,-4.392059773098339e-05,-4.5403881313801714e-05,-4.392059773098339e-05,5.8667,7.0667
1.5625,-4.733744741283277e-05,-3.806692502021815e-05,-7.811558175631336e-05,-4.100700497901877e-05,5.8667,7.0667
1.56640625,-5.4197633983367604e-05,-2.4399526292820554e-05,-5.613120008239866e-05,-4.733744741283277e-05,5.8667,7.0667
1.5703125,-4.686067768978401e-05,4.984481330587442e-07,-2.294272991683826e-05,-4.344382800793463e-05,5.8667,7.0667
1.57421875,-3.857018195010292e-05,-2.927317235065226e-05,-4.198703163195233e-05,-3.759015529716939e-05,5.8667,7.0667
1.578125,-4.100700497901877e-05,-5.663445701228343e-05,-7.713555510337979e-05,-4.344382800793463e-05,5.8667,7.0667
1.58203125,-4.2967058284885867e-05,-7.128188239261455e-05,-8.982292717784383e-05,-5.369437705348281e-05,5.8667,7.0667
1.5859375,-3.025319900358579e-05,-3.955020860303648e-05,-4.784070434271757e-05,-4.5403881313801714e-05,5.8667,7.0667
1.58984375,-3.075645593347059e-05,-1.3168950594338838e-05,-1.02288706355382e-05,-3.025319900358579e-05,5.8667,7.0667
1.59375,-3.319327896238644e-05,-2.6359579598687644e-05,-2.4399526292820554e-05,-2.1962703263904726e-05,5.8667,7.0667
1.59765625,-1.708905720607302e-05,-3.36700486854352e-05,-3.2690022032501644e-05,-2.8319632904554734e-05,5.8667,7.0667
1.6015625,-3.123322565651935e-05,-5.613120008239866e-05,-5.0277527371633424e-05,-4.929750071869986e-05,5.8667,7.0667
1.60546875,-3.806692502021815e-05,-4.686067768978401e-05,-3.6610128644235825e-05,-4.1483774702067534e-05,5.8667,7.0667
1.609375,-2.4876296015869315e-05,-4.100700497901877e-05,-3.075645593347059e-05,-2.1962703263904726e-05,5.8667,7.0667
1.61328125,-1.9022623305104076e-05,-5.761448366521699e-05,-4.490062438391692e-05,-3.36700486854352e-05,5.8667,7.0667
1.6171875,-2.0002649958037636e-05,-5.467440370641634e-05,-4.784070434271757e-05,-2.537955294575411e-05,5.8667,7.0667
1.62109375,-1.8545853582055315e-05,-5.613120008239866e-05,-6.932182908674747e-05,-1.02288706355382e-05,5.8667,7.0667
1.625,-2.4876296015869315e-05,-8.007563506218045e-05,-8.836613080186154e-05,-2.4876296015869315e-05,5.8667,7.0667
1.62890625,-2.0982676610971166e-05,-9.519983016556031e-05,-7.567875872739751e-05,-4.1483774702067534e-05,5.8667,7.0667
1.6328125,1.4784747859922902e-06,-7.811558175631336e-05,-5.51511734294651e-05,-3.173648258640415e-05,5.8667,7.0667
1.63671875,4.984481330587442e-07,-7.957237813229565e-05,-7.175865211566332e-05,-2.243947298695346e-05,5.8667,7.0667
1.640625,-4.375197924772948e-06,-0.00012987158391393906,-0.00010690717558709082,-3.806692502021815e-05,5.8667,7.0667
1.64453125,7.835404426642327e-06,-0.00015280950503395127,-0.0001449957790173189,-4.050374804913397e-05,5.8667,7.0667
1.6484375,1.7582696542305712e-05,-0.00014695583232318603,-0.0001411021596124208,-4.442385466086816e-05,5.8667,7.0667
1.65234375,3.2230121922636824e-05,-0.00014451900929427018,-0.00011813775128557253,-3.4173305615320004e-05,5.8667,7.0667
1.65625,5.177768056763568e-05,-0.00013816207965362012,-0.00012158108817425795,-2.537955294575411e-05,5.8667,7.0667
1.66015625,5.665132662546737e-05,-0.0001645433376623178,-0.0001635633110093842,-3.2690022032501644e-05,5.8667,7.0667
1.6640625,5.519453024948508e-05,-0.00020212868416266108,-0.0001933349314930952,-3.6610128644235825e-05,5.8667,7.0667
1.66796875,5.2757707220569227e-05,-0.0002206962161547264,-0.00019042133874113063,-3.075645593347059e-05,5.8667,7.0667
1.671875,3.662699825741977e-05,-0.00024021728759288924,-0.00021044566710917825,-2.5856322668802875e-05,5.8667,7.0667
1.67578125,4.981762726176859e-05,-0.00023825723428702212,-0.00021044566710917825,-2.243947298695346e-05,5.8667,7.0667
1.6796875,5.225445029068444e-05,-0.00025926158930800327,-0.0002426541106218051,-2.6836349321736405e-05,5.8667,7.0667
1.68359375,2.9316529170672225e-05,-0.00027830589102311733,-0.00031395767142442963,-4.88207309956511e-05,5.8667,7.0667
1.6875,1.6125900166323404e-05,-0.0002651152620187685,-0.00030466066182497894,-4.442385466086816e-05,5.8667,7.0667
1.69140625,3.1753352199588076e-05,-0.000287576413415732,-0.0002885564400686655,-2.341949963988702e-05,5.8667,7.0667
1.6953125,4.542075092698565e-05,-0.00031541446780041193,-0.0003012438121431295,-2.927317235065226e-05,5.8667,7.0667
1.69921875,3.2230121922636824e-05,-0.0002988069891142137,-0.00030614394540779734,-4.929750071869986e-05,5.8667,7.0667
1.703125,2.4416395906004494e-05,-0.0002773258643701838,-0.00029441011277943075,-4.490062438391692e-05,5.8667,7.0667
1.70703125,3.1753352199588076e-05,-0.00027194896138246733,-0.00025878481958495456,-2.4876296015869315e-05,5.8667,7.0667
1.7109375,3.419017522850392e-05,-0.00027830589102311733,-0.00024363413727473862,-2.392275656977182e-05,5.8667,7.0667
1.71484375,2.9316529170672225e-05,-0.0002744122716182192,-0.0002504678366384374,-3.2690022032501644e-05,5.8667,7.0667
1.71875,1.7582696542305712e-05,-0.0002597648462378881,-0.00024948780998550386,-4.5403881313801714e-05,5.8667,7.0667
1.72265625,2.935271161974583e-06,-0.0002646384922957198,-0.00024509093365072097,-4.442385466086816e-05,5.8667,7.0667
1.7265625,6.855377773708781e-06,-0.00024705098695658803,-0.00021677610954299223,-1.4148977247272383e-05,5.8667,7.0667
1.73046875,1.270905048447402e-05,-0.00022313303918364226,-0.0001933349314930952,-8.295304536507146e-06,5.8667,7.0667
1.734375,-1.4616051728083475e-06,-0.0002255698622125581,-0.00019187813511711293,-3.6610128644235825e-05,5.8667,7.0667
1.73828125,-4.878454854657746e-06,-0.0002206962161547264,-0.0001987118344808117,-3.173648258640415e-05,5.8667,7.0667
1.7421875,-7.3152778835736e-06,-0.0002031087108155947,-0.00020506876412146175,-2.927317235065226e-05,5.8667,7.0667
1.74609375,-2.0002649958037636e-05,-0.00018650123212939643,-0.00018308438244754704,-3.6610128644235825e-05,5.8667,7.0667
1.75,-2.0002649958037636e-05,-0.00016941698372014945,-0.00014012213295948724,-2.7339606251621204e-05,5.8667,7.0667
1.75390625,-6.812020953688801e-06,-0.0001689402139971007,-0.0001396453632364385,-2.4399526292820554e-05,5.8667,7.0667
1.7578125,-1.5605773623254678e-05,-0.00018308438244754704,-0.00015476955833981833,-3.6610128644235825e-05,5.8667,7.0667
1.76171875,-2.4876296015869315e-05,-0.00017479388670786595,-0.0001537895316868848,-4.392059773098339e-05,5.8667,7.0667
1.765625,-2.1962703263904726e-05,-0.0001635633110093842,-0.00013376520331883718,-3.465007533836874e-05,5.8667,7.0667
1.76953125,-9.275331189440691e-06,-0.00015135270865796895,-0.00010301355618219267,-2.0505906887922405e-05,5.8667,7.0667
1.7734375,4.4185547447929275e-06,-0.0001508759389349202,-6.979859880979623e-05,-1.3168950594338838e-05,5.8667,7.0667
1.77734375,-2.392275656977182e-05,-0.00015818640802166777,-8.690933442587925e-05,-1.2188923941405292e-05,5.8667,7.0667
1.78125,-3.2690022032501644e-05,-0.00013622851355458908,-0.00013132838028992135,-2.145944633401993e-05,5.8667,7.0667
1.78515625,-2.5856322668802875e-05,-0.0001269315039551384,-0.00012205785789730672,-2.4399526292820554e-05,5.8667,7.0667
1.7890625,-3.5153332268253534e-05,-0.00012253462762035547,-9.567659988860907e-05,-3.025319900358579e-05,5.8667,7.0667
1.79296875,-4.1483774702067534e-05,-0.00010155675980621034,-4.733744741283277e-05,-3.025319900358579e-05,5.8667,7.0667
1.796875,-4.1483774702067534e-05,-7.175865211566332e-05,-1.4625746970321131e-05,-1.5605773623254678e-05,5.8667,7.0667
1.80078125,-3.025319900358579e-05,-3.465007533836874e-05,-1.4616051728083475e-06,-6.812020953688801e-06,5.8667,7.0667
1.8046875,-3.4173305615320004e-05,-2.9776429280537056e-05,8.312174149691075e-06,-1.4148977247272383e-05,5.8667,7.0667
1.80859375,-4.638390796673528e-05,-3.5153332268253534e-05,2.735647586480513e-05,-2.6836349321736405e-05,5.8667,7.0667
1.8125,-6.834180243381394e-05,-2.87964026276035e-05,4.542075092698565e-05,-3.36700486854352e-05,5.8667,7.0667
1.81640625,-6.834180243381394e-05,-1.512900390020593e-05,4.9340857538719835e-05,-2.8319632904554734e-05,5.8667,7.0667
1.8203125,-5.761448366521699e-05,2.881327224078744e-05,5.421450359655153e-05,-2.5856322668802875e-05,5.8667,7.0667
1.82421875,-5.4197633983367604e-05,4.8837600608835046e-05,6.104820296025032e-05,-2.927317235065226e-05,5.8667,7.0667
1.828125,-4.638390796673528e-05,4.542075092698565e-05,9.034305372091256e-05,-2.6836349321736405e-05,5.8667,7.0667
1.83203125,-4.686067768978401e-05,5.0294396984817344e-05,0.00011669782452277416,-1.756582692912178e-05,5.8667,7.0667
1.8359375,-4.929750071869986e-05,5.177768056763568e-05,0.00013817894926680406,-1.2188923941405292e-05,5.8667,7.0667
1.83984375,-6.346815637598223e-05,4.9340857538719835e-05,0.00014842949831235224,-1.8042596652170515e-05,5.8667,7.0667
1.84375,-7.859235147936212e-05,5.519453024948508e-05,0.00013280204627908758,-3.4173305615320004e-05,5.8667,7.0667
1.84765625,-7.909560840924689e-05,5.9591406584268016e-05,0.0001357421262378882,-3.5630101991302295e-05,5.8667,7.0667
1.8515625,-6.24881297230487e-05,7.082198228274976e-05,0.00016355369341573213,-1.8545853582055315e-05,5.8667,7.0667
1.85546875,-7.030185573968102e-05,6.690187567101556e-05,0.00015184634799420165,-2.9776429280537056e-05,5.8667,7.0667
1.859375,-9.276300713664449e-05,6.348502598916616e-05,0.00013036522325017173,-3.5630101991302295e-05,5.8667,7.0667
1.86328125,-8.25124580910963e-05,8.398612408026252e-05,0.00012986196632028694,-2.6359579598687644e-05,5.8667,7.0667
1.8671875,-7.761232482642856e-05,8.740297376211192e-05,0.00013963574564278638,-2.4876296015869315e-05,5.8667,7.0667
1.87109375,-8.494928112001213e-05,7.569562834058143e-05,0.00016503697699855047,-2.537955294575411e-05,5.8667,7.0667
1.875,-8.444602419012736e-05,6.592184901808202e-05,0.00017528752604409865,-2.537955294575411e-05,5.8667,7.0667
1.87890625,-7.226190904554812e-05,6.740513260090034e-05,0.000142575825601587,-2.294272991683826e-05,5.8667,7.0667
1.8828125,-5.467440370641634e-05,6.83851592538339e-05,0.00013817894926680406,-1.3168950594338838e-05,5.8667,7.0667
1.88671875,-7.371870542153041e-05,6.446505264209972e-05,0.0001435293650476845,-1.2692180871290076e-05,5.8667,7.0667
1.890625,-8.25124580910963e-05,7.6675654993515e-05,0.0001494095249652858,-2.1962703263904726e-05,5.8667,7.0667
1.89453125,-7.030185573968102e-05,9.717675308461135e-05,0.00016307692369268338,-3.806692502021815e-05,5.8667,7.0667
1.8984375,-5.8091253388265756e-05,0.00011084415181200893,0.00015573996739909977,-3.7086898367284586e-05,5.8667,7.0667
1.90234375,-5.4197633983367604e-05,0.00011669782452277416,0.0001616201273167011,-2.145944633401993e-05,5.8667,7.0667
1.90625,-6.590497940489808e-05,9.277987674982842e-05,0.00017576429576714742,-4.878454854657746e-06,5.8667,7.0667
1.91015625,-6.932182908674747e-05,6.152497268329907e-05,0.00015526319767605103,-1.3168950594338838e-05,5.8667,7.0667
1.9140625,-6.542820968184933e-05,6.300825626611741e-05,0.00015330314437018395,-2.5856322668802875e-05,5.8667,7.0667
1.91796875,-6.3944926099031e-05,5.9591406584268016e-05,0.00014646944500648515,-2.87964026276035e-05,5.8667,7.0667
1.921875,-5.711122673533219e-05,5.4691273319600285e-05,0.00012353152388647296,-2.294272991683826e-05,5.8667,7.0667
1.92578125,-5.663445701228343e-05,4.7857573955901496e-05,0.00010255365607232783,-2.392275656977182e-05,5.8667,7.0667
1.9296875,-5.1257554024566953e-05,5.665132662546737e-05,0.00011571779786984062,-2.9776429280537056e-05,5.8667,7.0667
1.93359375,-5.1257554024566953e-05,6.740513260090034e-05,0.00012302826695658814,-1.512900390020593e-05,5.8667,7.0667
1.9375,-5.0277527371633424e-05,5.177768056763568e-05,8.350935435721378e-05,-2.145944633401993e-05,5.8667,7.0667
1.94140625,-3.5153332268253534e-05,5.2757707220569227e-05,8.936302706797902e-05,-3.5153332268253534e-05,5.8667,7.0667
1.9453125,-5.1257554024566953e-05,6.494182236514846e-05,0.00011961141727473876,-2.9776429280537056e-05,5.8667,7.0667
1.94921875,-6.005130669413284e-05,6.300825626611741e-05,8.838300041504546e-05,-2.4399526292820554e-05,5.8667,7.0667
1.953125,-4.83174740657663e-05,7.911247802243083e-05,7.961573495231563e-05,-2.0002649958037636e-05,5.8667,7.0667
1.95703125,-5.1734323747615714e-05,9.084631065079735e-05,8.888625734493027e-05,-2.243947298695346e-05,5.8667,7.0667
1.9609375,-4.638390796673528e-05,0.00010011683304341198,6.300825626611741e-05,-2.6359579598687644e-05,5.8667,7.0667
1.96484375,-2.5856322668802875e-05,9.61967264316778e-05,7.521885861753269e-05,-1.658580027618822e-05,5.8667,7.0667
1.96875,-3.2690022032501644e-05,5.079765391470213e-05,6.690187567101556e-05,-8.295304536507146e-06,5.8667,7.0667
1.97265625,-5.954804976424805e-05,4.895324467841675e-06,4.2507158175021046e-05,-2.0505906887922405e-05,5.8667,7.0667
1.9765625,-6.24881297230487e-05,1.0748997178606928e-05,5.0294396984817344e-05,-2.243947298695346e-05,5.8667,7.0667
1.98046875,-4.83174740657663e-05,2.9316529170672225e-05,5.127442363775089e-05,-1.0732127565422984e-05,5.8667,7.0667
1.984375,-4.5403881313801714e-05,1.5649130443274657e-05,5.079765391470213e-05,-1.2188923941405292e-05,5.8667,7.0667
1.98828125,-4.88207309956511e-05,4.895324467841675e-06,5.8108123001449676e-05,-1.512900390020593e-05,5.8667,7.0667
1.9921875,-4.442385466086816e-05,6.855377773708781e-06,5.2757707220569227e-05,-1.4148977247272383e-05,5.8667,7.0667
1.99609375,-3.857018195010292e-05,3.6150228534371024e-05,3.077332554665453e-05,-2.0505906887922405e-05,5.8667,7.0667
2.0,-5.078078430151819e-05,2.4919652835889294e-05,4.895324467841675e-06,-3.319327896238644e-05,5.8667,7.0667
2.00390625,-6.492495275196453e-05,1.4784747859922902e-06,-1.756582692912178e-05,-4.490062438391692e-05,5.8667,7.0667
2.0078125,-6.542820968184933e-05,2.458501438925836e-06,-2.918401548790655e-06,-4.442385466086816e-05,5.8667,7.0667
2.01171875,-5.078078430151819e-05,2.539642255893804e-05,3.915297814908129e-06,-3.221325230945288e-05,5.8667,7.0667
2.015625,-3.955020860303648e-05,5.3737733873502784e-05,7.835404426642327e-06,-2.5856322668802875e-05,5.8667,7.0667
2.01953125,-5.954804976424805e-05,2.6879706141756384e-05,7.835404426642327e-06,-3.806692502021815e-05,5.8667,7.0667
2.0234375,-7.226190904554812e-05,-5.858481507591292e-06,1.0017050629435289e-06,-3.955020860303648e-05,5.8667,7.0667
2.02734375,-6.736177578088038e-05,-1.4148977247272383e-05,-4.815785198748017e-07,-3.36700486854352e-05,5.8667,7.0667
2.03125,-6.786503271076517e-05,-2.0002649958037636e-05,-2.918401548790655e-06,-3.806692502021815e-05,5.8667,7.0667
2.03515625,-5.663445701228343e-05,9.29220080262462e-06,5.372094190890436e-06,-3.36700486854352e-05,5.8667,7.0667
2.0390625,-5.8091253388265756e-05,1.270905048447402e-05,-1.938374895857109e-06,-3.173648258640415e-05,5.8667,7.0667
2.04296875,-6.638174912794685e-05,-2.6836349321736405e-05,-2.243947298695346e-05,-3.806692502021815e-05,5.8667,7.0667
2.046875,-5.369437705348281e-05,-2.341949963988702e-05,-1.3645720317387584e-05,-3.5630101991302295e-05,5.8667,7.0667
2.05078125,-4.1483774702067534e-05,-1.4625746970321131e-05,2.1979572877088643e-05,-3.319327896238644e-05,5.8667,7.0667
2.0546875,-4.392059773098339e-05,-1.4148977247272383e-05,1.0272227455558167e-05,-3.2690022032501644e-05,5.8667,7.0667
2.05859375,-4.686067768978401e-05,-9.275331189440691e-06,-6.812020953688801e-06,-3.465007533836874e-05,5.8667,7.0667
2.0625,-4.1483774702067534e-05,-1.4625746970321131e-05,-1.2188923941405292e-05,-3.4173305615320004e-05,5.8667,7.0667
2.06640625,-4.2967058284885867e-05,-1.2188923941405292e-05,-6.812020953688801e-06,-2.7339606251621204e-05,5.8667,7.0667
2.0703125,-5.51511734294651e-05,-7.3152778835736e-06,4.4185547447929275e-06,-3.075645593347059e-05,5.8667,7.0667
2.07421875,-6.542820968184933e-05,2.167841000998294e-08,6.352120843823982e-06,-4.198703163195233e-05,5.8667,7.0667
2.078125,-5.9071280041199286e-05,1.0017050629435289e-06,2.00460067780576e-05,-3.806692502021815e-05,5.8667,7.0667
2.08203125,-4.100700497901877e-05,-1.8545853582055315e-05,1.2232280761425257e-05,-2.9776429280537056e-05,5.8667,7.0667
2.0859375,-4.638390796673528e-05,-9.752100912489439e-06,-3.955020860303648e-05,-4.198703163195233e-05,5.8667,7.0667
2.08984375,-5.613120008239866e-05,-1.2692180871290076e-05,-1.6109030553139477e-05,-4.2967058284885867e-05,5.8667,7.0667
2.09375,-4.784070434271757e-05,-4.733744741283277e-05,3.419017522850392e-05,-3.4173305615320004e-05,5.8667,7.0667
2.09765625,-4.2463801355001064e-05,-4.929750071869986e-05,-8.295304536507146e-06,-4.100700497901877e-05,5.8667,7.0667
2.1015625,-3.5630101991302295e-05,-3.025319900358579e-05,-3.123322565651935e-05,-3.5153332268253534e-05,5.8667,7.0667
2.10546875,-3.465007533836874e-05,-3.7086898367284586e-05,-1.8042596652170515e-05,-2.9776429280537056e-05,5.8667,7.0667
2.109375,-5.1257554024566953e-05,-4.5880651036850475e-05,-9.275331189440691e-06,-3.36700486854352e-05,5.8667,7.0667
2.11328125,-5.223758067750052e-05,-4.490062438391692e-05,1.270905048447402e-05,-3.2690022032501644e-05,5.8667,7.0667
2.1171875,-3.2690022032501644e-05,-2.6836349321736405e-05,9.29220080262462e-06,-3.123322565651935e-05,5.8667,7.0667
2.12109375,-4.980075764858466e-05,-2.5856322668802875e-05,5.875351120775221e-06,-3.173648258640415e-05,5.8667,7.0667
2.125,-5.271435040054925e-05,-3.7086898367284586e-05,2.881327224078744e-05,-2.5856322668802875e-05,5.8667,7.0667
2.12890625,-2.927317235065226e-05,-2.0505906887922405e-05,6.592184901808202e-05,-1.8545853582055315e-05,5.8667,7.0667
2.1328125,-3.075645593347059e-05,-3.395171271839402e-06,7.813245136949728e-05,-3.075645593347059e-05,5.8667,7.0667
2.13671875,-3.610687171435103e-05,2.167841000998294e-08,4.981762726176859e-05,-3.806692502021815e-05,5.8667,7.0667
2.140625,-3.2690022032501644e-05,-4.878454854657746e-06,-4.733744741283277e-05,-2.87964026276035e-05,5.8667,7.0667
2.14453125,-3.2690022032501644e-05,-2.87964026276035e-05,-9.472306044251157e-05,-2.537955294575411e-05,5.8667,7.0667
2.1484375,-3.904695167315168e-05,-4.050374804913397e-05,-1.9022623305104076e-05,-2.392275656977182e-05,5.8667,7.0667
2.15234375,-3.759015529716939e-05,-2.927317235065226e-05,-8.772074259555893e-06,-3.025319900358579e-05,5.8667,7.0667
2.15625,-3.36700486854352e-05,-2.4876296015869315e-05,-7.792047606622347e-06,-2.145944633401993e-05,5.8667,7.0667
2.16015625,-4.490062438391692e-05,-4.2967058284885867e-05,-2.415144618905856e-06,-1.8042596652170515e-05,5.8667,7.0667
2.1640625,-4.784070434271757e-05,-5.321760733043405e-05,-4.733744741283277e-05,-3.857018195010292e-05,5.8667,7.0667
2.16796875,-4.5403881313801714e-05,-6.444818302891578e-05,-3.4173305615320004e-05,-4.002697832608524e-05,5.8667,7.0667
2.171875,-4.198703163195233e-05,-3.904695167315168e-05,1.4669103790341111e-05,-2.927317235065226e-05,5.8667,7.0667
2.17578125,-3.610687171435103e-05,-1.0732127565422984e-05,1.270905048447402e-05,-2.392275656977182e-05,5.8667,7.0667
2.1796875,-3.173648258640415e-05,-1.756582692912178e-05,-3.025319900358579e-05,-2.0002649958037636e-05,5.8667,7.0667
2.18359375,-3.465007533836874e-05,-1.4148977247272383e-05,-3.36700486854352e-05,-2.0002649958037636e-05,5.8667,7.0667
2.1875,-4.5403881313801714e-05,-3.2690022032501644e-05,-1.3645720317387584e-05,-2.4876296015869315e-05,5.8667,7.0667
2.19140625,-4.733744741283277e-05,-3.5630101991302295e-05,-1.4616051728083475e-06,-2.4876296015869315e-05,5.8667,7.0667
2.1953125,-4.2463801355001064e-05,-9.275331189440691e-06,-4.375197924772948e-06,-2.6359579598687644e-05,5.8667,7.0667
2.19921875,-4.344382800793463e-05,-2.927317235065226e-05,-1.8545853582055315e-05,-2.87964026276035e-05,5.8667,7.0667
2.203125,-3.173648258640415e-05,-2.5856322668802875e-05,-2.0982676610971166e-05,-2.6836349321736405e-05,5.8667,7.0667
2.20703125,-2.8319632904554734e-05,-1.3645720317387584e-05,-3.395171271839402e-06,-3.2690022032501644e-05,5.8667,7.0667
2.2109375,-4.83174740657663e-05,-6.590497940489808e-05,6.855377773708781e-06,-3.857018195010292e-05,5.8667,7.0667
2.21484375,-5.078078430151819e-05,-8.20092011612115e-05,1.270905048447402e-05,-3.7086898367284586e-05,5.8667,7.0667
2.21875,-4.638390796673528e-05,-5.467440370641634e-05,4.4185547447929275e-06,-3.319327896238644e-05,5.8667,7.0667
2.22265625,-3.2690022032501644e-05,-4.83174740657663e-05,-1.8042596652170515e-05,-3.465007533836874e-05,5.8667,7.0667
2.2265625,-2.145944633401993e-05,-4.2967058284885867e-05,-2.9776429280537056e-05,-3.5630101991302295e-05,5.8667,7.0667
2.23046875,-4.1483774702067534e-05,-5.663445701228343e-05,-3.025319900358579e-05,-3.7086898367284586e-05,5.8667,7.0667
2.234375,-3.465007533836874e-05,-4.686067768978401e-05,-2.145944633401993e-05,-2.0002649958037636e-05,5.8667,7.0667
2.23828125,-2.243947298695346e-05,-4.1483774702067534e-05,-1.658580027618822e-05,-2.1962703263904726e-05,5.8667,7.0667
2.2421875,-4.88207309956511e-05,-5.078078430151819e-05,-3.123322565651935e-05,-5.078078430151819e-05,5.8667,7.0667
2.24609375,-5.1734323747615714e-05,-5.223758067750052e-05,-5.271435040054925e-05,-4.733744741283277e-05,5.8667,7.0667
2.25,-4.100700497901877e-05,-6.3944926099031e-05,-4.686067768978401e-05,-3.465007533836874e-05,5.8667,7.0667
2.25390625,-4.442385466086816e-05,-6.786503271076517e-05,-1.9525880234988875e-05,-4.490062438391692e-05,5.8667,7.0667
2.2578125,-4.83174740657663e-05,-6.24881297230487e-05,-2.4399526292820554e-05,-4.344382800793463e-05,5.8667,7.0667
2.26171875,-3.955020860303648e-05,-5.856802311131448e-05,-6.812020953688801e-06,-3.465007533836874e-05,5.8667,7.0667
2.265625,-3.759015529716939e-05,-5.369437705348281e-05,3.1753352199588076e-05,-3.5630101991302295e-05,5.8667,7.0667
2.26953125,-3.025319900358579e-05,-4.1483774702067534e-05,6.64251059479668e-05,-2.7339606251621204e-05,5.8667,7.0667
2.2734375,-3.2690022032501644e-05,-3.2690022032501644e-05,4.8837600608835046e-05,-2.5856322668802875e-05,5.8667,7.0667
2.27734375,-3.123322565651935e-05,-3.465007533836874e-05,-8.153243143816275e-05,-2.87964026276035e-05,5.8667,7.0667
2.28125,-2.6359579598687644e-05,-1.8042596652170515e-05,-0.00011718421183947503,-2.1962703263904726e-05,5.8667,7.0667
2.28515625,-2.537955294575411e-05,-2.243947298695346e-05,-7.51755017975127e-05,-2.9776429280537056e-05,5.8667,7.0667
2.2890625,-3.025319900358579e-05,-3.221325230945288e-05,-8.05524047852292e-05,-4.2967058284885867e-05,5.8667,7.0667
2.29296875,-3.955020860303648e-05,-4.002697832608524e-05,-6.542820968184933e-05,-3.5630101991302295e-05,5.8667,7.0667
2.296875,-5.223758067750052e-05,-4.2463801355001064e-05,-4.929750071869986e-05,-3.075645593347059e-05,5.8667,7.0667
2.30078125,-4.5880651036850475e-05,-4.83174740657663e-05,-5.711122673533219e-05,-4.1483774702067534e-05,5.8667,7.0667
2.3046875,-3.4173305615320004e-05,-3.5153332268253534e-05,-4.050374804913397e-05,-4.2967058284885867e-05,5.8667,7.0667
2.30859375,-3.075645593347059e-05,-1.756582692912178e-05,-2.1962703263904726e-05,-3.123322565651935e-05,5.8667,7.0667
2.3125,-4.2463801355001064e-05,-4.002697832608524e-05,-2.392275656977182e-05,-2.4399526292820554e-05,5.8667,7.0667
2.31640625,-3.5630101991302295e-05,-6.005130669413284e-05,-2.8319632904554734e-05,-2.6836349321736405e-05,5.8667,7.0667
2.3203125,-2.4399526292820554e-05,-6.884505936369871e-05,-4.344382800793463e-05,-4.2463801355001064e-05,5.8667,7.0667
2.32421875,-4.344382800793463e-05,-5.663445701228343e-05,-3.955020860303648e-05,-5.0277527371633424e-05,5.8667,7.0667
2.328125,-5.856802311131448e-05,-4.344382800793463e-05,-1.4625746970321131e-05,-3.36700486854352e-05,5.8667,7.0667
2.33203125,-5.369437705348281e-05,-3.2690022032501644e-05,3.438528091859382e-06,-4.100700497901877e-05,5.8667,7.0667
2.3359375,-4.784070434271757e-05,-5.0277527371633424e-05,1.2232280761425257e-05,-4.198703163195233e-05,5.8667,7.0667
2.33984375,-3.5153332268253534e-05,-6.296489944609742e-05,2.539642255893804e-05,-2.9776429280537056e-05,5.8667,7.0667
2.34375,-3.857018195010292e-05,-7.128188239261455e-05,4.542075092698565e-05,-1.708905720607302e-05,5.8667,7.0667
2.34765625,-4.929750071869986e-05,-7.51755017975127e-05,2.539642255893804e-05,-3.221325230945288e-05,5.8667,7.0667
2.3515625,-5.223758067750052e-05,-4.83174740657663e-05,-2.7816375974669965e-05,-4.344382800793463e-05,5.8667,7.0667
2.35546875,-4.5880651036850475e-05,-1.756582692912178e-05,-6.736177578088038e-05,-4.100700497901877e-05,5.8667,7.0667
2.359375,-3.123322565651935e-05,-4.375197924772948e-06,-7.761232482642856e-05,-4.392059773098339e-05,5.8667,7.0667
2.36328125,-2.8319632904554734e-05,-1.938374895857109e-06,-8.884290052491027e-05,-3.610687171435103e-05,5.8667,7.0667
2.3671875,-4.002697832608524e-05,-9.275331189440691e-06,-6.346815637598223e-05,-3.857018195010292e-05,5.8667,7.0667
2.37109375,-3.610687171435103e-05,-1.9525880234988875e-05,-2.6836349321736405e-05,-4.002697832608524e-05,5.8667,7.0667
2.375,-2.7339606251621204e-05,-4.88207309956511e-05,-3.6610128644235825e-05,-2.927317235065226e-05,5.8667,7.0667
2.37890625,-4.83174740657663e-05,-6.542820968184933e-05,-5.467440370641634e-05,-4.490062438391692e-05,5.8667,7.0667
2.3828125,-4.784070434271757e-05,-4.88207309956511e-05,-4.392059773098339e-05,-5.4197633983367604e-05,5.8667,7.0667
2.38671875,-5.613120008239866e-05,-4.5880651036850475e-05,-4.100700497901877e-05,-4.2463801355001064e-05,5.8667,7.0667
2.390625,-4.490062438391692e-05,-4.686067768978401e-05,-3.955020860303648e-05,-4.2463801355001064e-05,5.8667,7.0667
2.39453125,-3.025319900358579e-05,-1.02288706355382e-05,7.835404426642327e-06,-2.8319632904554734e-05,5.8667,7.0667
2.3984375,-3.221325230945288e-05,1.4784747859922902e-06,-4.878454854657746e-06,-3.173648258640415e-05,5.8667,7.0667
2.40234375,-3.075645593347059e-05,-2.243947298695346e-05,-3.5153332268253534e-05,-4.050374804913397e-05,5.8667,7.0667
2.40625,-4.344382800793463e-05,-1.9525880234988875e-05,-1.3645720317387584e-05,-1.2188923941405292e-05,5.8667,7.0667
2.41015625,-4.83174740657663e-05,-2.6359579598687644e-05,2.1979572877088643e-05,-3.221325230945288e-05,5.8667,7.0667
2.4140625,-3.075645593347059e-05,-1.171215421835653e-05,3.811028184023811e-05,-4.392059773098339e-05,5.8667,7.0667
2.41796875,-1.4148977247272383e-05,1.4165846860456312e-05,2.6376449211871588e-05,-6.335251230640054e-06,5.8667,7.0667
2.421875,-3.759015529716939e-05,-2.0982676610971166e-05,-9.275331189440691e-06,-3.319327896238644e-05,5.8667,7.0667
2.42578125,-5.321760733043405e-05,-3.173648258640415e-05,2.167841000998294e-08,-6.346815637598223e-05,5.8667,7.0667
2.4296875,-4.784070434271757e-05,-1.9525880234988875e-05,9.29220080262462e-06,-5.856802311131448e-05,5.8667,7.0667
2.43359375,-3.7086898367284586e-05,-1.8042596652170515e-05,2.1979572877088643e-05,-4.929750071869986e-05,5.8667,7.0667
2.4375,-3.025319900358579e-05,-9.275331189440691e-06,3.0296555823605772e-05,-4.2967058284885867e-05,5.8667,7.0667
2.44140625,-3.4173305615320004e-05,-2.415144618905856e-06,3.419017522850392e-05,-3.955020860303648e-05,5.8667,7.0667
2.4453125,-4.002697832608524e-05,-1.4625746970321131e-05,8.594617738612961e-05,-3.465007533836874e-05,5.8667,7.0667
2.44921875,-4.392059773098339e-05,-8.295304536507146e-06,7.715242471656374e-05,-4.002697832608524e-05,5.8667,7.0667
2.453125,-3.904695167315168e-05,-7.792047606622347e-06,1.3185820207522765e-05,-3.7086898367284586e-05,5.8667,7.0667
2.45703125,-2.5856322668802875e-05,-1.1208897288471746e-05,-4.100700497901877e-05,-3.123322565651935e-05,5.8667,7.0667
2.4609375,-3.904695167315168e-05,-1.171215421835653e-05,-7.128188239261455e-05,-3.36700486854352e-05,5.8667,7.0667
2.46484375,-5.1257554024566953e-05,-3.7086898367284586e-05,-8.153243143816275e-05,-4.1483774702067534e-05,5.8667,7.0667
2.46875,-4.88207309956511e-05,-5.0277527371633424e-05,-5.711122673533219e-05,-3.173648258640415e-05,5.8667,7.0667
2.47265625,-4.344382800793463e-05,-4.490062438391692e-05,-3.025319900358579e-05,-3.173648258640415e-05,5.8667,7.0667
2.4765625,-3.857018195010292e-05,-4.5880651036850475e-05,-4.1483774702067534e-05,-3.904695167315168e-05,5.8667,7.0667
2.48046875,-2.6836349321736405e-05,-4.980075764858466e-05,-3.173648258640415e-05,-2.9776429280537056e-05,5.8667,7.0667
2.484375,-3.173648258640415e-05,-3.857018195010292e-05,3.915297814908129e-06,-2.537955294575411e-05,5.8667,7.0667
2.48828125,-4.1483774702067534e-05,-4.88207309956511e-05,-1.4616051728083475e-06,-2.7339606251621204e-05,5.8667,7.0667
2.4921875,-4.2463801355001064e-05,-4.490062438391692e-05,-5.355224577706494e-06,-2.5856322668802875e-05,5.8667,7.0667
2.49609375,-4.88207309956511e-05,-3.4173305615320004e-05,2.458501438925836e-06,-2.9776429280537056e-05,5.8667,7.0667
2.5,-5.56544303593499e-05,-4.83174740657663e-05,-9.752100912489439e-06,-3.025319900358579e-05,5.8667,7.0667
2.50390625,-4.88207309956511e-05,-3.759015529716939e-05,4.895324467841675e-06,-2.7816375974669965e-05,5.8667,7.0667
2.5078125,-5.0277527371633424e-05,-2.9776429280537056e-05,4.984481330587442e-07,-2.537955294575411e-05,5.8667,7.0667
2.51171875,-4.88207309956511e-05,-2.4399526292820554e-05,4.895324467841675e-06,-2.294272991683826e-05,5.8667,7.0667
2.515625,-3.857018195010292e-05,-1.9525880234988875e-05,3.077332554665453e-05,-3.025319900358579e-05,5.8667,7.0667
2.51953125,-4.198703163195233e-05,-2.145944633401993e-05,2.935271161974583e-06,-2.7816375974669965e-05,5.8667,7.0667
2.5234375,-3.5630101991302295e-05,-2.294272991683826e-05,3.915297814908129e-06,-1.9525880234988875e-05,5.8667,7.0667
2.52734375,-5.078078430151819e-05,-5.078078430151819e-05,8.312174149691075e-06,-3.025319900358579e-05,5.8667,7.0667
2.53125,-5.56544303593499e-05,-1.9022623305104076e-05,1.3185820207522765e-05,-2.87964026276035e-05,5.8667,7.0667
2.53515625,-4.442385466086816e-05,-2.87964026276035e-05,-2.927317235065226e-05,-3.123322565651935e-05,5.8667,7.0667
2.5390625,-4.392059773098339e-05,-6.542820968184933e-05,-5.1257554024566953e-05,-3.955020860303648e-05,5.8667,7.0667
2.54296875,-3.4173305615320004e-05,-6.834180243381394e-05,-2.927317235065226e-05,-4.050374804913397e-05,5.8667,7.0667
2.546875,-4.2463801355001064e-05,-5.369437705348281e-05,-3.6610128644235825e-05,-2.6836349321736405e-05,5.8667,7.0667
2.55078125,-4.1483774702067534e-05,-3.123322565651935e-05,-1.658580027618822e-05,-2.0002649958037636e-05,5.8667,7.0667
2.5546875,-2.8319632904554734e-05,-4.2463801355001064e-05,4.984481330587442e-07,-2.0002649958037636e-05,5.8667,7.0667
2.55859375,-3.025319900358579e-05,-3.955020860303648e-05,-4.2463801355001064e-05,-8.772074259555893e-06,5.8667,7.0667
2.5625,-3.123322565651935e-05,-3.955020860303648e-05,-4.344382800793463e-05,-1.8545853582055315e-05,5.8667,7.0667
2.56640625,-3.025319900358579e-05,-6.296489944609742e-05,-2.927317235065226e-05,-2.87964026276035e-05,5.8667,7.0667
2.5703125,-3.955020860303648e-05,-4.2463801355001064e-05,-2.4399526292820554e-05,-2.294272991683826e-05,5.8667,7.0667
2.57421875,-5.271435040054925e-05,-4.1483774702067534e-05,-1.171215421835653e-05,-3.173648258640415e-05,5.8667,7.0667
2.578125,-5.4197633983367604e-05,-5.223758067750052e-05,-9.275331189440691e-06,-2.927317235065226e-05,5.8667,7.0667
2.58203125,-5.321760733043405e-05,-2.8319632904554734e-05,-4.815785198748017e-07,-3.465007533836874e-05,5.8667,7.0667
2.5859375,-5.856802311131448e-05,-2.6359579598687644e-05,-7.792047606622347e-06,-3.610687171435103e-05,5.8667,7.0667
2.58984375,-4.784070434271757e-05,-4.344382800793463e-05,-3.025319900358579e-05,-3.221325230945288e-05,5.8667,7.0667
2.59375,-3.319327896238644e-05,-3.173648258640415e-05,6.855377773708781e-06,-3.4173305615320004e-05,5.8667,7.0667
2.59765625,-4.686067768978401e-05,-6.335251230640054e-06,4.1527131522087496e-05,-3.4173305615320004e-05,5.8667,7.0667
2.6015625,-4.5880651036850475e-05,-1.2692180871290076e-05,2.248282980697344e-05,-3.5153332268253534e-05,5.8667,7.0667
2.60546875,-4.050374804913397e-05,-1.6109030553139477e-05,5.4691273319600285e-05,-2.7339606251621204e-05,5.8667,7.0667
2.609375,-4.2967058284885867e-05,-9.275331189440691e-06,7.325880531166559e-05,-1.4148977247272383e-05,5.8667,7.0667
2.61328125,-4.198703163195233e-05,-1.2188923941405292e-05,-1.4616051728083475e-06,-2.392275656977182e-05,5.8667,7.0667
2.6171875,-3.806692502021815e-05,-1.512900390020593e-05,-0.00012009780459143962,-2.243947298695346e-05,5.8667,7.0667
2.62109375,-4.050374804913397e-05,-1.9525880234988875e-05,-0.00020016863085679402,-1.2188923941405292e-05,5.8667,7.0667
2.625,-5.711122673533219e-05,-3.857018195010292e-05,-0.0002387604912169069,-3.465007533836874e-05,5.8667,7.0667
2.62890625,-5.8091253388265756e-05,-5.078078430151819e-05,-0.00022850994217135876,-4.490062438391692e-05,5.8667,7.0667
2.6328125,-4.686067768978401e-05,-4.5403881313801714e-05,-0.00017868750611276413,-3.7086898367284586e-05,5.8667,7.0667
2.63671875,-5.321760733043405e-05,-4.442385466086816e-05,-0.00014353898264133665,-2.537955294575411e-05,5.8667,7.0667
2.640625,-4.83174740657663e-05,-4.83174740657663e-05,-0.00012499793785610737,-1.512900390020593e-05,5.8667,7.0667
2.64453125,-3.759015529716939e-05,-4.5403881313801714e-05,-0.00010937048582284268,-2.294272991683826e-05,5.8667,7.0667
2.6484375,-5.856802311131448e-05,-4.442385466086816e-05,-8.102917450827794e-05,-1.512900390020593e-05,5.8667,7.0667
2.65234375,-4.83174740657663e-05,-4.83174740657663e-05,-6.19848727931639e-05,7.332147496757528e-06,5.8667,7.0667
2.65625,-4.88207309956511e-05,-5.954804976424805e-05,-9.567659988860907e-05,-3.8984282017242e-06,5.8667,7.0667
2.66015625,-5.856802311131448e-05,-7.469873207446398e-05,-0.00010937048582284268,-2.294272991683826e-05,5.8667,7.0667
2.6640625,-5.1734323747615714e-05,-7.077862546272976e-05,-8.884290052491027e-05,-3.173648258640415e-05,5.8667,7.0667
2.66796875,-5.56544303593499e-05,-4.88207309956511e-05,-5.321760733043405e-05,-2.8319632904554734e-05,5.8667,7.0667
2.671875,-5.321760733043405e-05,-2.4399526292820554e-05,-3.075645593347059e-05,-1.512900390020593e-05,5.8667,7.0667
2.67578125,-4.686067768978401e-05,-4.100700497901877e-05,-3.857018195010292e-05,-1.756582692912178e-05,5.8667,7.0667
2.6796875,-4.929750071869986e-05,-3.2690022032501644e-05,-3.857018195010292e-05,-1.8042596652170515e-05,5.8667,7.0667
2.68359375,-5.663445701228343e-05,-1.658580027618822e-05,-3.5630101991302295e-05,-2.0505906887922405e-05,5.8667,7.0667
2.6875,-5.223758067750052e-05,-3.123322565651935e-05,-6.335251230640054e-06,-2.0982676610971166e-05,5.8667,7.0667
2.69140625,-4.929750071869986e-05,-3.610687171435103e-05,-2.918401548790655e-06,-2.6359579598687644e-05,5.8667,7.0667
2.6953125,-5.321760733043405e-05,-2.5856322668802875e-05,-4.375197924772948e-06,-2.5856322668802875e-05,5.8667,7.0667
2.69921875,-5.223758067750052e-05,-2.341949963988702e-05,2.9793298893720986e-05,-1.8545853582055315e-05,5.8667,7.0667
2.703125,-4.686067768978401e-05,3.438528091859382e-06,8.252932770428022e-05,-1.0732127565422984e-05,5.8667,7.0667
2.70703125,-3.5630101991302295e-05,-1.6109030553139477e-05,-2.243947298695346e-05,-1.9022623305104076e-05,5.8667,7.0667
2.7109375,-4.2463801355001064e-05,-3.7086898367284586e-05,-0.00011130405192187373,-3.759015529716939e-05,5.8667,7.0667
2.71484375,-5.0277527371633424e-05,-3.36700486854352e-05,-7.51755017975127e-05,-3.2690022032501644e-05,5.8667,7.0667
2.71875,-3.4173305615320004e-05,-2.5856322668802875e-05,-7.175865211566332e-05,-1.9022623305104076e-05,5.8667,7.0667
2.72265625,-2.87964026276035e-05,-1.708905720607302e-05,-4.83174740657663e-05,-1.0732127565422984e-05,5.8667,7.0667
2.7265625,-3.319327896238644e-05,-1.9022623305104076e-05,-2.392275656977182e-05,-1.2692180871290076e-05,5.8667,7.0667
2.73046875,-4.784070434271757e-05,-4.88207309956511e-05,-7.792047606622347e-06,-2.7339606251621204e-05,5.8667,7.0667
2.734375,-3.36700486854352e-05,-4.100700497901877e-05,1.7582696542305712e-05,-1.512900390020593e-05,5.8667,7.0667
2.73828125,-1.4148977247272383e-05,-7.3152778835736e-06,2.2959599530022186e-05,-4.375197924772948e-06,5.8667,7.0667
2.7421875,-4.2463801355001064e-05,-3.319327896238644e-05,1.0017050629435289e-06,-1.6109030553139477e-05,5.8667,7.0667
2.74609375,-5.663445701228343e-05,-4.442385466086816e-05,-1.1208897288471746e-05,-3.025319900358579e-05,5.8667,7.0667
2.75,-4.686067768978401e-05,-4.929750071869986e-05,-6.335251230640054e-06,-2.927317235065226e-05,5.8667,7.0667
2.75390625,-4.344382800793463e-05,-5.1257554024566953e-05,-1.0732127565422984e-05,-1.512900390020593e-05,5.8667,7.0667
2.7578125,-4.050374804913397e-05,-4.392059773098339e-05,-3.395171271839402e-06,-2.294272991683826e-05,5.8667,7.0667
2.76171875,-5.0277527371633424e-05,-4.980075764858466e-05,1.9552445090410374e-06,-3.4173305615320004e-05,5.8667,7.0667
2.765625,-3.075645593347059e-05,-2.392275656977182e-05,8.312174149691075e-06,-3.6610128644235825e-05,5.8667,7.0667
2.76953125,-2.1962703263904726e-05,1.3185820207522765e-05,4.298392789806981e-05,-2.4399526292820554e-05,5.8667,7.0667
2.7734375,-4.442385466086816e-05,-1.2692180871290076e-05,5.225445029068444e-05,-2.392275656977182e-05,5.8667,7.0667
2.77734375,-4.392059773098339e-05,-3.319327896238644e-05,2.935271161974583e-06,-3.5153332268253534e-05,5.8667,7.0667
2.78125,-2.927317235065226e-05,-2.7816375974669965e-05,-1.512900390020593e-05,-2.9776429280537056e-05,5.8667,7.0667
2.78515625,-1.9525880234988875e-05,-3.610687171435103e-05,9.29220080262462e-06,-2.927317235065226e-05,5.8667,7.0667
2.7890625,-3.123322565651935e-05,-1.708905720607302e-05,5.0294396984817344e-05,-3.221325230945288e-05,5.8667,7.0667
2.79296875,-3.4173305615320004e-05,1.5145873513389857e-05,9.521669977874425e-05,-2.537955294575411e-05,5.8667,7.0667
2.796875,-2.927317235065226e-05,-1.4625746970321131e-05,4.054710486915395e-05,-3.123322565651935e-05,5.8667,7.0667
2.80078125,-2.6359579598687644e-05,-4.198703163195233e-05,-4.5880651036850475e-05,-3.7086898367284586e-05,5.8667,7.0667
2.8046875,-3.123322565651935e-05,-4.442385466086816e-05,-8.102917450827794e-05,-3.857018195010292e-05,5.8667,7.0667
2.80859375,-4.002697832608524e-05,-5.1257554024566953e-05,-6.052807641718158e-05,-3.5153332268253534e-05,5.8667,7.0667
2.8125,-3.5153332268253534e-05,-3.5153332268253534e-05,-4.100700497901877e-05,-3.173648258640415e-05,5.8667,7.0667
2.81640625,-2.7816375974669965e-05,-1.2188923941405292e-05,-4.83174740657663e-05,-2.87964026276035e-05,5.8667,7.0667
2.8203125,-3.36700486854352e-05,-2.6836349321736405e-05,-3.319327896238644e-05,-2.0002649958037636e-05,5.8667,7.0667
2.82421875,-5.1257554024566953e-05,-4.980075764858466e-05,-5.4197633983367604e-05,-2.537955294575411e-05,5.8667,7.0667
2.828125,-4.100700497901877e-05,-4.002697832608524e-05,-5.761448366521699e-05,-2.7816375974669965e-05,5.8667,7.0667
2.83203125,-2.7339606251621204e-05,-2.9776429280537056e-05,-2.7816375974669965e-05,-2.0982676610971166e-05,5.8667,7.0667
2.8359375,-2.5856322668802875e-05,-2.6836349321736405e-05,-2.0982676610971166e-05,-3.025319900358579e-05,5.8667,7.0667
2.83984375,-3.221325230945288e-05,-1.708905720607302e-05,-3.319327896238644e-05,-2.9776429280537056e-05,5.8667,7.0667
2.84375,-2.7816375974669965e-05,-2.8319632904554734e-05,-2.927317235065226e-05,-2.7339606251621204e-05,5.8667,7.0667
2.84765625,-2.4876296015869315e-05,-5.0277527371633424e-05,-2.1962703263904726e-05,-3.319327896238644e-05,5.8667,7.0667
2.8515625,-3.5153332268253534e-05,-5.1734323747615714e-05,-2.6836349321736405e-05,-2.87964026276035e-05,5.8667,7.0667
2.85546875,-3.7086898367284586e-05,-3.221325230945288e-05,-2.537955294575411e-05,-3.025319900358579e-05,5.8667,7.0667
2.859375,-4.344382800793463e-05,-1.9525880234988875e-05,-2.145944633401993e-05,-3.173648258640415e-05,5.8667,7.0667
2.86328125,-3.319327896238644e-05,-3.173648258640415e-05,-2.6836349321736405e-05,-2.243947298695346e-05,5.8667,7.0667
2.8671875,-3.173648258640415e-05,-6.24881297230487e-05,-3.7086898367284586e-05,-1.9022623305104076e-05,5.8667,7.0667
2.87109375,-2.8319632904554734e-05,-4.2463801355001064e-05,-1.0732127565422984e-05,-2.294272991683826e-05,5.8667,7.0667
2.875,-2.0002649958037636e-05,-1.02288706355382e-05,1.1729023831540473e-05,-2.0505906887922405e-05,5.8667,7.0667
2.87890625,-2.341949963988702e-05,-1.5605773623254678e-05,1.0272227455558167e-05,-3.123322565651935e-05,5.8667,7.0667
2.8828125,-2.6359579598687644e-05,-2.1962703263904726e-05,-5.858481507591292e-06,-2.5856322668802875e-05,5.8667,7.0667
2.88671875,-4.1483774702067534e-05,-2.4876296015869315e-05,-2.243947298695346e-05,-2.1962703263904726e-05,5.8667,7.0667
2.890625,-4.100700497901877e-05,-3.5153332268253534e-05,8.815431079575872e-06,-2.927317235065226e-05,5.8667,7.0667
2.89453125,-2.9776429280537056e-05,-1.3645720317387584e-05,4.2507158175021046e-05,-2.4399526292820554e-05,5.8667,7.0667
2.8984375,-3.6610128644235825e-05,1.3689077137407565e-05,4.298392789806981e-05,-3.7086898367284586e-05,5.8667,7.0667
2.90234375,-4.050374804913397e-05,-6.103133334706638e-05,-2.294272991683826e-05,-4.100700497901877e-05,5.8667,7.0667
2.90625,-2.9776429280537056e-05,-9.617985681849387e-05,-0.00012841478753795676,-3.36700486854352e-05,5.8667,7.0667
2.91015625,-3.173648258640415e-05,-4.929750071869986e-05,-0.00010937048582284268,-3.5630101991302295e-05,5.8667,7.0667
2.9140625,-3.904695167315168e-05,-3.955020860303648e-05,-5.761448366521699e-05,-3.610687171435103e-05,5.8667,7.0667
2.91796875,-2.7816375974669965e-05,-4.88207309956511e-05,-5.51511734294651e-05,-3.904695167315168e-05,5.8667,7.0667
2.921875,-1.1208897288471746e-05,-4.198703163195233e-05,-4.002697832608524e-05,-3.025319900358579e-05,5.8667,7.0667
2.92578125,-1.708905720607302e-05,-4.1483774702067534e-05,-2.927317235065226e-05,-2.8319632904554734e-05,5.8667,7.0667
2.9296875,-3.465007533836874e-05,-4.392059773098339e-05,-2.537955294575411e-05,-3.955020860303648e-05,5.8667,7.0667
2.93359375,-2.6836349321736405e-05,-2.927317235065226e-05,-1.9022623305104076e-05,-3.759015529716939e-05,5.8667,7.0667
2.9375,-1.9525880234988875e-05,-2.392275656977182e-05,-1.658580027618822e-05,-2.1962703263904726e-05,5.8667,7.0667
2.94140625,-2.927317235065226e-05,-3.759015529716939e-05,-2.4399526292820554e-05,-2.243947298695346e-05,5.8667,7.0667
2.9453125,-3.36700486854352e-05,-3.806692502021815e-05,-2.7816375974669965e-05,-3.610687171435103e-05,5.8667,7.0667
2.94921875,-1.708905720607302e-05,-2.8319632904554734e-05,-2.0982676610971166e-05,-3.173648258640415e-05,5.8667,7.0667
2.953125,-1.02288706355382e-05,-3.465007533836874e-05,-7.3152778835736e-06,-2.5856322668802875e-05,5.8667,7.0667
2.95703125,-3.5630101991302295e-05,-5.613120008239866e-05,-2.341949963988702e-05,-3.36700486854352e-05,5.8667,7.0667
2.9609375,-5.369437705348281e-05,-6.542820968184933e-05,-4.442385466086816e-05,-3.806692502021815e-05,5.8667,7.0667
2.96484375,-4.442385466086816e-05,-7.128188239261455e-05,-4.2967058284885867e-05,-4.198703163195233e-05,5.8667,7.0667
2.96875,-3.075645593347059e-05,-6.979859880979623e-05,-4.2967058284885867e-05,-3.759015529716939e-05,5.8667,7.0667
2.97265625,-2.6359579598687644e-05,-5.223758067750052e-05,-3.4173305615320004e-05,-3.2690022032501644e-05,5.8667,7.0667
2.9765625,-3.025319900358579e-05,-4.442385466086816e-05,-2.341949963988702e-05,-3.319327896238644e-05,5.8667,7.0667
2.98046875,-3.5630101991302295e-05,-6.932182908674747e-05,-3.465007533836874e-05,-5.271435040054925e-05,5.8667,7.0667
2.984375,-2.4876296015869315e-05,-8.444602419012736e-05,-4.100700497901877e-05,-5.1257554024566953e-05,5.8667,7.0667
2.98828125,-2.5856322668802875e-05,-4.2463801355001064e-05,-3.2690022032501644e-05,-3.806692502021815e-05,5.8667,7.0667
2.9921875,-3.465007533836874e-05,-4.784070434271757e-05,-2.145944633401993e-05,-5.0277527371633424e-05,5.8667,7.0667
2.99609375,-2.4399526292820554e-05,-5.1734323747615714e-05,-7.3152778835736e-06,-3.857018195010292e-05,5.8667,7.0667
3.0,-3.759015529716939e-05,-3.5153332268253534e-05,-2.0982676610971166e-05,-2.4399526292820554e-05,5.8667,7.0667
3.00390625,-5.4197633983367604e-05,-4.050374804913397e-05,-4.344382800793463e-05,-3.2690022032501644e-05,5.8667,7.0667
3.0078125,-5.223758067750052e-05,-4.392059773098339e-05,-5.321760733043405e-05,-4.2967058284885867e-05,5.8667,7.0667
3.01171875,-4.050374804913397e-05,-3.5630101991302295e-05,-3.610687171435103e-05,-4.002697832608524e-05,5.8667,7.0667
3.015625,-2.294272991683826e-05,-4.050374804913397e-05,-2.87964026276035e-05,-2.6359579598687644e-05,5.8667,7.0667
3.01953125,-3.173648258640415e-05,-4.980075764858466e-05,-5.761448366521699e-05,-2.6359579598687644e-05,5.8667,7.0667
3.0234375,-3.904695167315168e-05,-4.638390796673528e-05,-6.979859880979623e-05,-4.002697832608524e-05,5.8667,7.0667
3.02734375,-3.221325230945288e-05,-4.5880651036850475e-05,-5.56544303593499e-05,-4.929750071869986e-05,5.8667,7.0667
3.03125,-3.319327896238644e-05,-4.638390796673528e-05,-4.344382800793463e-05,-4.344382800793463e-05,5.8667,7.0667
3.03515625,-2.8319632904554734e-05,-4.1483774702067534e-05,-2.7816375974669965e-05,-3.2690022032501644e-05,5.8667,7.0667
3.0390625,-3.025319900358579e-05,-4.392059773098339e-05,-3.4173305615320004e-05,-3.2690022032501644e-05,5.8667,7.0667
3.04296875,-4.002697832608524e-05,-4.88207309956511e-05,-5.0277527371633424e-05,-3.610687171435103e-05,5.8667,7.0667
3.046875,-5.1734323747615714e-05,-5.8091253388265756e-05,-4.638390796673528e-05,-3.857018195010292e-05,5.8667,7.0667
3.05078125,-4.5403881313801714e-05,-5.223758067750052e-05,-4.198703163195233e-05,-3.7086898367284586e-05,5.8667,7.0667
3.0546875,-2.87964026276035e-05,-4.686067768978401e-05,-4.2967058284885867e-05,-3.5630101991302295e-05,5.8667,7.0667
3.05859375,-3.955020860303648e-05,-6.296489944609742e-05,-4.050374804913397e-05,-4.490062438391692e-05,5.8667,7.0667
3.0625,-5.321760733043405e-05,-6.296489944609742e-05,-5.1257554024566953e-05,-5.1257554024566953e-05,5.8667,7.0667
3.06640625,-4.198703163195233e-05,-5.321760733043405e-05,-4.1483774702067534e-05,-3.955020860303648e-05,5.8667,7.0667
3.0703125,-3.955020860303648e-05,-5.467440370641634e-05,-1.1208897288471746e-05,-3.5630101991302295e-05,5.8667,7.0667
3.07421875,-3.4173305615320004e-05,-4.2463801355001064e-05,-3.221325230945288e-05,-3.173648258640415e-05,5.8667,7.0667
3.078125,-2.0982676610971166e-05,-3.6610128644235825e-05,-4.1483774702067534e-05,-2.1962703263904726e-05,5.8667,7.0667
3.08203125,-4.002697832608524e-05,-5.369437705348281e-05,-1.756582692912178e-05,-3.173648258640415e-05,5.8667,7.0667
3.0859375,-4.2967058284885867e-05,-5.223758067750052e-05,-4.815785198748017e-07,-4.2463801355001064e-05,5.8667,7.0667
3.08984375,-3.221325230945288e-05,-4.686067768978401e-05,2.539642255893804e-05,-3.123322565651935e-05,5.8667,7.0667
3.09375,-3.6610128644235825e-05,-5.223758067750052e-05,-3.7086898367284586e-05,-3.221325230945288e-05,5.8667,7.0667
3.09765625,-2.6836349321736405e-05,-5.0277527371633424e-05,-8.690933442587925e-05,-3.4173305615320004e-05,5.8667,7.0667
3.1015625,-2.87964026276035e-05,-4.980075764858466e-05,-7.226190904554812e-05,-3.2690022032501644e-05,5.8667,7.0667
3.10546875,-3.465007533836874e-05,-6.150810307011514e-05,-6.834180243381394e-05,-3.465007533836874e-05,5.8667,7.0667
3.109375,-3.4173305615320004e-05,-6.103133334706638e-05,-4.88207309956511e-05,-3.025319900358579e-05,5.8667,7.0667
3.11328125,-2.8319632904554734e-05,-4.980075764858466e-05,-2.8319632904554734e-05,-2.6836349321736405e-05,5.8667,7.0667
3.1171875,-3.2690022032501644e-05,-4.784070434271757e-05,-1.1208897288471746e-05,-3.465007533836874e-05,5.8667,7.0667
3.12109375,-4.2463801355001064e-05,-4.733744741283277e-05,-5.355224577706494e-06,-3.5630101991302295e-05,5.8667,7.0667
3.125,-4.100700497901877e-05,-4.344382800793463e-05,-1.708905720607302e-05,-2.8319632904554734e-05,5.8667,7.0667
3.12890625,-4.2967058284885867e-05,-5.467440370641634e-05,-1.02288706355382e-05,-3.221325230945288e-05,5.8667,7.0667
3.1328125,-4.88207309956511e-05,-7.128188239261455e-05,-5.858481507591292e-06,-3.5630101991302295e-05,5.8667,7.0667
3.13671875,-4.100700497901877e-05,-6.979859880979623e-05,-1.171215421835653e-05,-3.5630101991302295e-05,5.8667,7.0667
3.140625,-2.6359579598687644e-05,-4.929750071869986e-05,2.935271161974583e-06,-3.025319900358579e-05,5.8667,7.0667
3.14453125,-3.319327896238644e-05,-4.002697832608524e-05,2.0999546224155096e-05,-3.4173305615320004e-05,5.8667,7.0667
3.1484375,-3.7086898367284586e-05,-3.5153332268253534e-05,5.0294396984817344e-05,-3.075645593347059e-05,5.8667,7.0667
3.15234375,-3.2690022032501644e-05,-1.171215421835653e-05,6.250499933623262e-05,-1.02288706355382e-05,5.8667,7.0667
3.15625,-4.100700497901877e-05,-3.857018195010292e-05,2.539642255893804e-05,-2.341949963988702e-05,5.8667,7.0667
3.16015625,-3.610687171435103e-05,-4.929750071869986e-05,-1.938374895857109e-06,-3.465007533836874e-05,5.8667,7.0667
3.1640625,-2.6836349321736405e-05,-2.7816375974669965e-05,1.0017050629435289e-06,-3.025319900358579e-05,5.8667,7.0667
3.16796875,-3.759015529716939e-05,-3.4173305615320004e-05,2.6879706141756384e-05,-3.36700486854352e-05,5.8667,7.0667
3.171875,-4.5403881313801714e-05,-4.2463801355001064e-05,5.3737733873502784e-05,-3.759015529716939e-05,5.8667,7.0667
3.17578125,-3.857018195010292e-05,-3.2690022032501644e-05,8.154930105134667e-05,-4.198703163195233e-05,5.8667,7.0667
3.1796875,-2.7816375974669965e-05,-4.980075764858466e-05,8.056927439841314e-05,-3.2690022032501644e-05,5.8667,7.0667
3.18359375,-3.123322565651935e-05,-4.1483774702067534e-05,7.423883196459914e-05,-2.6359579598687644e-05,5.8667,7.0667
3.1875,-4.344382800793463e-05,-1.1208897288471746e-05,3.7607024910353315e-05,-3.36700486854352e-05,5.8667,7.0667
3.19140625,-4.490062438391692e-05,-6.812020953688801e-06,5.372094190890436e-06,-2.927317235065226e-05,5.8667,7.0667
3.1953125,-3.465007533836874e-05,-9.752100912489439e-06,5.519453024948508e-05,-1.708905720607302e-05,5.8667,7.0667
3.19921875,-3.5153332268253534e-05,-2.7816375974669965e-05,5.323447694361798e-05,-2.537955294575411e-05,5.8667,7.0667
3.203125,-4.1483774702067534e-05,-4.980075764858466e-05,2.6879706141756384e-05,-4.002697832608524e-05,5.8667,7.0667
3.20703125,-3.5630101991302295e-05,-4.392059773098339e-05,4.7857573955901496e-05,-4.733744741283277e-05,5.8667,7.0667
3.2109375,-3.610687171435103e-05,-2.87964026276035e-05,6.93386986999314e-05,-3.319327896238644e-05,5.8667,7.0667
3.21484375,-2.9776429280537056e-05,-3.6610128644235825e-05,4.2507158175021046e-05,-2.6836349321736405e-05,5.8667,7.0667
3.21875,-1.3168950594338838e-05,-4.344382800793463e-05,3.077332554665453e-05,-3.904695167315168e-05,5.8667,7.0667
3.22265625,-3.4173305615320004e-05,-4.5403881313801714e-05,4.004384793926917e-05,-4.392059773098339e-05,5.8667,7.0667
3.2265625,-4.638390796673528e-05,-3.6610128644235825e-05,4.102387459220271e-05,-4.392059773098339e-05,5.8667,7.0667
3.23046875,-2.7816375974669965e-05,-1.9525880234988875e-05,5.6174556902418625e-05,-4.2463801355001064e-05,5.8667,7.0667
3.234375,-2.9776429280537056e-05,-1.9525880234988875e-05,6.006817630731677e-05,-3.904695167315168e-05,5.8667,7.0667
3.23828125,-4.050374804913397e-05,-3.465007533836874e-05,3.956707821622041e-05,-3.5630101991302295e-05,5.8667,7.0667
3.2421875,-2.927317235065226e-05,-3.2690022032501644e-05,-6.812020953688801e-06,-3.075645593347059e-05,5.8667,7.0667
3.24609375,-2.9776429280537056e-05,-2.392275656977182e-05,-2.918401548790655e-06,-3.6610128644235825e-05,5.8667,7.0667
3.25,-3.173648258640415e-05,-1.9022623305104076e-05,2.881327224078744e-05,-2.7816375974669965e-05,5.8667,7.0667
3.25390625,-4.050374804913397e-05,-3.075645593347059e-05,1.0272227455558167e-05,-2.8319632904554734e-05,5.8667,7.0667
3.2578125,-4.5403881313801714e-05,-3.857018195010292e-05,-1.512900390020593e-05,-4.002697832608524e-05,5.8667,7.0667
3.26171875,-3.025319900358579e-05,-2.392275656977182e-05,-8.772074259555893e-06,-3.759015529716939e-05,5.8667,7.0667
3.265625,-3.025319900358579e-05,-1.3168950594338838e-05,4.895324467841675e-06,-4.392059773098339e-05,5.8667,7.0667
3.26953125,-3.2690022032501644e-05,-2.0982676610971166e-05,3.438528091859382e-06,-4.344382800793463e-05,5.8667,7.0667
3.2734375,-3.4173305615320004e-05,-1.8042596652170515e-05,8.312174149691075e-06,-4.5403881313801714e-05,5.8667,7.0667
3.27734375,-3.123322565651935e-05,-2.87964026276035e-05,-5.355224577706494e-06,-4.100700497901877e-05,5.8667,7.0667
3.28125,-3.7086898367284586e-05,-5.4197633983367604e-05,-3.319327896238644e-05,-2.243947298695346e-05,5.8667,7.0667
3.28515625,-1.6109030553139477e-05,-2.145944633401993e-05,-4.375197924772948e-06,-1.02288706355382e-05,5.8667,7.0667
3.2890625,-1.658580027618822e-05,-3.025319900358579e-05,1.3689077137407565e-05,-9.275331189440691e-06,5.8667,7.0667
3.29296875,-4.686067768978401e-05,-5.8091253388265756e-05,-2.5856322668802875e-05,-3.319327896238644e-05,5.8667,7.0667
3.296875,-2.87964026276035e-05,-6.492495275196453e-05,-4.344382800793463e-05,-3.7086898367284586e-05,5.8667,7.0667
3.30078125,-5.355224577706494e-06,-6.346815637598223e-05,-3.4173305615320004e-05,-5.858481507591292e-06,5.8667,7.0667
3.3046875,-1.9525880234988875e-05,-8.25124580910963e-05,-6.150810307011514e-05,-9.752100912489439e-06,5.8667,7.0667
3.30859375,-3.221325230945288e-05,-0.00013230840694285488,-0.00011130405192187373,-3.4173305615320004e-05,5.8667,7.0667
3.3125,-8.295304536507146e-06,-0.00014208218626535432,-0.0001454990359472037,-2.145944633401993e-05,5.8667,7.0667
3.31640625,2.6376449211871588e-05,-0.00014695583232318603,-0.00017821073638971534,-6.335251230640054e-06,5.8667,7.0667
3.3203125,2.1979572877088643e-05,-0.00018308438244754704,-0.00021386251679102764,-4.878454854657746e-06,5.8667,7.0667
3.32421875,8.312174149691075e-06,-0.00019042133874113063,-0.00022654988886549164,-1.512900390020593e-05,5.8667,7.0667
3.328125,2.6376449211871588e-05,-0.0001752706564309147,-0.00019823506475776298,-1.938374895857109e-06,5.8667,7.0667
3.33203125,3.713025518730457e-05,-0.00018991808181124581,-0.00020114865750972755,1.7582696542305712e-05,5.8667,7.0667
3.3359375,2.735647586480513e-05,-0.00025828156265506974,-0.0002558447396261539,2.167841000998294e-08,5.8667,7.0667
3.33984375,1.9542749848172802e-05,-0.00028513959038681616,-0.00028953646672159905,-8.772074259555893e-06,5.8667,7.0667
3.34375,3.419017522850392e-05,-0.0002685321117006179,-0.0002865963867627984,1.6602669889372165e-05,5.8667,7.0667
3.34765625,4.1527131522087496e-05,-0.0002675520850476844,-0.0002758690679942015,2.1979572877088643e-05,5.8667,7.0667
3.3515625,3.956707821622041e-05,-0.000281245970981918,-0.0002827027673579003,9.768970525673367e-06,5.8667,7.0667
3.35546875,1.6125900166323404e-05,-0.00032079137078812846,-0.0003124743878416113,-7.3152778835736e-06,5.8667,7.0667
3.359375,-4.815785198748017e-07,-0.00033885564585030894,-0.0003383523889204242,-1.4625746970321131e-05,5.8667,7.0667
3.36328125,1.3185820207522765e-05,-0.0003227514240939955,-0.00033398199979247723,-2.415144618905856e-06,5.8667,7.0667
3.3671875,1.0272227455558167e-05,-0.00033006189318074305,-0.0003266450434988937,-7.3152778835736e-06,5.8667,7.0667
3.37109375,6.352120843823982e-06,-0.0003320219464866101,-0.00033249871620965894,-1.6109030553139477e-05,5.8667,7.0667
3.375,1.5649130443274657e-05,-0.00030614394540779734,-0.00033787561919737535,-9.752100912489439e-06,5.8667,7.0667
3.37890625,1.5649130443274657e-05,-0.0003246849901930266,-0.0003442325488380254,-1.2188923941405292e-05,5.8667,7.0667
3.3828125,1.4669103790341111e-05,-0.0003105408217425802,-0.00033398199979247723,-8.295304536507146e-06,5.8667,7.0667
3.38671875,9.768970525673367e-06,-0.0002734322449652857,-0.0003124743878416113,-4.815785198748017e-07,5.8667,7.0667
3.390625,6.855377773708781e-06,-0.0002861196170397497,-0.0002963701660852979,-1.02288706355382e-05,5.8667,7.0667
3.39453125,1.8085953472190494e-05,-0.0002885564400686655,-0.0002792859176760509,-1.658580027618822e-05,5.8667,7.0667
3.3984375,1.4669103790341111e-05,-0.00027536581106431675,-0.0002963701660852979,-1.5605773623254678e-05,5.8667,7.0667
3.40234375,-9.583482429235629e-07,-0.0002695121383535515,-0.00031003756481269546,-2.87964026276035e-05,5.8667,7.0667
3.40625,4.984481330587442e-07,-0.00026365846564278627,-0.000298330219391165,-2.7339606251621204e-05,5.8667,7.0667
3.41015625,4.984481330587442e-07,-0.00024803101360952156,-0.00027001539528343627,-2.145944633401993e-05,5.8667,7.0667
3.4140625,-7.792047606622347e-06,-0.00023582041125810627,-0.000234363614882124,-3.2690022032501644e-05,5.8667,7.0667
3.41796875,-5.858481507591292e-06,-0.00021921293257190808,-0.00020165191443961237,-3.319327896238644e-05,5.8667,7.0667
3.421875,-2.918401548790655e-06,-0.00021044566710917825,-0.0001718538067490653,-2.6836349321736405e-05,5.8667,7.0667
3.42578125,2.935271161974583e-06,-0.0002026319410925459,-0.0001425589559884031,-2.9776429280537056e-05,5.8667,7.0667
3.4296875,2.0999546224155096e-05,-0.00016992024065003424,-0.0001645433376623178,-1.02288706355382e-05,5.8667,7.0667
3.43359375,1.856272319523926e-05,-0.00015720638136873419,-0.0001845676660303654,3.915297814908129e-06,5.8667,7.0667
3.4375,7.835404426642327e-06,-0.00014059890268253598,-0.00017868750611276413,-1.4148977247272383e-05,5.8667,7.0667
3.44140625,-1.4625746970321131e-05,-0.00012791153060807194,-0.00020896238352635993,-3.610687171435103e-05,5.8667,7.0667
3.4453125,-3.4173305615320004e-05,-0.00013132838028992135,-0.00021237923320820932,-4.198703163195233e-05,5.8667,7.0667
3.44921875,-3.221325230945288e-05,-0.00011472090160372314,-0.00017429062977798116,-3.6610128644235825e-05,5.8667,7.0667
3.453125,-2.6836349321736405e-05,-9.130621076066216e-05,-0.00014306221291828788,-3.36700486854352e-05,5.8667,7.0667
3.45703125,-2.87964026276035e-05,-6.979859880979623e-05,-0.00010155675980621034,-3.7086898367284586e-05,5.8667,7.0667
3.4609375,-2.392275656977182e-05,-5.467440370641634e-05,-6.590497940489808e-05,-3.221325230945288e-05,5.8667,7.0667
3.46484375,-2.7816375974669965e-05,-4.83174740657663e-05,-5.954804976424805e-05,-2.7339606251621204e-05,5.8667,7.0667
3.46875,-5.856802311131448e-05,-4.1483774702067534e-05,-3.857018195010292e-05,-3.221325230945288e-05,5.8667,7.0667
3.47265625,-7.226190904554812e-05,-1.9525880234988875e-05,3.438528091859382e-06,-3.173648258640415e-05,5.8667,7.0667
3.4765625,-6.103133334706638e-05,-3.8984282017242e-06,4.895324467841675e-06,-3.025319900358579e-05,5.8667,7.0667
3.48046875,-4.686067768978401e-05,4.895324467841675e-06,1.0748997178606928e-05,-2.4876296015869315e-05,5.8667,7.0667
3.484375,-4.344382800793463e-05,2.9316529170672225e-05,4.687754730296795e-05,-9.752100912489439e-06,5.8667,7.0667
3.48828125,-6.444818302891578e-05,4.298392789806981e-05,7.6675654993515e-05,-2.294272991683826e-05,5.8667,7.0667
3.4921875,-8.007563506218045e-05,5.127442363775089e-05,9.375990340276195e-05,-2.537955294575411e-05,5.8667,7.0667
3.49609375,-7.371870542153041e-05,4.7380804232852735e-05,7.961573495231563e-05,-1.9022623305104076e-05,5.8667,7.0667
3.5,-7.859235147936212e-05,4.396395455100335e-05,6.300825626611741e-05,-3.319327896238644e-05,5.8667,7.0667
3.50390625,-7.909560840924689e-05,4.981762726176859e-05,9.815677973754489e-05,-3.221325230945288e-05,5.8667,7.0667
3.5078125,-7.371870542153041e-05,6.740513260090034e-05,0.00011961141727473876,-2.4399526292820554e-05,5.8667,7.0667
3.51171875,-7.811558175631336e-05,7.863570829938209e-05,0.00010157362941939429,-1.512900390020593e-05,5.8667,7.0667
3.515625,-8.298922781414503e-05,7.961573495231563e-05,0.00010597050575417723,-2.0982676610971166e-05,5.8667,7.0667
3.51953125,-6.979859880979623e-05,9.61967264316778e-05,0.00013425884265506988,-1.9022623305104076e-05,5.8667,7.0667
3.5234375,-7.077862546272976e-05,0.00010986412515907538,0.00013134524990310529,-1.658580027618822e-05,5.8667,7.0667
3.52734375,-9.374303378957802e-05,0.00010011683304341198,9.61967264316778e-05,-3.759015529716939e-05,5.8667,7.0667
3.53125,-9.861667984740972e-05,8.692620403906317e-05,9.863354946059366e-05,-4.2967058284885867e-05,5.8667,7.0667
3.53515625,-8.934615745479507e-05,9.815677973754489e-05,0.00011521454093995582,-2.8319632904554734e-05,5.8667,7.0667
3.5390625,-8.349248474402983e-05,0.00010793055906004433,0.00011036738208896017,-1.708905720607302e-05,5.8667,7.0667
3.54296875,-8.102917450827794e-05,0.00010938735543602661,9.277987674982842e-05,-1.3168950594338838e-05,5.8667,7.0667
3.546875,-7.713555510337979e-05,0.00011036738208896017,0.0001225514972335394,-1.8042596652170515e-05,5.8667,7.0667
3.55078125,-7.030185573968102e-05,0.00010451370937819493,0.00015475994074616624,-2.294272991683826e-05,5.8667,7.0667
3.5546875,-7.859235147936212e-05,9.034305372091256e-05,0.00015428317102311747,-1.6109030553139477e-05,5.8667,7.0667
3.55859375,-7.665878538033107e-05,9.32831336797132e-05,0.0001474494716594187,-1.2692180871290076e-05,5.8667,7.0667
3.5625,-6.884505936369871e-05,0.00010109685969634555,0.00013182201962615403,-1.8545853582055315e-05,5.8667,7.0667
3.56640625,-7.273867876859685e-05,0.00010157362941939429,0.0001240082936095217,-2.294272991683826e-05,5.8667,7.0667
3.5703125,-8.153243143816275e-05,9.571995670862905e-05,0.0001259683469153888,-2.341949963988702e-05,5.8667,7.0667
3.57421875,-8.349248474402983e-05,0.00010401045244831013,0.00011765136396887167,-1.0732127565422984e-05,5.8667,7.0667
3.578125,-7.51755017975127e-05,0.00011473777121690708,9.96135761135272e-05,-3.8984282017242e-06,5.8667,7.0667
3.58203125,-8.102917450827794e-05,9.132308037384611e-05,9.61967264316778e-05,-1.658580027618822e-05,5.8667,7.0667
3.5859375,-8.25124580910963e-05,8.252932770428022e-05,0.00010549373603112848,-2.0982676610971166e-05,5.8667,7.0667
3.58984375,-7.713555510337979e-05,7.765568164644853e-05,0.00011375774456397352,-1.708905720607302e-05,5.8667,7.0667
3.59375,-7.615552845044626e-05,7.325880531166559e-05,0.00011084415181200893,-2.145944633401993e-05,5.8667,7.0667
3.59765625,-7.128188239261455e-05,8.398612408026252e-05,0.00011571779786984062,-2.537955294575411e-05,5.8667,7.0667
3.6015625,-7.273867876859685e-05,7.715242471656374e-05,0.00010840732878309307,-2.145944633401993e-05,5.8667,7.0667
3.60546875,-7.665878538033107e-05,7.6675654993515e-05,0.00010597050575417723,-2.8319632904554734e-05,5.8667,7.0667
3.609375,-7.175865211566332e-05,8.205255798123147e-05,0.00012644511663843756,-2.9776429280537056e-05,5.8667,7.0667
3.61328125,-7.128188239261455e-05,8.056927439841314e-05,0.00013476209958495467,-2.392275656977182e-05,5.8667,7.0667
3.6171875,-6.444818302891578e-05,7.373557503471434e-05,0.00012498832026245526,-2.145944633401993e-05,5.8667,7.0667
3.62109375,-5.761448366521699e-05,6.300825626611741e-05,0.00011328097484092477,-2.0982676610971166e-05,5.8667,7.0667
3.625,-6.150810307011514e-05,6.78819023239491e-05,0.00010742730213015953,-2.243947298695346e-05,5.8667,7.0667
3.62890625,-6.005130669413284e-05,6.592184901808202e-05,0.00012498832026245526,-2.243947298695346e-05,5.8667,7.0667
3.6328125,-6.103133334706638e-05,5.7154583555352175e-05,0.00012157147058060586,-2.0982676610971166e-05,5.8667,7.0667
3.63671875,-6.979859880979623e-05,5.225445029068444e-05,0.00010303042579537659,-2.341949963988702e-05,5.8667,7.0667
3.640625,-6.979859880979623e-05,4.102387459220271e-05,9.913680639047843e-05,-3.123322565651935e-05,5.8667,7.0667
3.64453125,-5.9071280041199286e-05,5.177768056763568e-05,0.00010840732878309307,-2.5856322668802875e-05,5.8667,7.0667
3.6484375,-6.24881297230487e-05,5.7154583555352175e-05,0.0001357421262378882,-1.4625746970321131e-05,5.8667,7.0667
3.65234375,-7.077862546272976e-05,4.687754730296795e-05,0.00013378207293202111,-2.1962703263904726e-05,5.8667,7.0667
3.65625,-6.688500605783161e-05,3.3210148575570374e-05,0.00014842949831235224,-2.1962703263904726e-05,5.8667,7.0667
3.66015625,-5.4197633983367604e-05,2.539642255893804e-05,0.00014011251536583512,-5.355224577706494e-06,5.8667,7.0667
3.6640625,-4.2463801355001064e-05,4.102387459220271e-05,5.861137993133447e-05,1.9552445090410374e-06,5.8667,7.0667
3.66796875,-4.784070434271757e-05,4.3460697621118554e-05,4.8837600608835046e-05,-6.812020953688801e-06,5.8667,7.0667
3.671875,-4.784070434271757e-05,3.6150228534371024e-05,7.765568164644853e-05,-1.512900390020593e-05,5.8667,7.0667
3.67578125,-4.638390796673528e-05,2.735647586480513e-05,9.521669977874425e-05,-4.375197924772948e-06,5.8667,7.0667
3.6796875,-5.711122673533219e-05,1.8085953472190494e-05,8.205255798123147e-05,-2.415144618905856e-06,5.8667,7.0667
3.68359375,-5.4197633983367604e-05,1.4669103790341111e-05,6.886192897688265e-05,-1.1208897288471746e-05,5.8667,7.0667
3.6875,-4.5403881313801714e-05,1.856272319523926e-05,9.913680639047843e-05,-4.878454854657746e-06,5.8667,7.0667
3.69140625,-4.392059773098339e-05,1.6602669889372165e-05,0.00010644727547722598,4.984481330587442e-07,5.8667,7.0667
3.6953125,-5.4197633983367604e-05,1.4669103790341111e-05,9.571995670862905e-05,-5.858481507591292e-06,5.8667,7.0667
3.69921875,-6.052807641718158e-05,1.270905048447402e-05,9.32831336797132e-05,-1.9022623305104076e-05,5.8667,7.0667
3.703125,-5.761448366521699e-05,1.0272227455558167e-05,8.205255798123147e-05,-2.0505906887922405e-05,5.8667,7.0667
3.70703125,-5.761448366521699e-05,3.438528091859382e-06,7.569562834058143e-05,-1.512900390020593e-05,5.8667,7.0667
3.7109375,-5.1257554024566953e-05,4.4185547447929275e-06,8.740297376211192e-05,-1.658580027618822e-05,5.8667,7.0667
3.71484375,-4.83174740657663e-05,1.3689077137407565e-05,9.32831336797132e-05,-1.756582692912178e-05,5.8667,7.0667
3.71875,-4.83174740657663e-05,1.710592681925695e-05,7.6675654993515e-05,-1.3168950594338838e-05,5.8667,7.0667
3.72265625,-5.271435040054925e-05,1.0272227455558167e-05,6.494182236514846e-05,-9.752100912489439e-06,5.8667,7.0667
3.7265625,-5.613120008239866e-05,-4.815785198748017e-07,7.521885861753269e-05,-8.295304536507146e-06,5.8667,7.0667
3.73046875,-5.369437705348281e-05,-8.772074259555893e-06,9.132308037384611e-05,-1.658580027618822e-05,5.8667,7.0667
3.734375,-5.8091253388265756e-05,-2.341949963988702e-05,8.398612408026252e-05,-1.9022623305104076e-05,5.8667,7.0667
3.73828125,-6.444818302891578e-05,-2.341949963988702e-05,7.373557503471434e-05,-1.6109030553139477e-05,5.8667,7.0667
3.7421875,-6.346815637598223e-05,-2.341949963988702e-05,4.3460697621118554e-05,-2.6836349321736405e-05,5.8667,7.0667
3.74609375,-4.83174740657663e-05,-1.3168950594338838e-05,2.4919652835889294e-05,-2.0505906887922405e-05,5.8667,7.0667
3.75,-4.784070434271757e-05,-3.395171271839402e-06,4.44407242740521e-05,-5.858481507591292e-06,5.8667,7.0667
3.75390625,-5.078078430151819e-05,-1.2692180871290076e-05,3.713025518730457e-05,-1.756582692912178e-05,5.8667,7.0667
3.7578125,-3.173648258640415e-05,-1.0732127565422984e-05,1.906598012512404e-05,-2.0505906887922405e-05,5.8667,7.0667
3.76171875,-4.050374804913397e-05,-1.1208897288471746e-05,2.9316529170672225e-05,-1.9022623305104076e-05,5.8667,7.0667
3.765625,-4.83174740657663e-05,-1.3645720317387584e-05,5.2757707220569227e-05,-1.708905720607302e-05,5.8667,7.0667
3.76953125,-3.465007533836874e-05,4.984481330587442e-07,6.152497268329907e-05,-1.0732127565422984e-05,5.8667,7.0667
3.7734375,-4.490062438391692e-05,-2.415144618905856e-06,5.6174556902418625e-05,-1.9022623305104076e-05,5.8667,7.0667
3.77734375,-6.052807641718158e-05,-1.2188923941405292e-05,4.5924007856870444e-05,-2.243947298695346e-05,5.8667,7.0667
3.78125,-5.856802311131448e-05,-1.512900390020593e-05,3.9063821286335606e-05,-1.5605773623254678e-05,5.8667,7.0667
3.78515625,-4.638390796673528e-05,-8.772074259555893e-06,6.006817630731677e-05,-1.3645720317387584e-05,5.8667,7.0667
3.7890625,-4.490062438391692e-05,-1.5605773623254678e-05,9.179985009689485e-05,-7.3152778835736e-06,5.8667,7.0667
3.79296875,-5.1257554024566953e-05,-2.1962703263904726e-05,9.32831336797132e-05,-4.815785198748017e-07,5.8667,7.0667
3.796875,-3.7086898367284586e-05,-1.3168950594338838e-05,3.2230121922636824e-05,1.4784747859922902e-06,5.8667,7.0667
3.80078125,-3.173648258640415e-05,-2.9776429280537056e-05,-2.0982676610971166e-05,-1.4616051728083475e-06,5.8667,7.0667
3.8046875,-3.857018195010292e-05,-5.271435040054925e-05,-4.638390796673528e-05,-1.1208897288471746e-05,5.8667,7.0667
3.80859375,-3.123322565651935e-05,-4.83174740657663e-05,-2.537955294575411e-05,-7.3152778835736e-06,5.8667,7.0667
3.8125,-3.6610128644235825e-05,-7.030185573968102e-05,-1.512900390020593e-05,3.915297814908129e-06,5.8667,7.0667
3.81640625,-4.5403881313801714e-05,-9.665662654154264e-05,-4.490062438391692e-05,-5.858481507591292e-06,5.8667,7.0667
3.8203125,-3.6610128644235825e-05,-9.225975020675968e-05,-5.761448366521699e-05,-9.583482429235629e-07,5.8667,7.0667
3.82421875,-2.294272991683826e-05,-0.00010984725554589143,-7.615552845044626e-05,2.735647586480513e-05,5.8667,7.0667
3.828125,-2.0002649958037636e-05,-9.763665319447617e-05,-5.9071280041199286e-05,3.419017522850392e-05,5.8667,7.0667
3.83203125,-1.3645720317387584e-05,-0.00010057673315327681,-5.0277527371633424e-05,1.710592681925695e-05,5.8667,7.0667
3.8359375,-1.02288706355382e-05,-0.00013376520331883718,-8.494928112001213e-05,5.372094190890436e-06,5.8667,7.0667
3.83984375,-2.1962703263904726e-05,-0.0001508759389349202,-0.0001059536361409933,4.4185547447929275e-06,5.8667,7.0667
3.84375,-2.0002649958037636e-05,-0.00015720638136873419,-0.00011228407857480729,1.4669103790341111e-05,5.8667,7.0667
3.84765625,-1.5605773623254678e-05,-0.00015476955833981833,-9.763665319447617e-05,1.9542749848172802e-05,5.8667,7.0667
3.8515625,-2.0505906887922405e-05,-0.00015964320439765004,-8.788936107881278e-05,2.735647586480513e-05,5.8667,7.0667
3.85546875,-2.87964026276035e-05,-0.00018162758607156472,-7.469873207446398e-05,1.6125900166323404e-05,5.8667,7.0667
3.859375,-3.904695167315168e-05,-0.00018308438244754704,-3.955020860303648e-05,2.935271161974583e-06,5.8667,7.0667
3.86328125,-4.100700497901877e-05,-0.00016062323105058362,-7.128188239261455e-05,6.352120843823982e-06,5.8667,7.0667
3.8671875,-3.904695167315168e-05,-0.0001542927886167696,-0.00013376520331883718,1.710592681925695e-05,5.8667,7.0667
3.87109375,-3.806692502021815e-05,-0.00016992024065003424,-0.0001806475594186312,2.4416395906004494e-05,5.8667,7.0667
3.875,-4.784070434271757e-05,-0.00017381386005493242,-0.00017087378009613178,1.5649130443274657e-05,5.8667,7.0667
3.87890625,-5.761448366521699e-05,-0.00015672961164568544,-0.00013183163721980614,1.0272227455558167e-05,5.8667,7.0667
3.8828125,-6.052807641718158e-05,-0.00013572525662470427,-0.0001034903259052414,1.6125900166323404e-05,5.8667,7.0667
3.88671875,-7.713555510337979e-05,-0.00012401791120317382,-7.909560840924689e-05,9.29220080262462e-06,5.8667,7.0667
3.890625,-7.859235147936212e-05,-0.00010007347622339202,-5.663445701228343e-05,-8.772074259555893e-06,5.8667,7.0667
3.89453125,-7.128188239261455e-05,-6.884505936369871e-05,-2.243947298695346e-05,-1.02288706355382e-05,5.8667,7.0667
3.8984375,-8.788936107881278e-05,-5.613120008239866e-05,-1.708905720607302e-05,-1.02288706355382e-05,5.8667,7.0667
3.90234375,-0.00010105350287632555,-4.198703163195233e-05,-4.815785198748017e-07,-1.9022623305104076e-05,5.8667,7.0667
3.90625,-0.00010545037921110849,-2.145944633401993e-05,3.811028184023811e-05,-2.8319632904554734e-05,5.8667,7.0667
3.91015625,-0.00011082728219882499,-2.415144618905856e-06,6.104820296025032e-05,-3.7086898367284586e-05,5.8667,7.0667
3.9140625,-0.00011082728219882499,1.4165846860456312e-05,8.546940766308087e-05,-3.465007533836874e-05,5.8667,7.0667
3.91796875,-0.0001059536361409933,3.564697160448622e-05,0.00010499047910124369,-3.5153332268253534e-05,5.8667,7.0667
3.921875,-9.08029538307774e-05,6.250499933623262e-05,0.00010986412515907538,-3.857018195010292e-05,5.8667,7.0667
3.92578125,-8.396925446707859e-05,6.544507929503325e-05,0.00013425884265506988,-4.392059773098339e-05,5.8667,7.0667
3.9296875,-8.788936107881278e-05,6.78819023239491e-05,0.00016355369341573213,-4.88207309956511e-05,5.8667,7.0667
3.93359375,-8.788936107881278e-05,6.740513260090034e-05,0.00019480859748226146,-4.83174740657663e-05,5.8667,7.0667
3.9375,-9.567659988860907e-05,5.861137993133447e-05,0.000219229802185092,-5.223758067750052e-05,5.8667,7.0667
3.94140625,-0.00010007347622339202,7.227877865873204e-05,0.00014646944500648515,-5.321760733043405e-05,5.8667,7.0667
3.9453125,-8.884290052491027e-05,8.009250467536438e-05,5.6174556902418625e-05,-5.4197633983367604e-05,5.8667,7.0667
3.94921875,-8.788936107881278e-05,8.107253132829793e-05,0.0001245115505394065,-6.052807641718158e-05,5.8667,7.0667
3.953125,-0.00010155675980621034,8.205255798123147e-05,0.00021483292585030908,-5.369437705348281e-05,5.8667,7.0667
3.95703125,-0.00010497360948805977,6.64251059479668e-05,0.00018553807508964683,-5.271435040054925e-05,5.8667,7.0667
3.9609375,-9.665662654154264e-05,8.303258463416501e-05,0.00012157147058060586,-5.467440370641634e-05,5.8667,7.0667
3.96484375,-9.032618410772863e-05,7.325880531166559e-05,9.669998336156259e-05,-4.784070434271757e-05,5.8667,7.0667
3.96875,-8.640607749599444e-05,6.348502598916616e-05,0.00012694837356832234,-5.078078430151819e-05,5.8667,7.0667
3.97265625,-8.298922781414503e-05,8.740297376211192e-05,0.00017136741943236445,-4.5403881313801714e-05,5.8667,7.0667
3.9765625,-8.349248474402983e-05,8.252932770428022e-05,0.00015428317102311747,-3.7086898367284586e-05,5.8667,7.0667
3.98046875,-7.909560840924689e-05,7.813245136949728e-05,0.00013621889596093697,-3.2690022032501644e-05,5.8667,7.0667
3.984375,-7.273867876859685e-05,7.569562834058143e-05,0.0001440326219775693,-3.5153332268253534e-05,5.8667,7.0667
3.98828125,-7.567875872739751e-05,7.27555483817808e-05,0.0001406157722957199,-3.759015529716939e-05,5.8667,7.0667
3.9921875,-7.175865211566332e-05,7.863570829938209e-05,0.00012498832026245526,-2.9776429280537056e-05,5.8667,7.0667
3.99609375,-6.736177578088038e-05,7.765568164644853e-05,0.0001225514972335394,-2.8319632904554734e-05,5.8667,7.0667
4.0,-7.811558175631336e-05,7.61723980636302e-05,0.00012157147058060586,-3.2690022032501644e-05,5.8667,7.0667
4.00390625,-7.615552845044626e-05,7.180200893568329e-05,0.000125465089985504,-3.7086898367284586e-05,5.8667,7.0667
4.0078125,-7.615552845044626e-05,6.104820296025032e-05,0.0001406157722957199,-3.025319900358579e-05,5.8667,7.0667
4.01171875,-8.20092011612115e-05,5.4691273319600285e-05,0.0001406157722957199,-2.927317235065226e-05,5.8667,7.0667
