timestamp,TP9,AF7,AF8,TP10,Valence,Arousal
0.0,-5.1277272986953555e-05,-4.5414616813916244e-05,-1.4653391505302536e-05,-1.562543812466623e-05,3.4375,3.625
0.00390625,-4.102015605554286e-05,-2.0516047678339844e-05,-2.2956289712367464e-05,-1.2213149471274916e-05,3.4375,3.625
0.0078125,-3.8093890711833394e-05,-1.6121586919966445e-05,-1.9533875573357775e-05,-8.304712022583374e-06,3.4375,3.625
0.01171875,-4.394642139925233e-05,-3.8093890711833394e-05,-4.248835147020678e-05,-1.2699172780956758e-05,3.4375,3.625
0.015625,-3.320328115815978e-05,-3.7111718606851315e-05,-3.320328115815978e-05,-1.0258930746929138e-05,3.4375,3.625
0.01953125,-2.6368578365758778e-05,-2.0019898883039616e-05,-2.1488094297703538e-05,-1.2699172780956758e-05,3.4375,3.625
0.0234375,-4.248835147020678e-05,-3.5157499882505556e-05,-1.6607610229648302e-05,-2.7350750470740846e-05,3.4375,3.625
0.02734375,-5.420353833066303e-05,-3.613967198748762e-05,1.318156845960172e-05,-2.1002070988021684e-05,3.4375,3.625
0.03125,-3.3699429953460005e-05,-1.6121586919966445e-05,9.273131010910177e-06,-1.4167368195620682e-05,3.4375,3.625
0.03515625,-1.4167368195620682e-05,-2.0019898883039616e-05,-2.2956289712367464e-05,-9.839859205005154e-07,3.4375,3.625
0.0390625,-2.5396531746395077e-05,-3.0277015814450313e-05,-3.5157499882505556e-05,-4.97962610818675e-07,3.4375,3.625
0.04296875,-4.6386663433279944e-05,-2.1974117607385395e-05,-3.7111718606851315e-05,-2.4910508436713227e-05,3.4375,3.625
0.046875,-6.347848315709165e-05,-3.320328115815978e-05,-2.8322797090104544e-05,-3.125918791943238e-05,3.4375,3.625
0.05078125,-5.6157757055008795e-05,-3.955196064087894e-05,-2.3442313022049304e-05,-2.5396531746395077e-05,3.4375,3.625
0.0546875,-3.759774191653317e-05,-2.8322797090104544e-05,-2.1002070988021684e-05,-2.5882555056076924e-05,3.4375,3.625
0.05859375,-2.9304969195086612e-05,-2.3442313022049304e-05,-1.8075805644312224e-05,-2.2956289712367464e-05,3.4375,3.625
0.0625,-3.076303912413216e-05,-2.2956289712367464e-05,-2.247026640268561e-05,-2.0516047678339844e-05,3.4375,3.625
0.06640625,-1.6607610229648302e-05,-8.304712022583374e-06,-1.0744954056610992e-05,-1.5139414814984376e-05,3.4375,3.625
0.0703125,-2.2956289712367464e-05,-9.772907437247298e-06,-3.424227954528135e-06,-1.4167368195620682e-05,3.4375,3.625
0.07421875,-4.49285935042344e-05,-2.7836773780422693e-05,-1.562543812466623e-05,-1.4653391505302536e-05,3.4375,3.625
0.078125,-3.565364867780578e-05,-2.0516047678339844e-05,-2.3442313022049304e-05,-1.6121586919966445e-05,3.4375,3.625
0.08203125,-3.955196064087894e-05,-2.1002070988021684e-05,-1.1727126161593062e-05,-1.6607610229648302e-05,3.4375,3.625
0.0859375,-5.5185710435645094e-05,-1.4167368195620682e-05,-2.4420558495460653e-06,-1.0744954056610992e-05,3.4375,3.625
0.08984375,-5.1763296296635406e-05,-6.8365166079194495e-06,-5.864469988555754e-06,-1.8561828953994065e-05,3.4375,3.625
0.09375,-4.444257019455255e-05,-2.4414359641412998e-05,1.707988042267489e-05,-2.3442313022049304e-05,3.4375,3.625
0.09765625,-2.4414359641412998e-05,-2.9304969195086612e-05,5.4189785214007766e-05,-1.3185196090638612e-05,3.4375,3.625
0.1015625,-1.8075805644312224e-05,-2.4414359641412998e-05,1.9530247942320867e-05,-1.2213149471274916e-05,3.4375,3.625
0.10546875,-3.5157499882505556e-05,-2.4910508436713227e-05,-4.7368835538262016e-05,-2.3928336331731158e-05,3.4375,3.625
0.109375,-3.174521122911423e-05,-2.247026640268561e-05,-4.102015605554286e-05,-1.7093633539330156e-05,3.4375,3.625
0.11328125,-2.3442313022049304e-05,-2.5882555056076924e-05,-4.1992202674906555e-05,-2.0019898883039616e-05,3.4375,3.625
0.1171875,-3.8093890711833394e-05,-2.8322797090104544e-05,-2.0019898883039616e-05,-2.1974117607385395e-05,3.4375,3.625
0.12109375,-4.59006401235981e-05,-2.5396531746395077e-05,-2.6864727161059e-05,-2.1974117607385395e-05,3.4375,3.625
0.125,-4.49285935042344e-05,-3.418545326314185e-05,-4.6882812228580166e-05,-1.7579656849011996e-05,3.4375,3.625
0.12890625,-4.346039808957048e-05,-2.1974117607385395e-05,-3.0277015814450313e-05,-9.286884127565442e-06,3.4375,3.625
0.1328125,-3.076303912413216e-05,-1.4700092301823701e-06,-3.565364867780578e-05,-1.0744954056610992e-05,3.4375,3.625
0.13671875,-3.662569529716947e-05,-2.4414359641412998e-05,-2.9790992504768466e-05,-1.562543812466623e-05,3.4375,3.625
0.140625,-4.59006401235981e-05,-3.125918791943238e-05,-3.271725784847793e-05,-2.2956289712367464e-05,3.4375,3.625
0.14453125,-4.834088215762572e-05,-1.4653391505302536e-05,-3.174521122911423e-05,-3.8093890711833394e-05,3.4375,3.625
0.1484375,-3.906593733119709e-05,-1.7579656849011996e-05,-1.904785226367592e-05,-3.271725784847793e-05,3.4375,3.625
0.15234375,-4.1992202674906555e-05,-2.9304969195086612e-05,-1.1727126161593062e-05,-7.332665403219678e-06,3.4375,3.625
0.15625,-4.980907757228963e-05,-3.7111718606851315e-05,-2.93820464484628e-06,-9.772907437247298e-06,3.4375,3.625
0.16015625,-3.613967198748762e-05,-1.6121586919966445e-05,7.318912286564412e-06,-2.3928336331731158e-05,3.4375,3.625
0.1640625,-2.6368578365758778e-05,-1.4167368195620682e-05,1.707988042267489e-05,-3.174521122911423e-05,3.4375,3.625
0.16796875,-2.3442313022049304e-05,-3.3699429953460005e-05,-1.2699172780956758e-05,-4.248835147020678e-05,3.4375,3.625
0.171875,-1.562543812466623e-05,-2.6864727161059e-05,-1.9533875573357775e-05,-3.8579914021515245e-05,3.4375,3.625
0.17578125,-1.3681344885938827e-05,-1.8075805644312224e-05,-1.7579656849011996e-05,-4.248835147020678e-05,3.4375,3.625
0.1796875,-9.286884127565442e-06,-2.0516047678339844e-05,-3.4671476572823706e-05,-6.103824112306403e-05,3.4375,3.625
0.18359375,-1.8561828953994065e-05,-2.1974117607385395e-05,-1.6121586919966445e-05,-5.7129803674372496e-05,3.4375,3.625
0.1875,-2.9790992504768466e-05,-3.8579914021515245e-05,-2.7836773780422693e-05,-6.397463195239187e-05,3.4375,3.625
0.19140625,-2.0019898883039616e-05,-4.102015605554286e-05,-5.27353429159991e-05,-7.178138136415657e-05,3.4375,3.625
0.1953125,-2.1974117607385395e-05,-3.418545326314185e-05,-4.1992202674906555e-05,-6.397463195239187e-05,3.4375,3.625
0.19921875,-2.9304969195086612e-05,-1.8561828953994065e-05,-2.3928336331731158e-05,-5.0781124191653334e-05,3.4375,3.625
0.203125,-3.223123453879609e-05,-3.174521122911423e-05,-3.418545326314185e-05,-5.2249319606317256e-05,3.4375,3.625
0.20703125,-2.8322797090104544e-05,-2.9790992504768466e-05,-2.247026640268561e-05,-5.7129803674372496e-05,3.4375,3.625
0.2109375,-2.8322797090104544e-05,-1.8561828953994065e-05,-1.0258930746929138e-05,-5.664378036469064e-05,3.4375,3.625
0.21484375,-3.174521122911423e-05,-3.271725784847793e-05,-3.7111718606851315e-05,-5.5185710435645094e-05,3.4375,3.625
0.21875,-2.5882555056076924e-05,-2.0516047678339844e-05,-2.6864727161059e-05,-4.1992202674906555e-05,3.4375,3.625
0.22265625,-2.4414359641412998e-05,-3.424227954528135e-06,-2.4420558495460653e-06,-2.7350750470740846e-05,3.4375,3.625
0.2265625,-2.4414359641412998e-05,-2.0019898883039616e-05,-1.0744954056610992e-05,-3.174521122911423e-05,3.4375,3.625
0.23046875,-2.7350750470740846e-05,-4.834088215762572e-05,-3.174521122911423e-05,-4.6882812228580166e-05,3.4375,3.625
0.234375,-3.076303912413216e-05,-5.7129803674372496e-05,-5.811197577935456e-05,-6.103824112306403e-05,3.4375,3.625
0.23828125,-3.271725784847793e-05,-4.6882812228580166e-05,-5.762595246967271e-05,-5.811197577935456e-05,3.4375,3.625
0.2421875,-2.1974117607385395e-05,-2.8808820399786397e-05,-3.223123453879609e-05,-4.59006401235981e-05,3.4375,3.625
0.24609375,-2.6864727161059e-05,-1.7093633539330156e-05,-1.4653391505302536e-05,-3.223123453879609e-05,3.4375,3.625
0.25,-3.0277015814450313e-05,-2.3442313022049304e-05,-2.4910508436713227e-05,-3.4671476572823706e-05,3.4375,3.625
0.25390625,-2.1002070988021684e-05,-4.053413274586101e-05,-3.565364867780578e-05,-4.444257019455255e-05,3.4375,3.625
0.2578125,-2.0019898883039616e-05,-2.6864727161059e-05,-3.271725784847793e-05,-3.5157499882505556e-05,3.4375,3.625
0.26171875,-3.7111718606851315e-05,-2.7350750470740846e-05,-3.7111718606851315e-05,-2.3442313022049304e-05,3.4375,3.625
0.265625,-4.49285935042344e-05,-2.4910508436713227e-05,-3.125918791943238e-05,-2.247026640268561e-05,3.4375,3.625
0.26953125,-4.1992202674906555e-05,-3.271725784847793e-05,-3.4671476572823706e-05,-3.906593733119709e-05,3.4375,3.625
0.2734375,-3.076303912413216e-05,-3.3699429953460005e-05,-4.248835147020678e-05,-3.418545326314185e-05,3.4375,3.625
0.27734375,-1.9533875573357775e-05,-1.9533875573357775e-05,-3.223123453879609e-05,-3.320328115815978e-05,3.4375,3.625
0.28125,-2.9790992504768466e-05,-2.1488094297703538e-05,-3.223123453879609e-05,-4.785485884794387e-05,3.4375,3.625
0.28515625,-3.5157499882505556e-05,-2.8322797090104544e-05,-1.904785226367592e-05,-3.613967198748762e-05,3.4375,3.625
0.2890625,-1.7579656849011996e-05,-1.7093633539330156e-05,-1.0258930746929138e-05,-1.1230977366292847e-05,3.4375,3.625
0.29296875,-4.39627457389183e-06,7.318912286564412e-06,-2.9304969195086612e-05,-2.1002070988021684e-05,3.4375,3.625
0.296875,-3.759774191653317e-05,-7.332665403219678e-06,-2.8808820399786397e-05,-4.053413274586101e-05,3.4375,3.625
0.30078125,-5.664378036469064e-05,-2.1002070988021684e-05,-3.125918791943238e-05,-5.5185710435645094e-05,3.4375,3.625
0.3046875,-5.371751502098117e-05,-2.3928336331731158e-05,-2.8808820399786397e-05,-3.955196064087894e-05,3.4375,3.625
0.30859375,-5.664378036469064e-05,-5.1277272986953555e-05,-3.955196064087894e-05,-1.8561828953994065e-05,3.4375,3.625
0.3125,-3.662569529716947e-05,-4.053413274586101e-05,-5.029510088197148e-05,-2.9304969195086612e-05,3.4375,3.625
0.31640625,-3.271725784847793e-05,-2.4420558495460653e-06,-2.7836773780422693e-05,-2.5882555056076924e-05,3.4375,3.625
0.3203125,-3.418545326314185e-05,-1.6121586919966445e-05,-1.8075805644312224e-05,-1.5139414814984376e-05,3.4375,3.625
0.32421875,-1.562543812466623e-05,-1.8075805644312224e-05,-1.7093633539330156e-05,-1.6121586919966445e-05,3.4375,3.625
0.328125,-9.286884127565442e-06,-1.4167368195620682e-05,-3.759774191653317e-05,-2.1488094297703538e-05,3.4375,3.625
0.33203125,-3.4671476572823706e-05,-4.980907757228963e-05,-5.5671733745326945e-05,-2.8808820399786397e-05,3.4375,3.625
0.3359375,-4.297437477988863e-05,-6.397463195239187e-05,-3.8093890711833394e-05,-3.0277015814450313e-05,3.4375,3.625
0.33984375,-2.3442313022049304e-05,-3.0277015814450313e-05,-6.8365166079194495e-06,-1.0744954056610992e-05,3.4375,3.625
0.34375,-2.4910508436713227e-05,-2.3928336331731158e-05,-1.7579656849011996e-05,-2.0516047678339844e-05,3.4375,3.625
0.34765625,-2.6368578365758778e-05,-3.613967198748762e-05,-5.27353429159991e-05,-5.371751502098117e-05,3.4375,3.625
0.3515625,-4.834088215762572e-05,-4.932305426260779e-05,-4.7368835538262016e-05,-4.102015605554286e-05,3.4375,3.625
0.35546875,-5.27353429159991e-05,-4.297437477988863e-05,-1.1727126161593062e-05,-5.378446678873899e-06,3.4375,3.625
0.359375,-7.818688712901518e-06,-8.304712022583374e-06,-4.39627457389183e-06,-2.3442313022049304e-05,3.4375,3.625
0.36328125,4.392646942854938e-06,-2.3442313022049304e-05,-2.3928336331731158e-05,-3.0277015814450313e-05,3.4375,3.625
0.3671875,-3.3699429953460005e-05,-5.5185710435645094e-05,-4.1992202674906555e-05,-1.2213149471274916e-05,3.4375,3.625
0.37109375,-4.150617936522471e-05,-4.49285935042344e-05,-4.102015605554286e-05,-4.892423369192059e-06,3.4375,3.625
0.375,-2.4414359641412998e-05,-5.7129803674372496e-05,-3.0277015814450313e-05,-6.3504932982376085e-06,3.4375,3.625
0.37890625,-1.9533875573357775e-05,-4.004810943617916e-05,-1.9533875573357775e-05,9.702328038452492e-07,3.4375,3.625
0.3828125,-2.0019898883039616e-05,-1.9533875573357775e-05,-3.223123453879609e-05,-1.2213149471274916e-05,3.4375,3.625
0.38671875,-2.7836773780422693e-05,-4.834088215762572e-05,-3.4671476572823706e-05,-2.8808820399786397e-05,3.4375,3.625
0.390625,-3.076303912413216e-05,-4.785485884794387e-05,-2.5396531746395077e-05,-3.0277015814450313e-05,3.4375,3.625
0.39453125,-5.2249319606317256e-05,-6.152426443274587e-05,-4.1992202674906555e-05,-2.9790992504768466e-05,3.4375,3.625
0.3984375,-6.591872519111927e-05,-6.0552217813382184e-05,-3.565364867780578e-05,-2.5882555056076924e-05,3.4375,3.625
0.40234375,-3.7111718606851315e-05,-2.6864727161059e-05,-1.0258930746929138e-05,-2.7836773780422693e-05,3.4375,3.625
0.40625,-2.93820464484628e-06,-2.1002070988021684e-05,-8.790735332265227e-06,-1.2213149471274916e-05,3.4375,3.625
0.41015625,-2.5882555056076924e-05,-4.6386663433279944e-05,-4.102015605554286e-05,-7.332665403219678e-06,3.4375,3.625
0.4140625,-2.9790992504768466e-05,-3.0277015814450313e-05,-4.004810943617916e-05,-2.2956289712367464e-05,3.4375,3.625
0.41796875,-2.7350750470740846e-05,-2.8808820399786397e-05,-2.6864727161059e-05,-2.5396531746395077e-05,3.4375,3.625
0.421875,-5.1277272986953555e-05,-5.27353429159991e-05,-4.346039808957048e-05,-2.4414359641412998e-05,3.4375,3.625
0.42578125,-4.49285935042344e-05,-5.1277272986953555e-05,-4.6386663433279944e-05,-3.0277015814450313e-05,3.4375,3.625
0.4296875,-4.6386663433279944e-05,-4.297437477988863e-05,-2.247026640268561e-05,-2.1002070988021684e-05,3.4375,3.625
0.43359375,-4.49285935042344e-05,-4.932305426260779e-05,-2.6368578365758778e-05,-1.0258930746929138e-05,3.4375,3.625
0.4375,-3.955196064087894e-05,-4.883703095292593e-05,-4.1992202674906555e-05,-2.2956289712367464e-05,3.4375,3.625
0.44140625,-3.8579914021515245e-05,-2.7836773780422693e-05,-2.4910508436713227e-05,-2.1974117607385395e-05,3.4375,3.625
0.4453125,-3.076303912413216e-05,-2.8322797090104544e-05,-1.8138155184459493e-09,-3.9102512642099895e-06,3.4375,3.625
0.44921875,-2.8808820399786397e-05,-3.418545326314185e-05,-2.4420558495460653e-06,-7.818688712901518e-06,3.4375,3.625
0.453125,-1.4167368195620682e-05,-3.271725784847793e-05,-1.8561828953994065e-05,-4.892423369192059e-06,3.4375,3.625
0.45703125,-2.3928336331731158e-05,-5.5185710435645094e-05,-3.076303912413216e-05,-3.424227954528135e-06,3.4375,3.625
0.4609375,-3.125918791943238e-05,-3.662569529716947e-05,-3.4671476572823706e-05,-2.5882555056076924e-05,3.4375,3.625
0.46484375,-3.223123453879609e-05,-2.8322797090104544e-05,-3.174521122911423e-05,-2.3442313022049304e-05,3.4375,3.625
0.46875,-4.1992202674906555e-05,-4.053413274586101e-05,-3.125918791943238e-05,-1.1230977366292847e-05,3.4375,3.625
0.47265625,-4.6882812228580166e-05,-3.613967198748762e-05,-3.565364867780578e-05,-1.2213149471274916e-05,3.4375,3.625
0.4765625,-3.271725784847793e-05,-1.5139414814984376e-05,-3.955196064087894e-05,-1.7093633539330156e-05,3.4375,3.625
0.48046875,-2.3442313022049304e-05,-7.818688712901518e-06,-3.174521122911423e-05,-8.790735332265227e-06,3.4375,3.625
0.484375,-2.4414359641412998e-05,-8.790735332265227e-06,-2.0019898883039616e-05,1.07413264255741e-05,3.4375,3.625
0.48828125,-1.1727126161593062e-05,-3.9102512642099895e-06,-2.8808820399786397e-05,8.290958905928108e-06,3.4375,3.625
0.4921875,-1.6607610229648302e-05,-3.759774191653317e-05,-4.346039808957048e-05,-4.39627457389183e-06,3.4375,3.625
0.49609375,-4.004810943617916e-05,-7.715801422751204e-05,-7.031318594949266e-05,-2.3442313022049304e-05,3.4375,3.625
0.5,-5.2249319606317256e-05,-0.00010057826246280615,-9.521175508506906e-05,-1.562543812466623e-05,3.4375,3.625
0.50390625,-2.9790992504768466e-05,-7.42216233981842e-05,-5.958017119401849e-05,1.219939635461965e-05,3.4375,3.625
0.5078125,8.290958905928108e-06,-8.057030288090335e-05,-6.006619450370033e-05,2.2942536595712198e-05,3.4375,3.625
0.51171875,4.392646942854938e-06,-0.000153807940358587,-0.00014403684673685817,-4.39627457389183e-06,3.4375,3.625
0.515625,-3.9102512642099895e-06,-0.00018066072821850922,-0.00019433013380331122,-3.4671476572823706e-05,3.4375,3.625
0.51953125,1.268541966430149e-05,-0.00018993567304493786,-0.00020263303201037614,-4.59006401235981e-05,3.4375,3.625
0.5234375,1.806205252765696e-05,-0.00023486245273365378,-0.00021972485173418784,-4.248835147020678e-05,3.4375,3.625
0.52734375,2.733699735408558e-05,-0.0002499899282475013,-0.0002499899282475013,-5.323149171129932e-05,3.4375,3.625
0.53125,5.664015273365376e-05,-0.00025732077983520255,-0.0002802651302464332,-7.76440375371939e-05,3.4375,3.625
0.53515625,6.0538464696726915e-05,-0.00028221934897077903,-0.00030565984817730986,-9.325753636072328e-05,3.4375,3.625
0.5390625,3.563989556115051e-05,-0.00026610970135194933,-0.0003076140669016556,-0.00011620188677195393,3.4375,3.625
0.54296875,5.224569197528035e-05,-0.00026610970135194933,-0.0003090721368307012,-0.00013915636266880296,3.4375,3.625
0.546875,5.321773859464406e-05,-0.00029638490335088125,-0.0003266499798641947,-0.00016405493180437935,3.4375,3.625
0.55078125,3.66119421805142e-05,-0.00029344851252155344,-0.0003242097378301671,-0.0001782204861844816,3.4375,3.625
0.5546875,5.321773859464406e-05,-0.00024804583500877395,-0.00029979719200427254,-0.0001904216963546197,3.4375,3.625
0.55859375,6.249268342107269e-05,-0.00021728460970016025,-0.00027782488821240556,-0.0001884674776302739,3.4375,3.625
0.5625,7.274980035248339e-05,-0.00020946773480277716,-0.00025438438900587474,-0.00019677037583733885,3.4375,3.625
0.56640625,7.470401907682915e-05,-0.0001816327748378729,-0.0002270455778362707,-0.00021777063300984208,3.4375,3.625
0.5703125,6.1034613492027143e-05,-0.00014843130749523156,-0.00021678846090486,-0.0002211829216632334,3.4375,3.625
0.57421875,5.077749656061644e-05,-0.0001372021439444572,-0.00019677037583733885,-0.0002216790704585336,3.4375,3.625
0.578125,5.0291473250934585e-05,-0.00012011032422064548,-0.00017772433738918135,-0.0002441373975600824,3.4375,3.625
0.58203125,6.737316748912792e-05,-8.59469357442588e-05,-0.0001533117915632868,-0.0002495039049378195,3.4375,3.625
0.5859375,6.297870673075453e-05,-7.129535805447473e-05,-0.00012255056625467309,-0.0002304679919752804,3.4375,3.625
0.58984375,3.9548333009842054e-05,-6.88551160204471e-05,-0.00011327562142824448,-0.00023486245273365378,3.4375,3.625
0.59375,4.785123121690696e-05,-4.834088215762572e-05,-0.00010839513736018923,-0.0002441373975600824,3.4375,3.625
0.59765625,4.1006402938887585e-05,-3.955196064087894e-05,-9.912019253376061e-05,-0.00024804583500877395,3.4375,3.625
0.6015625,1.463963838864727e-05,-4.248835147020678e-05,-8.934909891203176e-05,-0.0002358344993530175,3.4375,3.625
0.60546875,2.3924708700694267e-05,4.878670252536792e-06,-6.446065526207372e-05,-0.00021533039097581445,3.4375,3.625
0.609375,2.5878927425040033e-05,1.9034099147020652e-05,-2.6368578365758778e-05,-0.00018651325890592816,3.4375,3.625
0.61328125,1.1713373044937796e-05,7.318912286564412e-06,-2.1488094297703538e-05,-0.0001669913226337072,3.4375,3.625
0.6171875,-9.839859205005154e-07,1.1713373044937796e-05,-2.0019898883039616e-05,-0.00017772433738918135,3.4375,3.625
0.62109375,-1.8075805644312224e-05,-4.892423369192059e-06,-1.562543812466623e-05,-0.0001635689084946975,3.4375,3.625
0.625,-2.3442313022049304e-05,-4.892423369192059e-06,-4.39627457389183e-06,-0.00014159660470283058,3.4375,3.625
0.62890625,-1.5139414814984376e-05,1.219939635461965e-05,1.1713373044937796e-05,-0.00014256865132219427,3.4375,3.625
0.6328125,-1.9560325398642107e-06,3.710809097581443e-05,7.804935596246252e-06,-0.00013085346446173803,3.4375,3.625
0.63671875,-2.0019898883039616e-05,3.515387225146865e-05,1.806205252765696e-05,-0.00012206454294499124,3.4375,3.625
0.640625,-3.662569529716947e-05,3.368567683680474e-05,3.075941149309527e-05,-0.00012109249632562754,3.4375,3.625
0.64453125,-4.004810943617916e-05,3.856616090485998e-05,4.4914840387579144e-05,-0.00011376164473792631,3.4375,3.625
0.6484375,-2.6368578365758778e-05,4.58970124925612e-05,4.0034356319523905e-05,-9.56977783947509e-05,3.4375,3.625
0.65234375,-7.818688712901518e-06,5.614400393835353e-05,3.0273388183413415e-05,-8.789102898298621e-05,3.4375,3.625
0.65625,-1.6607610229648302e-05,4.686905911192491e-05,3.8080137595178125e-05,-7.813006084687573e-05,3.4375,3.625
0.66015625,-3.8093890711833394e-05,2.6364950734721887e-05,3.90623097001602e-05,-7.520379550316627e-05,3.4375,3.625
0.6640625,-5.664378036469064e-05,2.3924708700694267e-05,3.7594114285496275e-05,-7.715801422751204e-05,3.4375,3.625
0.66796875,-4.59006401235981e-05,4.5400863697260974e-05,2.9291216078431347e-05,-6.836909271076526e-05,3.4375,3.625
0.671875,-3.662569529716947e-05,4.9795324455634384e-05,3.173145811245896e-05,-6.347848315709165e-05,3.4375,3.625
0.67578125,-4.394642139925233e-05,3.368567683680474e-05,3.075941149309527e-05,-7.226740467383843e-05,3.4375,3.625
0.6796875,-4.150617936522471e-05,2.733699735408558e-05,3.66119421805142e-05,-6.787294391546504e-05,3.4375,3.625
0.68359375,-5.029510088197148e-05,3.221748142214082e-05,5.5657980628671675e-05,-4.297437477988863e-05,3.4375,3.625
0.6875,-6.103824112306403e-05,2.97772393881132e-05,6.396087883573662e-05,-3.320328115815978e-05,3.4375,3.625
0.69140625,-4.59006401235981e-05,2.831916945906765e-05,5.664015273365376e-05,-4.053413274586101e-05,3.4375,3.625
0.6953125,-3.271725784847793e-05,3.1245434802777126e-05,4.198857504386967e-05,-4.346039808957048e-05,3.4375,3.625
0.69921875,-4.7368835538262016e-05,1.0245177630273872e-05,4.345677045853358e-05,-3.8093890711833394e-05,3.4375,3.625
0.703125,-6.64148739864195e-05,1.1713373044937796e-05,6.1034613492027143e-05,-2.1002070988021684e-05,3.4375,3.625
0.70703125,-5.7129803674372496e-05,2.6364950734721887e-05,5.224569197528035e-05,-2.0516047678339844e-05,3.4375,3.625
0.7109375,-4.053413274586101e-05,9.273131010910177e-06,2.9291216078431347e-05,-2.9790992504768466e-05,3.4375,3.625
0.71484375,-4.59006401235981e-05,-4.892423369192059e-06,4.247459835355153e-05,-2.3928336331731158e-05,3.4375,3.625
0.71875,-5.5671733745326945e-05,-9.286884127565442e-06,5.321773859464406e-05,-1.8561828953994065e-05,3.4375,3.625
0.72265625,-4.004810943617916e-05,1.1227349735255941e-05,4.0520379629205735e-05,-2.3442313022049304e-05,3.4375,3.625
0.7265625,-3.320328115815978e-05,1.0245177630273872e-05,2.4410732010376107e-05,-2.8322797090104544e-05,3.4375,3.625
0.73046875,-4.834088215762572e-05,-2.1002070988021684e-05,3.710809097581443e-05,-1.4653391505302536e-05,3.4375,3.625
0.734375,-5.323149171129932e-05,-1.4167368195620682e-05,4.785123121690696e-05,-1.6121586919966445e-05,3.4375,3.625
0.73828125,-4.59006401235981e-05,-9.839859205005154e-07,6.1520636801709e-05,-1.4700092301823701e-06,3.4375,3.625
0.7421875,-5.1277272986953555e-05,-3.9102512642099895e-06,5.712617604333559e-05,3.4104748378728686e-06,3.4375,3.625
0.74609375,-4.785485884794387e-05,1.952404908827319e-06,3.173145811245896e-05,-1.0744954056610992e-05,3.4375,3.625
0.75,-4.394642139925233e-05,-1.3681344885938827e-05,4.345677045853358e-05,-6.8365166079194495e-06,3.4375,3.625
0.75390625,-5.2249319606317256e-05,-2.6368578365758778e-05,5.712617604333559e-05,-4.97962610818675e-07,3.4375,3.625
0.7578125,-4.346039808957048e-05,4.842094941634087e-07,4.247459835355153e-05,1.318156845960172e-05,3.4375,3.625
0.76171875,-5.1763296296635406e-05,2.4384282185091734e-06,2.8805192768749506e-05,6.3468656672007166e-06,3.4375,3.625
0.765625,-5.859799908903641e-05,-2.4420558495460653e-06,4.394279376821544e-05,-4.97962610818675e-07,3.4375,3.625
0.76953125,-3.565364867780578e-05,3.896498147554723e-06,4.247459835355153e-05,4.878670252536792e-06,3.4375,3.625
0.7734375,-3.223123453879609e-05,-1.9560325398642107e-06,3.563989556115051e-05,3.4104748378728686e-06,3.4375,3.625
0.77734375,-4.150617936522471e-05,7.318912286564412e-06,5.761219935301744e-05,9.702328038452492e-07,3.4375,3.625
0.78125,-3.955196064087894e-05,1.0245177630273872e-05,6.444690214541844e-05,9.702328038452492e-07,3.4375,3.625
0.78515625,-3.223123453879609e-05,-4.39627457389183e-06,3.9548333009842054e-05,-3.424227954528135e-06,3.4375,3.625
0.7890625,-4.346039808957048e-05,-1.7093633539330156e-05,2.5382778629739818e-05,-5.864469988555754e-06,3.4375,3.625
0.79296875,-4.980907757228963e-05,-1.3185196090638612e-05,3.4171700146486586e-05,2.924451528191028e-06,3.4375,3.625
0.796875,-4.932305426260779e-05,-8.790735332265227e-06,3.9548333009842054e-05,7.318912286564412e-06,3.4375,3.625
0.80078125,-4.394642139925233e-05,-4.39627457389183e-06,3.515387225146865e-05,1.952404908827319e-06,3.4375,3.625
0.8046875,-3.613967198748762e-05,7.318912286564412e-06,3.6125918870832366e-05,-9.839859205005154e-07,3.4375,3.625
0.80859375,-5.27353429159991e-05,-1.3681344885938827e-05,3.563989556115051e-05,4.842094941634087e-07,3.4375,3.625
0.8125,-5.664378036469064e-05,-2.1488094297703538e-05,2.1484466666666647e-05,-1.9560325398642107e-06,3.4375,3.625
0.81640625,-4.102015605554286e-05,-2.93820464484628e-06,2.1484466666666647e-05,-9.286884127565442e-06,3.4375,3.625
0.8203125,-3.906593733119709e-05,-1.5139414814984376e-05,2.6364950734721887e-05,-3.424227954528135e-06,3.4375,3.625
0.82421875,-2.1488094297703538e-05,1.0245177630273872e-05,5.664015273365376e-05,1.4562561135271038e-06,3.4375,3.625
0.828125,-1.562543812466623e-05,2.4410732010376107e-05,6.1520636801709e-05,2.4384282185091734e-06,3.4375,3.625
0.83203125,-4.785485884794387e-05,-1.2213149471274916e-05,3.66119421805142e-05,4.842094941634087e-07,3.4375,3.625
0.8359375,-5.6157757055008795e-05,-2.3442313022049304e-05,3.1245434802777126e-05,-6.8365166079194495e-06,3.4375,3.625
0.83984375,-4.7368835538262016e-05,-7.818688712901518e-06,3.515387225146865e-05,-7.332665403219678e-06,3.4375,3.625
0.84375,-4.883703095292593e-05,2.924451528191028e-06,4.1006402938887585e-05,1.4562561135271038e-06,3.4375,3.625
0.84765625,-3.076303912413216e-05,-5.864469988555754e-06,4.198857504386967e-05,5.364693562218633e-06,3.4375,3.625
0.8515625,-3.0277015814450313e-05,-1.8561828953994065e-05,3.563989556115051e-05,-2.4420558495460653e-06,3.4375,3.625
0.85546875,-5.323149171129932e-05,-1.6121586919966445e-05,2.7823020663767434e-05,-9.772907437247298e-06,3.4375,3.625
0.859375,-6.006619450370033e-05,-1.3681344885938827e-05,4.1502551734187814e-05,-1.1230977366292847e-05,3.4375,3.625
0.86328125,-5.029510088197148e-05,-1.1230977366292847e-05,6.444690214541844e-05,-1.0258930746929138e-05,3.4375,3.625
0.8671875,-3.8093890711833394e-05,-1.6607610229648302e-05,5.174954317998015e-05,-5.378446678873899e-06,3.4375,3.625
0.87109375,-2.1974117607385395e-05,-6.8365166079194495e-06,4.785123121690696e-05,-3.9102512642099895e-06,3.4375,3.625
0.875,-1.2213149471274916e-05,1.366759176928356e-05,3.4171700146486586e-05,2.924451528191028e-06,3.4375,3.625
0.87890625,-3.271725784847793e-05,4.842094941634087e-07,2.2942536595712198e-05,7.804935596246252e-06,3.4375,3.625
0.8828125,-4.1992202674906555e-05,-9.839859205005154e-07,2.97772393881132e-05,-2.4420558495460653e-06,3.4375,3.625
0.88671875,-4.394642139925233e-05,-1.1230977366292847e-05,2.098831787136642e-05,-4.892423369192059e-06,3.4375,3.625
0.890625,-5.029510088197148e-05,-2.3928336331731158e-05,1.268541966430149e-05,-7.332665403219678e-06,3.4375,3.625
0.89453125,-3.8579914021515245e-05,-1.1727126161593062e-05,2.4410732010376107e-05,1.4562561135271038e-06,3.4375,3.625
0.8984375,-3.7111718606851315e-05,-4.892423369192059e-06,3.2713630217441035e-05,4.878670252536792e-06,3.4375,3.625
0.90234375,-4.883703095292593e-05,-2.3928336331731158e-05,2.4410732010376107e-05,-5.378446678873899e-06,3.4375,3.625
0.90625,-6.006619450370033e-05,-3.125918791943238e-05,1.366759176928356e-05,-5.864469988555754e-06,3.4375,3.625
0.91015625,-5.664378036469064e-05,-1.6607610229648302e-05,1.318156845960172e-05,-8.304712022583374e-06,3.4375,3.625
0.9140625,-3.3699429953460005e-05,-6.3504932982376085e-06,2.6850974044403727e-05,-1.7093633539330156e-05,3.4375,3.625
0.91796875,-2.5882555056076924e-05,-1.8075805644312224e-05,2.733699735408558e-05,-1.562543812466623e-05,3.4375,3.625
0.921875,-3.5157499882505556e-05,-3.7111718606851315e-05,2.5878927425040033e-05,-1.4700092301823701e-06,3.4375,3.625
0.92578125,-3.8093890711833394e-05,-2.3928336331731158e-05,2.831916945906765e-05,-9.839859205005154e-07,3.4375,3.625
0.9296875,-5.420353833066303e-05,-1.7579656849011996e-05,1.4153615078965414e-05,-1.7093633539330156e-05,3.4375,3.625
0.93359375,-4.6386663433279944e-05,-2.0019898883039616e-05,6.832888976882558e-06,-2.3928336331731158e-05,3.4375,3.625
0.9375,-1.7579656849011996e-05,-2.4420558495460653e-06,1.562181049362934e-05,-3.9102512642099895e-06,3.4375,3.625
0.94140625,-2.4910508436713227e-05,-2.4414359641412998e-05,1.219939635461965e-05,-6.8365166079194495e-06,3.4375,3.625
0.9453125,-4.6882812228580166e-05,-4.004810943617916e-05,6.832888976882558e-06,-2.0516047678339844e-05,3.4375,3.625
0.94921875,-4.444257019455255e-05,-3.0277015814450313e-05,-1.2699172780956758e-05,-2.3928336331731158e-05,3.4375,3.625
0.953125,-3.7111718606851315e-05,-4.1992202674906555e-05,-3.418545326314185e-05,-3.3699429953460005e-05,3.4375,3.625
0.95703125,-4.6882812228580166e-05,-3.8093890711833394e-05,-2.4420558495460653e-06,-2.5882555056076924e-05,3.4375,3.625
0.9609375,-5.371751502098117e-05,-2.1488094297703538e-05,2.6364950734721887e-05,-1.8075805644312224e-05,3.4375,3.625
0.96484375,-4.102015605554286e-05,-2.7350750470740846e-05,3.896498147554723e-06,-1.4167368195620682e-05,3.4375,3.625
0.96875,-3.223123453879609e-05,-2.8808820399786397e-05,6.832888976882558e-06,1.952404908827319e-06,3.4375,3.625
0.97265625,-4.102015605554286e-05,-2.247026640268561e-05,1.07413264255741e-05,-3.9102512642099895e-06,3.4375,3.625
0.9765625,-3.613967198748762e-05,-2.1974117607385395e-05,-3.424227954528135e-06,-1.3681344885938827e-05,3.4375,3.625
0.98046875,-1.904785226367592e-05,-1.2213149471274916e-05,1.4562561135271038e-06,-5.864469988555754e-06,3.4375,3.625
0.984375,-1.7579656849011996e-05,-1.8561828953994065e-05,-4.892423369192059e-06,-6.3504932982376085e-06,3.4375,3.625
0.98828125,-2.7350750470740846e-05,-4.102015605554286e-05,-6.8365166079194495e-06,-1.3681344885938827e-05,3.4375,3.625
0.9921875,-3.271725784847793e-05,-4.004810943617916e-05,4.842094941634087e-07,-1.4653391505302536e-05,3.4375,3.625
0.99609375,-4.297437477988863e-05,-5.371751502098117e-05,-9.772907437247298e-06,-1.4167368195620682e-05,3.4375,3.625
1.0,-4.346039808957048e-05,-4.150617936522471e-05,-8.790735332265227e-06,-1.904785226367592e-05,3.4375,3.625
1.00390625,-3.320328115815978e-05,-2.5882555056076924e-05,2.4384282185091734e-06,-2.6368578365758778e-05,3.4375,3.625
1.0078125,-2.4910508436713227e-05,-4.102015605554286e-05,7.318912286564412e-06,-2.3928336331731158e-05,3.4375,3.625
1.01171875,-2.2956289712367464e-05,-3.7111718606851315e-05,1.952404908827319e-06,-2.4414359641412998e-05,3.4375,3.625
1.015625,-3.7111718606851315e-05,-4.248835147020678e-05,-1.6121586919966445e-05,-2.6864727161059e-05,3.4375,3.625
1.01953125,-5.1277272986953555e-05,-4.834088215762572e-05,2.924451528191028e-06,-3.0277015814450313e-05,3.4375,3.625
1.0234375,-4.883703095292593e-05,-3.3699429953460005e-05,1.7576029217975105e-05,-2.3442313022049304e-05,3.4375,3.625
1.02734375,-3.759774191653317e-05,-4.49285935042344e-05,-1.0744954056610992e-05,-2.2956289712367464e-05,3.4375,3.625
1.03125,-3.8579914021515245e-05,-5.371751502098117e-05,-6.8365166079194495e-06,-2.9790992504768466e-05,3.4375,3.625
1.03515625,-3.662569529716947e-05,-3.662569529716947e-05,-1.0258930746929138e-05,-4.248835147020678e-05,3.4375,3.625
1.0390625,-2.8322797090104544e-05,-2.9304969195086612e-05,-1.562543812466623e-05,-3.3699429953460005e-05,3.4375,3.625
1.04296875,-1.904785226367592e-05,-2.9790992504768466e-05,1.610783380331118e-05,-1.1230977366292847e-05,3.4375,3.625
1.046875,-8.304712022583374e-06,-1.7579656849011996e-05,3.896498147554723e-06,-1.8561828953994065e-05,3.4375,3.625
1.05078125,-2.3442313022049304e-05,-4.7368835538262016e-05,-3.3699429953460005e-05,-3.0277015814450313e-05,3.4375,3.625
1.0546875,-3.8579914021515245e-05,-5.6157757055008795e-05,-2.6368578365758778e-05,-2.7350750470740846e-05,3.4375,3.625
1.05859375,-5.908402239871826e-05,-6.494667857175556e-05,-2.9304969195086612e-05,-3.662569529716947e-05,3.4375,3.625
1.0625,-4.980907757228963e-05,-6.690089729610133e-05,-2.5882555056076924e-05,-4.1992202674906555e-05,3.4375,3.625
1.06640625,-2.9790992504768466e-05,-4.59006401235981e-05,-4.892423369192059e-06,-3.076303912413216e-05,3.4375,3.625
1.0703125,-2.8322797090104544e-05,-4.5414616813916244e-05,-2.0019898883039616e-05,-2.6864727161059e-05,3.4375,3.625
1.07421875,-1.7579656849011996e-05,-2.1488094297703538e-05,-2.1974117607385395e-05,-3.906593733119709e-05,3.4375,3.625
1.078125,-3.5157499882505556e-05,-4.1992202674906555e-05,-1.5139414814984376e-05,-3.174521122911423e-05,3.4375,3.625
1.08203125,-3.955196064087894e-05,-5.5671733745326945e-05,-1.3681344885938827e-05,-1.8075805644312224e-05,3.4375,3.625
1.0859375,-1.9533875573357775e-05,-3.418545326314185e-05,-2.7350750470740846e-05,-3.565364867780578e-05,3.4375,3.625
1.08984375,-2.3928336331731158e-05,-3.4671476572823706e-05,-3.0277015814450313e-05,-3.223123453879609e-05,3.4375,3.625
1.09375,-2.9790992504768466e-05,-4.004810943617916e-05,-1.5139414814984376e-05,-2.0516047678339844e-05,3.4375,3.625
1.09765625,-2.4910508436713227e-05,-3.271725784847793e-05,-1.0258930746929138e-05,-2.6368578365758778e-05,3.4375,3.625
1.1015625,-2.6864727161059e-05,-3.125918791943238e-05,-1.2213149471274916e-05,-3.4671476572823706e-05,3.4375,3.625
1.10546875,-4.346039808957048e-05,-5.323149171129932e-05,-6.3504932982376085e-06,-2.9304969195086612e-05,3.4375,3.625
1.109375,-4.444257019455255e-05,-5.420353833066303e-05,-1.8138155184459493e-09,-2.7836773780422693e-05,3.4375,3.625
1.11328125,-2.7350750470740846e-05,-3.4671476572823706e-05,3.896498147554723e-06,-2.4414359641412998e-05,3.4375,3.625
1.1171875,-2.6864727161059e-05,-3.613967198748762e-05,-7.818688712901518e-06,-2.8808820399786397e-05,3.4375,3.625
1.12109375,-3.3699429953460005e-05,-5.762595246967271e-05,-2.3928336331731158e-05,-3.759774191653317e-05,3.4375,3.625
1.125,-2.247026640268561e-05,-4.980907757228963e-05,-1.3185196090638612e-05,-2.4414359641412998e-05,3.4375,3.625
1.12890625,-1.5139414814984376e-05,-3.174521122911423e-05,-2.7350750470740846e-05,-2.6864727161059e-05,3.4375,3.625
1.1328125,-3.271725784847793e-05,-4.150617936522471e-05,-5.2249319606317256e-05,-3.5157499882505556e-05,3.4375,3.625
1.13671875,-3.7111718606851315e-05,-4.248835147020678e-05,-3.5157499882505556e-05,-3.4671476572823706e-05,3.4375,3.625
1.140625,-3.5157499882505556e-05,-3.8579914021515245e-05,-2.5396531746395077e-05,-3.8579914021515245e-05,3.4375,3.625
1.14453125,-4.346039808957048e-05,-4.49285935042344e-05,-1.2699172780956758e-05,-3.174521122911423e-05,3.4375,3.625
1.1484375,-3.271725784847793e-05,-4.004810943617916e-05,-2.247026640268561e-05,-2.5396531746395077e-05,3.4375,3.625
1.15234375,-2.1488094297703538e-05,-3.174521122911423e-05,-2.6368578365758778e-05,-3.0277015814450313e-05,3.4375,3.625
1.15625,-3.3699429953460005e-05,-3.565364867780578e-05,-1.8561828953994065e-05,-2.247026640268561e-05,3.4375,3.625
1.16015625,-3.565364867780578e-05,-4.7368835538262016e-05,-2.8808820399786397e-05,-1.7093633539330156e-05,3.4375,3.625
1.1640625,-2.6368578365758778e-05,-4.444257019455255e-05,-2.5396531746395077e-05,-2.4414359641412998e-05,3.4375,3.625
1.16796875,-3.125918791943238e-05,-4.49285935042344e-05,-2.5882555056076924e-05,-3.076303912413216e-05,3.4375,3.625
1.171875,-3.3699429953460005e-05,-5.420353833066303e-05,-3.613967198748762e-05,-3.174521122911423e-05,3.4375,3.625
1.17578125,-2.7350750470740846e-05,-5.1763296296635406e-05,-4.932305426260779e-05,-3.565364867780578e-05,3.4375,3.625
1.1796875,-3.320328115815978e-05,-4.932305426260779e-05,-3.662569529716947e-05,-3.662569529716947e-05,3.4375,3.625
1.18359375,-4.394642139925233e-05,-4.102015605554286e-05,-1.7093633539330156e-05,-2.7836773780422693e-05,3.4375,3.625
1.1875,-3.7111718606851315e-05,-4.346039808957048e-05,-1.3185196090638612e-05,-2.6864727161059e-05,3.4375,3.625
1.19140625,-2.1002070988021684e-05,-4.394642139925233e-05,-2.1488094297703538e-05,-4.150617936522471e-05,3.4375,3.625
1.1953125,-1.8075805644312224e-05,-3.8579914021515245e-05,-2.2956289712367464e-05,-4.6882812228580166e-05,3.4375,3.625
1.19921875,-3.3699429953460005e-05,-4.150617936522471e-05,4.842094941634087e-07,-3.076303912413216e-05,3.4375,3.625
1.203125,-3.662569529716947e-05,-4.248835147020678e-05,-7.332665403219678e-06,-2.4910508436713227e-05,3.4375,3.625
1.20703125,-2.5396531746395077e-05,-4.7368835538262016e-05,-2.1488094297703538e-05,-2.6368578365758778e-05,3.4375,3.625
1.2109375,-2.1974117607385395e-05,-5.1277272986953555e-05,-2.8808820399786397e-05,-2.6368578365758778e-05,3.4375,3.625
1.21484375,-1.4167368195620682e-05,-3.759774191653317e-05,-2.8808820399786397e-05,-2.4414359641412998e-05,3.4375,3.625
1.21875,-2.9790992504768466e-05,-4.053413274586101e-05,-2.4414359641412998e-05,-2.5396531746395077e-05,3.4375,3.625
1.22265625,-3.418545326314185e-05,-4.346039808957048e-05,-2.1002070988021684e-05,-3.3699429953460005e-05,3.4375,3.625
1.2265625,-2.6368578365758778e-05,-5.1763296296635406e-05,-1.9533875573357775e-05,-4.102015605554286e-05,3.4375,3.625
1.23046875,-3.955196064087894e-05,-6.543270188143742e-05,-3.174521122911423e-05,-4.834088215762572e-05,3.4375,3.625
1.234375,-3.613967198748762e-05,-5.27353429159991e-05,-3.565364867780578e-05,-4.785485884794387e-05,3.4375,3.625
1.23828125,-3.418545326314185e-05,-4.394642139925233e-05,-2.1002070988021684e-05,-3.565364867780578e-05,3.4375,3.625
1.2421875,-3.418545326314185e-05,-3.662569529716947e-05,-9.772907437247298e-06,-3.3699429953460005e-05,3.4375,3.625
1.24609375,-1.9533875573357775e-05,-3.076303912413216e-05,-1.3185196090638612e-05,-4.248835147020678e-05,3.4375,3.625
1.25,-2.5396531746395077e-05,-4.59006401235981e-05,-2.9790992504768466e-05,-4.053413274586101e-05,3.4375,3.625
1.25390625,-3.955196064087894e-05,-5.5185710435645094e-05,-3.3699429953460005e-05,-3.8579914021515245e-05,3.4375,3.625
1.2578125,-3.759774191653317e-05,-4.834088215762572e-05,-2.9790992504768466e-05,-3.8093890711833394e-05,3.4375,3.625
1.26171875,-4.053413274586101e-05,-5.1763296296635406e-05,-2.0019898883039616e-05,-2.9304969195086612e-05,3.4375,3.625
1.265625,-3.4671476572823706e-05,-4.6386663433279944e-05,-2.3928336331731158e-05,-3.662569529716947e-05,3.4375,3.625
1.26953125,-2.9304969195086612e-05,-3.955196064087894e-05,-3.7111718606851315e-05,-4.444257019455255e-05,3.4375,3.625
1.2734375,-4.102015605554286e-05,-5.468956164034487e-05,-3.174521122911423e-05,-3.271725784847793e-05,3.4375,3.625
1.27734375,-3.955196064087894e-05,-5.859799908903641e-05,-2.6864727161059e-05,-3.223123453879609e-05,3.4375,3.625
1.28125,-4.150617936522471e-05,-4.932305426260779e-05,-2.9304969195086612e-05,-4.394642139925233e-05,3.4375,3.625
1.28515625,-5.323149171129932e-05,-4.785485884794387e-05,-2.6864727161059e-05,-3.7111718606851315e-05,3.4375,3.625
1.2890625,-5.323149171129932e-05,-4.444257019455255e-05,-2.2956289712367464e-05,-4.297437477988863e-05,3.4375,3.625
1.29296875,-3.613967198748762e-05,-5.2249319606317256e-05,-2.6864727161059e-05,-5.0781124191653334e-05,3.4375,3.625
1.296875,-3.076303912413216e-05,-4.6882812228580166e-05,-2.2956289712367464e-05,-3.5157499882505556e-05,3.4375,3.625
1.30078125,-3.613967198748762e-05,-1.904785226367592e-05,-1.4653391505302536e-05,-2.3928336331731158e-05,3.4375,3.625
1.3046875,-2.8808820399786397e-05,-1.3185196090638612e-05,-2.0516047678339844e-05,-2.4414359641412998e-05,3.4375,3.625
1.30859375,-3.320328115815978e-05,-3.759774191653317e-05,-1.4167368195620682e-05,-2.7836773780422693e-05,3.4375,3.625
1.3125,-4.6386663433279944e-05,-5.468956164034487e-05,-2.7350750470740846e-05,-3.662569529716947e-05,3.4375,3.625
1.31640625,-3.565364867780578e-05,-4.7368835538262016e-05,-3.955196064087894e-05,-4.444257019455255e-05,3.4375,3.625
1.3203125,-3.5157499882505556e-05,-4.5414616813916244e-05,-1.5139414814984376e-05,-2.8322797090104544e-05,3.4375,3.625
1.32421875,-4.6386663433279944e-05,-5.811197577935456e-05,-8.304712022583374e-06,-2.1002070988021684e-05,3.4375,3.625
1.328125,-4.6386663433279944e-05,-5.908402239871826e-05,-2.6864727161059e-05,-3.3699429953460005e-05,3.4375,3.625
1.33203125,-4.248835147020678e-05,-3.7111718606851315e-05,-2.8322797090104544e-05,-3.8579914021515245e-05,3.4375,3.625
1.3359375,-2.5882555056076924e-05,-3.7111718606851315e-05,-2.3442313022049304e-05,-4.102015605554286e-05,3.4375,3.625
1.33984375,-2.6864727161059e-05,-4.6882812228580166e-05,-1.0744954056610992e-05,-3.125918791943238e-05,3.4375,3.625
1.34375,-2.8322797090104544e-05,-4.7368835538262016e-05,1.4562561135271038e-06,-2.6864727161059e-05,3.4375,3.625
1.34765625,-1.3681344885938827e-05,-3.3699429953460005e-05,-8.790735332265227e-06,-3.125918791943238e-05,3.4375,3.625
1.3515625,-2.6368578365758778e-05,-2.3442313022049304e-05,-1.904785226367592e-05,-3.125918791943238e-05,3.4375,3.625
1.35546875,-3.4671476572823706e-05,-3.076303912413216e-05,-2.4414359641412998e-05,-2.9790992504768466e-05,3.4375,3.625
1.359375,-2.4414359641412998e-05,-3.955196064087894e-05,-1.2213149471274916e-05,-1.6607610229648302e-05,3.4375,3.625
1.36328125,-2.5396531746395077e-05,-4.444257019455255e-05,-1.7579656849011996e-05,-2.4910508436713227e-05,3.4375,3.625
1.3671875,-3.662569529716947e-05,-4.5414616813916244e-05,-1.9533875573357775e-05,-3.125918791943238e-05,3.4375,3.625
1.37109375,-3.565364867780578e-05,-4.004810943617916e-05,-2.247026640268561e-05,-3.759774191653317e-05,3.4375,3.625
1.375,-3.418545326314185e-05,-2.8808820399786397e-05,-3.125918791943238e-05,-4.053413274586101e-05,3.4375,3.625
1.37890625,-4.7368835538262016e-05,-3.662569529716947e-05,-1.4700092301823701e-06,-1.3681344885938827e-05,3.4375,3.625
1.3828125,-4.053413274586101e-05,-3.3699429953460005e-05,-4.39627457389183e-06,-9.772907437247298e-06,3.4375,3.625
1.38671875,-2.8322797090104544e-05,-2.5396531746395077e-05,-3.4671476572823706e-05,-3.3699429953460005e-05,3.4375,3.625
1.390625,-4.053413274586101e-05,-5.0781124191653334e-05,-2.0516047678339844e-05,-2.4910508436713227e-05,3.4375,3.625
1.39453125,-3.4671476572823706e-05,-3.662569529716947e-05,1.952404908827319e-06,-2.1488094297703538e-05,3.4375,3.625
1.3984375,-2.2956289712367464e-05,-4.892423369192059e-06,-1.1727126161593062e-05,-3.662569529716947e-05,3.4375,3.625
1.40234375,-3.271725784847793e-05,-4.7368835538262016e-05,-1.8075805644312224e-05,-3.125918791943238e-05,3.4375,3.625
1.40625,-4.980907757228963e-05,-7.080933474479287e-05,-1.7579656849011996e-05,-2.9790992504768466e-05,3.4375,3.625
1.41015625,-4.49285935042344e-05,-3.8093890711833394e-05,-2.6368578365758778e-05,-3.662569529716947e-05,3.4375,3.625
1.4140625,-3.7111718606851315e-05,-3.7111718606851315e-05,-3.662569529716947e-05,-3.759774191653317e-05,3.4375,3.625
1.41796875,-2.1488094297703538e-05,-3.7111718606851315e-05,-4.053413274586101e-05,-3.8093890711833394e-05,3.4375,3.625
1.421875,-3.271725784847793e-05,-3.320328115815978e-05,-2.1002070988021684e-05,-2.6864727161059e-05,3.4375,3.625
1.42578125,-4.7368835538262016e-05,-5.1763296296635406e-05,-2.4414359641412998e-05,-2.1974117607385395e-05,3.4375,3.625
1.4296875,-1.904785226367592e-05,-5.0781124191653334e-05,-3.4671476572823706e-05,-3.0277015814450313e-05,3.4375,3.625
1.43359375,-1.3185196090638612e-05,-3.5157499882505556e-05,-3.3699429953460005e-05,-3.8579914021515245e-05,3.4375,3.625
1.4375,-3.271725784847793e-05,-4.394642139925233e-05,-2.5396531746395077e-05,-4.1992202674906555e-05,3.4375,3.625
1.44140625,-2.1002070988021684e-05,-3.418545326314185e-05,-2.1488094297703538e-05,-4.346039808957048e-05,3.4375,3.625
1.4453125,-1.7579656849011996e-05,-3.223123453879609e-05,-1.3681344885938827e-05,-3.8579914021515245e-05,3.4375,3.625
1.44921875,-4.053413274586101e-05,-5.958017119401849e-05,-2.9304969195086612e-05,-3.565364867780578e-05,3.4375,3.625
1.453125,-4.785485884794387e-05,-5.762595246967271e-05,-4.6386663433279944e-05,-4.004810943617916e-05,3.4375,3.625
1.45703125,-2.4414359641412998e-05,-8.304712022583374e-06,-2.0019898883039616e-05,-3.759774191653317e-05,3.4375,3.625
1.4609375,-1.4167368195620682e-05,-6.3504932982376085e-06,-1.1727126161593062e-05,-2.3928336331731158e-05,3.4375,3.625
1.46484375,-2.247026640268561e-05,-2.4414359641412998e-05,-1.562543812466623e-05,-2.7836773780422693e-05,3.4375,3.625
1.46875,-3.8093890711833394e-05,-4.5414616813916244e-05,-2.3442313022049304e-05,-2.9790992504768466e-05,3.4375,3.625
1.47265625,-3.759774191653317e-05,-6.0552217813382184e-05,-4.5414616813916244e-05,-1.3185196090638612e-05,3.4375,3.625
1.4765625,-3.3699429953460005e-05,-4.6386663433279944e-05,-4.1992202674906555e-05,-2.1488094297703538e-05,3.4375,3.625
1.48046875,-3.271725784847793e-05,-4.053413274586101e-05,-3.0277015814450313e-05,-3.076303912413216e-05,3.4375,3.625
1.484375,-2.9790992504768466e-05,-3.565364867780578e-05,-3.8579914021515245e-05,-4.1992202674906555e-05,3.4375,3.625
1.48828125,-2.9790992504768466e-05,-4.6386663433279944e-05,-4.053413274586101e-05,-3.8579914021515245e-05,3.4375,3.625
1.4921875,-3.271725784847793e-05,-5.7129803674372496e-05,-4.150617936522471e-05,-2.4414359641412998e-05,3.4375,3.625
1.49609375,-1.9533875573357775e-05,-3.223123453879609e-05,-2.247026640268561e-05,-2.9304969195086612e-05,3.4375,3.625
1.5,-1.8561828953994065e-05,-1.8561828953994065e-05,-1.0744954056610992e-05,-2.6368578365758778e-05,3.4375,3.625
1.50390625,-2.7836773780422693e-05,-5.864469988555754e-06,-9.772907437247298e-06,-2.6864727161059e-05,3.4375,3.625
1.5078125,-2.3928336331731158e-05,-2.4420558495460653e-06,-1.6121586919966445e-05,-3.320328115815978e-05,3.4375,3.625
1.51171875,-3.613967198748762e-05,-4.394642139925233e-05,-2.7350750470740846e-05,-3.320328115815978e-05,3.4375,3.625
1.515625,-3.906593733119709e-05,-5.0781124191653334e-05,-2.6864727161059e-05,-4.248835147020678e-05,3.4375,3.625
1.51953125,-2.3928336331731158e-05,-3.320328115815978e-05,-4.102015605554286e-05,-5.6157757055008795e-05,3.4375,3.625
1.5234375,-2.8808820399786397e-05,-3.7111718606851315e-05,-2.6864727161059e-05,-4.394642139925233e-05,3.4375,3.625
1.52734375,-2.6864727161059e-05,-2.8322797090104544e-05,-2.5396531746395077e-05,-3.418545326314185e-05,3.4375,3.625
1.53125,-2.247026640268561e-05,-2.9790992504768466e-05,-2.8322797090104544e-05,-3.8579914021515245e-05,3.4375,3.625
1.53515625,-3.565364867780578e-05,-5.5185710435645094e-05,-4.49285935042344e-05,-2.1002070988021684e-05,3.4375,3.625
1.5390625,-2.7350750470740846e-05,-4.7368835538262016e-05,-5.27353429159991e-05,-2.3442313022049304e-05,3.4375,3.625
1.54296875,-2.3928336331731158e-05,-3.418545326314185e-05,-2.8808820399786397e-05,-3.320328115815978e-05,3.4375,3.625
1.546875,-3.955196064087894e-05,-4.785485884794387e-05,-4.297437477988863e-05,-3.8579914021515245e-05,3.4375,3.625
1.55078125,-4.980907757228963e-05,-5.5185710435645094e-05,-4.785485884794387e-05,-3.8093890711833394e-05,3.4375,3.625
1.5546875,-3.8579914021515245e-05,-4.053413274586101e-05,-3.4671476572823706e-05,-2.7350750470740846e-05,3.4375,3.625
1.55859375,-2.6864727161059e-05,-1.6121586919966445e-05,-2.4414359641412998e-05,-4.248835147020678e-05,3.4375,3.625
1.5625,-2.4414359641412998e-05,-1.2213149471274916e-05,-3.418545326314185e-05,-5.5185710435645094e-05,3.4375,3.625
1.56640625,-4.004810943617916e-05,-3.3699429953460005e-05,-1.904785226367592e-05,-2.5396531746395077e-05,3.4375,3.625
1.5703125,-5.7129803674372496e-05,-4.785485884794387e-05,4.878670252536792e-06,-1.4700092301823701e-06,3.4375,3.625
1.57421875,-4.053413274586101e-05,-3.906593733119709e-05,-4.150617936522471e-05,-3.3699429953460005e-05,3.4375,3.625
1.578125,-2.0516047678339844e-05,-3.565364867780578e-05,-4.883703095292593e-05,-4.004810943617916e-05,3.4375,3.625
1.58203125,-2.247026640268561e-05,-4.7368835538262016e-05,-3.0277015814450313e-05,-1.6607610229648302e-05,3.4375,3.625
1.5859375,-1.8561828953994065e-05,-4.932305426260779e-05,-5.2249319606317256e-05,-2.7836773780422693e-05,3.4375,3.625
1.58984375,-2.0019898883039616e-05,-4.248835147020678e-05,-6.103824112306403e-05,-4.394642139925233e-05,3.4375,3.625
1.59375,-4.150617936522471e-05,-4.394642139925233e-05,-5.5671733745326945e-05,-3.8579914021515245e-05,3.4375,3.625
1.59765625,-5.1277272986953555e-05,-4.834088215762572e-05,-4.834088215762572e-05,-2.6368578365758778e-05,3.4375,3.625
1.6015625,-3.076303912413216e-05,-3.5157499882505556e-05,-4.932305426260779e-05,-3.662569529716947e-05,3.4375,3.625
1.60546875,-2.4414359641412998e-05,-3.3699429953460005e-05,-4.394642139925233e-05,-3.271725784847793e-05,3.4375,3.625
1.609375,-3.271725784847793e-05,-4.6882812228580166e-05,-3.906593733119709e-05,-2.7350750470740846e-05,3.4375,3.625
1.61328125,-3.8579914021515245e-05,-4.7368835538262016e-05,-3.3699429953460005e-05,-3.565364867780578e-05,3.4375,3.625
1.6171875,-4.102015605554286e-05,-3.613967198748762e-05,-3.565364867780578e-05,-3.4671476572823706e-05,3.4375,3.625
1.62109375,-4.004810943617916e-05,-4.785485884794387e-05,-3.8579914021515245e-05,-2.9304969195086612e-05,3.4375,3.625
1.625,-3.223123453879609e-05,-5.6157757055008795e-05,-5.1763296296635406e-05,-2.6368578365758778e-05,3.4375,3.625
1.62890625,-4.297437477988863e-05,-5.323149171129932e-05,-4.49285935042344e-05,-2.5882555056076924e-05,3.4375,3.625
1.6328125,-4.6882812228580166e-05,-5.323149171129932e-05,-2.9304969195086612e-05,-2.6864727161059e-05,3.4375,3.625
1.63671875,-3.223123453879609e-05,-4.980907757228963e-05,-3.8093890711833394e-05,-2.7350750470740846e-05,3.4375,3.625
1.640625,-3.0277015814450313e-05,-3.7111718606851315e-05,-4.7368835538262016e-05,-3.5157499882505556e-05,3.4375,3.625
1.64453125,-3.8093890711833394e-05,-3.0277015814450313e-05,-3.174521122911423e-05,-3.418545326314185e-05,3.4375,3.625
1.6484375,-4.053413274586101e-05,-4.346039808957048e-05,-1.4167368195620682e-05,-2.0019898883039616e-05,3.4375,3.625
1.65234375,-3.759774191653317e-05,-5.468956164034487e-05,-2.8808820399786397e-05,-1.9533875573357775e-05,3.4375,3.625
1.65625,-3.662569529716947e-05,-5.323149171129932e-05,-4.346039808957048e-05,-2.3442313022049304e-05,3.4375,3.625
1.66015625,-3.4671476572823706e-05,-4.053413274586101e-05,-3.418545326314185e-05,-2.4910508436713227e-05,3.4375,3.625
1.6640625,-3.8579914021515245e-05,-3.613967198748762e-05,-2.6864727161059e-05,-3.5157499882505556e-05,3.4375,3.625
1.66796875,-2.9304969195086612e-05,-3.4671476572823706e-05,-2.8322797090104544e-05,-3.906593733119709e-05,3.4375,3.625
1.671875,-2.4414359641412998e-05,-3.565364867780578e-05,-3.3699429953460005e-05,-3.0277015814450313e-05,3.4375,3.625
1.67578125,-3.223123453879609e-05,-3.4671476572823706e-05,-2.7836773780422693e-05,-1.8561828953994065e-05,3.4375,3.625
1.6796875,-1.4653391505302536e-05,-1.1230977366292847e-05,1.952404908827319e-06,-8.790735332265227e-06,3.4375,3.625
1.68359375,-2.9790992504768466e-05,-2.4414359641412998e-05,-1.8561828953994065e-05,-2.6368578365758778e-05,3.4375,3.625
1.6875,-4.980907757228963e-05,-4.053413274586101e-05,-4.7368835538262016e-05,-3.759774191653317e-05,3.4375,3.625
1.69140625,-3.8093890711833394e-05,-3.320328115815978e-05,-3.565364867780578e-05,-4.248835147020678e-05,3.4375,3.625
1.6953125,-2.7836773780422693e-05,-2.8808820399786397e-05,-2.0019898883039616e-05,-3.955196064087894e-05,3.4375,3.625
1.69921875,-2.3928336331731158e-05,-2.4910508436713227e-05,-1.4167368195620682e-05,-3.613967198748762e-05,3.4375,3.625
1.703125,-3.8093890711833394e-05,-3.5157499882505556e-05,-1.5139414814984376e-05,-4.1992202674906555e-05,3.4375,3.625
1.70703125,-5.420353833066303e-05,-4.49285935042344e-05,-1.6121586919966445e-05,-3.759774191653317e-05,3.4375,3.625
1.7109375,-4.932305426260779e-05,-3.7111718606851315e-05,-1.562543812466623e-05,-3.418545326314185e-05,3.4375,3.625
1.71484375,-3.8579914021515245e-05,-2.6864727161059e-05,-1.5139414814984376e-05,-3.418545326314185e-05,3.4375,3.625
1.71875,-3.4671476572823706e-05,-3.3699429953460005e-05,-3.9102512642099895e-06,-2.9304969195086612e-05,3.4375,3.625
1.72265625,-3.565364867780578e-05,-4.834088215762572e-05,-5.864469988555754e-06,-3.076303912413216e-05,3.4375,3.625
1.7265625,-3.8093890711833394e-05,-5.371751502098117e-05,-1.6607610229648302e-05,-3.565364867780578e-05,3.4375,3.625
1.73046875,-3.906593733119709e-05,-5.029510088197148e-05,-2.7350750470740846e-05,-4.394642139925233e-05,3.4375,3.625
1.734375,-3.3699429953460005e-05,-4.785485884794387e-05,-3.3699429953460005e-05,-4.004810943617916e-05,3.4375,3.625
1.73828125,-2.9790992504768466e-05,-4.49285935042344e-05,-2.3442313022049304e-05,-1.8561828953994065e-05,3.4375,3.625
1.7421875,-1.904785226367592e-05,-2.9304969195086612e-05,-6.3504932982376085e-06,-6.3504932982376085e-06,3.4375,3.625
1.74609375,-1.1230977366292847e-05,-4.394642139925233e-05,-2.7836773780422693e-05,-2.2956289712367464e-05,3.4375,3.625
1.75,-2.2956289712367464e-05,-6.0552217813382184e-05,-4.5414616813916244e-05,-4.59006401235981e-05,3.4375,3.625
1.75390625,-4.150617936522471e-05,-6.0552217813382184e-05,-3.955196064087894e-05,-4.883703095292593e-05,3.4375,3.625
1.7578125,-4.346039808957048e-05,-5.323149171129932e-05,-3.8093890711833394e-05,-4.346039808957048e-05,3.4375,3.625
1.76171875,-3.8579914021515245e-05,-4.5414616813916244e-05,-3.320328115815978e-05,-3.955196064087894e-05,3.4375,3.625
1.765625,-3.125918791943238e-05,-4.883703095292593e-05,-5.029510088197148e-05,-3.759774191653317e-05,3.4375,3.625
1.76953125,-1.0258930746929138e-05,-1.9533875573357775e-05,-2.8322797090104544e-05,-2.8322797090104544e-05,3.4375,3.625
1.7734375,-1.8075805644312224e-05,-3.613967198748762e-05,-3.0277015814450313e-05,-2.1974117607385395e-05,3.4375,3.625
1.77734375,-4.053413274586101e-05,-4.834088215762572e-05,-4.297437477988863e-05,-2.247026640268561e-05,3.4375,3.625
1.78125,-3.3699429953460005e-05,-3.3699429953460005e-05,-3.0277015814450313e-05,-3.5157499882505556e-05,3.4375,3.625
1.78515625,-3.565364867780578e-05,-5.468956164034487e-05,-4.1992202674906555e-05,-4.102015605554286e-05,3.4375,3.625
1.7890625,-3.565364867780578e-05,-8.105632619058521e-05,-6.347848315709165e-05,-4.248835147020678e-05,3.4375,3.625
1.79296875,-5.864469988555754e-06,-6.299245984740981e-05,-4.6386663433279944e-05,-2.6368578365758778e-05,3.4375,3.625
1.796875,-2.5882555056076924e-05,-4.883703095292593e-05,-2.1002070988021684e-05,-2.1488094297703538e-05,3.4375,3.625
1.80078125,-5.908402239871826e-05,-6.0552217813382184e-05,-3.320328115815978e-05,-3.4671476572823706e-05,3.4375,3.625
1.8046875,-4.932305426260779e-05,-5.859799908903641e-05,-4.1992202674906555e-05,-3.076303912413216e-05,3.4375,3.625
1.80859375,-3.955196064087894e-05,-5.323149171129932e-05,-4.1992202674906555e-05,-2.8808820399786397e-05,3.4375,3.625
1.8125,-3.418545326314185e-05,-5.468956164034487e-05,-3.8579914021515245e-05,-3.418545326314185e-05,3.4375,3.625
1.81640625,-2.9790992504768466e-05,-5.5671733745326945e-05,-4.102015605554286e-05,-4.5414616813916244e-05,3.4375,3.625
1.8203125,-3.662569529716947e-05,-4.346039808957048e-05,-4.59006401235981e-05,-3.8093890711833394e-05,3.4375,3.625
1.82421875,-5.1763296296635406e-05,-4.297437477988863e-05,-5.1763296296635406e-05,-3.8579914021515245e-05,3.4375,3.625
1.828125,-5.5185710435645094e-05,-5.029510088197148e-05,-4.883703095292593e-05,-4.5414616813916244e-05,3.4375,3.625
1.83203125,-4.49285935042344e-05,-6.299245984740981e-05,-4.932305426260779e-05,-3.3699429953460005e-05,3.4375,3.625
1.8359375,-2.5396531746395077e-05,-4.102015605554286e-05,-3.613967198748762e-05,-1.6121586919966445e-05,3.4375,3.625
1.83984375,-2.1974117607385395e-05,-1.7579656849011996e-05,-1.1727126161593062e-05,-1.8075805644312224e-05,3.4375,3.625
1.84375,-2.3442313022049304e-05,-3.613967198748762e-05,-2.9304969195086612e-05,-3.418545326314185e-05,3.4375,3.625
1.84765625,4.842094941634087e-07,-1.2213149471274916e-05,-9.286884127565442e-06,-1.2699172780956758e-05,3.4375,3.625
1.8515625,-3.125918791943238e-05,-3.565364867780578e-05,-3.271725784847793e-05,-2.5396531746395077e-05,3.4375,3.625
1.85546875,-4.932305426260779e-05,-7.276355346913865e-05,-7.715801422751204e-05,-5.468956164034487e-05,3.4375,3.625
1.859375,-1.8561828953994065e-05,-4.5414616813916244e-05,-3.613967198748762e-05,-4.1992202674906555e-05,3.4375,3.625
1.86328125,-2.7350750470740846e-05,-5.1763296296635406e-05,-2.8808820399786397e-05,-3.3699429953460005e-05,3.4375,3.625
1.8671875,-4.6882812228580166e-05,-5.811197577935456e-05,-4.7368835538262016e-05,-3.955196064087894e-05,3.4375,3.625
1.87109375,-5.371751502098117e-05,-6.152426443274587e-05,-6.494667857175556e-05,-4.785485884794387e-05,3.4375,3.625
1.875,-5.6157757055008795e-05,-8.203849829556727e-05,-7.129535805447473e-05,-4.394642139925233e-05,3.4375,3.625
1.87890625,-5.323149171129932e-05,-9.472573177538722e-05,-7.226740467383843e-05,-4.834088215762572e-05,3.4375,3.625
1.8828125,-4.49285935042344e-05,-6.738692060578318e-05,-5.908402239871826e-05,-5.1763296296635406e-05,3.4375,3.625
1.88671875,-3.906593733119709e-05,-5.468956164034487e-05,-4.150617936522471e-05,-4.150617936522471e-05,3.4375,3.625
1.890625,-2.3442313022049304e-05,-4.6882812228580166e-05,-3.8093890711833394e-05,-3.0277015814450313e-05,3.4375,3.625
1.89453125,-1.7093633539330156e-05,-4.785485884794387e-05,-4.150617936522471e-05,-2.0516047678339844e-05,3.4375,3.625
1.8984375,-3.5157499882505556e-05,-9.081729432669569e-05,-7.715801422751204e-05,-3.223123453879609e-05,3.4375,3.625
1.90234375,-3.320328115815978e-05,-7.129535805447473e-05,-4.59006401235981e-05,-3.223123453879609e-05,3.4375,3.625
1.90625,-3.076303912413216e-05,-4.6882812228580166e-05,-1.5139414814984376e-05,-2.1002070988021684e-05,3.4375,3.625
1.91015625,-5.0781124191653334e-05,-5.7129803674372496e-05,-2.6368578365758778e-05,-1.4167368195620682e-05,3.4375,3.625
1.9140625,-5.371751502098117e-05,-5.6157757055008795e-05,-2.6864727161059e-05,-2.7350750470740846e-05,3.4375,3.625
1.91796875,-4.394642139925233e-05,-5.371751502098117e-05,-4.1992202674906555e-05,-3.125918791943238e-05,3.4375,3.625
1.921875,-4.883703095292593e-05,-5.1277272986953555e-05,-4.49285935042344e-05,-2.7836773780422693e-05,3.4375,3.625
1.92578125,-5.0781124191653334e-05,-5.371751502098117e-05,-2.7350750470740846e-05,-2.1488094297703538e-05,3.4375,3.625
1.9296875,-4.004810943617916e-05,-5.5185710435645094e-05,-2.4910508436713227e-05,-1.8075805644312224e-05,3.4375,3.625
1.93359375,-3.271725784847793e-05,-5.468956164034487e-05,-4.297437477988863e-05,-2.7350750470740846e-05,3.4375,3.625
1.9375,-4.248835147020678e-05,-5.5185710435645094e-05,-4.834088215762572e-05,-3.565364867780578e-05,3.4375,3.625
1.94140625,-3.125918791943238e-05,-3.174521122911423e-05,-1.8075805644312224e-05,-2.4910508436713227e-05,3.4375,3.625
1.9453125,-2.1002070988021684e-05,-2.7350750470740846e-05,-1.3185196090638612e-05,-2.7836773780422693e-05,3.4375,3.625
1.94921875,-3.125918791943238e-05,-3.223123453879609e-05,-1.7093633539330156e-05,-4.150617936522471e-05,3.4375,3.625
1.953125,-2.6864727161059e-05,-3.565364867780578e-05,-2.5882555056076924e-05,-3.8093890711833394e-05,3.4375,3.625
1.95703125,-2.4414359641412998e-05,-5.1277272986953555e-05,-3.320328115815978e-05,-3.662569529716947e-05,3.4375,3.625
1.9609375,-2.2956289712367464e-05,-4.150617936522471e-05,-1.1230977366292847e-05,-3.906593733119709e-05,3.4375,3.625
1.96484375,-2.1002070988021684e-05,-1.8561828953994065e-05,9.759154320592032e-06,-2.5396531746395077e-05,3.4375,3.625
1.96875,-3.8093890711833394e-05,-4.6882812228580166e-05,-1.6607610229648302e-05,-2.4414359641412998e-05,3.4375,3.625
1.97265625,-3.8579914021515245e-05,-6.152426443274587e-05,-3.8093890711833394e-05,-2.6368578365758778e-05,3.4375,3.625
1.9765625,-4.346039808957048e-05,-3.759774191653317e-05,-2.1002070988021684e-05,-2.8322797090104544e-05,3.4375,3.625
1.98046875,-5.7129803674372496e-05,-3.7111718606851315e-05,-6.8365166079194495e-06,-2.7350750470740846e-05,3.4375,3.625
1.984375,-4.785485884794387e-05,-4.6386663433279944e-05,-1.6607610229648302e-05,-2.247026640268561e-05,3.4375,3.625
1.98828125,-3.7111718606851315e-05,-3.3699429953460005e-05,-1.5139414814984376e-05,-1.0744954056610992e-05,3.4375,3.625
1.9921875,-2.1488094297703538e-05,-1.2213149471274916e-05,-2.4420558495460653e-06,5.850716871900488e-06,3.4375,3.625
1.99609375,-2.3928336331731158e-05,-2.3442313022049304e-05,-1.8075805644312224e-05,-1.7579656849011996e-05,3.4375,3.625
2.0,-4.297437477988863e-05,-3.906593733119709e-05,-3.125918791943238e-05,-3.565364867780578e-05,3.4375,3.625
2.00390625,-4.346039808957048e-05,-4.6882812228580166e-05,-4.1992202674906555e-05,-3.3699429953460005e-05,3.4375,3.625
2.0078125,-3.271725784847793e-05,-4.980907757228963e-05,-4.053413274586101e-05,-4.053413274586101e-05,3.4375,3.625
2.01171875,-2.1974117607385395e-05,-3.125918791943238e-05,-2.5396531746395077e-05,-2.8808820399786397e-05,3.4375,3.625
2.015625,-1.8075805644312224e-05,-3.565364867780578e-05,-3.4671476572823706e-05,-2.4414359641412998e-05,3.4375,3.625
2.01953125,-1.3681344885938827e-05,-1.8075805644312224e-05,-1.4167368195620682e-05,-3.7111718606851315e-05,3.4375,3.625
2.0234375,-1.904785226367592e-05,4.878670252536792e-06,5.850716871900488e-06,-4.150617936522471e-05,3.4375,3.625
2.02734375,-2.5396531746395077e-05,-3.424227954528135e-06,4.842094941634087e-07,-3.174521122911423e-05,3.4375,3.625
2.03125,-3.8093890711833394e-05,-2.247026640268561e-05,-8.790735332265227e-06,-2.2956289712367464e-05,3.4375,3.625
2.03515625,-2.5882555056076924e-05,-2.3442313022049304e-05,-1.4653391505302536e-05,-1.4167368195620682e-05,3.4375,3.625
2.0390625,-1.1727126161593062e-05,-1.4167368195620682e-05,-9.772907437247298e-06,-2.2956289712367464e-05,3.4375,3.625
2.04296875,-3.174521122911423e-05,-4.004810943617916e-05,-1.562543812466623e-05,-3.8093890711833394e-05,3.4375,3.625
2.046875,-4.346039808957048e-05,-5.468956164034487e-05,-2.2956289712367464e-05,-2.6864727161059e-05,3.4375,3.625
2.05078125,-4.102015605554286e-05,-4.102015605554286e-05,-1.5139414814984376e-05,-2.7836773780422693e-05,3.4375,3.625
2.0546875,-1.2699172780956758e-05,-1.4653391505302536e-05,-2.0516047678339844e-05,-4.1992202674906555e-05,3.4375,3.625
2.05859375,-1.2699172780956758e-05,-2.1488094297703538e-05,-3.662569529716947e-05,-4.5414616813916244e-05,3.4375,3.625
2.0625,-3.271725784847793e-05,-1.8075805644312224e-05,-2.8808820399786397e-05,-4.834088215762572e-05,3.4375,3.625
2.06640625,-3.271725784847793e-05,-9.286884127565442e-06,-2.4910508436713227e-05,-4.444257019455255e-05,3.4375,3.625
2.0703125,-3.0277015814450313e-05,-4.150617936522471e-05,-1.8561828953994065e-05,-3.613967198748762e-05,3.4375,3.625
2.07421875,-1.6607610229648302e-05,-2.6368578365758778e-05,4.878670252536792e-06,-8.304712022583374e-06,3.4375,3.625
2.078125,-1.3681344885938827e-05,-1.2213149471274916e-05,-9.772907437247298e-06,-8.790735332265227e-06,3.4375,3.625
2.08203125,-2.7836773780422693e-05,-1.0744954056610992e-05,-1.2213149471274916e-05,-4.004810943617916e-05,3.4375,3.625
2.0859375,-4.49285935042344e-05,-3.0277015814450313e-05,-1.0258930746929138e-05,-5.029510088197148e-05,3.4375,3.625
2.08984375,-5.1277272986953555e-05,-4.7368835538262016e-05,-1.4653391505302536e-05,-3.223123453879609e-05,3.4375,3.625
2.09375,-2.6864727161059e-05,-3.076303912413216e-05,-2.6864727161059e-05,-2.7350750470740846e-05,3.4375,3.625
2.09765625,-1.4167368195620682e-05,-2.6368578365758778e-05,-3.613967198748762e-05,-3.565364867780578e-05,3.4375,3.625
2.1015625,-3.076303912413216e-05,-4.004810943617916e-05,-2.2956289712367464e-05,-3.565364867780578e-05,3.4375,3.625
2.10546875,-3.8579914021515245e-05,-3.7111718606851315e-05,-2.1974117607385395e-05,-3.418545326314185e-05,3.4375,3.625
2.109375,-4.346039808957048e-05,-3.3699429953460005e-05,-5.378446678873899e-06,-3.5157499882505556e-05,3.4375,3.625
2.11328125,-5.1763296296635406e-05,-2.1002070988021684e-05,2.924451528191028e-06,-4.834088215762572e-05,3.4375,3.625
2.1171875,-3.076303912413216e-05,-1.8138155184459493e-09,9.759154320592032e-06,-2.8322797090104544e-05,3.4375,3.625
2.12109375,-2.7836773780422693e-05,-3.9102512642099895e-06,1.366759176928356e-05,-1.1230977366292847e-05,3.4375,3.625
2.125,-5.958017119401849e-05,-5.323149171129932e-05,-1.904785226367592e-05,-4.1992202674906555e-05,3.4375,3.625
2.12890625,-4.932305426260779e-05,-4.394642139925233e-05,-1.2213149471274916e-05,-4.59006401235981e-05,3.4375,3.625
2.1328125,-2.4414359641412998e-05,-1.562543812466623e-05,-5.378446678873899e-06,-3.8093890711833394e-05,3.4375,3.625
2.13671875,-3.0277015814450313e-05,-2.8808820399786397e-05,-3.418545326314185e-05,-4.248835147020678e-05,3.4375,3.625
2.140625,-4.6386663433279944e-05,-4.346039808957048e-05,-1.9533875573357775e-05,-4.150617936522471e-05,3.4375,3.625
2.14453125,-3.125918791943238e-05,-3.0277015814450313e-05,1.6593857112993036e-05,-4.004810943617916e-05,3.4375,3.625
2.1484375,-1.7579656849011996e-05,-9.772907437247298e-06,4.878670252536792e-06,-3.5157499882505556e-05,3.4375,3.625
2.15234375,-3.7111718606851315e-05,-1.0744954056610992e-05,-1.6121586919966445e-05,-4.297437477988863e-05,3.4375,3.625
2.15625,-3.271725784847793e-05,-3.0277015814450313e-05,-8.304712022583374e-06,-3.906593733119709e-05,3.4375,3.625
2.16015625,-3.320328115815978e-05,-3.320328115815978e-05,4.392646942854938e-06,-2.9790992504768466e-05,3.4375,3.625
2.1640625,-3.174521122911423e-05,-2.7836773780422693e-05,-4.97962610818675e-07,-3.174521122911423e-05,3.4375,3.625
2.16796875,-3.565364867780578e-05,-4.444257019455255e-05,-2.0516047678339844e-05,-3.174521122911423e-05,3.4375,3.625
2.171875,-5.5185710435645094e-05,-5.371751502098117e-05,-3.0277015814450313e-05,-2.7836773780422693e-05,3.4375,3.625
2.17578125,-3.174521122911423e-05,-2.3442313022049304e-05,-1.8075805644312224e-05,-3.759774191653317e-05,3.4375,3.625
2.1796875,-2.1002070988021684e-05,-3.076303912413216e-05,-7.332665403219678e-06,-5.323149171129932e-05,3.4375,3.625
2.18359375,-2.0019898883039616e-05,-2.247026640268561e-05,7.318912286564412e-06,-3.3699429953460005e-05,3.4375,3.625
2.1875,-2.3928336331731158e-05,-1.4167368195620682e-05,-2.0019898883039616e-05,-3.0277015814450313e-05,3.4375,3.625
2.19140625,-3.5157499882505556e-05,-3.418545326314185e-05,-4.49285935042344e-05,-6.494667857175556e-05,3.4375,3.625
2.1953125,-2.6864727161059e-05,-3.3699429953460005e-05,-3.223123453879609e-05,-5.859799908903641e-05,3.4375,3.625
2.19921875,-1.9533875573357775e-05,-5.029510088197148e-05,-3.759774191653317e-05,-6.103824112306403e-05,3.4375,3.625
2.203125,-4.39627457389183e-06,-2.0516047678339844e-05,-2.9304969195086612e-05,-7.910210746623943e-05,3.4375,3.625
2.20703125,4.878670252536792e-06,9.702328038452492e-07,-2.7836773780422693e-05,-8.643295905394066e-05,3.4375,3.625
2.2109375,-4.892423369192059e-06,-3.5157499882505556e-05,-5.0781124191653334e-05,-9.521175508506906e-05,3.4375,3.625
2.21484375,-4.39627457389183e-06,-5.958017119401849e-05,-6.250643653772795e-05,-0.00010545874653086139,3.4375,3.625
2.21875,4.392646942854938e-06,-4.053413274586101e-05,-6.446065526207372e-05,-0.00012353273835965516,3.4375,3.625
2.22265625,1.1227349735255941e-05,-1.2699172780956758e-05,-6.787294391546504e-05,-0.0001328076831860838,3.4375,3.625
2.2265625,-2.93820464484628e-06,-3.5157499882505556e-05,-7.080933474479287e-05,-0.00013476190191042957,3.4375,3.625
2.23046875,-3.9102512642099895e-06,-5.323149171129932e-05,-7.226740467383843e-05,-0.00013329370649576566,3.4375,3.625
2.234375,3.896498147554723e-06,-2.7836773780422693e-05,-6.397463195239187e-05,-0.0001328076831860838,3.4375,3.625
2.23828125,1.4153615078965414e-05,-2.1488094297703538e-05,-4.346039808957048e-05,-0.00011620188677195393,3.4375,3.625
2.2421875,2.1970489976348487e-05,-2.3928336331731158e-05,-4.785485884794387e-05,-0.00010888116066987107,3.4375,3.625
2.24609375,1.4562561135271038e-06,-5.864469988555754e-06,-4.932305426260779e-05,-0.0001249908082887007,3.4375,3.625
2.25,-4.97962610818675e-07,9.702328038452492e-07,-3.4671476572823706e-05,-0.000110349356084535,3.4375,3.625
2.25390625,1.6593857112993036e-05,-9.286884127565442e-06,-5.420353833066303e-05,-0.00010839513736018923,3.4375,3.625
2.2578125,1.1227349735255941e-05,-1.1727126161593062e-05,-5.6157757055008795e-05,-0.00012303658956435494,3.4375,3.625
2.26171875,-9.839859205005154e-07,-1.1727126161593062e-05,-3.271725784847793e-05,-0.00010888116066987107,3.4375,3.625
2.265625,-7.332665403219678e-06,-1.2213149471274916e-05,-3.4671476572823706e-05,-0.00010156043456778823,3.4375,3.625
2.26953125,-1.1230977366292847e-05,-2.1974117607385395e-05,-5.958017119401849e-05,-0.00010741296525520715,3.4375,3.625
2.2734375,-1.0744954056610992e-05,-1.4653391505302536e-05,-4.59006401235981e-05,-8.838717777828643e-05,3.4375,3.625
2.27734375,-4.39627457389183e-06,-3.9102512642099895e-06,-2.8322797090104544e-05,-7.813006084687573e-05,3.4375,3.625
2.28125,-7.332665403219678e-06,-1.7093633539330156e-05,-2.6864727161059e-05,-7.959825626153965e-05,3.4375,3.625
2.28515625,-1.5139414814984376e-05,-1.0258930746929138e-05,-1.4167368195620682e-05,-6.397463195239187e-05,3.4375,3.625
2.2890625,-2.8322797090104544e-05,-2.5396531746395077e-05,-2.2956289712367464e-05,-6.98271626398108e-05,3.4375,3.625
2.29296875,-4.102015605554286e-05,-4.1992202674906555e-05,-3.8579914021515245e-05,-8.203849829556727e-05,3.4375,3.625
2.296875,-1.8075805644312224e-05,-7.818688712901518e-06,-3.320328115815978e-05,-7.129535805447473e-05,3.4375,3.625
2.30078125,-1.7093633539330156e-05,-1.4167368195620682e-05,-2.7350750470740846e-05,-7.470764670786604e-05,3.4375,3.625
2.3046875,-3.5157499882505556e-05,-3.125918791943238e-05,-2.7836773780422693e-05,-8.54507869489586e-05,3.4375,3.625
2.30859375,-3.0277015814450313e-05,-1.8561828953994065e-05,-2.6864727161059e-05,-7.031318594949266e-05,3.4375,3.625
2.3125,-1.2699172780956758e-05,-1.4700092301823701e-06,-1.6607610229648302e-05,-5.1763296296635406e-05,3.4375,3.625
2.31640625,-1.6607610229648302e-05,-3.424227954528135e-06,-1.7579656849011996e-05,-6.0552217813382184e-05,3.4375,3.625
2.3203125,-2.7350750470740846e-05,-2.247026640268561e-05,-2.9304969195086612e-05,-7.373560008850235e-05,3.4375,3.625
2.32421875,-1.2213149471274916e-05,-9.772907437247298e-06,-1.562543812466623e-05,-6.0552217813382184e-05,3.4375,3.625
2.328125,-1.1727126161593062e-05,-1.1230977366292847e-05,-1.1230977366292847e-05,-5.371751502098117e-05,3.4375,3.625
2.33203125,-2.3442313022049304e-05,-2.6368578365758778e-05,-3.8093890711833394e-05,-6.787294391546504e-05,3.4375,3.625
2.3359375,-3.5157499882505556e-05,-2.5882555056076924e-05,-3.320328115815978e-05,-6.738692060578318e-05,3.4375,3.625
2.33984375,-3.223123453879609e-05,-2.247026640268561e-05,-1.1230977366292847e-05,-5.1763296296635406e-05,3.4375,3.625
2.34375,-2.4910508436713227e-05,-2.9790992504768466e-05,-1.2699172780956758e-05,-5.029510088197148e-05,3.4375,3.625
2.34765625,-2.5882555056076924e-05,-2.9790992504768466e-05,-1.1230977366292847e-05,-5.420353833066303e-05,3.4375,3.625
2.3515625,-3.125918791943238e-05,-2.4414359641412998e-05,-9.772907437247298e-06,-5.323149171129932e-05,3.4375,3.625
2.35546875,-4.346039808957048e-05,-3.8579914021515245e-05,-2.0516047678339844e-05,-6.152426443274587e-05,3.4375,3.625
2.359375,-3.076303912413216e-05,-3.0277015814450313e-05,-8.790735332265227e-06,-5.029510088197148e-05,3.4375,3.625
2.36328125,-1.7579656849011996e-05,-3.613967198748762e-05,-8.304712022583374e-06,-5.1277272986953555e-05,3.4375,3.625
2.3671875,-2.8322797090104544e-05,-5.664378036469064e-05,-2.7350750470740846e-05,-6.591872519111927e-05,3.4375,3.625
2.37109375,-3.174521122911423e-05,-5.029510088197148e-05,-2.5882555056076924e-05,-5.664378036469064e-05,3.4375,3.625
2.375,-2.6368578365758778e-05,-4.297437477988863e-05,-1.8561828953994065e-05,-5.468956164034487e-05,3.4375,3.625
2.37890625,-2.1974117607385395e-05,-2.6864727161059e-05,-2.93820464484628e-06,-4.6386663433279944e-05,3.4375,3.625
2.3828125,-2.5396531746395077e-05,-2.7836773780422693e-05,-2.4420558495460653e-06,-4.053413274586101e-05,3.4375,3.625
2.38671875,-3.7111718606851315e-05,-4.1992202674906555e-05,-1.2699172780956758e-05,-4.883703095292593e-05,3.4375,3.625
2.390625,-3.565364867780578e-05,-4.004810943617916e-05,-2.3928336331731158e-05,-4.297437477988863e-05,3.4375,3.625
2.39453125,-3.320328115815978e-05,-4.444257019455255e-05,-3.4671476572823706e-05,-4.59006401235981e-05,3.4375,3.625
2.3984375,-3.613967198748762e-05,-4.932305426260779e-05,-2.9790992504768466e-05,-5.371751502098117e-05,3.4375,3.625
2.40234375,-3.565364867780578e-05,-4.6386663433279944e-05,-1.6607610229648302e-05,-5.468956164034487e-05,3.4375,3.625
2.40625,-3.271725784847793e-05,-4.297437477988863e-05,-1.1727126161593062e-05,-4.444257019455255e-05,3.4375,3.625
2.41015625,-3.662569529716947e-05,-5.762595246967271e-05,-3.662569529716947e-05,-4.297437477988863e-05,3.4375,3.625
2.4140625,-3.565364867780578e-05,-6.64148739864195e-05,-3.662569529716947e-05,-4.932305426260779e-05,3.4375,3.625
2.41796875,-3.271725784847793e-05,-5.468956164034487e-05,-2.6368578365758778e-05,-5.664378036469064e-05,3.4375,3.625
2.421875,-2.3928336331731158e-05,-4.004810943617916e-05,-3.125918791943238e-05,-5.908402239871826e-05,3.4375,3.625
2.42578125,-1.8075805644312224e-05,-5.1277272986953555e-05,-3.0277015814450313e-05,-6.543270188143742e-05,3.4375,3.625
2.4296875,-1.904785226367592e-05,-4.883703095292593e-05,-3.125918791943238e-05,-7.42216233981842e-05,3.4375,3.625
2.43359375,-5.864469988555754e-06,-4.150617936522471e-05,-3.5157499882505556e-05,-6.836909271076526e-05,3.4375,3.625
2.4375,-1.6607610229648302e-05,-5.323149171129932e-05,-3.418545326314185e-05,-6.934113933012895e-05,3.4375,3.625
2.44140625,-4.102015605554286e-05,-5.811197577935456e-05,-4.1992202674906555e-05,-7.470764670786604e-05,3.4375,3.625
2.4453125,-3.3699429953460005e-05,-5.7129803674372496e-05,-5.371751502098117e-05,-6.787294391546504e-05,3.4375,3.625
2.44921875,-2.2956289712367464e-05,-4.346039808957048e-05,-4.980907757228963e-05,-5.958017119401849e-05,3.4375,3.625
2.453125,-3.076303912413216e-05,-2.9304969195086612e-05,-3.320328115815978e-05,-4.6882812228580166e-05,3.4375,3.625
2.45703125,-4.004810943617916e-05,-3.0277015814450313e-05,-2.6864727161059e-05,-5.0781124191653334e-05,3.4375,3.625
2.4609375,-3.418545326314185e-05,-3.174521122911423e-05,-1.8561828953994065e-05,-5.468956164034487e-05,3.4375,3.625
2.46484375,-2.0516047678339844e-05,-2.8808820399786397e-05,-1.3681344885938827e-05,-5.029510088197148e-05,3.4375,3.625
2.46875,-2.4910508436713227e-05,-3.565364867780578e-05,-2.5882555056076924e-05,-5.6157757055008795e-05,3.4375,3.625
2.47265625,-3.565364867780578e-05,-4.883703095292593e-05,-3.613967198748762e-05,-5.908402239871826e-05,3.4375,3.625
2.4765625,-3.955196064087894e-05,-3.906593733119709e-05,-2.0019898883039616e-05,-5.5185710435645094e-05,3.4375,3.625
2.48046875,-3.0277015814450313e-05,-3.0277015814450313e-05,-8.790735332265227e-06,-5.27353429159991e-05,3.4375,3.625
2.484375,-2.1002070988021684e-05,-3.418545326314185e-05,-1.904785226367592e-05,-5.5185710435645094e-05,3.4375,3.625
2.48828125,-2.8808820399786397e-05,-4.444257019455255e-05,-3.4671476572823706e-05,-5.1277272986953555e-05,3.4375,3.625
2.4921875,-1.904785226367592e-05,-4.59006401235981e-05,-2.7350750470740846e-05,-4.102015605554286e-05,3.4375,3.625
2.49609375,-2.7350750470740846e-05,-3.8579914021515245e-05,-1.7093633539330156e-05,-3.955196064087894e-05,3.4375,3.625
2.5,-3.8579914021515245e-05,-3.0277015814450313e-05,-2.0019898883039616e-05,-4.004810943617916e-05,3.4375,3.625
2.50390625,-2.9304969195086612e-05,-2.9790992504768466e-05,-2.0019898883039616e-05,-5.029510088197148e-05,3.4375,3.625
2.5078125,-2.8322797090104544e-05,-3.320328115815978e-05,-2.6368578365758778e-05,-5.811197577935456e-05,3.4375,3.625
2.51171875,-3.125918791943238e-05,-3.271725784847793e-05,-4.1992202674906555e-05,-5.1763296296635406e-05,3.4375,3.625
2.515625,-3.759774191653317e-05,-4.297437477988863e-05,-4.5414616813916244e-05,-4.7368835538262016e-05,3.4375,3.625
2.51953125,-3.613967198748762e-05,-5.664378036469064e-05,-4.297437477988863e-05,-5.7129803674372496e-05,3.4375,3.625
2.5234375,-3.906593733119709e-05,-5.1277272986953555e-05,-4.7368835538262016e-05,-6.0552217813382184e-05,3.4375,3.625
2.52734375,-4.834088215762572e-05,-3.759774191653317e-05,-5.1277272986953555e-05,-5.2249319606317256e-05,3.4375,3.625
2.53125,-4.444257019455255e-05,-4.6882812228580166e-05,-5.7129803674372496e-05,-5.0781124191653334e-05,3.4375,3.625
2.53515625,-3.0277015814450313e-05,-5.0781124191653334e-05,-6.202041322804609e-05,-4.6882812228580166e-05,3.4375,3.625
2.5390625,-2.6864727161059e-05,-4.59006401235981e-05,-5.029510088197148e-05,-4.004810943617916e-05,3.4375,3.625
2.54296875,-3.8093890711833394e-05,-4.444257019455255e-05,-6.347848315709165e-05,-4.444257019455255e-05,3.4375,3.625
2.546875,-4.102015605554286e-05,-4.834088215762572e-05,-0.00028905405176318,-6.103824112306403e-05,3.4375,3.625
2.55078125,-3.076303912413216e-05,-5.7129803674372496e-05,-0.00042088787451438164,-7.129535805447473e-05,3.4375,3.625
2.5546875,-3.223123453879609e-05,-6.494667857175556e-05,-0.0003637598846555276,-6.397463195239187e-05,3.4375,3.625
2.55859375,-2.9790992504768466e-05,-5.2249319606317256e-05,-0.00031884323045243,-5.5185710435645094e-05,3.4375,3.625
2.5625,-2.8322797090104544e-05,-4.248835147020678e-05,-0.0002646415059372854,-5.371751502098117e-05,3.4375,3.625
2.56640625,-4.1992202674906555e-05,-5.811197577935456e-05,-0.00023534847604333563,-5.27353429159991e-05,3.4375,3.625
2.5703125,-3.613967198748762e-05,-4.6386663433279944e-05,-0.0002211829216632334,-3.955196064087894e-05,3.4375,3.625
2.57421875,-3.125918791943238e-05,-4.150617936522471e-05,-0.00020410122742504005,-4.6386663433279944e-05,3.4375,3.625
2.578125,-3.8093890711833394e-05,-3.7111718606851315e-05,-0.0001860272355962463,-5.664378036469064e-05,3.4375,3.625
2.58203125,-3.906593733119709e-05,-3.271725784847793e-05,-0.0001635689084946975,-4.5414616813916244e-05,3.4375,3.625
2.5859375,-3.320328115815978e-05,-4.883703095292593e-05,-0.00014989950290989547,-4.004810943617916e-05,3.4375,3.625
2.58984375,-4.1992202674906555e-05,-5.1763296296635406e-05,-0.00014891733080491342,-4.248835147020678e-05,3.4375,3.625
2.59375,-4.346039808957048e-05,-4.1992202674906555e-05,-0.00014452287004654003,-4.6882812228580166e-05,3.4375,3.625
2.59765625,-2.7836773780422693e-05,-3.320328115815978e-05,-0.00013671612063477533,-4.883703095292593e-05,3.4375,3.625
2.6015625,-5.864469988555754e-06,-2.8322797090104544e-05,-0.00011424766804760816,-3.125918791943238e-05,3.4375,3.625
2.60546875,-9.286884127565442e-06,-2.6864727161059e-05,-0.00010204645787747008,-2.5882555056076924e-05,3.4375,3.625
2.609375,-2.8808820399786397e-05,-2.9790992504768466e-05,-0.00010545874653086139,-4.59006401235981e-05,3.4375,3.625
2.61328125,-3.271725784847793e-05,-4.102015605554286e-05,-0.00012548695708400093,-5.5185710435645094e-05,3.4375,3.625
2.6171875,-3.5157499882505556e-05,-3.906593733119709e-05,-0.00011962430091096362,-4.932305426260779e-05,3.4375,3.625
2.62109375,-3.759774191653317e-05,-2.9790992504768466e-05,-9.033127101701383e-05,-3.8579914021515245e-05,3.4375,3.625
2.625,-2.8808820399786397e-05,-3.4671476572823706e-05,-9.960621584344245e-05,-3.418545326314185e-05,3.4375,3.625
2.62890625,-3.613967198748762e-05,-3.613967198748762e-05,-9.521175508506906e-05,-3.7111718606851315e-05,3.4375,3.625
2.6328125,-4.297437477988863e-05,-3.271725784847793e-05,-8.105632619058521e-05,-3.906593733119709e-05,3.4375,3.625
2.63671875,-1.8075805644312224e-05,-2.3442313022049304e-05,-6.98271626398108e-05,-3.125918791943238e-05,3.4375,3.625
2.640625,-2.93820464484628e-06,-3.174521122911423e-05,-7.226740467383843e-05,-2.6368578365758778e-05,3.4375,3.625
2.64453125,-2.8322797090104544e-05,-3.955196064087894e-05,-7.42216233981842e-05,-3.7111718606851315e-05,3.4375,3.625
2.6484375,-3.8093890711833394e-05,-2.9790992504768466e-05,-6.88551160204471e-05,-4.980907757228963e-05,3.4375,3.625
2.65234375,-2.7350750470740846e-05,-4.248835147020678e-05,-8.057030288090335e-05,-4.6882812228580166e-05,3.4375,3.625
2.65625,-3.174521122911423e-05,-4.932305426260779e-05,-7.568981881284812e-05,-4.248835147020678e-05,3.4375,3.625
2.66015625,-2.5882555056076924e-05,-4.444257019455255e-05,-7.129535805447473e-05,-3.565364867780578e-05,3.4375,3.625
2.6640625,-1.1230977366292847e-05,-3.125918791943238e-05,-6.0552217813382184e-05,-2.0516047678339844e-05,3.4375,3.625
2.66796875,-2.0019898883039616e-05,-2.4910508436713227e-05,-5.859799908903641e-05,-2.5882555056076924e-05,3.4375,3.625
2.671875,-2.5882555056076924e-05,-2.8808820399786397e-05,-7.470764670786604e-05,-3.320328115815978e-05,3.4375,3.625
2.67578125,-3.8093890711833394e-05,-2.6864727161059e-05,-7.373560008850235e-05,-2.3442313022049304e-05,3.4375,3.625
2.6796875,-4.346039808957048e-05,-2.7350750470740846e-05,-6.543270188143742e-05,-2.3928336331731158e-05,3.4375,3.625
2.68359375,-2.9790992504768466e-05,-3.0277015814450313e-05,-5.6157757055008795e-05,-3.613967198748762e-05,3.4375,3.625
2.6875,-2.6864727161059e-05,-3.223123453879609e-05,-4.6386663433279944e-05,-2.6864727161059e-05,3.4375,3.625
2.69140625,-1.6121586919966445e-05,-2.7350750470740846e-05,-4.932305426260779e-05,-1.7093633539330156e-05,3.4375,3.625
2.6953125,-2.6368578365758778e-05,-3.418545326314185e-05,-5.7129803674372496e-05,-2.9790992504768466e-05,3.4375,3.625
2.69921875,-4.444257019455255e-05,-4.102015605554286e-05,-5.664378036469064e-05,-4.1992202674906555e-05,3.4375,3.625
2.703125,-4.297437477988863e-05,-5.1763296296635406e-05,-6.494667857175556e-05,-4.444257019455255e-05,3.4375,3.625
2.70703125,-4.59006401235981e-05,-4.59006401235981e-05,-5.371751502098117e-05,-3.271725784847793e-05,3.4375,3.625
2.7109375,-4.248835147020678e-05,-4.150617936522471e-05,-5.0781124191653334e-05,-2.9790992504768466e-05,3.4375,3.625
2.71484375,-3.906593733119709e-05,-5.1277272986953555e-05,-6.446065526207372e-05,-3.759774191653317e-05,3.4375,3.625
2.71875,-4.297437477988863e-05,-4.6882812228580166e-05,-5.859799908903641e-05,-4.004810943617916e-05,3.4375,3.625
2.72265625,-3.759774191653317e-05,-4.053413274586101e-05,-4.49285935042344e-05,-3.955196064087894e-05,3.4375,3.625
2.7265625,-3.662569529716947e-05,-4.394642139925233e-05,-4.053413274586101e-05,-3.7111718606851315e-05,3.4375,3.625
2.73046875,-4.883703095292593e-05,-4.6386663433279944e-05,-4.1992202674906555e-05,-2.7350750470740846e-05,3.4375,3.625
2.734375,-4.297437477988863e-05,-3.418545326314185e-05,-3.7111718606851315e-05,-1.6121586919966445e-05,3.4375,3.625
2.73828125,-4.1992202674906555e-05,-4.297437477988863e-05,-4.980907757228963e-05,-2.8322797090104544e-05,3.4375,3.625
2.7421875,-4.980907757228963e-05,-5.762595246967271e-05,-5.27353429159991e-05,-4.297437477988863e-05,3.4375,3.625
2.74609375,-5.029510088197148e-05,-5.958017119401849e-05,-4.1992202674906555e-05,-4.6882812228580166e-05,3.4375,3.625
2.75,-4.6882812228580166e-05,-5.6157757055008795e-05,-4.932305426260779e-05,-3.418545326314185e-05,3.4375,3.625
2.75390625,-3.8579914021515245e-05,-4.444257019455255e-05,-5.468956164034487e-05,-2.5882555056076924e-05,3.4375,3.625
2.7578125,-3.4671476572823706e-05,-3.955196064087894e-05,-4.980907757228963e-05,-2.1974117607385395e-05,3.4375,3.625
2.76171875,-3.955196064087894e-05,-4.980907757228963e-05,-5.323149171129932e-05,-2.4910508436713227e-05,3.4375,3.625
2.765625,-3.8093890711833394e-05,-5.468956164034487e-05,-6.0552217813382184e-05,-3.662569529716947e-05,3.4375,3.625
2.76953125,-4.248835147020678e-05,-5.468956164034487e-05,-5.6157757055008795e-05,-3.223123453879609e-05,3.4375,3.625
2.7734375,-4.102015605554286e-05,-4.59006401235981e-05,-5.27353429159991e-05,-1.6121586919966445e-05,3.4375,3.625
2.77734375,-3.906593733119709e-05,-5.0781124191653334e-05,-5.6157757055008795e-05,-9.772907437247298e-06,3.4375,3.625
2.78125,-3.125918791943238e-05,-4.346039808957048e-05,-3.955196064087894e-05,-1.5139414814984376e-05,3.4375,3.625
2.78515625,-2.8808820399786397e-05,-4.49285935042344e-05,-3.662569529716947e-05,-2.5882555056076924e-05,3.4375,3.625
2.7890625,-3.955196064087894e-05,-4.59006401235981e-05,-3.0277015814450313e-05,-3.565364867780578e-05,3.4375,3.625
2.79296875,-2.1974117607385395e-05,-3.7111718606851315e-05,-9.286884127565442e-06,-2.247026640268561e-05,3.4375,3.625
2.796875,-1.6607610229648302e-05,-5.0781124191653334e-05,-1.8561828953994065e-05,-1.8561828953994065e-05,3.4375,3.625
2.80078125,-3.565364867780578e-05,-5.5185710435645094e-05,-1.2213149471274916e-05,-3.8093890711833394e-05,3.4375,3.625
2.8046875,-4.102015605554286e-05,-3.906593733119709e-05,1.6593857112993036e-05,-3.418545326314185e-05,3.4375,3.625
2.80859375,-3.320328115815978e-05,-3.613967198748762e-05,2.97772393881132e-05,-2.247026640268561e-05,3.4375,3.625
2.8125,-3.955196064087894e-05,-3.3699429953460005e-05,2.831916945906765e-05,-3.174521122911423e-05,3.4375,3.625
2.81640625,-3.906593733119709e-05,-3.271725784847793e-05,3.563989556115051e-05,-4.297437477988863e-05,3.4375,3.625
2.8203125,-3.418545326314185e-05,-3.125918791943238e-05,4.735508242160677e-05,-4.932305426260779e-05,3.4375,3.625
2.82421875,-3.3699429953460005e-05,-2.6368578365758778e-05,4.638303580224305e-05,-5.2249319606317256e-05,3.4375,3.625
2.828125,-3.759774191653317e-05,-2.3928336331731158e-05,5.908039476768138e-05,-4.1992202674906555e-05,3.4375,3.625
2.83203125,-4.248835147020678e-05,-2.7350750470740846e-05,7.42179957671473e-05,-3.418545326314185e-05,3.4375,3.625
2.8359375,-2.4910508436713227e-05,-4.150617936522471e-05,7.958450314488439e-05,-2.9790992504768466e-05,3.4375,3.625
2.83984375,-1.562543812466623e-05,-4.444257019455255e-05,9.179583880064085e-05,-2.4910508436713227e-05,3.4375,3.625
2.84375,-2.3442313022049304e-05,-4.1992202674906555e-05,0.00010058476031738763,-2.8322797090104544e-05,3.4375,3.625
2.84765625,-2.3442313022049304e-05,-3.7111718606851315e-05,0.00010107078362706949,-3.0277015814450313e-05,3.4375,3.625
2.8515625,-2.1974117607385395e-05,-2.9790992504768466e-05,0.0001000886115220874,-2.9304969195086612e-05,3.4375,3.625
2.85546875,-3.076303912413216e-05,-4.346039808957048e-05,0.0001000886115220874,-2.4414359641412998e-05,3.4375,3.625
2.859375,-3.662569529716947e-05,-4.59006401235981e-05,9.764836948805977e-05,-2.9790992504768466e-05,3.4375,3.625
2.86328125,-3.125918791943238e-05,-3.4671476572823706e-05,9.764836948805977e-05,-3.8579914021515245e-05,3.4375,3.625
2.8671875,-3.759774191653317e-05,-4.053413274586101e-05,9.373993203936826e-05,-3.418545326314185e-05,3.4375,3.625
2.87109375,-4.346039808957048e-05,-4.004810943617916e-05,8.251076848859387e-05,-3.613967198748762e-05,3.4375,3.625
2.875,-3.8093890711833394e-05,-3.662569529716947e-05,7.861245652552069e-05,-3.223123453879609e-05,3.4375,3.625
2.87890625,-3.662569529716947e-05,-3.759774191653317e-05,7.861245652552069e-05,-2.0019898883039616e-05,3.4375,3.625
2.8828125,-3.271725784847793e-05,-2.9790992504768466e-05,6.835533959411e-05,-3.271725784847793e-05,3.4375,3.625
2.88671875,-2.8322797090104544e-05,-3.906593733119709e-05,5.614400393835353e-05,-4.1992202674906555e-05,3.4375,3.625
2.890625,-2.8808820399786397e-05,-4.5414616813916244e-05,3.9548333009842054e-05,-2.4414359641412998e-05,3.4375,3.625
2.89453125,-3.125918791943238e-05,-4.980907757228963e-05,3.173145811245896e-05,-2.1974117607385395e-05,3.4375,3.625
2.8984375,-3.320328115815978e-05,-4.834088215762572e-05,3.9548333009842054e-05,-1.904785226367592e-05,3.4375,3.625
2.90234375,-2.8808820399786397e-05,-2.9790992504768466e-05,3.710809097581443e-05,-2.247026640268561e-05,3.4375,3.625
2.90625,-2.1002070988021684e-05,-2.4910508436713227e-05,2.5878927425040033e-05,-3.076303912413216e-05,3.4375,3.625
2.91015625,-2.4414359641412998e-05,-2.4910508436713227e-05,2.8805192768749506e-05,-1.6607610229648302e-05,3.4375,3.625
2.9140625,-2.9304969195086612e-05,-2.247026640268561e-05,1.85480758373388e-05,-1.9533875573357775e-05,3.4375,3.625
2.91796875,-4.6386663433279944e-05,-3.0277015814450313e-05,2.924451528191028e-06,-4.1992202674906555e-05,3.4375,3.625
2.921875,-3.8093890711833394e-05,-3.3699429953460005e-05,3.896498147554723e-06,-4.102015605554286e-05,3.4375,3.625
2.92578125,-2.247026640268561e-05,-4.053413274586101e-05,4.842094941634087e-07,-4.102015605554286e-05,3.4375,3.625
2.9296875,-3.4671476572823706e-05,-4.004810943617916e-05,-1.4700092301823701e-06,-4.004810943617916e-05,3.4375,3.625
2.93359375,-3.759774191653317e-05,-3.3699429953460005e-05,4.842094941634087e-07,-3.418545326314185e-05,3.4375,3.625
2.9375,-2.9790992504768466e-05,-3.0277015814450313e-05,-3.9102512642099895e-06,-3.955196064087894e-05,3.4375,3.625
2.94140625,-1.8561828953994065e-05,-9.286884127565442e-06,1.1713373044937796e-05,-2.7836773780422693e-05,3.4375,3.625
2.9453125,-2.6864727161059e-05,-2.1002070988021684e-05,-5.864469988555754e-06,-3.125918791943238e-05,3.4375,3.625
2.94921875,-3.955196064087894e-05,-3.076303912413216e-05,-2.3442313022049304e-05,-4.49285935042344e-05,3.4375,3.625
2.953125,-4.7368835538262016e-05,-2.6864727161059e-05,-1.8075805644312224e-05,-3.174521122911423e-05,3.4375,3.625
2.95703125,-3.8579914021515245e-05,-3.320328115815978e-05,-1.7093633539330156e-05,-2.0516047678339844e-05,3.4375,3.625
2.9609375,-2.6864727161059e-05,-4.150617936522471e-05,-2.0019898883039616e-05,-2.7836773780422693e-05,3.4375,3.625
2.96484375,-3.4671476572823706e-05,-3.8093890711833394e-05,-2.1974117607385395e-05,-2.7836773780422693e-05,3.4375,3.625
2.96875,-3.565364867780578e-05,-3.3699429953460005e-05,-2.3442313022049304e-05,-2.5882555056076924e-05,3.4375,3.625
2.97265625,-3.320328115815978e-05,-4.102015605554286e-05,-2.0516047678339844e-05,-2.3442313022049304e-05,3.4375,3.625
2.9765625,-3.174521122911423e-05,-3.125918791943238e-05,-1.4653391505302536e-05,-1.7579656849011996e-05,3.4375,3.625
2.98046875,-3.418545326314185e-05,-1.8561828953994065e-05,-2.247026640268561e-05,-2.3928336331731158e-05,3.4375,3.625
2.984375,-3.8579914021515245e-05,-2.2956289712367464e-05,-2.0516047678339844e-05,-3.174521122911423e-05,3.4375,3.625
2.98828125,-3.565364867780578e-05,-2.247026640268561e-05,-2.1974117607385395e-05,-3.3699429953460005e-05,3.4375,3.625
2.9921875,-3.613967198748762e-05,-1.6607610229648302e-05,-2.1002070988021684e-05,-2.9790992504768466e-05,3.4375,3.625
2.99609375,-5.323149171129932e-05,-1.8561828953994065e-05,-2.6864727161059e-05,-2.8808820399786397e-05,3.4375,3.625
3.0,-3.5157499882505556e-05,-5.864469988555754e-06,-1.8561828953994065e-05,-2.7350750470740846e-05,3.4375,3.625
3.00390625,-7.332665403219678e-06,-1.0258930746929138e-05,-2.6864727161059e-05,-2.3442313022049304e-05,3.4375,3.625
3.0078125,-3.271725784847793e-05,-5.5185710435645094e-05,-5.1277272986953555e-05,-3.7111718606851315e-05,3.4375,3.625
3.01171875,-4.980907757228963e-05,-4.6882812228580166e-05,-4.6882812228580166e-05,-4.053413274586101e-05,3.4375,3.625
3.015625,-3.759774191653317e-05,-1.4167368195620682e-05,-3.271725784847793e-05,-3.8093890711833394e-05,3.4375,3.625
3.01953125,-3.125918791943238e-05,-3.271725784847793e-05,-2.6368578365758778e-05,-3.223123453879609e-05,3.4375,3.625
3.0234375,-3.8579914021515245e-05,-4.150617936522471e-05,-3.223123453879609e-05,-2.1488094297703538e-05,3.4375,3.625
3.02734375,-2.4414359641412998e-05,-1.5139414814984376e-05,-4.883703095292593e-05,-4.102015605554286e-05,3.4375,3.625
3.03125,-1.904785226367592e-05,-2.0516047678339844e-05,-5.0781124191653334e-05,-4.883703095292593e-05,3.4375,3.625
3.03515625,-4.1992202674906555e-05,-6.494667857175556e-05,-6.299245984740981e-05,-2.9304969195086612e-05,3.4375,3.625
3.0390625,-4.297437477988863e-05,-4.6882812228580166e-05,-5.27353429159991e-05,-1.904785226367592e-05,3.4375,3.625
3.04296875,-3.0277015814450313e-05,-2.93820464484628e-06,-4.102015605554286e-05,-3.662569529716947e-05,3.4375,3.625
3.046875,-3.5157499882505556e-05,-1.562543812466623e-05,-4.6882812228580166e-05,-4.394642139925233e-05,3.4375,3.625
3.05078125,-3.662569529716947e-05,-2.9304969195086612e-05,-4.49285935042344e-05,-3.174521122911423e-05,3.4375,3.625
3.0546875,-3.565364867780578e-05,-3.418545326314185e-05,-5.6157757055008795e-05,-3.906593733119709e-05,3.4375,3.625
3.05859375,-2.2956289712367464e-05,-1.2699172780956758e-05,-5.323149171129932e-05,-4.053413274586101e-05,3.4375,3.625
3.0625,-2.4910508436713227e-05,-1.2699172780956758e-05,-4.834088215762572e-05,-3.3699429953460005e-05,3.4375,3.625
3.06640625,-4.6882812228580166e-05,-6.64148739864195e-05,-6.787294391546504e-05,-4.102015605554286e-05,3.4375,3.625
3.0703125,-3.955196064087894e-05,-6.446065526207372e-05,-8.00842795712215e-05,-4.346039808957048e-05,3.4375,3.625
3.07421875,-3.5157499882505556e-05,-2.2956289712367464e-05,-5.5671733745326945e-05,-3.418545326314185e-05,3.4375,3.625
3.078125,-4.444257019455255e-05,-2.8808820399786397e-05,-4.5414616813916244e-05,-2.5882555056076924e-05,3.4375,3.625
3.08203125,-4.444257019455255e-05,-4.59006401235981e-05,-5.323149171129932e-05,-2.4414359641412998e-05,3.4375,3.625
3.0859375,-2.5396531746395077e-05,-3.271725784847793e-05,-5.420353833066303e-05,-3.955196064087894e-05,3.4375,3.625
3.08984375,-2.1974117607385395e-05,-2.7350750470740846e-05,-6.103824112306403e-05,-4.297437477988863e-05,3.4375,3.625
3.09375,-2.8808820399786397e-05,-4.1992202674906555e-05,-7.42216233981842e-05,-3.565364867780578e-05,3.4375,3.625
3.09765625,-3.418545326314185e-05,-6.543270188143742e-05,-8.643295905394066e-05,-3.320328115815978e-05,3.4375,3.625
3.1015625,-2.7836773780422693e-05,-5.029510088197148e-05,-7.226740467383843e-05,-1.904785226367592e-05,3.4375,3.625
3.10546875,-2.3442313022049304e-05,-1.9533875573357775e-05,-6.64148739864195e-05,-3.565364867780578e-05,3.4375,3.625
3.109375,-2.9304969195086612e-05,-4.1992202674906555e-05,-8.789102898298621e-05,-5.420353833066303e-05,3.4375,3.625
3.11328125,-3.759774191653317e-05,-5.5185710435645094e-05,-8.44787403295949e-05,-3.4671476572823706e-05,3.4375,3.625
3.1171875,-4.346039808957048e-05,-3.320328115815978e-05,-6.88551160204471e-05,-2.0019898883039616e-05,3.4375,3.625
3.12109375,-3.906593733119709e-05,-2.8322797090104544e-05,-6.787294391546504e-05,-3.418545326314185e-05,3.4375,3.625
3.125,-3.7111718606851315e-05,-4.248835147020678e-05,-8.887320108796829e-05,-3.8579914021515245e-05,3.4375,3.625
3.12890625,-4.59006401235981e-05,-5.762595246967271e-05,-0.00010156043456778823,-2.6368578365758778e-05,3.4375,3.625
3.1328125,-5.5671733745326945e-05,-7.861608415655758e-05,-0.00010741296525520715,-3.320328115815978e-05,3.4375,3.625
3.13671875,-3.955196064087894e-05,-6.347848315709165e-05,-0.00010644091863584345,-4.102015605554286e-05,3.4375,3.625
3.140625,-2.2956289712367464e-05,-5.762595246967271e-05,-9.56977783947509e-05,-2.9790992504768466e-05,3.4375,3.625
3.14453125,-4.248835147020678e-05,-7.373560008850235e-05,-9.862404373846039e-05,-3.271725784847793e-05,3.4375,3.625
3.1484375,-4.102015605554286e-05,-6.202041322804609e-05,-0.00011083537939421685,-4.5414616813916244e-05,3.4375,3.625
3.15234375,-3.3699429953460005e-05,-6.591872519111927e-05,-9.666982501411462e-05,-4.004810943617916e-05,3.4375,3.625
3.15625,-4.6386663433279944e-05,-7.617584212252996e-05,-9.277151305104145e-05,-3.3699429953460005e-05,3.4375,3.625
3.16015625,-4.150617936522471e-05,-4.834088215762572e-05,-0.00010644091863584345,-4.248835147020678e-05,3.4375,3.625
3.1640625,-3.4671476572823706e-05,-4.932305426260779e-05,-9.472573177538722e-05,-3.5157499882505556e-05,3.4375,3.625
3.16796875,-2.6864727161059e-05,-5.5185710435645094e-05,-8.349656822461283e-05,-2.3928336331731158e-05,3.4375,3.625
3.171875,-3.271725784847793e-05,-5.5185710435645094e-05,-0.00010790911405050737,-3.271725784847793e-05,3.4375,3.625
3.17578125,-5.1763296296635406e-05,-7.32495767788205e-05,-0.00011522984015259024,-3.4671476572823706e-05,3.4375,3.625
3.1796875,-4.394642139925233e-05,-7.470764670786604e-05,-0.000117184058876936,-4.102015605554286e-05,3.4375,3.625
3.18359375,-4.6386663433279944e-05,-5.7129803674372496e-05,-0.00012255056625467309,-4.150617936522471e-05,3.4375,3.625
3.1875,-5.0781124191653334e-05,-5.420353833066303e-05,-0.00011815610549629971,-3.8579914021515245e-05,3.4375,3.625
3.19140625,-3.613967198748762e-05,-6.738692060578318e-05,-0.00011278959811856262,-4.1992202674906555e-05,3.4375,3.625
3.1953125,-4.150617936522471e-05,-6.397463195239187e-05,-0.00010595489532616162,-4.248835147020678e-05,3.4375,3.625
3.19921875,-4.49285935042344e-05,-5.5671733745326945e-05,-0.00012353273835965516,-4.5414616813916244e-05,3.4375,3.625
3.203125,-3.759774191653317e-05,-7.226740467383843e-05,-0.00011522984015259024,-3.662569529716947e-05,3.4375,3.625
3.20703125,-3.759774191653317e-05,-7.470764670786604e-05,-0.00010204645787747008,-3.613967198748762e-05,3.4375,3.625
3.2109375,-4.444257019455255e-05,-7.715801422751204e-05,-0.00011180742601358055,-4.980907757228963e-05,3.4375,3.625
3.21484375,-5.6157757055008795e-05,-8.887320108796829e-05,-0.000110349356084535,-4.102015605554286e-05,3.4375,3.625
3.21875,-5.664378036469064e-05,-7.520379550316627e-05,-0.00011180742601358055,-4.150617936522471e-05,3.4375,3.625
3.22265625,-4.59006401235981e-05,-5.1277272986953555e-05,-0.00012109249632562754,-4.834088215762572e-05,3.4375,3.625
3.2265625,-4.49285935042344e-05,-4.297437477988863e-05,-9.765199711909669e-05,-3.3699429953460005e-05,3.4375,3.625
3.23046875,-4.834088215762572e-05,-5.5671733745326945e-05,-8.399271701991304e-05,-2.8322797090104544e-05,3.4375,3.625
3.234375,-3.4671476572823706e-05,-4.7368835538262016e-05,-9.912019253376061e-05,-3.125918791943238e-05,3.4375,3.625
3.23828125,-3.271725784847793e-05,-3.418545326314185e-05,-8.98351222217136e-05,-3.223123453879609e-05,3.4375,3.625
3.2421875,-3.662569529716947e-05,-4.49285935042344e-05,-8.838717777828643e-05,-3.613967198748762e-05,3.4375,3.625
3.24609375,-3.5157499882505556e-05,-7.129535805447473e-05,-8.496476363927674e-05,-3.4671476572823706e-05,3.4375,3.625
3.25,-4.59006401235981e-05,-8.252452160524912e-05,-0.00010253248118715192,-4.394642139925233e-05,3.4375,3.625
3.25390625,-2.7836773780422693e-05,-5.1763296296635406e-05,-0.00011278959811856262,-5.0781124191653334e-05,3.4375,3.625
3.2578125,-2.6368578365758778e-05,-5.908402239871826e-05,-8.740500567330435e-05,-4.297437477988863e-05,3.4375,3.625
3.26171875,-4.444257019455255e-05,-7.568981881284812e-05,-7.861608415655758e-05,-3.8093890711833394e-05,3.4375,3.625
3.265625,-5.029510088197148e-05,-5.762595246967271e-05,-9.178934094605937e-05,-4.297437477988863e-05,3.4375,3.625
3.26953125,-3.955196064087894e-05,-3.759774191653317e-05,-9.277151305104145e-05,-4.980907757228963e-05,3.4375,3.625
3.2734375,-2.6864727161059e-05,-3.955196064087894e-05,-8.643295905394066e-05,-3.7111718606851315e-05,3.4375,3.625
3.27734375,-2.6368578365758778e-05,-4.297437477988863e-05,-0.00010009223915312431,-4.297437477988863e-05,3.4375,3.625
3.28125,-3.8093890711833394e-05,-5.420353833066303e-05,-9.081729432669569e-05,-5.0781124191653334e-05,3.4375,3.625
3.28515625,-3.5157499882505556e-05,-5.5185710435645094e-05,-5.859799908903641e-05,-2.5882555056076924e-05,3.4375,3.625
3.2890625,-2.9304969195086612e-05,-5.371751502098117e-05,-8.252452160524912e-05,-3.223123453879609e-05,3.4375,3.625
3.29296875,-4.053413274586101e-05,-5.908402239871826e-05,-9.813802042877853e-05,-3.906593733119709e-05,3.4375,3.625
3.296875,-4.444257019455255e-05,-5.2249319606317256e-05,-8.691898236362252e-05,-2.6368578365758778e-05,3.4375,3.625
3.30078125,-3.418545326314185e-05,-4.7368835538262016e-05,-8.691898236362252e-05,-2.7350750470740846e-05,3.4375,3.625
3.3046875,-2.6368578365758778e-05,-5.5671733745326945e-05,-8.203849829556727e-05,-3.320328115815978e-05,3.4375,3.625
3.30859375,-3.418545326314185e-05,-4.834088215762572e-05,-8.496476363927674e-05,-3.5157499882505556e-05,3.4375,3.625
3.3125,-2.2956289712367464e-05,-3.271725784847793e-05,-0.00010156043456778823,-4.248835147020678e-05,3.4375,3.625
3.31640625,-1.0258930746929138e-05,-5.1763296296635406e-05,-9.277151305104145e-05,-3.613967198748762e-05,3.4375,3.625
3.3203125,-2.5396531746395077e-05,-5.468956164034487e-05,-8.301054491493097e-05,-3.0277015814450313e-05,3.4375,3.625
3.32421875,-3.662569529716947e-05,-5.1277272986953555e-05,-9.130331763637753e-05,-4.49285935042344e-05,3.4375,3.625
3.328125,-3.906593733119709e-05,-5.5185710435645094e-05,-9.227536425574122e-05,-4.444257019455255e-05,3.4375,3.625
3.33203125,-3.8579914021515245e-05,-5.0781124191653334e-05,-8.789102898298621e-05,-3.5157499882505556e-05,3.4375,3.625
3.3359375,-4.150617936522471e-05,-5.1763296296635406e-05,-9.4229582980087e-05,-3.3699429953460005e-05,3.4375,3.625
3.33984375,-4.49285935042344e-05,-5.6157757055008795e-05,-9.472573177538722e-05,-4.1992202674906555e-05,3.4375,3.625
3.34375,-4.053413274586101e-05,-5.323149171129932e-05,-7.861608415655758e-05,-4.102015605554286e-05,3.4375,3.625
3.34765625,-2.4414359641412998e-05,-4.6882812228580166e-05,-7.617584212252996e-05,-3.3699429953460005e-05,3.4375,3.625
3.3515625,-3.5157499882505556e-05,-6.202041322804609e-05,-9.472573177538722e-05,-4.248835147020678e-05,3.4375,3.625
3.35546875,-5.323149171129932e-05,-7.276355346913865e-05,-9.912019253376061e-05,-3.613967198748762e-05,3.4375,3.625
3.359375,-3.662569529716947e-05,-5.859799908903641e-05,-7.959825626153965e-05,-3.565364867780578e-05,3.4375,3.625
3.36328125,-2.7836773780422693e-05,-5.27353429159991e-05,-6.88551160204471e-05,-2.3928336331731158e-05,3.4375,3.625
3.3671875,-2.8322797090104544e-05,-4.7368835538262016e-05,-6.787294391546504e-05,-1.6121586919966445e-05,3.4375,3.625
3.37109375,-3.8093890711833394e-05,-5.323149171129932e-05,-8.838717777828643e-05,-3.565364867780578e-05,3.4375,3.625
3.375,-4.59006401235981e-05,-6.446065526207372e-05,-8.44787403295949e-05,-3.7111718606851315e-05,3.4375,3.625
3.37890625,-2.4414359641412998e-05,-4.102015605554286e-05,-6.103824112306403e-05,-2.8322797090104544e-05,3.4375,3.625
3.3828125,-3.565364867780578e-05,-3.955196064087894e-05,-6.543270188143742e-05,-2.8808820399786397e-05,3.4375,3.625
3.38671875,-4.834088215762572e-05,-4.6882812228580166e-05,-6.98271626398108e-05,-3.3699429953460005e-05,3.4375,3.625
3.390625,-2.9790992504768466e-05,-4.6882812228580166e-05,-5.664378036469064e-05,-3.3699429953460005e-05,3.4375,3.625
3.39453125,-3.4671476572823706e-05,-6.494667857175556e-05,-5.5185710435645094e-05,-3.7111718606851315e-05,3.4375,3.625
3.3984375,-3.4671476572823706e-05,-5.664378036469064e-05,-6.152426443274587e-05,-2.9790992504768466e-05,3.4375,3.625
3.40234375,-2.6864727161059e-05,-5.762595246967271e-05,-6.299245984740981e-05,-2.9304969195086612e-05,3.4375,3.625
3.40625,-3.5157499882505556e-05,-6.836909271076526e-05,-6.202041322804609e-05,-4.5414616813916244e-05,3.4375,3.625
3.41015625,-5.2249319606317256e-05,-9.081729432669569e-05,-6.591872519111927e-05,-4.49285935042344e-05,3.4375,3.625
3.4140625,-4.7368835538262016e-05,-6.690089729610133e-05,-5.323149171129932e-05,-4.053413274586101e-05,3.4375,3.625
3.41796875,-3.0277015814450313e-05,-2.9790992504768466e-05,-5.27353429159991e-05,-4.346039808957048e-05,3.4375,3.625
3.421875,-2.1002070988021684e-05,-3.271725784847793e-05,-3.906593733119709e-05,-3.613967198748762e-05,3.4375,3.625
3.42578125,-2.6368578365758778e-05,-3.906593733119709e-05,-2.9790992504768466e-05,-3.5157499882505556e-05,3.4375,3.625
3.4296875,-5.5671733745326945e-05,-5.762595246967271e-05,-5.27353429159991e-05,-4.150617936522471e-05,3.4375,3.625
3.43359375,-6.88551160204471e-05,-6.006619450370033e-05,-6.397463195239187e-05,-3.8579914021515245e-05,3.4375,3.625
3.4375,-4.150617936522471e-05,-3.3699429953460005e-05,-4.150617936522471e-05,-1.5139414814984376e-05,3.4375,3.625
3.44140625,-2.6368578365758778e-05,-2.8322797090104544e-05,-1.7579656849011996e-05,-1.8138155184459493e-09,3.4375,3.625
3.4453125,-4.102015605554286e-05,-3.662569529716947e-05,-2.6368578365758778e-05,-1.8561828953994065e-05,3.4375,3.625
3.44921875,-4.1992202674906555e-05,-4.785485884794387e-05,-5.5671733745326945e-05,-4.7368835538262016e-05,3.4375,3.625
3.453125,-3.8579914021515245e-05,-6.250643653772795e-05,-6.202041322804609e-05,-5.371751502098117e-05,3.4375,3.625
3.45703125,-3.8093890711833394e-05,-6.397463195239187e-05,-5.1277272986953555e-05,-4.785485884794387e-05,3.4375,3.625
3.4609375,-4.102015605554286e-05,-6.690089729610133e-05,-5.27353429159991e-05,-4.297437477988863e-05,3.4375,3.625
3.46484375,-3.4671476572823706e-05,-5.762595246967271e-05,-5.1763296296635406e-05,-3.8579914021515245e-05,3.4375,3.625
3.46875,-2.6368578365758778e-05,-4.248835147020678e-05,-3.662569529716947e-05,-3.565364867780578e-05,3.4375,3.625
3.47265625,-2.9790992504768466e-05,-4.883703095292593e-05,-3.076303912413216e-05,-2.7836773780422693e-05,3.4375,3.625
3.4765625,-4.5414616813916244e-05,-5.371751502098117e-05,-3.662569529716947e-05,-3.223123453879609e-05,3.4375,3.625
3.48046875,-4.444257019455255e-05,-3.906593733119709e-05,-4.248835147020678e-05,-3.759774191653317e-05,3.4375,3.625
3.484375,-3.271725784847793e-05,-3.565364867780578e-05,-3.565364867780578e-05,-2.4910508436713227e-05,3.4375,3.625
3.48828125,-4.004810943617916e-05,-3.8093890711833394e-05,-2.6368578365758778e-05,-2.8808820399786397e-05,3.4375,3.625
3.4921875,-3.320328115815978e-05,-1.9533875573357775e-05,-1.8561828953994065e-05,-3.3699429953460005e-05,3.4375,3.625
3.49609375,-3.4671476572823706e-05,-3.174521122911423e-05,-1.562543812466623e-05,-2.9790992504768466e-05,3.4375,3.625
3.5,-4.394642139925233e-05,-4.49285935042344e-05,-2.7350750470740846e-05,-1.8075805644312224e-05,3.4375,3.625
3.50390625,-3.8579914021515245e-05,-4.6882812228580166e-05,-2.7350750470740846e-05,-2.0019898883039616e-05,3.4375,3.625
3.5078125,-3.4671476572823706e-05,-3.759774191653317e-05,-1.6607610229648302e-05,-3.0277015814450313e-05,3.4375,3.625
3.51171875,-2.3928336331731158e-05,-1.8561828953994065e-05,-8.790735332265227e-06,-2.8808820399786397e-05,3.4375,3.625
3.515625,-1.562543812466623e-05,-3.613967198748762e-05,-1.4653391505302536e-05,-2.5396531746395077e-05,3.4375,3.625
3.51953125,-3.613967198748762e-05,-5.6157757055008795e-05,-2.3442313022049304e-05,-3.662569529716947e-05,3.4375,3.625
3.5234375,-4.7368835538262016e-05,-3.906593733119709e-05,-1.2699172780956758e-05,-4.6386663433279944e-05,3.4375,3.625
3.52734375,-2.9304969195086612e-05,-2.3442313022049304e-05,-9.286884127565442e-06,-3.271725784847793e-05,3.4375,3.625
3.53125,-2.8808820399786397e-05,-3.7111718606851315e-05,-1.904785226367592e-05,-2.8322797090104544e-05,3.4375,3.625
3.53515625,-3.320328115815978e-05,-4.053413274586101e-05,-2.2956289712367464e-05,-2.4414359641412998e-05,3.4375,3.625
3.5390625,-3.125918791943238e-05,-3.565364867780578e-05,-1.4653391505302536e-05,-3.7111718606851315e-05,3.4375,3.625
3.54296875,-2.6864727161059e-05,-1.7093633539330156e-05,2.924451528191028e-06,-5.0781124191653334e-05,3.4375,3.625
3.546875,-3.125918791943238e-05,-3.0277015814450313e-05,2.4384282185091734e-06,-3.5157499882505556e-05,3.4375,3.625
3.55078125,-5.029510088197148e-05,-5.859799908903641e-05,-2.1974117607385395e-05,-3.565364867780578e-05,3.4375,3.625
3.5546875,-4.102015605554286e-05,-3.076303912413216e-05,-8.304712022583374e-06,-3.076303912413216e-05,3.4375,3.625
3.55859375,-3.271725784847793e-05,-2.1488094297703538e-05,-7.332665403219678e-06,-3.223123453879609e-05,3.4375,3.625
3.5625,-4.297437477988863e-05,-4.297437477988863e-05,-2.3442313022049304e-05,-4.5414616813916244e-05,3.4375,3.625
3.56640625,-4.053413274586101e-05,-5.323149171129932e-05,-1.8138155184459493e-09,-2.9304969195086612e-05,3.4375,3.625
3.5703125,-2.9304969195086612e-05,-3.5157499882505556e-05,2.733699735408558e-05,-8.790735332265227e-06,3.4375,3.625
3.57421875,-3.565364867780578e-05,-2.7836773780422693e-05,8.290958905928108e-06,-2.1488094297703538e-05,3.4375,3.625
3.578125,-3.759774191653317e-05,-2.1002070988021684e-05,-6.3504932982376085e-06,-3.613967198748762e-05,3.4375,3.625
3.58203125,-3.662569529716947e-05,-2.5882555056076924e-05,2.924451528191028e-06,-3.906593733119709e-05,3.4375,3.625
3.5859375,-4.883703095292593e-05,-6.250643653772795e-05,-3.424227954528135e-06,-3.174521122911423e-05,3.4375,3.625
3.58984375,-5.762595246967271e-05,-7.910210746623943e-05,-2.3442313022049304e-05,-1.3681344885938827e-05,3.4375,3.625
3.59375,-4.980907757228963e-05,-5.859799908903641e-05,-1.2699172780956758e-05,-2.0516047678339844e-05,3.4375,3.625
3.59765625,-5.468956164034487e-05,-6.250643653772795e-05,-1.2213149471274916e-05,-1.3185196090638612e-05,3.4375,3.625
3.6015625,-5.468956164034487e-05,-6.202041322804609e-05,-1.8561828953994065e-05,-1.8138155184459493e-09,3.4375,3.625
3.60546875,-4.883703095292593e-05,-4.59006401235981e-05,-1.2213149471274916e-05,3.896498147554723e-06,3.4375,3.625
3.609375,-4.883703095292593e-05,-5.27353429159991e-05,-2.9304969195086612e-05,7.318912286564412e-06,3.4375,3.625
3.61328125,-5.6157757055008795e-05,-5.664378036469064e-05,-1.562543812466623e-05,1.268541966430149e-05,3.4375,3.625
3.6171875,-7.32495767788205e-05,-6.934113933012895e-05,-1.7093633539330156e-05,2.098831787136642e-05,3.4375,3.625
3.62109375,-8.349656822461283e-05,-7.32495767788205e-05,-4.150617936522471e-05,2.8805192768749506e-05,3.4375,3.625
3.625,-8.838717777828643e-05,-7.031318594949266e-05,-2.6368578365758778e-05,3.7594114285496275e-05,3.4375,3.625
3.62890625,-8.59469357442588e-05,-8.59469357442588e-05,-3.3699429953460005e-05,3.1245434802777126e-05,3.4375,3.625
3.6328125,-8.496476363927674e-05,-0.00010009223915312431,-5.908402239871826e-05,1.7576029217975105e-05,3.4375,3.625
3.63671875,-8.349656822461283e-05,-8.98351222217136e-05,-4.248835147020678e-05,3.221748142214082e-05,3.4375,3.625
3.640625,-8.59469357442588e-05,-7.66618654322118e-05,-1.8561828953994065e-05,5.468593400930797e-05,3.4375,3.625
3.64453125,-8.057030288090335e-05,-6.98271626398108e-05,-8.304712022583374e-06,5.468593400930797e-05,3.4375,3.625
3.6484375,-6.494667857175556e-05,-5.664378036469064e-05,-4.39627457389183e-06,5.126351987029829e-05,3.4375,3.625
3.65234375,-8.301054491493097e-05,-7.373560008850235e-05,-3.271725784847793e-05,4.686905911192491e-05,3.4375,3.625
3.65625,-9.56977783947509e-05,-8.59469357442588e-05,-5.420353833066303e-05,4.785123121690696e-05,3.4375,3.625
3.66015625,-7.470764670786604e-05,-6.347848315709165e-05,-4.248835147020678e-05,4.735508242160677e-05,3.4375,3.625
3.6640625,-7.76440375371939e-05,-7.568981881284812e-05,-3.906593733119709e-05,5.27317152849622e-05,3.4375,3.625
3.66796875,-9.862404373846039e-05,-9.666982501411462e-05,-4.932305426260779e-05,4.686905911192491e-05,3.4375,3.625
3.671875,-9.56977783947509e-05,-8.349656822461283e-05,-6.006619450370033e-05,2.5878927425040033e-05,3.4375,3.625
3.67578125,-7.66618654322118e-05,-5.908402239871826e-05,-4.834088215762572e-05,2.1484466666666647e-05,3.4375,3.625
3.6796875,-6.64148739864195e-05,-5.1763296296635406e-05,-3.0277015814450313e-05,3.075941149309527e-05,3.4375,3.625
3.68359375,-6.006619450370033e-05,-5.029510088197148e-05,-2.4414359641412998e-05,3.563989556115051e-05,3.4375,3.625
3.6875,-7.276355346913865e-05,-5.420353833066303e-05,-3.0277015814450313e-05,2.3924708700694267e-05,3.4375,3.625
3.69140625,-6.250643653772795e-05,-4.883703095292593e-05,-2.5882555056076924e-05,1.318156845960172e-05,3.4375,3.625
3.6953125,-4.346039808957048e-05,-3.076303912413216e-05,-1.6607610229648302e-05,2.489675532005796e-05,3.4375,3.625
3.69921875,-5.420353833066303e-05,-3.955196064087894e-05,-2.6864727161059e-05,2.0016271252002724e-05,3.4375,3.625
3.703125,-5.664378036469064e-05,-4.5414616813916244e-05,-3.662569529716947e-05,1.366759176928356e-05,3.4375,3.625
3.70703125,-6.64148739864195e-05,-6.006619450370033e-05,-4.346039808957048e-05,9.273131010910177e-06,3.4375,3.625
3.7109375,-6.202041322804609e-05,-6.250643653772795e-05,-4.053413274586101e-05,9.759154320592032e-06,3.4375,3.625
3.71484375,-6.397463195239187e-05,-5.7129803674372496e-05,-5.2249319606317256e-05,5.850716871900488e-06,3.4375,3.625
3.71875,-6.152426443274587e-05,-5.6157757055008795e-05,-6.006619450370033e-05,-1.4700092301823701e-06,3.4375,3.625
3.72265625,-4.5414616813916244e-05,-5.811197577935456e-05,-6.64148739864195e-05,-6.8365166079194495e-06,3.4375,3.625
3.7265625,-4.346039808957048e-05,-6.299245984740981e-05,-6.64148739864195e-05,-5.378446678873899e-06,3.4375,3.625
3.73046875,-4.6882812228580166e-05,-4.785485884794387e-05,-5.1277272986953555e-05,-9.839859205005154e-07,3.4375,3.625
3.734375,-4.1992202674906555e-05,-3.223123453879609e-05,-5.029510088197148e-05,-9.772907437247298e-06,3.4375,3.625
3.73828125,-3.8093890711833394e-05,-4.394642139925233e-05,-5.5185710435645094e-05,-3.424227954528135e-06,3.4375,3.625
3.7421875,-4.49285935042344e-05,-5.420353833066303e-05,-4.7368835538262016e-05,-1.2213149471274916e-05,3.4375,3.625
3.74609375,-3.418545326314185e-05,-4.7368835538262016e-05,-3.271725784847793e-05,-1.6121586919966445e-05,3.4375,3.625
3.75,-3.3699429953460005e-05,-3.7111718606851315e-05,-2.2956289712367464e-05,-1.4700092301823701e-06,3.4375,3.625
3.75390625,-4.150617936522471e-05,-3.320328115815978e-05,-3.418545326314185e-05,9.273131010910177e-06,3.4375,3.625
3.7578125,-3.223123453879609e-05,-3.3699429953460005e-05,-4.5414616813916244e-05,1.5135787183947485e-05,3.4375,3.625
3.76171875,-2.8808820399786397e-05,-5.0781124191653334e-05,-4.297437477988863e-05,9.759154320592032e-06,3.4375,3.625
3.765625,-3.174521122911423e-05,-5.762595246967271e-05,-4.150617936522471e-05,8.290958905928108e-06,3.4375,3.625
3.76953125,-4.6386663433279944e-05,-7.66618654322118e-05,-7.861608415655758e-05,-6.3504932982376085e-06,3.4375,3.625
3.7734375,-5.1277272986953555e-05,-0.00010595489532616162,-0.00010448669991149768,-1.9533875573357775e-05,3.4375,3.625
3.77734375,-4.004810943617916e-05,-9.813802042877853e-05,-9.227536425574122e-05,-6.8365166079194495e-06,3.4375,3.625
3.78125,-2.3928336331731158e-05,-8.105632619058521e-05,-7.568981881284812e-05,3.896498147554723e-06,3.4375,3.625
3.78515625,-1.6607610229648302e-05,-0.00010985320728923477,-8.643295905394066e-05,1.7576029217975105e-05,3.4375,3.625
3.7890625,-1.6121586919966445e-05,-0.0001455050421515221,-0.00013133948777141986,1.85480758373388e-05,3.4375,3.625
3.79296875,-7.332665403219678e-06,-0.0001533117915632868,-0.0001621007130800336,6.832888976882558e-06,3.4375,3.625
3.796875,2.924451528191028e-06,-0.00016893541587243457,-0.00016844939256275272,7.318912286564412e-06,3.4375,3.625
3.80078125,1.610783380331118e-05,-0.00019188989176928363,-0.00018896362642557415,1.1713373044937796e-05,3.4375,3.625
3.8046875,2.098831787136642e-05,-0.00020849568818341344,-0.00020799953938811325,2.1970489976348487e-05,3.4375,3.625
3.80859375,1.1713373044937796e-05,-0.00022948581987029834,-0.00022265111707789732,3.319965352712289e-05,3.4375,3.625
3.8125,2.8805192768749506e-05,-0.00025488053780117493,-0.00025244029576714736,3.4171700146486586e-05,3.4375,3.625
3.81640625,3.319965352712289e-05,-0.00027685284159304196,-0.00026952199000534067,3.7594114285496275e-05,3.4375,3.625
3.8203125,2.3428559905394038e-05,-0.0002758706694880598,-0.0002646415059372854,4.4428817077897294e-05,3.4375,3.625
3.82421875,-4.892423369192059e-06,-0.00027441259955901433,-0.00026562367804226756,2.3924708700694267e-05,3.4375,3.625
3.828125,-2.5882555056076924e-05,-0.0002856417631097887,-0.0002812473023514153,1.9530247942320867e-05,3.4375,3.625
3.83203125,-1.0744954056610992e-05,-0.00029394466131685363,-0.0002856417631097887,3.9548333009842054e-05,3.4375,3.625
3.8359375,1.268541966430149e-05,-0.0002866138097291524,-0.0002792930836270695,4.394279376821544e-05,3.4375,3.625
3.83984375,2.1970489976348487e-05,-0.00026952199000534067,-0.0002626872872129397,5.5171957318989825e-05,3.4375,3.625
3.84375,-1.4653391505302536e-05,-0.00024315522545510033,-0.00023876076469672694,5.321773859464406e-05,3.4375,3.625
3.84765625,-3.662569529716947e-05,-0.00023241208521400782,-0.0002270455778362707,2.0502294561684578e-05,3.4375,3.625
3.8515625,-3.320328115815978e-05,-0.00022557738242160678,-0.00021289014894178683,1.806205252765696e-05,3.4375,3.625
3.85546875,-2.9304969195086612e-05,-0.00020410122742504005,-0.00019823857125200275,2.9291216078431347e-05,3.4375,3.625
3.859375,-1.6121586919966445e-05,-0.0001791925328038453,-0.00017431204873579004,2.6364950734721887e-05,3.4375,3.625
3.86328125,-1.4700092301823701e-06,-0.00015575203359731443,-0.00014989950290989547,2.098831787136642e-05,3.4375,3.625
3.8671875,-5.378446678873899e-06,-0.00014696311208056765,-0.00014599106546120394,1.0245177630273872e-05,3.4375,3.625
3.87109375,-2.1002070988021684e-05,-0.0001249908082887007,-0.0001274411758083467,3.4104748378728686e-06,3.4375,3.625
3.875,-2.6368578365758778e-05,-0.00010448669991149768,-0.00011376164473792631,5.850716871900488e-06,3.4375,3.625
3.87890625,-2.4414359641412998e-05,-9.813802042877853e-05,-0.00010448669991149768,3.896498147554723e-06,3.4375,3.625
3.8828125,-3.8093890711833394e-05,-7.520379550316627e-05,-8.105632619058521e-05,-1.4653391505302536e-05,3.4375,3.625
3.88671875,-3.662569529716947e-05,-6.202041322804609e-05,-7.66618654322118e-05,-2.7350750470740846e-05,3.4375,3.625
3.890625,-2.9790992504768466e-05,-5.811197577935456e-05,-7.031318594949266e-05,-2.8808820399786397e-05,3.4375,3.625
3.89453125,-4.102015605554286e-05,-4.59006401235981e-05,-5.27353429159991e-05,-3.613967198748762e-05,3.4375,3.625
3.8984375,-4.59006401235981e-05,-4.6882812228580166e-05,-5.664378036469064e-05,-4.053413274586101e-05,3.4375,3.625
3.90234375,-3.7111718606851315e-05,-2.7350750470740846e-05,-3.271725784847793e-05,-2.9304969195086612e-05,3.4375,3.625
3.90625,-3.5157499882505556e-05,-1.4700092301823701e-06,-4.97962610818675e-07,-3.125918791943238e-05,3.4375,3.625
3.91015625,-4.150617936522471e-05,-9.839859205005154e-07,-4.892423369192059e-06,-4.346039808957048e-05,3.4375,3.625
3.9140625,-3.7111718606851315e-05,2.924451528191028e-06,-2.4420558495460653e-06,-4.004810943617916e-05,3.4375,3.625
3.91796875,-3.0277015814450313e-05,1.463963838864727e-05,6.3468656672007166e-06,-3.662569529716947e-05,3.4375,3.625
3.921875,-4.1992202674906555e-05,7.318912286564412e-06,5.850716871900488e-06,-4.248835147020678e-05,3.4375,3.625
3.92578125,-4.883703095292593e-05,2.733699735408558e-05,2.245651328603034e-05,-5.2249319606317256e-05,3.4375,3.625
3.9296875,-3.955196064087894e-05,4.785123121690696e-05,4.0034356319523905e-05,-5.664378036469064e-05,3.4375,3.625
3.93359375,-4.1992202674906555e-05,5.321773859464406e-05,4.394279376821544e-05,-5.420353833066303e-05,3.4375,3.625
3.9375,-4.59006401235981e-05,3.075941149309527e-05,1.6593857112993036e-05,-5.371751502098117e-05,3.4375,3.625
3.94140625,-3.4671476572823706e-05,4.4428817077897294e-05,1.6593857112993036e-05,-5.323149171129932e-05,3.4375,3.625
3.9453125,-3.759774191653317e-05,4.1502551734187814e-05,1.9530247942320867e-05,-6.397463195239187e-05,3.4375,3.625
3.94921875,-4.150617936522471e-05,2.733699735408558e-05,5.850716871900488e-06,-7.178138136415657e-05,3.4375,3.625
3.953125,-4.297437477988863e-05,3.66119421805142e-05,2.0502294561684578e-05,-6.152426443274587e-05,3.4375,3.625
3.95703125,-4.785485884794387e-05,4.1006402938887585e-05,4.198857504386967e-05,-4.785485884794387e-05,3.4375,3.625
3.9609375,-3.662569529716947e-05,6.200666011139083e-05,7.958450314488439e-05,-3.8093890711833394e-05,3.4375,3.625
3.96484375,-4.346039808957048e-05,3.66119421805142e-05,4.1502551734187814e-05,-5.0781124191653334e-05,3.4375,3.625
3.96875,-5.5671733745326945e-05,4.878670252536792e-06,1.1227349735255941e-05,-6.299245984740981e-05,3.4375,3.625
3.97265625,-3.3699429953460005e-05,3.90623097001602e-05,5.664015273365376e-05,-5.029510088197148e-05,3.4375,3.625
3.9765625,-2.6864727161059e-05,6.737316748912792e-05,5.126351987029829e-05,-4.6386663433279944e-05,3.4375,3.625
3.98046875,-4.1992202674906555e-05,3.7594114285496275e-05,9.759154320592032e-06,-6.006619450370033e-05,3.4375,3.625
3.984375,-3.8579914021515245e-05,2.4410732010376107e-05,2.1484466666666647e-05,-5.468956164034487e-05,3.4375,3.625
3.98828125,-3.418545326314185e-05,2.733699735408558e-05,1.9530247942320867e-05,-5.762595246967271e-05,3.4375,3.625
3.9921875,-3.759774191653317e-05,2.6364950734721887e-05,6.3468656672007166e-06,-6.787294391546504e-05,3.4375,3.625
3.99609375,-4.004810943617916e-05,4.1502551734187814e-05,1.318156845960172e-05,-5.908402239871826e-05,3.4375,3.625
4.0,-4.785485884794387e-05,4.785123121690696e-05,2.733699735408558e-05,-4.394642139925233e-05,3.4375,3.625
4.00390625,-4.248835147020678e-05,5.126351987029829e-05,3.856616090485998e-05,-4.6386663433279944e-05,3.4375,3.625
4.0078125,-3.906593733119709e-05,5.4189785214007766e-05,3.221748142214082e-05,-5.468956164034487e-05,3.4375,3.625
4.01171875,-4.834088215762572e-05,5.126351987029829e-05,4.1502551734187814e-05,-4.394642139925233e-05,3.4375,3.625
4.015625,-4.394642139925233e-05,6.0052441387045065e-05,5.3703761904325916e-05,-3.955196064087894e-05,3.4375,3.625
4.01953125,-4.59006401235981e-05,5.126351987029829e-05,3.856616090485998e-05,-5.1763296296635406e-05,3.4375,3.625
4.0234375,-3.4671476572823706e-05,5.0291473250934585e-05,5.321773859464406e-05,-4.7368835538262016e-05,3.4375,3.625
