timestamp,TP9,AF7,AF8,TP10,Valence,Arousal
0.0,-4.5905964884412896e-05,-2.197681249561301e-05,-1.3678980833142573e-05,-2.832353238879986e-05,4.2,3.6
0.00390625,-5.517935243152512e-05,-2.7347976504158067e-05,-2.100125661097122e-05,-2.3927924264896602e-05,4.2,3.6
0.0078125,-5.6648292901502996e-05,-1.709903307240404e-05,-1.270342494850078e-05,-2.295236838025481e-05,4.2,3.6
0.01171875,-5.078374430762186e-05,-1.270342494850078e-05,-4.63881361837186e-05,-3.3694696397344914e-05,4.2,3.6
0.015625,-4.443702441443502e-05,-2.7841361089494148e-05,-4.9808188422980074e-05,-2.5879036034180194e-05,4.2,3.6
0.01953125,-5.420379654688332e-05,-3.46702522819867e-05,-7.33226093995573e-06,-1.8556760256351552e-05,4.2,3.6
0.0234375,-5.372162524757762e-05,-3.1250200042725244e-05,5.854563431754045e-06,-3.271914051270312e-05,4.2,3.6
0.02734375,-3.3694696397344914e-05,-2.637242061951627e-05,1.317683920958268e-05,-3.516363686732278e-05,4.2,3.6
0.03125,-3.516363686732278e-05,-2.197681249561301e-05,-1.4654536717784373e-05,-2.0507872025635138e-05,4.2,3.6
0.03515625,-5.078374430762186e-05,-2.4421308850232683e-05,-4.5412580299076815e-05,-1.8074588957045832e-05,4.2,3.6
0.0390625,-6.446395326466772e-05,-3.1743584628061325e-05,-3.1250200042725244e-05,-2.0025700726329425e-05,4.2,3.6
0.04296875,-5.859940467078658e-05,-2.637242061951627e-05,-2.0025700726329425e-05,-2.344575296559089e-05,4.2,3.6
0.046875,-2.9792472858777733e-05,-2.637242061951627e-05,-2.9299088273441652e-05,-2.5396864734874474e-05,4.2,3.6
0.05078125,-2.0507872025635138e-05,-3.4188080982680995e-05,-4.63881361837186e-05,-2.686580520485235e-05,4.2,3.6
0.0546875,-2.247019708094909e-05,-3.46702522819867e-05,-2.247019708094909e-05,-3.0768028743419524e-05,4.2,3.6
0.05859375,-2.5879036034180194e-05,-4.151035676050964e-05,-3.66213640512703e-05,-3.46702522819867e-05,4.2,3.6
0.0625,-3.858368910658425e-05,-4.932601712367436e-05,-3.809030452124817e-05,-3.4188080982680995e-05,4.2,3.6
0.06640625,-4.346146852979322e-05,-3.809030452124817e-05,-1.6123477187762247e-05,-3.271914051270312e-05,4.2,3.6
0.0703125,-5.372162524757762e-05,-3.0768028743419524e-05,-3.0768028743419524e-05,-3.1250200042725244e-05,4.2,3.6
0.07421875,-6.884834810254061e-05,-3.809030452124817e-05,-2.7347976504158067e-05,-3.271914051270312e-05,4.2,3.6
0.078125,-5.420379654688332e-05,-4.053480087586784e-05,-5.86332046997785e-06,-2.9792472858777733e-05,4.2,3.6
0.08203125,-3.6139192751964584e-05,-2.100125661097122e-05,-1.4677123460745917e-06,-1.4161152132448294e-05,4.2,3.6
0.0859375,-3.32125250980392e-05,-1.270342494850078e-05,-2.4903480149538393e-05,-7.33226093995573e-06,4.2,3.6
0.08984375,-3.3694696397344914e-05,-2.5879036034180194e-05,-2.5879036034180194e-05,-2.1494641196307297e-05,4.2,3.6
0.09375,-3.809030452124817e-05,-3.1743584628061325e-05,-1.2210040363164708e-05,-3.1250200042725244e-05,4.2,3.6
0.09765625,-4.932601712367436e-05,-3.32125250980392e-05,-1.0752313179217195e-05,-3.0274644158083446e-05,4.2,3.6
0.1015625,-6.006834514076446e-05,-4.004141629053176e-05,-3.4188080982680995e-05,-2.9792472858777733e-05,4.2,3.6
0.10546875,-5.7130464200808716e-05,-4.053480087586784e-05,-1.7581204371709758e-05,-2.7841361089494148e-05,4.2,3.6
0.109375,-4.39548531151293e-05,-2.5879036034180194e-05,-6.8388763546196565e-06,-3.2236969213397407e-05,4.2,3.6
0.11328125,-3.3694696397344914e-05,-1.6123477187762247e-05,-4.004141629053176e-05,-2.7841361089494148e-05,4.2,3.6
0.1171875,-2.7841361089494148e-05,-2.637242061951627e-05,-3.760813322194246e-05,-2.4421308850232683e-05,4.2,3.6
0.12109375,-3.0768028743419524e-05,-3.516363686732278e-05,-1.709903307240404e-05,-2.197681249561301e-05,4.2,3.6
0.125,-4.4930408999771095e-05,-3.46702522819867e-05,-1.8556760256351552e-05,-3.6139192751964584e-05,4.2,3.6
0.12890625,-4.443702441443502e-05,-5.3811491706721455e-06,-3.2236969213397407e-05,-4.2485912645151425e-05,4.2,3.6
0.1328125,-2.637242061951627e-05,9.27461567101551e-06,9.655707225146983e-07,-1.5630092602426166e-05,4.2,3.6
0.13671875,-1.5136708017090086e-05,-3.4188080982680995e-05,-3.4188241153581913e-06,-1.660564848706796e-05,4.2,3.6
0.140625,-3.3694696397344914e-05,-7.129284445716028e-05,-7.178622904249636e-05,-2.197681249561301e-05,4.2,3.6
0.14453125,-5.762384878614479e-05,-9.228411590600441e-05,-7.178622904249636e-05,-2.3927924264896602e-05,4.2,3.6
0.1484375,-6.299501279468984e-05,-9.765527991454946e-05,-7.957946283360036e-05,-3.1250200042725244e-05,4.2,3.6
0.15234375,-4.785707665369648e-05,-8.104840330357822e-05,-7.031728857251849e-05,-3.1743584628061325e-05,4.2,3.6
0.15625,-3.66213640512703e-05,-8.788850778210115e-05,-7.618183716639962e-05,-3.66213640512703e-05,4.2,3.6
0.16015625,-3.858368910658425e-05,-8.49506268421454e-05,-5.420379654688332e-05,-4.39548531151293e-05,4.2,3.6
0.1640625,-4.346146852979322e-05,-5.810602008545051e-05,-4.8877645853360576e-06,-4.1016972175173556e-05,4.2,3.6
0.16796875,-4.7363692068360404e-05,-4.2979297230487506e-05,-2.247019708094909e-05,-3.1250200042725244e-05,4.2,3.6
0.171875,-2.7347976504158067e-05,-4.443702441443502e-05,-4.6881520769054684e-05,-3.32125250980392e-05,4.2,3.6
0.17578125,-1.7581204371709758e-05,-5.372162524757762e-05,-4.1016972175173556e-05,-3.66213640512703e-05,4.2,3.6
0.1796875,-1.9050144841687633e-05,-4.932601712367436e-05,-3.271914051270312e-05,-3.0768028743419524e-05,4.2,3.6
0.18359375,-1.8556760256351552e-05,-3.516363686732278e-05,-4.1016972175173556e-05,-3.809030452124817e-05,4.2,3.6
0.1875,-2.9792472858777733e-05,-3.0768028743419524e-05,-4.199252805981535e-05,-4.1016972175173556e-05,4.2,3.6
0.19140625,-3.760813322194246e-05,-2.9792472858777733e-05,-1.709903307240404e-05,-4.2979297230487506e-05,4.2,3.6
0.1953125,-4.2979297230487506e-05,-3.809030452124817e-05,-3.906586040588996e-05,-4.151035676050964e-05,4.2,3.6
0.19921875,-4.4930408999771095e-05,-4.785707665369648e-05,-5.957496055542838e-05,-4.053480087586784e-05,4.2,3.6
0.203125,-4.63881361837186e-05,-3.711474863660638e-05,-2.832353238879986e-05,-3.46702522819867e-05,4.2,3.6
0.20703125,-4.835046123903256e-05,-2.9299088273441652e-05,-2.5879036034180194e-05,-2.344575296559089e-05,4.2,3.6
0.2109375,-4.785707665369648e-05,-3.711474863660638e-05,-6.250162820935376e-05,-3.46702522819867e-05,4.2,3.6
0.21484375,-3.809030452124817e-05,-4.2485912645151425e-05,-6.397056867933164e-05,-5.225268477759974e-05,4.2,3.6
0.21875,-3.858368910658425e-05,-5.322824066224153e-05,-1.9532316140993343e-05,-4.346146852979322e-05,4.2,3.6
0.22265625,-4.5905964884412896e-05,-5.420379654688332e-05,1.458955307850786e-06,-3.271914051270312e-05,4.2,3.6
0.2265625,-3.955924499122604e-05,-4.053480087586784e-05,-2.4421308850232683e-05,-3.760813322194246e-05,4.2,3.6
0.23046875,-3.955924499122604e-05,-3.955924499122604e-05,-3.66213640512703e-05,-3.2236969213397407e-05,4.2,3.6
0.234375,-4.151035676050964e-05,-4.151035676050964e-05,-1.270342494850078e-05,-2.3927924264896602e-05,4.2,3.6
0.23828125,-4.443702441443502e-05,-3.516363686732278e-05,1.95233989318686e-06,-2.0507872025635138e-05,4.2,3.6
0.2421875,-4.932601712367436e-05,-3.809030452124817e-05,-2.100125661097122e-05,-3.711474863660638e-05,4.2,3.6
0.24609375,-4.4930408999771095e-05,-4.932601712367436e-05,-4.932601712367436e-05,-4.004141629053176e-05,4.2,3.6
0.25,-3.3694696397344914e-05,-4.9808188422980074e-05,-6.83661768032349e-05,-3.32125250980392e-05,4.2,3.6
0.25390625,-2.4903480149538393e-05,-3.858368910658425e-05,-3.56458081666285e-05,-3.0274644158083446e-05,4.2,3.6
0.2578125,-3.809030452124817e-05,-5.762384878614479e-05,-5.517935243152512e-05,-2.7347976504158067e-05,4.2,3.6
0.26171875,-4.4930408999771095e-05,-8.104840330357822e-05,-8.299951507286181e-05,-2.5879036034180194e-05,4.2,3.6
0.265625,-3.760813322194246e-05,-6.446395326466772e-05,-4.004141629053176e-05,-4.199252805981535e-05,4.2,3.6
0.26953125,-4.835046123903256e-05,-5.0301573008316155e-05,-1.1234484478522915e-05,-3.32125250980392e-05,4.2,3.6
0.2734375,-5.078374430762186e-05,-4.932601712367436e-05,-1.0258928593881109e-05,-2.344575296559089e-05,4.2,3.6
0.27734375,-4.4930408999771095e-05,-5.078374430762186e-05,-5.469718113221941e-05,-3.0768028743419524e-05,4.2,3.6
0.28125,-3.0768028743419524e-05,-5.322824066224153e-05,-5.078374430762186e-05,-2.1494641196307297e-05,4.2,3.6
0.28515625,-3.1250200042725244e-05,-4.7363692068360404e-05,-1.9532316140993343e-05,-2.7347976504158067e-05,4.2,3.6
0.2890625,-4.1016972175173556e-05,-4.2485912645151425e-05,-2.0507872025635138e-05,-3.66213640512703e-05,4.2,3.6
0.29296875,-4.346146852979322e-05,-5.762384878614479e-05,-3.66213640512703e-05,-3.46702522819867e-05,4.2,3.6
0.296875,-5.175930019226366e-05,-7.226840034180207e-05,-4.7363692068360404e-05,-4.053480087586784e-05,4.2,3.6
0.30078125,-5.225268477759974e-05,-7.276178492713814e-05,-4.053480087586784e-05,-2.247019708094909e-05,4.2,3.6
0.3046875,-3.760813322194246e-05,-6.543950914930951e-05,-3.66213640512703e-05,-5.3811491706721455e-06,4.2,3.6
0.30859375,-3.32125250980392e-05,-5.225268477759974e-05,-2.4903480149538393e-05,-1.4161152132448294e-05,4.2,3.6
0.3125,-5.322824066224153e-05,-6.446395326466772e-05,-3.1250200042725244e-05,-1.660564848706796e-05,4.2,3.6
0.31640625,-5.7130464200808716e-05,-6.494612456397343e-05,-3.6139192751964584e-05,-3.4188241153581913e-06,4.2,3.6
0.3203125,-2.5879036034180194e-05,-4.9808188422980074e-05,-2.295236838025481e-05,-6.8388763546196565e-06,4.2,3.6
0.32421875,-1.8074588957045832e-05,-7.226840034180207e-05,-5.372162524757762e-05,-1.6123477187762247e-05,4.2,3.6
0.328125,-2.7841361089494148e-05,-9.081517543602654e-05,-7.226840034180207e-05,-1.9532316140993343e-05,4.2,3.6
0.33203125,-4.1016972175173556e-05,-7.373734081177994e-05,-5.0301573008316155e-05,-1.1234484478522915e-05,4.2,3.6
0.3359375,-5.175930019226366e-05,-7.031728857251849e-05,-3.809030452124817e-05,-5.86332046997785e-06,4.2,3.6
0.33984375,-3.760813322194246e-05,-7.71573930510414e-05,-7.276178492713814e-05,-3.0274644158083446e-05,4.2,3.6
0.34375,-2.7347976504158067e-05,-0.00010595311157701989,-0.00010937316381628135,-3.1743584628061325e-05,4.2,3.6
0.34765625,-2.3927924264896602e-05,-0.0001420823191668574,-0.00013329110291905087,-2.295236838025481e-05,4.2,3.6
0.3515625,-3.912208700694265e-06,-0.00016746919873960478,-0.0001748026878034638,-2.100125661097122e-05,4.2,3.6
0.35546875,-9.765544008545035e-06,-0.00020556073138475626,-0.00019286729159838253,-2.4903480149538393e-05,4.2,3.6
0.359375,-3.56458081666285e-05,-0.00022948988377355608,-0.00023388549189745934,-4.4930408999771095e-05,4.2,3.6
0.36328125,-2.295236838025481e-05,-0.00025340782287632565,-0.00028320152385900664,-4.5412580299076815e-05,4.2,3.6
0.3671875,2.1474670872053122e-05,-0.0002729413671412222,-0.0002714836399572747,-6.347718409399556e-05,4.2,3.6
0.37109375,4.930604679942017e-05,-0.000291005970936141,-0.0002836836951583124,-8.15417878889143e-05,4.2,3.6
0.375,5.8097263047226704e-05,-0.0003178617909788662,-0.00034276649925230794,-7.373734081177994e-05,4.2,3.6
0.37890625,7.323519918822006e-05,-0.0003378887198290989,-0.0003925759157991913,-8.104840330357822e-05,4.2,3.6
0.3828125,5.3701654923323445e-05,-0.00035595332362401767,-0.0004042937997009231,-9.4235227675288e-05,4.2,3.6
0.38671875,6.64063079957275e-05,-0.00034666872279087507,-0.00040771385194018466,-0.00010203967475242236,4.2,3.6
0.390625,9.0324247098497e-05,-0.00031591067920958265,-0.00036083110304722666,-9.129734673533225e-05,4.2,3.6
0.39453125,3.8563718782330066e-05,-0.00029052379963683526,-0.0003544843831540398,-8.739512319676507e-05,4.2,3.6
0.3984375,2.831477535057604e-05,-0.0002968705195300221,-0.00037011570388036926,-0.00010985533511558708,4.2,3.6
0.40234375,8.105085955138477e-05,-0.0002783125311497673,-0.00033837089112840463,-0.0001372045397436484,4.2,3.6
0.40625,0.00010498001194018465,-0.0002324165514274815,-0.00032957967488059817,-0.0001508735354146639,4.2,3.6
0.41015625,0.00010838885089341576,-0.0001972628997222858,-0.00028270813927367056,-0.00013476004338902874,4.2,3.6
0.4140625,0.00011620451125658047,-0.0001645425310856794,-0.00024364105074387731,-0.00012401771537193864,4.2,3.6
0.41796875,0.00010546218323949037,-0.00013915565151293203,-0.00020068295196154723,-0.00012352433078660258,4.2,3.6
0.421875,9.960884793163962e-05,-7.909729153429464e-05,-0.00013915565151293203,-0.00012011549183337146,4.2,3.6
0.42578125,8.202641543602658e-05,-4.883263253833827e-05,-0.00012451109995727472,-0.00011376877194018461,4.2,3.6
0.4296875,5.467721080796522e-05,-2.5879036034180194e-05,-8.59261827267872e-05,-0.00010545972699168382,4.2,3.6
0.43359375,5.907281893186848e-05,1.6596891448844147e-05,-5.957496055542838e-05,-9.471739897459371e-05,4.2,3.6
0.4375,6.1035143987182435e-05,3.8563718782330066e-05,-2.9792472858777733e-05,-7.860390694895855e-05,4.2,3.6
0.44140625,4.003265925230795e-05,5.0292815970092335e-05,4.385622961776164e-06,-7.520628128175783e-05,4.2,3.6
0.4453125,3.1734827589837505e-05,5.467721080796522e-05,3.026588711985964e-05,-7.520628128175783e-05,4.2,3.6
0.44921875,4.345271149156941e-05,7.616186684214543e-05,4.979943138475626e-05,-6.006834514076446e-05,4.2,3.6
0.453125,4.6872763730830864e-05,0.00010253551558556497,5.1750543154039856e-05,-5.322824066224153e-05,4.2,3.6
0.45703125,4.7354935030136584e-05,0.00012352678703440913,7.225964330357825e-05,-4.39548531151293e-05,4.2,3.6
0.4609375,4.492165196154728e-05,0.00015380265931639583,0.0001152289553719387,-9.765544008545035e-06,4.2,3.6
0.46484375,5.361178846417957e-06,0.0001259712833890288,9.32509147524224e-05,-1.7581204371709758e-05,4.2,3.6
0.46875,-1.660564848706796e-05,9.764652287632566e-05,7.225964330357825e-05,-3.4188080982680995e-05,4.2,3.6
0.47265625,-3.3694696397344914e-05,0.00011035117594872971,9.960884793163962e-05,-1.4161152132448294e-05,4.2,3.6
0.4765625,-2.344575296559089e-05,0.00015330927473105975,0.00013573805552147709,1.7079062748149867e-05,4.2,3.6
0.48046875,1.4152395094224473e-05,0.00015917382332494091,0.0001225512311497673,5.361178846417957e-06,4.2,3.6
0.484375,1.317683920958268e-05,0.00012157567526512553,9.569541110704207e-05,-2.295236838025481e-05,4.2,3.6
0.48828125,-1.3678980833142573e-05,8.202641543602658e-05,8.984207579919129e-05,-1.9050144841687633e-05,4.2,3.6
0.4921875,-3.4188080982680995e-05,5.6146151277943115e-05,7.128408741893647e-05,-3.0768028743419524e-05,4.2,3.6
0.49609375,-4.1016972175173556e-05,7.079070283360039e-05,6.0541759401846374e-05,-3.858368910658425e-05,4.2,3.6
0.5,-2.0025700726329425e-05,9.423768392309455e-05,8.055747496604868e-05,-1.8556760256351552e-05,4.2,3.6
0.50390625,-2.4421308850232683e-05,9.618879569237814e-05,9.227535886778059e-05,-1.3678980833142573e-05,4.2,3.6
0.5078125,-3.6139192751964584e-05,9.960884793163962e-05,8.886651991454951e-05,-1.5136708017090086e-05,4.2,3.6
0.51171875,-2.197681249561301e-05,0.0001123022877180133,9.0324247098497e-05,-1.270342494850078e-05,4.2,3.6
0.515625,-9.985162127094326e-09,0.0001279223951583124,0.00010985779136339363,7.323503901731911e-06,4.2,3.6
0.51953125,1.904138780346382e-05,0.00014598699895323114,0.0001279223951583124,3.319255477378502e-05,4.2,3.6
0.5234375,-1.1727869063858988e-05,0.00010888223547875182,9.0324247098497e-05,-6.356705055313938e-06,4.2,3.6
0.52734375,-2.247019708094909e-05,9.0324247098497e-05,6.88395910643168e-05,-2.3927924264896602e-05,4.2,3.6
0.53125,-4.394379999999984e-06,0.00011132673183337149,7.909974778210118e-05,-1.1727869063858988e-05,4.2,3.6
0.53515625,-1.9050144841687633e-05,0.00010253551558556497,8.105085955138477e-05,-1.5136708017090086e-05,4.2,3.6
0.5390625,-2.3927924264896602e-05,0.00010693112370946823,8.886651991454951e-05,1.458955307850786e-06,4.2,3.6
0.54296875,-1.5136708017090086e-05,0.00010351107147020678,9.374429933775845e-05,8.299059786373717e-06,4.2,3.6
0.546875,-9.85541046768887e-07,8.984207579919129e-05,8.300197132066836e-05,1.458955307850786e-06,4.2,3.6
0.55078125,1.1225727440299095e-05,0.00011962456349584195,0.00011180890313267722,1.8548003218127732e-05,4.2,3.6
0.5546875,-1.6123477187762247e-05,0.00010546218323949037,0.00011180890313267722,1.3670223794918769e-05,4.2,3.6
0.55859375,-1.31855962478065e-05,8.592863897459374e-05,0.00010155995970092319,1.4645779679560561e-05,4.2,3.6
0.5625,4.385622961776164e-06,7.812419189745938e-05,8.837313532921343e-05,1.8065831918822026e-05,4.2,3.6
0.56640625,-2.9299088273441652e-05,4.833049091477838e-05,5.8097263047226704e-05,-6.8388763546196565e-06,4.2,3.6
0.5703125,-4.932601712367436e-05,5.3219483624017725e-05,5.6639535863279176e-05,-2.0507872025635138e-05,4.2,3.6
0.57421875,-2.295236838025481e-05,6.59129234103914e-05,6.59129234103914e-05,-1.1727869063858988e-05,4.2,3.6
0.578125,1.95233989318686e-06,6.688847929503321e-05,7.079070283360039e-05,9.756786970321215e-06,4.2,3.6
0.58203125,-2.100125661097122e-05,4.784831961547267e-05,5.3219483624017725e-05,-2.936652816052472e-06,4.2,3.6
0.5859375,-5.225268477759974e-05,3.368593935912111e-05,3.417932394445718e-05,-1.6123477187762247e-05,4.2,3.6
0.58984375,-5.175930019226366e-05,3.6130435713740764e-05,3.9057103367666154e-05,-1.1234484478522915e-05,4.2,3.6
0.59375,-3.760813322194246e-05,2.6845834880598176e-05,3.026588711985964e-05,-1.8556760256351552e-05,4.2,3.6
0.59765625,-1.5136708017090086e-05,3.075927170519571e-05,3.955048795300223e-05,-1.5630092602426166e-05,4.2,3.6
0.6015625,-9.985162127094326e-09,4.5403823260853e-05,4.492165196154728e-05,-4.8877645853360576e-06,4.2,3.6
0.60546875,-1.4161152132448294e-05,3.710599159838256e-05,3.9057103367666154e-05,-9.283372709239316e-06,4.2,3.6
0.609375,-3.4188080982680995e-05,3.955048795300223e-05,4.5897207846189076e-05,-1.1727869063858988e-05,4.2,3.6
0.61328125,-5.225268477759974e-05,4.6872763730830864e-05,4.345271149156941e-05,-6.8388763546196565e-06,4.2,3.6
0.6171875,-5.517935243152512e-05,1.1707898739604814e-05,2.978371582055392e-05,-8.307816824597524e-06,4.2,3.6
0.62109375,-2.8816916974135942e-05,4.879007547112252e-06,3.319255477378502e-05,-1.0752313179217195e-05,4.2,3.6
0.625,-1.660564848706796e-05,2.049911498741133e-05,3.515487982909897e-05,-2.4421308850232683e-05,4.2,3.6
0.62890625,-2.7841361089494148e-05,8.781231085679422e-06,1.6596891448844147e-05,-3.3694696397344914e-05,4.2,3.6
0.6328125,-3.2236969213397407e-05,5.854563431754045e-06,6.336734731059764e-06,-2.0025700726329425e-05,4.2,3.6
0.63671875,-3.0768028743419524e-05,1.0732342854963021e-05,1.0732342854963021e-05,-1.6123477187762247e-05,4.2,3.6
0.640625,-3.955924499122604e-05,8.781231085679422e-06,2.6845834880598176e-05,-6.8388763546196565e-06,4.2,3.6
0.64453125,-5.420379654688332e-05,2.9278957778286665e-06,1.6596891448844147e-05,-9.985162127094326e-09,4.2,3.6
0.6484375,-6.934173268787668e-05,-9.985162127094326e-09,-6.8388763546196565e-06,-1.2210040363164708e-05,4.2,3.6
0.65234375,-5.957496055542838e-05,3.903451662470459e-06,-8.789988123903242e-06,-2.0025700726329425e-05,4.2,3.6
0.65625,-5.078374430762186e-05,-1.31855962478065e-05,-9.283372709239316e-06,-2.100125661097122e-05,4.2,3.6
0.66015625,-6.201945691004805e-05,-3.1743584628061325e-05,-1.8074588957045832e-05,-1.8074588957045832e-05,4.2,3.6
0.6640625,-8.49506268421454e-05,-1.660564848706796e-05,-2.100125661097122e-05,-1.4161152132448294e-05,4.2,3.6
0.66796875,-8.983961955138474e-05,-3.912208700694265e-06,-3.4188241153581913e-06,-1.1727869063858988e-05,4.2,3.6
0.671875,-5.322824066224153e-05,-9.283372709239316e-06,5.854563431754045e-06,-1.4654536717784373e-05,4.2,3.6
0.67578125,-3.6139192751964584e-05,-3.0274644158083446e-05,-1.7581204371709758e-05,-2.7841361089494148e-05,4.2,3.6
0.6796875,-4.2485912645151425e-05,-3.0768028743419524e-05,-2.1494641196307297e-05,-3.271914051270312e-05,4.2,3.6
0.68359375,-3.46702522819867e-05,-3.46702522819867e-05,-1.9050144841687633e-05,-2.344575296559089e-05,4.2,3.6
0.6875,-2.9792472858777733e-05,-3.809030452124817e-05,-2.0507872025635138e-05,-3.0768028743419524e-05,4.2,3.6
0.69140625,-4.053480087586784e-05,-3.46702522819867e-05,-2.637242061951627e-05,-3.809030452124817e-05,4.2,3.6
0.6953125,-6.446395326466772e-05,-4.835046123903256e-05,-3.0274644158083446e-05,-2.9792472858777733e-05,4.2,3.6
0.69921875,-6.201945691004805e-05,-4.39548531151293e-05,-2.9299088273441652e-05,-1.7581204371709758e-05,4.2,3.6
0.703125,-7.520628128175783e-05,-4.2485912645151425e-05,-2.5396864734874474e-05,-1.660564848706796e-05,4.2,3.6
0.70703125,-9.716189532921338e-05,-3.711474863660638e-05,-7.81443223926145e-06,-1.2210040363164708e-05,4.2,3.6
0.7109375,-6.592168044861523e-05,-3.271914051270312e-05,-7.81443223926145e-06,-1.8074588957045832e-05,4.2,3.6
0.71484375,-5.225268477759974e-05,-4.6881520769054684e-05,-2.4903480149538393e-05,-3.0274644158083446e-05,4.2,3.6
0.71875,-5.6648292901502996e-05,-4.785707665369648e-05,-3.1743584628061325e-05,-2.686580520485235e-05,4.2,3.6
0.72265625,-4.053480087586784e-05,-3.2236969213397407e-05,-9.765544008545035e-06,-3.0768028743419524e-05,4.2,3.6
0.7265625,-4.63881361837186e-05,-2.4421308850232683e-05,-4.921564614327991e-07,-2.9299088273441652e-05,4.2,3.6
0.73046875,-5.859940467078658e-05,-2.8816916974135942e-05,-2.344575296559089e-05,-2.197681249561301e-05,4.2,3.6
0.734375,-4.199252805981535e-05,-3.760813322194246e-05,-2.9792472858777733e-05,-1.9532316140993343e-05,4.2,3.6
0.73828125,-3.66213640512703e-05,-5.273485607690546e-05,-3.2236969213397407e-05,-1.7581204371709758e-05,4.2,3.6
0.7421875,-4.346146852979322e-05,-5.322824066224153e-05,-2.7347976504158067e-05,-2.1494641196307297e-05,4.2,3.6
0.74609375,-5.420379654688332e-05,-4.346146852979322e-05,-1.9050144841687633e-05,-1.9050144841687633e-05,4.2,3.6
0.75,-7.860390694895855e-05,-3.46702522819867e-05,-2.0025700726329425e-05,-1.709903307240404e-05,4.2,3.6
0.75390625,-7.178622904249636e-05,-3.3694696397344914e-05,-2.100125661097122e-05,-2.0507872025635138e-05,4.2,3.6
0.7578125,-5.469718113221941e-05,-4.1016972175173556e-05,-1.9050144841687633e-05,-2.9792472858777733e-05,4.2,3.6
0.76171875,-6.250162820935376e-05,-4.883263253833827e-05,-3.4188080982680995e-05,-3.3694696397344914e-05,4.2,3.6
0.765625,-6.592168044861523e-05,-6.347718409399556e-05,-5.810602008545051e-05,-3.56458081666285e-05,4.2,3.6
0.76953125,-5.9092789256122666e-05,-4.346146852979322e-05,-2.4903480149538393e-05,-4.004141629053176e-05,4.2,3.6
0.7734375,-5.859940467078658e-05,-2.7347976504158067e-05,-1.1234484478522915e-05,-4.151035676050964e-05,4.2,3.6
0.77734375,-5.762384878614479e-05,-2.5879036034180194e-05,-3.4188241153581913e-06,-3.3694696397344914e-05,4.2,3.6
0.78125,-4.6881520769054684e-05,-1.0258928593881109e-05,4.833994232089935e-07,-2.344575296559089e-05,4.2,3.6
0.78515625,-5.420379654688332e-05,-3.0274644158083446e-05,-2.295236838025481e-05,-3.0768028743419524e-05,4.2,3.6
0.7890625,-6.884834810254061e-05,-7.081067315785457e-05,-5.273485607690546e-05,-3.4188080982680995e-05,4.2,3.6
0.79296875,-7.081067315785457e-05,-6.543950914930951e-05,-5.225268477759974e-05,-2.9299088273441652e-05,4.2,3.6
0.796875,-7.373734081177994e-05,-5.273485607690546e-05,-3.3694696397344914e-05,-2.4421308850232683e-05,4.2,3.6
0.80078125,-6.641506503395131e-05,-6.347718409399556e-05,-3.46702522819867e-05,-3.0768028743419524e-05,4.2,3.6
0.8046875,-6.543950914930951e-05,-4.835046123903256e-05,-2.9299088273441652e-05,-2.8816916974135942e-05,4.2,3.6
0.80859375,-5.762384878614479e-05,-1.4161152132448294e-05,-1.0752313179217195e-05,-4.394379999999984e-06,4.2,3.6
0.8125,-2.4421308850232683e-05,1.458955307850786e-06,5.854563431754045e-06,1.1225727440299095e-05,4.2,3.6
0.81640625,-4.053480087586784e-05,-3.0768028743419524e-05,-4.2979297230487506e-05,-2.4421308850232683e-05,4.2,3.6
0.8203125,-6.884834810254061e-05,-6.201945691004805e-05,-6.250162820935376e-05,-4.443702441443502e-05,4.2,3.6
0.82421875,-7.129284445716028e-05,-5.6648292901502996e-05,-3.2236969213397407e-05,-2.686580520485235e-05,4.2,3.6
0.828125,-6.494612456397343e-05,-4.346146852979322e-05,-2.4903480149538393e-05,-2.1494641196307297e-05,4.2,3.6
0.83203125,-6.884834810254061e-05,-4.346146852979322e-05,-3.711474863660638e-05,-3.516363686732278e-05,4.2,3.6
0.8359375,-7.226840034180207e-05,-4.835046123903256e-05,-4.053480087586784e-05,-2.4421308850232683e-05,4.2,3.6
0.83984375,-5.078374430762186e-05,-4.053480087586784e-05,-3.1743584628061325e-05,-8.307816824597524e-06,4.2,3.6
0.84375,-3.809030452124817e-05,-3.4188080982680995e-05,-3.271914051270312e-05,-1.4654536717784373e-05,4.2,3.6
0.84765625,-4.5412580299076815e-05,-3.1250200042725244e-05,-4.199252805981535e-05,-2.637242061951627e-05,4.2,3.6
0.8515625,-5.6154908316166915e-05,-2.5396864734874474e-05,-5.372162524757762e-05,-2.295236838025481e-05,4.2,3.6
0.85546875,-6.006834514076446e-05,-1.8074588957045832e-05,-4.5412580299076815e-05,-1.3678980833142573e-05,4.2,3.6
0.859375,-6.006834514076446e-05,-1.7581204371709758e-05,-2.4903480149538393e-05,-1.660564848706796e-05,4.2,3.6
0.86328125,-6.299501279468984e-05,-2.5396864734874474e-05,-2.9299088273441652e-05,-2.1494641196307297e-05,4.2,3.6
0.8671875,-6.689723633325702e-05,-5.420379654688332e-05,-4.5412580299076815e-05,-3.56458081666285e-05,4.2,3.6
0.87109375,-7.226840034180207e-05,-4.785707665369648e-05,-4.151035676050964e-05,-3.809030452124817e-05,4.2,3.6
0.875,-4.5412580299076815e-05,-1.9532316140993343e-05,-1.7581204371709758e-05,-1.4654536717784373e-05,4.2,3.6
0.87890625,-1.9050144841687633e-05,-2.247019708094909e-05,-1.6123477187762247e-05,-9.765544008545035e-06,4.2,3.6
0.8828125,-3.2236969213397407e-05,-2.3927924264896602e-05,-2.832353238879986e-05,-2.637242061951627e-05,4.2,3.6
0.88671875,-4.39548531151293e-05,-2.9299088273441652e-05,-2.637242061951627e-05,-3.46702522819867e-05,4.2,3.6
0.890625,-4.004141629053176e-05,-3.0768028743419524e-05,-3.66213640512703e-05,-2.9299088273441652e-05,4.2,3.6
0.89453125,-3.858368910658425e-05,-1.5630092602426166e-05,-3.3694696397344914e-05,-1.709903307240404e-05,4.2,3.6
0.8984375,-2.832353238879986e-05,-6.8388763546196565e-06,-2.295236838025481e-05,-1.660564848706796e-05,4.2,3.6
0.90234375,-1.8074588957045832e-05,-1.270342494850078e-05,-3.711474863660638e-05,-2.9792472858777733e-05,4.2,3.6
0.90625,-3.2236969213397407e-05,-2.832353238879986e-05,-3.46702522819867e-05,-2.247019708094909e-05,4.2,3.6
0.91015625,-4.785707665369648e-05,-4.835046123903256e-05,-2.8816916974135942e-05,-2.197681249561301e-05,4.2,3.6
0.9140625,-4.39548531151293e-05,-4.63881361837186e-05,-4.053480087586784e-05,-3.56458081666285e-05,4.2,3.6
0.91796875,-1.0752313179217195e-05,-2.100125661097122e-05,-1.660564848706796e-05,-1.0752313179217195e-05,4.2,3.6
0.921875,9.655707225146983e-07,-2.344575296559089e-05,-7.81443223926145e-06,-1.270342494850078e-05,4.2,3.6
0.92578125,-1.4654536717784373e-05,-4.004141629053176e-05,-2.7841361089494148e-05,-3.4188080982680995e-05,4.2,3.6
0.9296875,-3.66213640512703e-05,-5.6154908316166915e-05,-5.56727370168612e-05,-4.2485912645151425e-05,4.2,3.6
0.93359375,-4.199252805981535e-05,-5.517935243152512e-05,-6.0550516440070174e-05,-3.46702522819867e-05,4.2,3.6
0.9375,-4.5905964884412896e-05,-4.6881520769054684e-05,-5.372162524757762e-05,-2.7347976504158067e-05,4.2,3.6
0.94140625,-4.5412580299076815e-05,-5.322824066224153e-05,-3.46702522819867e-05,-2.7841361089494148e-05,4.2,3.6
0.9453125,-4.5412580299076815e-05,-4.932601712367436e-05,-3.760813322194246e-05,-3.3694696397344914e-05,4.2,3.6
0.94921875,-4.5905964884412896e-05,-2.5396864734874474e-05,-4.346146852979322e-05,-2.295236838025481e-05,4.2,3.6
0.953125,-3.2236969213397407e-05,-8.789988123903242e-06,-5.86332046997785e-06,6.336734731059764e-06,4.2,3.6
0.95703125,-3.858368910658425e-05,-2.4421308850232683e-05,-2.197681249561301e-05,-1.2210040363164708e-05,4.2,3.6
0.9609375,-3.906586040588996e-05,-2.832353238879986e-05,-3.56458081666285e-05,-4.151035676050964e-05,4.2,3.6
0.96484375,-2.686580520485235e-05,-3.1250200042725244e-05,-2.3927924264896602e-05,-3.711474863660638e-05,4.2,3.6
0.96875,-3.711474863660638e-05,-3.711474863660638e-05,-1.5136708017090086e-05,-3.32125250980392e-05,4.2,3.6
0.97265625,-4.835046123903256e-05,-3.32125250980392e-05,-2.1494641196307297e-05,-3.46702522819867e-05,4.2,3.6
0.9765625,-4.7363692068360404e-05,-4.2485912645151425e-05,-4.5905964884412896e-05,-3.4188080982680995e-05,4.2,3.6
0.98046875,-3.858368910658425e-05,-4.004141629053176e-05,-3.760813322194246e-05,-3.809030452124817e-05,4.2,3.6
0.984375,-2.4421308850232683e-05,-3.46702522819867e-05,-1.8074588957045832e-05,-2.9792472858777733e-05,4.2,3.6
0.98828125,-7.33226093995573e-06,-2.344575296559089e-05,-2.295236838025481e-05,-2.0507872025635138e-05,4.2,3.6
0.9921875,-1.2210040363164708e-05,-2.7841361089494148e-05,-4.053480087586784e-05,-2.7841361089494148e-05,4.2,3.6
0.99609375,-1.9532316140993343e-05,-3.3694696397344914e-05,-4.6881520769054684e-05,-2.9792472858777733e-05,4.2,3.6
1.0,-3.46702522819867e-05,-4.443702441443502e-05,-4.9808188422980074e-05,-3.4188080982680995e-05,4.2,3.6
1.00390625,-5.9092789256122666e-05,-6.73906209185931e-05,-5.0301573008316155e-05,-4.5905964884412896e-05,4.2,3.6
1.0078125,-5.9092789256122666e-05,-5.7130464200808716e-05,-4.2979297230487506e-05,-5.420379654688332e-05,4.2,3.6
1.01171875,-4.5412580299076815e-05,-6.397056867933164e-05,-6.104390102540625e-05,-6.152607232471197e-05,4.2,3.6
1.015625,-4.053480087586784e-05,-5.810602008545051e-05,-4.6881520769054684e-05,-3.66213640512703e-05,4.2,3.6
1.01953125,-1.2210040363164708e-05,-2.4903480149538393e-05,-2.936652816052472e-06,-6.8388763546196565e-06,4.2,3.6
1.0234375,1.4645779679560561e-05,-2.936652816052472e-06,5.854563431754045e-06,-4.394379999999984e-06,4.2,3.6
1.02734375,-2.5396864734874474e-05,-9.765544008545035e-06,-9.283372709239316e-06,-2.4903480149538393e-05,4.2,3.6
1.03125,-4.932601712367436e-05,-3.66213640512703e-05,-3.906586040588996e-05,-4.2485912645151425e-05,4.2,3.6
1.03515625,-3.0768028743419524e-05,-5.372162524757762e-05,-5.7130464200808716e-05,-4.2979297230487506e-05,4.2,3.6
1.0390625,-1.3678980833142573e-05,-4.443702441443502e-05,-3.6139192751964584e-05,-3.4188080982680995e-05,4.2,3.6
1.04296875,-2.3927924264896602e-05,-3.66213640512703e-05,-1.709903307240404e-05,-2.5396864734874474e-05,4.2,3.6
1.046875,-3.711474863660638e-05,-4.004141629053176e-05,-3.711474863660638e-05,-2.5396864734874474e-05,4.2,3.6
1.05078125,-3.3694696397344914e-05,-3.2236969213397407e-05,-5.6154908316166915e-05,-2.4903480149538393e-05,4.2,3.6
1.0546875,-3.2236969213397407e-05,-3.66213640512703e-05,-4.2485912645151425e-05,-1.9050144841687633e-05,4.2,3.6
1.05859375,7.80567520103763e-06,-7.33226093995573e-06,1.6103506863508072e-05,5.854563431754045e-06,4.2,3.6
1.0625,8.299059786373717e-06,4.879007547112252e-06,1.317683920958268e-05,4.833994232089935e-07,4.2,3.6
1.06640625,-2.686580520485235e-05,-5.322824066224153e-05,-4.346146852979322e-05,-3.2236969213397407e-05,4.2,3.6
1.0703125,-2.197681249561301e-05,-4.5905964884412896e-05,-3.809030452124817e-05,-3.1250200042725244e-05,4.2,3.6
1.07421875,-3.0274644158083446e-05,-2.3927924264896602e-05,-2.197681249561301e-05,-3.4188080982680995e-05,4.2,3.6
1.078125,-1.2210040363164708e-05,-1.2210040363164708e-05,-3.4188241153581913e-06,-1.2210040363164708e-05,4.2,3.6
1.08203125,9.756786970321215e-06,-4.921564614327991e-07,9.756786970321215e-06,1.317683920958268e-05,4.2,3.6
1.0859375,2.1968055457389197e-05,4.879007547112252e-06,4.833994232089935e-07,-9.85541046768887e-07,4.2,3.6
1.08984375,5.6639535863279176e-05,4.7354935030136584e-05,2.587027899595638e-05,2.294361134203099e-05,4.2,3.6
1.09375,2.5388107696650664e-05,-3.6139192751964584e-05,-2.197681249561301e-05,-1.709903307240404e-05,4.2,3.6
1.09765625,-6.356705055313938e-06,-9.4235227675288e-05,-8.25173437735561e-05,-5.0301573008316155e-05,4.2,3.6
1.1015625,-2.8816916974135942e-05,-5.56727370168612e-05,-6.201945691004805e-05,-2.0025700726329425e-05,4.2,3.6
1.10546875,-3.1743584628061325e-05,-4.835046123903256e-05,-4.9808188422980074e-05,-1.7581204371709758e-05,4.2,3.6
1.109375,-1.709903307240404e-05,-7.031728857251849e-05,-6.397056867933164e-05,-1.1234484478522915e-05,4.2,3.6
1.11328125,-2.0025700726329425e-05,-8.983961955138474e-05,-7.860390694895855e-05,4.385622961776164e-06,4.2,3.6
1.1171875,1.95233989318686e-06,-8.59261827267872e-05,-8.739512319676507e-05,9.655707225146983e-07,4.2,3.6
1.12109375,3.710599159838256e-05,-0.00010692866746166168,-0.00010545972699168382,8.299059786373717e-06,4.2,3.6
1.125,5.9566203517204566e-05,-0.00012206660360265505,-0.0001254866558419165,2.7821390765239967e-05,4.2,3.6
1.12890625,3.8563718782330066e-05,-0.00015672687072251464,-0.00016308480390173188,2.294361134203099e-05,4.2,3.6
1.1328125,2.831477535057604e-05,-0.0001918917357137407,-0.000196287343837644,1.7079062748149867e-05,4.2,3.6
1.13671875,6.738186388036928e-05,-0.00017675379957274735,-0.00016746919873960478,4.784831961547267e-05,4.2,3.6
1.140625,0.0001005844038162814,-0.00018163157899595635,-0.00017088925097886624,6.346842705577174e-05,4.2,3.6
1.14453125,0.00011669789584191656,-0.00018749612758983748,-0.00020311623503013656,5.224392773937592e-05,4.2,3.6
1.1484375,9.129980298313881e-05,-0.00022802094330357824,-0.0002587789868848707,1.0732342854963021e-05,4.2,3.6
1.15234375,0.0001342691150514992,-0.00023436766319676506,-0.00026122348323949035,2.5388107696650664e-05,4.2,3.6
1.15625,0.00013281138786755173,-0.0002602479273548486,-0.00027001469948729687,4.150159972228582e-05,4.2,3.6
1.16015625,5.1750543154039856e-05,-0.0003178617909788662,-0.0003027238548378729,4.879007547112252e-06,4.2,3.6
1.1640625,5.859064763256276e-05,-0.00032128184321812773,-0.0003266530072266728,-3.760813322194246e-05,4.2,3.6
1.16796875,0.00016064276379491876,-0.0002407143830899519,-0.0002714836399572747,1.0732342854963021e-05,4.2,3.6
1.171875,0.00018798075513694977,-0.00021093189539330128,-0.00023876327132066832,5.3701654923323445e-05,4.2,3.6
1.17578125,0.00012646466797436485,-0.0002812391988036927,-0.0002954015790600442,-2.197681249561301e-05,4.2,3.6
1.1796875,0.00010595556782482645,-0.0003164040637949188,-0.00031053951520103757,-7.324395622644387e-05,4.2,3.6
1.18359375,0.00011278445901731902,-0.00027001469948729687,-0.00027099025537193864,-5.810602008545051e-05,4.2,3.6
1.1875,0.00014355371588464184,-0.00021142527997863736,-0.0002104385108079652,-3.809030452124817e-05,4.2,3.6
1.19140625,0.00016796503957274743,-0.0001953117879530022,-0.00019042279524376286,-3.56458081666285e-05,4.2,3.6
1.1953125,0.000157704882854963,-0.000188953854773785,-0.00018749612758983748,-6.152607232471197e-05,4.2,3.6
1.19921875,0.00014892487989318686,-0.00017919829592736704,-0.00017577824368810558,-8.49506268421454e-05,4.2,3.6
1.203125,0.00013915810776073858,-0.00015819581119249254,-0.00016064030754711221,-7.471289669642174e-05,4.2,3.6
1.20703125,0.00012694683927367057,-0.0001254866558419165,-0.00013183337573510336,-7.618183716639962e-05,4.2,3.6
1.2109375,0.0001464803835385672,-8.299951507286181e-05,-0.00010400199980773631,-7.618183716639962e-05,4.2,3.6
1.21484375,0.0001367136114061189,-7.568845258106354e-05,-8.446845554283969e-05,-7.276178492713814e-05,4.2,3.6
1.21875,9.521323980773636e-05,-8.886406366674295e-05,-6.494612456397343e-05,-9.081517543602654e-05,4.2,3.6
1.22265625,8.592863897459374e-05,-5.175930019226366e-05,-5.0301573008316155e-05,-9.765527991454946e-05,4.2,3.6
1.2265625,9.374429933775845e-05,4.833994232089935e-07,-2.9299088273441652e-05,-8.34928996581979e-05,4.2,3.6
1.23046875,7.079070283360039e-05,-1.0752313179217195e-05,-1.4161152132448294e-05,-7.909729153429464e-05,4.2,3.6
1.234375,4.393488279087512e-05,-2.9792472858777733e-05,-1.7581204371709758e-05,-9.179073132066833e-05,4.2,3.6
1.23828125,3.8081547483024367e-05,-1.3678980833142573e-05,2.9278957778286665e-06,-9.765527991454946e-05,4.2,3.6
1.2421875,3.1734827589837505e-05,-7.33226093995573e-06,2.2450226756694917e-05,-8.983961955138474e-05,4.2,3.6
1.24609375,3.124144300450143e-05,8.781231085679422e-06,4.052604383764402e-05,-8.641956731212328e-05,4.2,3.6
1.25,6.336734731059764e-06,1.317683920958268e-05,2.880815993591213e-05,-0.00010985533511558708,4.2,3.6
1.25390625,-9.85541046768887e-07,1.95233989318686e-06,2.6363663581292456e-05,-9.765527991454946e-05,4.2,3.6
1.2578125,1.0250171555657303e-05,2.6363663581292456e-05,6.835741976501109e-05,-5.225268477759974e-05,4.2,3.6
1.26171875,-3.711474863660638e-05,3.4100670771343713e-06,2.3919167226672782e-05,-8.886406366674295e-05,4.2,3.6
1.265625,-5.322824066224153e-05,-2.344575296559089e-05,-5.3811491706721455e-06,-0.00011913993594872968,4.2,3.6
1.26953125,-4.9808188422980074e-05,1.95233989318686e-06,3.27103834744793e-05,-9.813745121385516e-05,4.2,3.6
1.2734375,-8.25173437735561e-05,2.9278957778286665e-06,1.512795097886628e-05,-0.00010400199980773631,4.2,3.6
1.27734375,-9.276628720531012e-05,4.833994232089935e-07,2.001694368810561e-05,-0.00011327538735484853,4.2,3.6
1.28125,-7.520628128175783e-05,2.831477535057604e-05,5.859064763256276e-05,-9.66685107438773e-05,4.2,3.6
1.28515625,-8.104840330357822e-05,2.2450226756694917e-05,4.6872763730830864e-05,-0.00010302644392309452,4.2,3.6
1.2890625,-8.886406366674295e-05,9.27461567101551e-06,2.831477535057604e-05,-0.00011229983147020675,4.2,3.6
1.29296875,-8.15417878889143e-05,-3.4188241153581913e-06,1.3670223794918769e-05,-9.716189532921338e-05,4.2,3.6
1.296875,-7.226840034180207e-05,5.361178846417957e-06,1.904138780346382e-05,-8.299951507286181e-05,4.2,3.6
1.30078125,-8.104840330357822e-05,-9.985162127094326e-09,3.319255477378502e-05,-9.228411590600441e-05,4.2,3.6
1.3046875,-0.0001049775556923781,-2.344575296559089e-05,5.854563431754045e-06,-0.00011425094323949034,4.2,3.6
1.30859375,-9.52107835599298e-05,1.6103506863508072e-05,1.6596891448844147e-05,-0.00010692866746166168,4.2,3.6
1.3125,-7.520628128175783e-05,4.2477155606927605e-05,5.9566203517204566e-05,-8.15417878889143e-05,4.2,3.6
1.31640625,-8.299951507286181e-05,2.3919167226672782e-05,4.833049091477838e-05,-7.909729153429464e-05,4.2,3.6
1.3203125,-9.863083579919126e-05,-9.85541046768887e-07,1.904138780346382e-05,-8.739512319676507e-05,4.2,3.6
1.32421875,-0.00011083089100022887,-1.6123477187762247e-05,1.904138780346382e-05,-9.4235227675288e-05,4.2,3.6
1.328125,-0.00011717761089341572,-1.4161152132448294e-05,2.441255181200887e-05,-8.983961955138474e-05,4.2,3.6
1.33203125,-0.00013085781985046157,-2.0507872025635138e-05,3.2216998889143225e-05,-8.59261827267872e-05,4.2,3.6
1.3359375,-0.00012352433078660258,1.2694667910276976e-05,4.6872763730830864e-05,-7.957946283360036e-05,4.2,3.6
1.33984375,-0.00010790422334630349,3.563705112840469e-05,4.833049091477838e-05,-8.25173437735561e-05,4.2,3.6
1.34375,-0.00012499327125658043,5.854563431754045e-06,3.1734827589837505e-05,-9.081517543602654e-05,4.2,3.6
1.34765625,-0.00012694438302586402,1.5621335564202352e-05,5.272609903868164e-05,-7.618183716639962e-05,4.2,3.6
1.3515625,-0.00010203967475242236,2.5388107696650664e-05,4.5897207846189076e-05,-7.957946283360036e-05,4.2,3.6
1.35546875,-0.00010643528287632561,-1.5136708017090086e-05,7.80567520103763e-06,-0.00011132427558556494,4.2,3.6
1.359375,-0.00010448417110704203,-1.2210040363164708e-05,1.904138780346382e-05,-0.00010155750345311664,4.2,3.6
1.36328125,-9.960639168383305e-05,2.9278957778286665e-06,1.7079062748149867e-05,-7.618183716639962e-05,4.2,3.6
1.3671875,-0.00011474432782482642,-1.9610969314106794e-06,4.385622961776164e-06,-8.446845554283969e-05,4.2,3.6
1.37109375,-0.00010887977923094528,1.458955307850786e-06,3.417932394445718e-05,-8.934623496604866e-05,4.2,3.6
1.375,-0.00011474432782482642,-1.4654536717784373e-05,2.929033123521785e-05,-8.837067908140687e-05,4.2,3.6
1.37890625,-0.00011034871970092316,-1.1234484478522915e-05,1.8065831918822026e-05,-7.373734081177994e-05,4.2,3.6
1.3828125,-9.4235227675288e-05,-2.9299088273441652e-05,-6.8388763546196565e-06,-6.397056867933164e-05,4.2,3.6
1.38671875,-0.00010839760793163957,-3.1250200042725244e-05,-2.4432682307163986e-06,-6.250162820935376e-05,4.2,3.6
1.390625,-0.00011717761089341572,-4.2979297230487506e-05,1.3670223794918769e-05,-6.250162820935376e-05,4.2,3.6
1.39453125,-0.0001186465513633936,-5.420379654688332e-05,-7.33226093995573e-06,-7.178622904249636e-05,4.2,3.6
1.3984375,-0.00010106411886778056,-1.9532316140993343e-05,-9.85541046768887e-07,-7.081067315785457e-05,4.2,3.6
1.40234375,-8.837067908140687e-05,-2.936652816052472e-06,2.049911498741133e-05,-6.299501279468984e-05,4.2,3.6
1.40625,-9.32596717906462e-05,9.655707225146983e-07,1.904138780346382e-05,-5.175930019226366e-05,4.2,3.6
1.41015625,-9.374184308995192e-05,-7.33226093995573e-06,-4.921564614327991e-07,-5.517935243152512e-05,4.2,3.6
1.4140625,-8.299951507286181e-05,-1.270342494850078e-05,-9.85541046768887e-07,-5.762384878614479e-05,4.2,3.6
1.41796875,-6.934173268787668e-05,1.0732342854963021e-05,4.052604383764402e-05,-2.5396864734874474e-05,4.2,3.6
1.421875,-7.957946283360036e-05,1.95233989318686e-06,4.879007547112252e-06,-4.346146852979322e-05,4.2,3.6
1.42578125,-0.00011376877194018461,-6.006834514076446e-05,-7.373734081177994e-05,-9.32596717906462e-05,4.2,3.6
1.4296875,-0.00010741083876096741,-7.520628128175783e-05,-6.347718409399556e-05,-8.934623496604866e-05,4.2,3.6
1.43359375,-9.716189532921338e-05,-6.592168044861523e-05,-4.835046123903256e-05,-8.691295189745936e-05,4.2,3.6
1.4375,-9.813745121385516e-05,-7.421951211108566e-05,-5.7130464200808716e-05,-7.71573930510414e-05,4.2,3.6
1.44140625,-8.15417878889143e-05,-6.787279221789882e-05,-4.5905964884412896e-05,-5.469718113221941e-05,4.2,3.6
1.4453125,-7.860390694895855e-05,-5.273485607690546e-05,-4.2485912645151425e-05,-6.347718409399556e-05,4.2,3.6
1.44921875,-9.032179085069045e-05,-8.25173437735561e-05,-7.276178492713814e-05,-6.347718409399556e-05,4.2,3.6
1.453125,-8.202395918822002e-05,-0.00010985533511558708,-9.52107835599298e-05,-5.0301573008316155e-05,4.2,3.6
1.45703125,-7.226840034180207e-05,-9.960639168383305e-05,-0.0001284133234958419,-6.787279221789882e-05,4.2,3.6
1.4609375,-8.007284741893643e-05,-0.00014452681552147705,-0.00016209803473105972,-6.689723633325702e-05,4.2,3.6
1.46484375,-8.25173437735561e-05,-0.00018407607535057602,-0.0001420823191668574,-3.0768028743419524e-05,4.2,3.6
1.46875,-5.517935243152512e-05,-0.00015038015082932782,-0.00011913993594872968,-1.5630092602426166e-05,4.2,3.6
1.47265625,-4.2979297230487506e-05,-0.000171864806863508,-0.00015429358765392537,-2.100125661097122e-05,4.2,3.6
1.4765625,-7.957946283360036e-05,-0.00025732125970092317,-0.00021435194763256272,-3.0274644158083446e-05,4.2,3.6
1.48046875,-9.863083579919126e-05,-0.00028320152385900664,-0.00023973882720531014,-3.6139192751964584e-05,4.2,3.6
1.484375,-7.957946283360036e-05,-0.00026512570677805753,-0.0002617168678248264,-2.8816916974135942e-05,4.2,3.6
1.48828125,-5.517935243152512e-05,-0.0002543833787609674,-0.00027049687078660255,-2.0025700726329425e-05,4.2,3.6
1.4921875,-5.859940467078658e-05,-0.00026366797959411,-0.00026317459500877394,-2.197681249561301e-05,4.2,3.6
1.49609375,-6.983511727321277e-05,-0.0002641501508934157,-0.0002402322117906462,9.27461567101551e-06,4.2,3.6
1.5,-8.691295189745936e-05,-0.00029882163129930575,-0.0002734347517265583,-4.394379999999984e-06,4.2,3.6
1.50390625,-0.00010302644392309452,-0.00033251755582055386,-0.00032714639181200884,-3.4188080982680995e-05,4.2,3.6
1.5078125,-5.56727370168612e-05,-0.00027928808703440907,-0.00028710374739757377,-9.283372709239316e-06,4.2,3.6
1.51171875,-5.517935243152512e-05,-0.0002621990391241321,-0.00026122348323949035,-1.9610969314106794e-06,4.2,3.6
1.515625,-5.6648292901502996e-05,-0.00025634570381628135,-0.00023925665590600442,3.1734827589837505e-05,4.2,3.6
1.51953125,-2.295236838025481e-05,-0.00024657893168383307,-0.0002314409955428397,3.710599159838256e-05,4.2,3.6
1.5234375,-5.469718113221941e-05,-0.00025975454276951245,-0.00025682787511558704,-9.765544008545035e-06,4.2,3.6
1.52734375,-7.129284445716028e-05,-0.0002621990391241321,-0.00023729433085069047,-1.270342494850078e-05,4.2,3.6
1.53125,-8.202395918822002e-05,-0.0002914993555214771,-0.000246085547098497,-2.7841361089494148e-05,4.2,3.6
1.53515625,-5.225268477759974e-05,-0.0002319231668421454,-0.00023631877496604865,-2.100125661097122e-05,4.2,3.6
1.5390625,-5.127712889295794e-05,-0.00021240083586327916,-0.00022460089106431677,-1.8074588957045832e-05,4.2,3.6
1.54296875,-9.52107835599298e-05,-0.00025732125970092317,-0.0002202052829404135,-3.809030452124817e-05,4.2,3.6
1.546875,-6.83661768032349e-05,-0.00019334946289768825,-0.0001831005194659342,-2.832353238879986e-05,4.2,3.6
1.55078125,-3.271914051270312e-05,-0.00013963782281223774,-0.00015575131483787287,-2.100125661097122e-05,4.2,3.6
1.5546875,-2.8816916974135942e-05,-0.00011474432782482642,-0.0001323155470344091,-3.4188080982680995e-05,4.2,3.6
1.55859375,-3.809030452124817e-05,-0.00010790422334630349,-0.00011180644688487067,-2.8816916974135942e-05,4.2,3.6
1.5625,-7.520628128175783e-05,-0.00012254877490196076,-9.179073132066833e-05,-2.5396864734874474e-05,4.2,3.6
1.56640625,-8.104840330357822e-05,-8.104840330357822e-05,-6.250162820935376e-05,-3.3694696397344914e-05,4.2,3.6
1.5703125,-6.201945691004805e-05,-3.906586040588996e-05,-3.1250200042725244e-05,-4.2979297230487506e-05,4.2,3.6
1.57421875,-5.7130464200808716e-05,1.95233989318686e-06,-2.8816916974135942e-05,-5.273485607690546e-05,4.2,3.6
1.578125,-5.078374430762186e-05,1.904138780346382e-05,-1.9532316140993343e-05,-5.127712889295794e-05,4.2,3.6
1.58203125,-5.957496055542838e-05,-5.3811491706721455e-06,-7.81443223926145e-06,-6.0550516440070174e-05,4.2,3.6
1.5859375,-7.178622904249636e-05,4.833994232089935e-07,-1.1234484478522915e-05,-8.202395918822002e-05,4.2,3.6
1.58984375,-7.129284445716028e-05,1.512795097886628e-05,9.655707225146983e-07,-8.25173437735561e-05,4.2,3.6
1.59375,-7.324395622644387e-05,9.756786970321215e-06,3.1734827589837505e-05,-7.520628128175783e-05,4.2,3.6
1.59765625,-6.347718409399556e-05,2.880815993591213e-05,3.124144300450143e-05,-7.471289669642174e-05,4.2,3.6
1.6015625,-4.7363692068360404e-05,4.2959326906233325e-05,5.272609903868164e-05,-6.446395326466772e-05,4.2,3.6
1.60546875,-4.932601712367436e-05,6.1035143987182435e-05,6.1035143987182435e-05,-7.373734081177994e-05,4.2,3.6
1.609375,-7.324395622644387e-05,8.055747496604868e-05,2.587027899595638e-05,-9.081517543602654e-05,4.2,3.6
1.61328125,-6.152607232471197e-05,7.86063631967651e-05,5.517059539330131e-05,-6.494612456397343e-05,4.2,3.6
1.6171875,-4.63881361837186e-05,7.128408741893647e-05,6.346842705577174e-05,-5.859940467078658e-05,4.2,3.6
1.62109375,-6.446395326466772e-05,5.6146151277943115e-05,3.6130435713740764e-05,-8.055501871824214e-05,4.2,3.6
1.625,-7.226840034180207e-05,8.055747496604868e-05,5.5663979978637395e-05,-8.544401142748148e-05,4.2,3.6
1.62890625,-7.909729153429464e-05,8.397752720531017e-05,7.079070283360039e-05,-8.886406366674295e-05,4.2,3.6
1.6328125,-7.957946283360036e-05,6.0048374816510286e-05,5.859064763256276e-05,-8.446845554283969e-05,4.2,3.6
1.63671875,-9.032179085069045e-05,4.442826737621121e-05,3.075927170519571e-05,-9.179073132066833e-05,4.2,3.6
1.640625,-9.911300709849697e-05,3.026588711985964e-05,1.4645779679560561e-05,-9.960639168383305e-05,4.2,3.6
1.64453125,-8.34928996581979e-05,2.3919167226672782e-05,3.27103834744793e-05,-8.299951507286181e-05,4.2,3.6
1.6484375,-5.6648292901502996e-05,7.713742272678723e-05,8.153303085069049e-05,-5.225268477759974e-05,4.2,3.6
1.65234375,-5.175930019226366e-05,0.00010498001194018465,6.981514694895858e-05,-7.666400846570533e-05,4.2,3.6
1.65625,-5.7130464200808716e-05,8.349535590600444e-05,2.7821390765239967e-05,-0.0001049775556923781,4.2,3.6
1.66015625,-6.884834810254061e-05,6.688847929503321e-05,3.319255477378502e-05,-9.569295485923551e-05,4.2,3.6
1.6640625,-8.104840330357822e-05,4.930604679942017e-05,4.492165196154728e-05,-8.983961955138474e-05,4.2,3.6
1.66796875,-6.983511727321277e-05,5.7121707162584896e-05,6.7864035179675e-05,-7.520628128175783e-05,4.2,3.6
1.671875,-4.4930408999771095e-05,7.518631095750365e-05,9.129980298313881e-05,-5.810602008545051e-05,4.2,3.6
1.67578125,-6.104390102540625e-05,6.541953882505533e-05,6.933297564965288e-05,-8.544401142748148e-05,4.2,3.6
1.6796875,-6.689723633325702e-05,7.713742272678723e-05,6.298625575646602e-05,-9.276628720531012e-05,4.2,3.6
1.68359375,-4.5905964884412896e-05,0.00011962456349584195,0.00010351107147020678,-5.225268477759974e-05,4.2,3.6
1.6875,-7.568845258106354e-05,8.007530366674299e-05,6.88395910643168e-05,-7.129284445716028e-05,4.2,3.6
1.69140625,-8.59261827267872e-05,4.2477155606927605e-05,3.417932394445718e-05,-8.837067908140687e-05,4.2,3.6
1.6953125,-7.178622904249636e-05,5.907281893186848e-05,4.7354935030136584e-05,-7.373734081177994e-05,4.2,3.6
1.69921875,-8.691295189745936e-05,3.8081547483024367e-05,6.298625575646602e-05,-6.104390102540625e-05,4.2,3.6
1.703125,-6.83661768032349e-05,5.6146151277943115e-05,7.079070283360039e-05,-6.0550516440070174e-05,4.2,3.6
1.70703125,-5.273485607690546e-05,7.713742272678723e-05,3.9057103367666154e-05,-8.34928996581979e-05,4.2,3.6
1.7109375,-8.055501871824214e-05,4.198377102159154e-05,1.2694667910276976e-05,-9.32596717906462e-05,4.2,3.6
1.71484375,-8.59261827267872e-05,2.441255181200887e-05,2.1474670872053122e-05,-7.957946283360036e-05,4.2,3.6
1.71875,-6.83661768032349e-05,2.3919167226672782e-05,3.075927170519571e-05,-7.421951211108566e-05,4.2,3.6
1.72265625,-6.104390102540625e-05,2.489472311131459e-05,2.294361134203099e-05,-8.15417878889143e-05,4.2,3.6
1.7265625,-5.6154908316166915e-05,3.27103834744793e-05,2.7821390765239967e-05,-7.226840034180207e-05,4.2,3.6
1.73046875,-6.006834514076446e-05,3.075927170519571e-05,4.6379379145494796e-05,-6.446395326466772e-05,4.2,3.6
1.734375,-6.884834810254061e-05,1.7572447333485938e-05,3.758816289768828e-05,-6.641506503395131e-05,4.2,3.6
1.73828125,-5.56727370168612e-05,1.8065831918822026e-05,1.8548003218127732e-05,-7.031728857251849e-05,4.2,3.6
1.7421875,-5.6154908316166915e-05,1.6103506863508072e-05,2.6845834880598176e-05,-6.446395326466772e-05,4.2,3.6
1.74609375,-6.689723633325702e-05,1.3670223794918769e-05,1.8548003218127732e-05,-5.762384878614479e-05,4.2,3.6
1.75,-6.397056867933164e-05,2.0992499572747406e-05,1.6596891448844147e-05,-5.957496055542838e-05,4.2,3.6
1.75390625,-5.859940467078658e-05,-7.81443223926145e-06,2.4345111924925786e-06,-6.592168044861523e-05,4.2,3.6
1.7578125,-5.517935243152512e-05,-1.1234484478522915e-05,-8.307816824597524e-06,-6.347718409399556e-05,4.2,3.6
1.76171875,-5.6648292901502996e-05,1.904138780346382e-05,9.756786970321215e-06,-5.9092789256122666e-05,4.2,3.6
1.765625,-4.004141629053176e-05,3.2216998889143225e-05,4.150159972228582e-05,-4.39548531151293e-05,4.2,3.6
1.76953125,-4.053480087586784e-05,3.124144300450143e-05,3.4661495243762895e-05,-5.225268477759974e-05,4.2,3.6
1.7734375,-4.785707665369648e-05,6.830119316395837e-06,-8.789988123903242e-06,-8.007284741893643e-05,4.2,3.6
1.77734375,-4.443702441443502e-05,-1.5630092602426166e-05,-1.6123477187762247e-05,-7.909729153429464e-05,4.2,3.6
1.78125,-4.4930408999771095e-05,-1.4654536717784373e-05,1.1225727440299095e-05,-4.932601712367436e-05,4.2,3.6
1.78515625,-4.7363692068360404e-05,-1.0258928593881109e-05,1.0732342854963021e-05,-4.883263253833827e-05,4.2,3.6
1.7890625,-6.543950914930951e-05,-7.81443223926145e-06,-2.1494641196307297e-05,-6.983511727321277e-05,4.2,3.6
1.79296875,-6.250162820935376e-05,4.385622961776164e-06,-8.307816824597524e-06,-4.835046123903256e-05,4.2,3.6
1.796875,-5.6648292901502996e-05,9.655707225146983e-07,8.299059786373717e-06,-3.271914051270312e-05,4.2,3.6
1.80078125,-6.592168044861523e-05,-4.394379999999984e-06,9.27461567101551e-06,-3.760813322194246e-05,4.2,3.6
1.8046875,-5.859940467078658e-05,4.833994232089935e-07,3.4100670771343713e-06,-5.810602008545051e-05,4.2,3.6
1.80859375,-5.372162524757762e-05,9.27461567101551e-06,2.4345111924925786e-06,-6.397056867933164e-05,4.2,3.6
1.8125,-6.641506503395131e-05,6.336734731059764e-06,4.385622961776164e-06,-5.322824066224153e-05,4.2,3.6
1.81640625,-7.031728857251849e-05,-2.295236838025481e-05,-9.283372709239316e-06,-6.201945691004805e-05,4.2,3.6
1.8203125,-4.199252805981535e-05,-1.8556760256351552e-05,6.336734731059764e-06,-3.809030452124817e-05,4.2,3.6
1.82421875,-3.858368910658425e-05,-7.33226093995573e-06,8.781231085679422e-06,-2.4421308850232683e-05,4.2,3.6
1.828125,-6.494612456397343e-05,-2.5396864734874474e-05,-2.0507872025635138e-05,-5.372162524757762e-05,4.2,3.6
1.83203125,-5.6154908316166915e-05,-3.4188080982680995e-05,-3.1743584628061325e-05,-5.957496055542838e-05,4.2,3.6
1.8359375,-3.760813322194246e-05,-3.46702522819867e-05,-2.344575296559089e-05,-5.469718113221941e-05,4.2,3.6
1.83984375,-4.9808188422980074e-05,-3.760813322194246e-05,-2.7841361089494148e-05,-6.494612456397343e-05,4.2,3.6
1.84375,-7.081067315785457e-05,-3.56458081666285e-05,-2.7347976504158067e-05,-6.397056867933164e-05,4.2,3.6
1.84765625,-5.127712889295794e-05,-9.765544008545035e-06,5.361178846417957e-06,-3.955924499122604e-05,4.2,3.6
1.8515625,-3.955924499122604e-05,-1.1727869063858988e-05,-1.9610969314106794e-06,-4.053480087586784e-05,4.2,3.6
1.85546875,-6.494612456397343e-05,-4.6881520769054684e-05,-2.8816916974135942e-05,-6.250162820935376e-05,4.2,3.6
1.859375,-7.324395622644387e-05,-4.5905964884412896e-05,-3.1743584628061325e-05,-6.0550516440070174e-05,4.2,3.6
1.86328125,-5.859940467078658e-05,-2.637242061951627e-05,-4.053480087586784e-05,-4.2485912645151425e-05,4.2,3.6
1.8671875,-3.46702522819867e-05,-1.1727869063858988e-05,-2.3927924264896602e-05,-2.686580520485235e-05,4.2,3.6
1.87109375,-2.7841361089494148e-05,-1.6123477187762247e-05,-1.0752313179217195e-05,-3.0768028743419524e-05,4.2,3.6
1.875,-3.56458081666285e-05,-2.9299088273441652e-05,-2.344575296559089e-05,-4.151035676050964e-05,4.2,3.6
1.87890625,-1.3678980833142573e-05,-3.912208700694265e-06,-7.81443223926145e-06,-2.4903480149538393e-05,4.2,3.6
1.8828125,-8.789988123903242e-06,-9.85541046768887e-07,-1.5630092602426166e-05,-1.660564848706796e-05,4.2,3.6
1.88671875,-5.225268477759974e-05,-1.4161152132448294e-05,-2.295236838025481e-05,-3.711474863660638e-05,4.2,3.6
1.890625,-5.273485607690546e-05,4.879007547112252e-06,-1.31855962478065e-05,-4.004141629053176e-05,4.2,3.6
1.89453125,-2.686580520485235e-05,-5.3811491706721455e-06,-2.197681249561301e-05,-2.686580520485235e-05,4.2,3.6
1.8984375,-2.686580520485235e-05,-3.6139192751964584e-05,-2.100125661097122e-05,-2.7841361089494148e-05,4.2,3.6
1.90234375,-2.3927924264896602e-05,-4.199252805981535e-05,-2.0507872025635138e-05,-3.4188080982680995e-05,4.2,3.6
1.90625,-2.5879036034180194e-05,-2.9792472858777733e-05,-9.985162127094326e-09,-2.9299088273441652e-05,4.2,3.6
1.91015625,-3.271914051270312e-05,-1.8556760256351552e-05,-4.8877645853360576e-06,-2.7841361089494148e-05,4.2,3.6
1.9140625,-2.9299088273441652e-05,-1.6123477187762247e-05,-2.247019708094909e-05,-3.1250200042725244e-05,4.2,3.6
1.91796875,-3.4188080982680995e-05,-1.5630092602426166e-05,-3.4188080982680995e-05,-3.0274644158083446e-05,4.2,3.6
1.921875,-2.5879036034180194e-05,-1.0258928593881109e-05,-3.1250200042725244e-05,-2.7347976504158067e-05,4.2,3.6
1.92578125,-2.3927924264896602e-05,-6.8388763546196565e-06,-2.0507872025635138e-05,-2.686580520485235e-05,4.2,3.6
1.9296875,-3.4188080982680995e-05,-1.4654536717784373e-05,-2.295236838025481e-05,-2.5396864734874474e-05,4.2,3.6
1.93359375,-4.1016972175173556e-05,-1.3678980833142573e-05,-2.4421308850232683e-05,-2.832353238879986e-05,4.2,3.6
1.9375,-3.1743584628061325e-05,3.4100670771343713e-06,-2.4432682307163986e-06,-2.247019708094909e-05,4.2,3.6
1.94140625,-2.686580520485235e-05,-9.283372709239316e-06,1.2694667910276976e-05,-1.1234484478522915e-05,4.2,3.6
1.9453125,-2.832353238879986e-05,-2.3927924264896602e-05,9.655707225146983e-07,-1.5136708017090086e-05,4.2,3.6
1.94921875,-1.8074588957045832e-05,-1.6123477187762247e-05,-8.307816824597524e-06,-1.5630092602426166e-05,4.2,3.6
1.953125,-1.8556760256351552e-05,2.9278957778286665e-06,1.95233989318686e-06,-1.1727869063858988e-05,4.2,3.6
1.95703125,-6.8388763546196565e-06,9.756786970321215e-06,1.317683920958268e-05,9.756786970321215e-06,4.2,3.6
1.9609375,5.361178846417957e-06,2.001694368810561e-05,1.1225727440299095e-05,2.0992499572747406e-05,4.2,3.6
1.96484375,-9.283372709239316e-06,-2.936652816052472e-06,-1.7581204371709758e-05,-9.765544008545035e-06,4.2,3.6
1.96875,-1.5630092602426166e-05,-3.271914051270312e-05,-4.053480087586784e-05,-2.8816916974135942e-05,4.2,3.6
1.97265625,-9.283372709239316e-06,-2.637242061951627e-05,-3.271914051270312e-05,-2.344575296559089e-05,4.2,3.6
1.9765625,-2.247019708094909e-05,-3.46702522819867e-05,-3.56458081666285e-05,-2.637242061951627e-05,4.2,3.6
1.98046875,-3.56458081666285e-05,-4.199252805981535e-05,-3.1743584628061325e-05,-1.8556760256351552e-05,4.2,3.6
1.984375,-2.197681249561301e-05,-3.516363686732278e-05,-2.9792472858777733e-05,-1.0752313179217195e-05,4.2,3.6
1.98828125,-1.2210040363164708e-05,-2.295236838025481e-05,-3.1743584628061325e-05,-1.660564848706796e-05,4.2,3.6
1.9921875,-1.5630092602426166e-05,-1.8556760256351552e-05,-1.0752313179217195e-05,-9.283372709239316e-06,4.2,3.6
1.99609375,2.4345111924925786e-06,-2.1494641196307297e-05,-2.0025700726329425e-05,8.781231085679422e-06,4.2,3.6
2.0,-1.2210040363164708e-05,-5.469718113221941e-05,-7.373734081177994e-05,-1.31855962478065e-05,4.2,3.6
2.00390625,-3.809030452124817e-05,-8.641956731212328e-05,-9.081517543602654e-05,-3.0274644158083446e-05,4.2,3.6
2.0078125,-2.0025700726329425e-05,-8.25173437735561e-05,-9.228411590600441e-05,-1.3678980833142573e-05,4.2,3.6
2.01171875,-2.7841361089494148e-05,-0.00012109104771801327,-0.00013183337573510336,-2.100125661097122e-05,4.2,3.6
2.015625,-2.7841361089494148e-05,-0.0001586891957778286,-0.00015526914353856716,-1.4161152132448294e-05,4.2,3.6
2.01953125,-8.789988123903242e-06,-0.00014647792729076064,-0.00015136691999999998,-7.33226093995573e-06,4.2,3.6
2.0234375,-9.765544008545035e-06,-0.00014989797953002208,-0.00015672687072251464,9.655707225146983e-07,4.2,3.6
2.02734375,-1.9532316140993343e-05,-0.0002070296718547341,-0.00020653628726939802,5.854563431754045e-06,4.2,3.6
2.03125,-2.0507872025635138e-05,-0.00024853004345311665,-0.00024510999121385516,-3.912208700694265e-06,4.2,3.6
2.03515625,-1.4161152132448294e-05,-0.0002495055993377584,-0.0002529256515770199,6.830119316395837e-06,4.2,3.6
2.0390625,-3.56458081666285e-05,-0.0002856348069275959,-0.00028320152385900664,6.336734731059764e-06,4.2,3.6
2.04296875,-4.053480087586784e-05,-0.0003017482989532311,-0.00029833946,-9.85541046768887e-07,4.2,3.6
2.046875,-7.81443223926145e-06,-0.00027441030761120007,-0.0002783125311497673,1.2201283324940888e-05,4.2,3.6
2.05078125,-1.6123477187762247e-05,-0.0002656190913633936,-0.00025829681558556494,1.8548003218127732e-05,4.2,3.6
2.0546875,-1.5136708017090086e-05,-0.00027245919584191654,-0.000269039143602655,1.8065831918822026e-05,4.2,3.6
2.05859375,-8.789988123903242e-06,-0.00030614390707713436,-0.0003144417387396048,9.27461567101551e-06,4.2,3.6
2.0625,-2.344575296559089e-05,-0.0003251840667566949,-0.00033202417123521784,-2.4432682307163986e-06,4.2,3.6
2.06640625,-2.344575296559089e-05,-0.0003110328997863737,-0.00031493512332494083,-3.4188241153581913e-06,4.2,3.6
2.0703125,-3.1250200042725244e-05,-0.0002900304150514992,-0.00031053951520103757,-3.4188241153581913e-06,4.2,3.6
2.07421875,-2.7347976504158067e-05,-0.0002719658112565804,-0.0002856348069275959,9.655707225146983e-07,4.2,3.6
2.078125,-7.81443223926145e-06,-0.00026317459500877394,-0.0002543833787609674,9.655707225146983e-07,4.2,3.6
2.08203125,-1.1234484478522915e-05,-0.0002529256515770199,-0.00025243226699168383,-2.936652816052472e-06,4.2,3.6
2.0859375,-1.4654536717784373e-05,-0.00023486104778210117,-0.00023778771543602655,-7.33226093995573e-06,4.2,3.6
2.08984375,-1.1727869063858988e-05,-0.0002177719998718242,-0.00022752755871824213,-1.4654536717784373e-05,4.2,3.6
2.09375,-1.2210040363164708e-05,-0.00020068295196154723,-0.0002084873990386816,-1.7581204371709758e-05,4.2,3.6
2.09765625,-1.7581204371709758e-05,-0.00017430930321812768,-0.00016551808697032116,-2.4421308850232683e-05,4.2,3.6
2.1015625,-2.637242061951627e-05,-0.00014794686776073855,-0.00014745348317540244,-2.5396864734874474e-05,4.2,3.6
2.10546875,-2.9299088273441652e-05,-0.0001284133234958419,-0.0001372045397436484,-2.0025700726329425e-05,4.2,3.6
2.109375,-3.711474863660638e-05,-9.4235227675288e-05,-0.00011425094323949034,-2.9299088273441652e-05,4.2,3.6
2.11328125,-3.955924499122604e-05,-6.104390102540625e-05,-8.544401142748148e-05,-2.9792472858777733e-05,4.2,3.6
2.1171875,-3.516363686732278e-05,-5.273485607690546e-05,-5.372162524757762e-05,-2.9299088273441652e-05,4.2,3.6
2.12109375,-3.46702522819867e-05,-3.0274644158083446e-05,-2.5396864734874474e-05,-3.4188080982680995e-05,4.2,3.6
2.125,-3.56458081666285e-05,-3.4188241153581913e-06,-1.6123477187762247e-05,-2.9792472858777733e-05,4.2,3.6
2.12890625,-2.0507872025635138e-05,-2.936652816052472e-06,-9.85541046768887e-07,-2.1494641196307297e-05,4.2,3.6
2.1328125,-2.4903480149538393e-05,1.512795097886628e-05,2.7339219465934247e-05,-1.270342494850078e-05,4.2,3.6
2.13671875,-7.276178492713814e-05,2.4345111924925786e-06,9.655707225146983e-07,-4.2979297230487506e-05,4.2,3.6
2.140625,-5.0301573008316155e-05,3.4100670771343713e-06,2.0992499572747406e-05,-4.883263253833827e-05,4.2,3.6
2.14453125,-2.247019708094909e-05,1.6103506863508072e-05,3.955048795300223e-05,-3.6139192751964584e-05,4.2,3.6
2.1484375,-3.56458081666285e-05,2.1968055457389197e-05,3.124144300450143e-05,-4.199252805981535e-05,4.2,3.6
2.15234375,-4.004141629053176e-05,4.2477155606927605e-05,4.2959326906233325e-05,-3.516363686732278e-05,4.2,3.6
2.15625,-4.63881361837186e-05,4.8823875500114466e-05,4.979943138475626e-05,-2.832353238879986e-05,4.2,3.6
2.16015625,-3.4188080982680995e-05,5.467721080796522e-05,4.150159972228582e-05,-4.004141629053176e-05,4.2,3.6
2.1640625,-4.1016972175173556e-05,4.6872763730830864e-05,3.026588711985964e-05,-5.078374430762186e-05,4.2,3.6
2.16796875,-6.250162820935376e-05,5.0292815970092335e-05,3.710599159838256e-05,-5.0301573008316155e-05,4.2,3.6
2.171875,-6.104390102540625e-05,7.079070283360039e-05,3.9057103367666154e-05,-4.4930408999771095e-05,4.2,3.6
2.17578125,-4.151035676050964e-05,6.981514694895858e-05,3.8563718782330066e-05,-4.443702441443502e-05,4.2,3.6
2.1796875,-2.344575296559089e-05,6.249287117112996e-05,5.077498726939805e-05,-4.39548531151293e-05,4.2,3.6
2.18359375,-2.4421308850232683e-05,7.079070283360039e-05,7.079070283360039e-05,-4.2485912645151425e-05,4.2,3.6
2.1875,-2.0507872025635138e-05,7.567969554283973e-05,7.812419189745938e-05,-4.39548531151293e-05,4.2,3.6
2.19140625,-1.0258928593881109e-05,8.202641543602658e-05,7.176625871824217e-05,-3.516363686732278e-05,4.2,3.6
2.1953125,-9.765544008545035e-06,7.616186684214543e-05,6.0048374816510286e-05,-3.809030452124817e-05,4.2,3.6
2.19921875,-6.356705055313938e-06,5.9566203517204566e-05,6.738186388036928e-05,-3.858368910658425e-05,4.2,3.6
2.203125,-1.8556760256351552e-05,5.517059539330131e-05,8.642202355992984e-05,-2.8816916974135942e-05,4.2,3.6
2.20703125,-3.56458081666285e-05,6.59129234103914e-05,7.958191908140691e-05,-3.809030452124817e-05,4.2,3.6
2.2109375,-4.2979297230487506e-05,7.372858377355612e-05,6.981514694895858e-05,-4.199252805981535e-05,4.2,3.6
2.21484375,-5.0301573008316155e-05,8.397752720531017e-05,9.960884793163962e-05,-3.955924499122604e-05,4.2,3.6
2.21875,-2.686580520485235e-05,0.00010155995970092319,0.00011962456349584195,-1.7581204371709758e-05,4.2,3.6
2.22265625,-1.5136708017090086e-05,8.007530366674299e-05,9.32509147524224e-05,-2.0025700726329425e-05,4.2,3.6
2.2265625,-2.9792472858777733e-05,5.7615091747920984e-05,7.421075507286184e-05,-3.906586040588996e-05,4.2,3.6
2.23046875,-3.858368910658425e-05,6.0048374816510286e-05,7.030853153429467e-05,-3.32125250980392e-05,4.2,3.6
2.234375,-4.6881520769054684e-05,4.784831961547267e-05,6.688847929503321e-05,-4.004141629053176e-05,4.2,3.6
2.23828125,-3.56458081666285e-05,5.1268371854734136e-05,8.105085955138477e-05,-2.7841361089494148e-05,4.2,3.6
2.2421875,-2.8816916974135942e-05,6.396181164110783e-05,8.007530366674299e-05,-2.4421308850232683e-05,4.2,3.6
2.24609375,-4.1016972175173556e-05,6.981514694895858e-05,7.421075507286184e-05,-3.56458081666285e-05,4.2,3.6
2.25,-4.5412580299076815e-05,6.1035143987182435e-05,7.518631095750365e-05,-3.0768028743419524e-05,4.2,3.6
2.25390625,-3.56458081666285e-05,4.442826737621121e-05,6.493736752574964e-05,-3.56458081666285e-05,4.2,3.6
2.2578125,-3.0274644158083446e-05,4.198377102159154e-05,5.859064763256276e-05,-4.004141629053176e-05,4.2,3.6
2.26171875,-4.346146852979322e-05,3.758816289768828e-05,5.517059539330131e-05,-3.56458081666285e-05,4.2,3.6
2.265625,-4.785707665369648e-05,4.198377102159154e-05,5.907281893186848e-05,-3.3694696397344914e-05,4.2,3.6
2.26953125,-4.5412580299076815e-05,5.077498726939805e-05,6.738186388036928e-05,-3.271914051270312e-05,4.2,3.6
2.2734375,-4.7363692068360404e-05,3.955048795300223e-05,6.396181164110783e-05,-3.858368910658425e-05,4.2,3.6
2.27734375,-5.225268477759974e-05,2.7339219465934247e-05,6.151731528648815e-05,-4.39548531151293e-05,4.2,3.6
2.28125,-5.56727370168612e-05,2.6845834880598176e-05,5.517059539330131e-05,-4.443702441443502e-05,4.2,3.6
2.28515625,-4.5412580299076815e-05,4.003265925230795e-05,4.7354935030136584e-05,-4.883263253833827e-05,4.2,3.6
2.2890625,-4.5905964884412896e-05,5.272609903868164e-05,5.0292815970092335e-05,-4.004141629053176e-05,4.2,3.6
2.29296875,-3.6139192751964584e-05,6.249287117112996e-05,6.738186388036928e-05,-1.7581204371709758e-05,4.2,3.6
2.296875,-3.0768028743419524e-05,3.8081547483024367e-05,5.0292815970092335e-05,-2.9792472858777733e-05,4.2,3.6
2.30078125,-4.7363692068360404e-05,6.830119316395837e-06,1.3670223794918769e-05,-5.9092789256122666e-05,4.2,3.6
2.3046875,-4.443702441443502e-05,1.0250171555657303e-05,2.001694368810561e-05,-5.6648292901502996e-05,4.2,3.6
2.30859375,-2.8816916974135942e-05,2.1474670872053122e-05,3.758816289768828e-05,-4.4930408999771095e-05,4.2,3.6
2.3125,-4.5412580299076815e-05,4.385622961776164e-06,2.2450226756694917e-05,-6.006834514076446e-05,4.2,3.6
2.31640625,-4.883263253833827e-05,3.4100670771343713e-06,2.978371582055392e-05,-4.053480087586784e-05,4.2,3.6
2.3203125,-3.6139192751964584e-05,1.0732342854963021e-05,3.8081547483024367e-05,-2.0025700726329425e-05,4.2,3.6
2.32421875,-4.199252805981535e-05,4.833994232089935e-07,1.6103506863508072e-05,-4.053480087586784e-05,4.2,3.6
2.328125,-3.3694696397344914e-05,3.4100670771343713e-06,3.4100670771343713e-06,-4.199252805981535e-05,4.2,3.6
2.33203125,-3.0768028743419524e-05,8.299059786373717e-06,6.830119316395837e-06,-3.4188080982680995e-05,4.2,3.6
2.3359375,-4.883263253833827e-05,-1.2210040363164708e-05,-9.985162127094326e-09,-4.932601712367436e-05,4.2,3.6
2.33984375,-3.3694696397344914e-05,9.655707225146983e-07,1.317683920958268e-05,-2.9792472858777733e-05,4.2,3.6
2.34375,-2.1494641196307297e-05,1.8548003218127732e-05,2.294361134203099e-05,-1.709903307240404e-05,4.2,3.6
2.34765625,-5.420379654688332e-05,2.343699592736708e-05,2.831477535057604e-05,-4.443702441443502e-05,4.2,3.6
2.3515625,-5.322824066224153e-05,4.2477155606927605e-05,4.6379379145494796e-05,-5.56727370168612e-05,4.2,3.6
2.35546875,-2.7841361089494148e-05,1.5621335564202352e-05,2.7339219465934247e-05,-4.835046123903256e-05,4.2,3.6
2.359375,-1.8556760256351552e-05,-5.86332046997785e-06,-1.9610969314106794e-06,-4.9808188422980074e-05,4.2,3.6
2.36328125,-1.660564848706796e-05,7.323503901731911e-06,2.9278957778286665e-06,-5.810602008545051e-05,4.2,3.6
2.3671875,-1.4654536717784373e-05,3.026588711985964e-05,2.7339219465934247e-05,-6.0550516440070174e-05,4.2,3.6
2.37109375,-1.270342494850078e-05,3.368593935912111e-05,1.5621335564202352e-05,-6.983511727321277e-05,4.2,3.6
2.375,-2.100125661097122e-05,2.441255181200887e-05,3.903451662470459e-06,-8.886406366674295e-05,4.2,3.6
2.37890625,-1.8556760256351552e-05,3.319255477378502e-05,1.0732342854963021e-05,-9.129734673533225e-05,4.2,3.6
2.3828125,-1.0258928593881109e-05,3.4661495243762895e-05,1.9523559102769537e-05,-8.446845554283969e-05,4.2,3.6
2.38671875,-9.283372709239316e-06,5.6146151277943115e-05,2.831477535057604e-05,-9.374184308995192e-05,4.2,3.6
2.390625,-9.985162127094326e-09,8.886651991454951e-05,3.368593935912111e-05,-0.00010008856298313877,4.2,3.6
2.39453125,-5.3811491706721455e-06,7.079070283360039e-05,3.563705112840469e-05,-9.374184308995192e-05,4.2,3.6
2.3984375,-8.789988123903242e-06,5.907281893186848e-05,3.563705112840469e-05,-9.276628720531012e-05,4.2,3.6
2.40234375,4.833994232089935e-07,8.202641543602658e-05,3.758816289768828e-05,-9.66685107438773e-05,4.2,3.6
2.40625,1.6103506863508072e-05,0.00010155995970092319,4.5897207846189076e-05,-9.228411590600441e-05,4.2,3.6
2.41015625,2.6845834880598176e-05,0.00010498001194018465,6.151731528648815e-05,-8.299951507286181e-05,4.2,3.6
2.4140625,2.441255181200887e-05,9.960884793163962e-05,7.812419189745938e-05,-7.520628128175783e-05,4.2,3.6
2.41796875,2.489472311131459e-05,0.00012010673479514764,7.909974778210118e-05,-7.471289669642174e-05,4.2,3.6
2.421875,3.27103834744793e-05,0.00014208477541466393,6.7864035179675e-05,-6.397056867933164e-05,4.2,3.6
2.42578125,1.9523559102769537e-05,9.618879569237814e-05,5.3219483624017725e-05,-6.641506503395131e-05,4.2,3.6
2.4296875,1.9523559102769537e-05,7.176625871824217e-05,7.030853153429467e-05,-5.225268477759974e-05,4.2,3.6
2.43359375,4.2959326906233325e-05,0.00012010673479514764,0.00010985779136339363,-4.8877645853360576e-06,4.2,3.6
2.4375,9.655707225146983e-07,9.667096699168385e-05,7.176625871824217e-05,-3.0768028743419524e-05,4.2,3.6
2.44140625,1.0250171555657303e-05,3.8081547483024367e-05,3.075927170519571e-05,-6.104390102540625e-05,4.2,3.6
2.4453125,3.8081547483024367e-05,4.784831961547267e-05,1.6596891448844147e-05,-6.104390102540625e-05,4.2,3.6
2.44921875,2.831477535057604e-05,8.93486912138552e-05,3.8563718782330066e-05,-3.858368910658425e-05,4.2,3.6
2.453125,5.1268371854734136e-05,6.981514694895858e-05,6.0541759401846374e-05,-2.3927924264896602e-05,4.2,3.6
2.45703125,4.100821513694974e-05,2.049911498741133e-05,1.2201283324940888e-05,-4.7363692068360404e-05,4.2,3.6
2.4609375,2.343699592736708e-05,2.6363663581292456e-05,-1.4161152132448294e-05,-4.883263253833827e-05,4.2,3.6
2.46484375,1.5621335564202352e-05,3.8081547483024367e-05,-7.33226093995573e-06,-4.5412580299076815e-05,4.2,3.6
2.46875,8.299059786373717e-06,5.224392773937592e-05,-6.356705055313938e-06,-6.006834514076446e-05,4.2,3.6
2.47265625,1.8548003218127732e-05,7.713742272678723e-05,1.7079062748149867e-05,-4.151035676050964e-05,4.2,3.6
2.4765625,3.124144300450143e-05,0.00010498001194018465,4.5897207846189076e-05,-4.8877645853360576e-06,4.2,3.6
2.48046875,4.879007547112252e-06,0.00011815562302586405,2.489472311131459e-05,-2.1494641196307297e-05,4.2,3.6
2.484375,-2.7347976504158067e-05,8.397752720531017e-05,-9.85541046768887e-07,-4.63881361837186e-05,4.2,3.6
2.48828125,-2.7841361089494148e-05,3.1734827589837505e-05,-2.4432682307163986e-06,-4.883263253833827e-05,4.2,3.6
2.4921875,-1.9050144841687633e-05,1.3670223794918769e-05,2.6363663581292456e-05,-3.4188080982680995e-05,4.2,3.6
2.49609375,-2.295236838025481e-05,-1.709903307240404e-05,4.7354935030136584e-05,-2.4903480149538393e-05,4.2,3.6
2.5,-4.5412580299076815e-05,-7.324395622644387e-05,2.587027899595638e-05,-3.809030452124817e-05,4.2,3.6
2.50390625,-4.785707665369648e-05,-6.884834810254061e-05,2.0992499572747406e-05,-3.516363686732278e-05,4.2,3.6
2.5078125,-1.9050144841687633e-05,-3.4188080982680995e-05,2.831477535057604e-05,-3.0768028743419524e-05,4.2,3.6
2.51171875,1.512795097886628e-05,4.385622961776164e-06,5.9566203517204566e-05,-1.5136708017090086e-05,4.2,3.6
2.515625,3.4100670771343713e-06,6.830119316395837e-06,7.176625871824217e-05,-7.33226093995573e-06,4.2,3.6
2.51953125,-3.0768028743419524e-05,-3.760813322194246e-05,1.4152395094224473e-05,-3.2236969213397407e-05,4.2,3.6
2.5234375,-3.1250200042725244e-05,-3.0274644158083446e-05,4.833994232089935e-07,-3.0768028743419524e-05,4.2,3.6
2.52734375,-7.33226093995573e-06,1.3670223794918769e-05,2.049911498741133e-05,-1.0258928593881109e-05,4.2,3.6
2.53125,-1.9532316140993343e-05,-8.789988123903242e-06,1.2694667910276976e-05,-2.4903480149538393e-05,4.2,3.6
2.53515625,-3.0768028743419524e-05,-2.4421308850232683e-05,1.1225727440299095e-05,-3.66213640512703e-05,4.2,3.6
2.5390625,-3.2236969213397407e-05,-3.0274644158083446e-05,-6.356705055313938e-06,-3.955924499122604e-05,4.2,3.6
2.54296875,-2.247019708094909e-05,-1.6123477187762247e-05,5.854563431754045e-06,-3.6139192751964584e-05,4.2,3.6
2.546875,-3.0274644158083446e-05,-8.307816824597524e-06,-3.912208700694265e-06,-3.46702522819867e-05,4.2,3.6
2.55078125,-5.078374430762186e-05,-4.443702441443502e-05,-3.56458081666285e-05,-4.053480087586784e-05,4.2,3.6
2.5546875,-5.225268477759974e-05,-3.66213640512703e-05,-3.46702522819867e-05,-3.46702522819867e-05,4.2,3.6
2.55859375,-4.2485912645151425e-05,-3.3694696397344914e-05,-2.344575296559089e-05,-2.832353238879986e-05,4.2,3.6
2.5625,-2.9299088273441652e-05,-3.0768028743419524e-05,1.4152395094224473e-05,-1.5630092602426166e-05,4.2,3.6
2.56640625,-3.2236969213397407e-05,-4.8877645853360576e-06,1.4152395094224473e-05,-5.86332046997785e-06,4.2,3.6
2.5703125,-5.6648292901502996e-05,-1.8074588957045832e-05,-3.516363686732278e-05,-2.5879036034180194e-05,4.2,3.6
2.57421875,-4.63881361837186e-05,-3.46702522819867e-05,-4.1016972175173556e-05,-3.1743584628061325e-05,4.2,3.6
2.578125,-2.5396864734874474e-05,-4.9808188422980074e-05,-4.346146852979322e-05,-4.2485912645151425e-05,4.2,3.6
2.58203125,-2.1494641196307297e-05,-4.63881361837186e-05,-3.6139192751964584e-05,-4.7363692068360404e-05,4.2,3.6
2.5859375,-2.295236838025481e-05,-2.4421308850232683e-05,-2.637242061951627e-05,-4.053480087586784e-05,4.2,3.6
2.58984375,-3.4188080982680995e-05,-2.686580520485235e-05,-3.32125250980392e-05,-3.1250200042725244e-05,4.2,3.6
2.59375,-3.32125250980392e-05,-4.39548531151293e-05,-3.955924499122604e-05,-2.344575296559089e-05,4.2,3.6
2.59765625,-3.271914051270312e-05,-4.443702441443502e-05,-4.053480087586784e-05,-2.5879036034180194e-05,4.2,3.6
2.6015625,-3.711474863660638e-05,-4.5905964884412896e-05,-5.0301573008316155e-05,-3.6139192751964584e-05,4.2,3.6
2.60546875,-3.32125250980392e-05,-4.785707665369648e-05,-5.420379654688332e-05,-3.809030452124817e-05,4.2,3.6
2.609375,-3.760813322194246e-05,-3.955924499122604e-05,-2.7841361089494148e-05,-4.2979297230487506e-05,4.2,3.6
2.61328125,-5.517935243152512e-05,-3.906586040588996e-05,-1.1727869063858988e-05,-4.053480087586784e-05,4.2,3.6
2.6171875,-5.322824066224153e-05,-4.39548531151293e-05,-1.270342494850078e-05,-2.9299088273441652e-05,4.2,3.6
2.62109375,-3.809030452124817e-05,-2.295236838025481e-05,-1.270342494850078e-05,-2.686580520485235e-05,4.2,3.6
2.625,-4.835046123903256e-05,-2.9299088273441652e-05,-3.4188080982680995e-05,-3.6139192751964584e-05,4.2,3.6
2.62890625,-5.7130464200808716e-05,-5.175930019226366e-05,-4.835046123903256e-05,-3.955924499122604e-05,4.2,3.6
2.6328125,-4.4930408999771095e-05,-5.7130464200808716e-05,-3.0768028743419524e-05,-3.6139192751964584e-05,4.2,3.6
2.63671875,-3.0768028743419524e-05,-4.443702441443502e-05,-2.8816916974135942e-05,-3.516363686732278e-05,4.2,3.6
2.640625,-3.955924499122604e-05,-3.906586040588996e-05,-3.0274644158083446e-05,-3.32125250980392e-05,4.2,3.6
2.64453125,-4.835046123903256e-05,-3.711474863660638e-05,-3.0768028743419524e-05,-2.5396864734874474e-05,4.2,3.6
2.6484375,-4.2979297230487506e-05,-3.66213640512703e-05,-3.0768028743419524e-05,-2.295236838025481e-05,4.2,3.6
2.65234375,-6.0550516440070174e-05,-5.810602008545051e-05,-5.0301573008316155e-05,-3.4188080982680995e-05,4.2,3.6
2.65625,-5.420379654688332e-05,-5.6154908316166915e-05,-5.56727370168612e-05,-2.832353238879986e-05,4.2,3.6
2.66015625,-3.955924499122604e-05,-5.0301573008316155e-05,-4.932601712367436e-05,-2.7841361089494148e-05,4.2,3.6
2.6640625,-3.906586040588996e-05,-6.494612456397343e-05,-6.006834514076446e-05,-3.56458081666285e-05,4.2,3.6
2.66796875,-2.1494641196307297e-05,-4.5905964884412896e-05,-3.3694696397344914e-05,-1.6123477187762247e-05,4.2,3.6
2.671875,-1.270342494850078e-05,-5.3811491706721455e-06,-9.765544008545035e-06,-4.8877645853360576e-06,4.2,3.6
2.67578125,-3.0274644158083446e-05,-8.307816824597524e-06,-1.9532316140993343e-05,-1.8556760256351552e-05,4.2,3.6
2.6796875,-1.5136708017090086e-05,-2.7347976504158067e-05,-2.832353238879986e-05,-2.0025700726329425e-05,4.2,3.6
2.68359375,1.3670223794918769e-05,-3.711474863660638e-05,-3.56458081666285e-05,-2.295236838025481e-05,4.2,3.6
2.6875,2.3919167226672782e-05,-3.6139192751964584e-05,-4.151035676050964e-05,-1.31855962478065e-05,4.2,3.6
2.69140625,1.4152395094224473e-05,-1.9610969314106794e-06,-1.9532316140993343e-05,-1.4654536717784373e-05,4.2,3.6
2.6953125,-1.4654536717784373e-05,1.8065831918822026e-05,1.1707898739604814e-05,-1.7581204371709758e-05,4.2,3.6
2.69921875,-3.66213640512703e-05,-4.39548531151293e-05,-5.175930019226366e-05,-1.5630092602426166e-05,4.2,3.6
2.703125,-3.0768028743419524e-05,-0.00010400199980773631,-0.00010106411886778056,-1.2210040363164708e-05,4.2,3.6
2.70703125,-3.4188080982680995e-05,-0.00011034871970092316,-9.129734673533225e-05,4.833994232089935e-07,4.2,3.6
2.7109375,-2.7347976504158067e-05,-0.00010595311157701989,-9.032179085069045e-05,2.343699592736708e-05,4.2,3.6
2.71484375,-3.516363686732278e-05,-0.00016014692296177613,-0.0001381800956282902,2.929033123521785e-05,4.2,3.6
2.71875,-6.543950914930951e-05,-0.00021532750351720454,-0.00018065602311131452,2.6845834880598176e-05,4.2,3.6
2.72265625,-6.201945691004805e-05,-0.00021337639174792095,-0.00017382713191882196,3.8563718782330066e-05,4.2,3.6
2.7265625,-7.421951211108566e-05,-0.00022509427564965283,-0.00018163157899595635,6.396181164110783e-05,4.2,3.6
2.73046875,-8.691295189745936e-05,-0.00024315887944457157,-0.00021922972705577172,5.7615091747920984e-05,4.2,3.6
2.734375,-0.00010008856298313877,-0.00024657893168383307,-0.00023094761095750362,3.368593935912111e-05,4.2,3.6
2.73828125,-0.0001181531667780575,-0.0002778303598504616,-0.00022655200283360036,3.6612607013046484e-05,4.2,3.6
2.7421875,-0.00011717761089341572,-0.0002421833235599298,-0.00022460089106431677,3.6130435713740764e-05,4.2,3.6
2.74609375,-0.00010203967475242236,-0.00021727861528648813,-0.00020263406373083085,5.517059539330131e-05,4.2,3.6
2.75,-0.00010203967475242236,-0.0002319231668421454,-0.00017382713191882196,6.201069987182424e-05,4.2,3.6
2.75390625,-0.00010741083876096741,-0.0001845694599359121,-0.00011425094323949034,3.6612607013046484e-05,4.2,3.6
2.7578125,-8.49506268421454e-05,-0.00011767099547875179,-7.031728857251849e-05,4.003265925230795e-05,4.2,3.6
2.76171875,-8.397507095750362e-05,-0.00012157321901731897,-0.00010155750345311664,3.026588711985964e-05,4.2,3.6
2.765625,-8.837067908140687e-05,-0.00011767099547875179,-9.081517543602654e-05,1.6103506863508072e-05,4.2,3.6
2.76953125,-9.66685107438773e-05,-8.34928996581979e-05,-6.104390102540625e-05,1.512795097886628e-05,4.2,3.6
2.7734375,-8.739512319676507e-05,-8.886406366674295e-05,-7.568845258106354e-05,2.4345111924925786e-06,4.2,3.6
2.77734375,-7.860390694895855e-05,-0.00010741083876096741,-0.00010643528287632561,-7.33226093995573e-06,4.2,3.6
2.78125,-8.104840330357822e-05,-9.863083579919126e-05,-8.397507095750362e-05,-5.3811491706721455e-06,4.2,3.6
2.78515625,-6.494612456397343e-05,-6.152607232471197e-05,-5.0301573008316155e-05,3.903451662470459e-06,4.2,3.6
2.7890625,-6.934173268787668e-05,-6.446395326466772e-05,-4.932601712367436e-05,1.95233989318686e-06,4.2,3.6
2.79296875,-7.71573930510414e-05,-8.446845554283969e-05,-4.443702441443502e-05,-1.270342494850078e-05,4.2,3.6
2.796875,-5.372162524757762e-05,-6.689723633325702e-05,-4.5905964884412896e-05,-1.1234484478522915e-05,4.2,3.6
2.80078125,-5.273485607690546e-05,-6.641506503395131e-05,-5.469718113221941e-05,-2.0025700726329425e-05,4.2,3.6
2.8046875,-8.397507095750362e-05,-6.592168044861523e-05,-5.957496055542838e-05,-3.1250200042725244e-05,4.2,3.6
2.80859375,-7.373734081177994e-05,-4.932601712367436e-05,-5.127712889295794e-05,-2.197681249561301e-05,4.2,3.6
2.8125,-4.835046123903256e-05,-5.7130464200808716e-05,-4.9808188422980074e-05,-3.2236969213397407e-05,4.2,3.6
2.81640625,-4.4930408999771095e-05,-4.63881361837186e-05,-4.5412580299076815e-05,-4.2485912645151425e-05,4.2,3.6
2.8203125,-5.322824066224153e-05,-2.100125661097122e-05,-1.9050144841687633e-05,-2.7841361089494148e-05,4.2,3.6
2.82421875,-5.469718113221941e-05,-2.0025700726329425e-05,-7.81443223926145e-06,-1.4654536717784373e-05,4.2,3.6
2.828125,-4.5412580299076815e-05,-1.709903307240404e-05,-1.9532316140993343e-05,-2.0507872025635138e-05,4.2,3.6
2.83203125,-3.56458081666285e-05,-2.637242061951627e-05,-4.346146852979322e-05,-2.9299088273441652e-05,4.2,3.6
2.8359375,-3.3694696397344914e-05,-1.7581204371709758e-05,-3.0274644158083446e-05,-2.0025700726329425e-05,4.2,3.6
2.83984375,-3.711474863660638e-05,1.4152395094224473e-05,4.198377102159154e-05,-5.3811491706721455e-06,4.2,3.6
2.84375,-2.7841361089494148e-05,1.8065831918822026e-05,3.710599159838256e-05,-7.81443223926145e-06,4.2,3.6
2.84765625,-2.344575296559089e-05,1.95233989318686e-06,1.4152395094224473e-05,-1.5630092602426166e-05,4.2,3.6
2.8515625,-3.711474863660638e-05,3.4100670771343713e-06,5.854563431754045e-06,-2.0025700726329425e-05,4.2,3.6
2.85546875,-4.7363692068360404e-05,4.385622961776164e-06,-1.4677123460745917e-06,-2.100125661097122e-05,4.2,3.6
2.859375,-4.785707665369648e-05,-1.9532316140993343e-05,-1.660564848706796e-05,-1.4161152132448294e-05,4.2,3.6
2.86328125,-2.1494641196307297e-05,3.903451662470459e-06,-1.2210040363164708e-05,-8.789988123903242e-06,4.2,3.6
2.8671875,-1.8556760256351552e-05,2.5388107696650664e-05,2.880815993591213e-05,-2.4421308850232683e-05,4.2,3.6
2.87109375,-2.9792472858777733e-05,-4.921564614327991e-07,1.2694667910276976e-05,-1.9532316140993343e-05,4.2,3.6
2.875,-2.344575296559089e-05,-1.709903307240404e-05,-8.307816824597524e-06,-2.4421308850232683e-05,4.2,3.6
2.87890625,-2.5396864734874474e-05,-3.1250200042725244e-05,-2.686580520485235e-05,-2.5879036034180194e-05,4.2,3.6
2.8828125,-3.760813322194246e-05,-2.4421308850232683e-05,-2.0025700726329425e-05,-7.33226093995573e-06,4.2,3.6
2.88671875,-4.443702441443502e-05,-9.985162127094326e-09,-2.7347976504158067e-05,-2.832353238879986e-05,4.2,3.6
2.890625,-3.955924499122604e-05,5.361178846417957e-06,-1.2210040363164708e-05,-3.1743584628061325e-05,4.2,3.6
2.89453125,-4.39548531151293e-05,-1.5630092602426166e-05,1.512795097886628e-05,-1.1234484478522915e-05,4.2,3.6
2.8984375,-4.63881361837186e-05,-2.637242061951627e-05,6.830119316395837e-06,-1.1727869063858988e-05,4.2,3.6
2.90234375,-3.2236969213397407e-05,-1.0752313179217195e-05,9.655707225146983e-07,-1.1727869063858988e-05,4.2,3.6
2.90625,-2.4421308850232683e-05,-5.86332046997785e-06,-2.4421308850232683e-05,-1.5630092602426166e-05,4.2,3.6
2.91015625,-3.760813322194246e-05,-7.81443223926145e-06,-2.7841361089494148e-05,-1.709903307240404e-05,4.2,3.6
2.9140625,-2.8816916974135942e-05,-1.9532316140993343e-05,-2.197681249561301e-05,-1.31855962478065e-05,4.2,3.6
2.91796875,-4.394379999999984e-06,-4.443702441443502e-05,-4.39548531151293e-05,-2.686580520485235e-05,4.2,3.6
2.921875,-1.270342494850078e-05,-2.686580520485235e-05,-2.7347976504158067e-05,-3.0768028743419524e-05,4.2,3.6
2.92578125,-1.5630092602426166e-05,-1.5136708017090086e-05,-3.0768028743419524e-05,2.9278957778286665e-06,4.2,3.6
2.9296875,-9.283372709239316e-06,-4.1016972175173556e-05,-9.276628720531012e-05,1.4152395094224473e-05,4.2,3.6
2.93359375,1.458955307850786e-06,-3.760813322194246e-05,-9.618633944457159e-05,-8.307816824597524e-06,4.2,3.6
2.9375,-1.1727869063858988e-05,-4.9808188422980074e-05,-2.8816916974135942e-05,-1.8074588957045832e-05,4.2,3.6
2.94140625,-2.0025700726329425e-05,-0.00010155750345311664,-7.909729153429464e-05,-9.985162127094326e-09,4.2,3.6
2.9453125,-1.1234484478522915e-05,-0.0001254866558419165,-0.00015624469942320896,-9.985162127094326e-09,4.2,3.6
2.94921875,-1.2210040363164708e-05,-0.00013476004338902874,-0.0001752848591027695,-1.0258928593881109e-05,4.2,3.6
2.953125,-5.86332046997785e-06,-0.00015234247588464178,-0.00017040707967956053,-5.3811491706721455e-06,4.2,3.6
2.95703125,1.1707898739604814e-05,-0.00017675379957274735,-0.00018358269076523993,6.830119316395837e-06,4.2,3.6
2.9609375,7.80567520103763e-06,-0.00022411871976501106,-0.00025585231923094527,2.049911498741133e-05,4.2,3.6
2.96484375,3.4100670771343713e-06,-0.00023631877496604865,-0.0002680635877180133,9.756786970321215e-06,4.2,3.6
2.96875,1.1225727440299095e-05,-0.0002441344353292134,-0.00022802094330357824,1.1225727440299095e-05,4.2,3.6
2.97265625,-2.936652816052472e-06,-0.00023388549189745934,-0.00022264977929503318,-2.936652816052472e-06,4.2,3.6
2.9765625,-4.921564614327991e-07,-0.0002539012074616617,-0.000269039143602655,2.9278957778286665e-06,4.2,3.6
2.98046875,1.6103506863508072e-05,-0.00031200845567101547,-0.0003100573439017319,9.756786970321215e-06,4.2,3.6
2.984375,1.1707898739604814e-05,-0.00032323295498741126,-0.0003334931117051957,1.4645779679560561e-05,4.2,3.6
2.98828125,3.4100670771343713e-06,-0.00028173258338902874,-0.00029882163129930575,2.831477535057604e-05,4.2,3.6
2.9921875,1.95233989318686e-06,-0.00025243226699168383,-0.000241207767675288,2.7339219465934247e-05,4.2,3.6
2.99609375,9.655707225146983e-07,-0.00023486104778210117,-0.00022264977929503318,-4.921564614327991e-07,4.2,3.6
3.0,1.1707898739604814e-05,-0.00023388549189745934,-0.00022802094330357824,-2.197681249561301e-05,4.2,3.6
3.00390625,-1.3678980833142573e-05,-0.0002080052277393759,-0.00022948988377355608,-6.8388763546196565e-06,4.2,3.6
3.0078125,-7.33226093995573e-06,-0.0001381800956282902,-0.00016014692296177613,7.80567520103763e-06,4.2,3.6
3.01171875,1.904138780346382e-05,-0.00014599575599145493,-0.00013183337573510336,1.95233989318686e-06,4.2,3.6
3.015625,-9.283372709239316e-06,-0.00014989797953002208,-0.00017772935545738917,-8.789988123903242e-06,4.2,3.6
3.01953125,-2.100125661097122e-05,-9.32596717906462e-05,-0.0001508735354146639,-7.81443223926145e-06,4.2,3.6
3.0234375,-1.3678980833142573e-05,-6.934173268787668e-05,-8.49506268421454e-05,-1.4161152132448294e-05,4.2,3.6
3.02734375,-1.9610969314106794e-06,-3.809030452124817e-05,-9.985162127094326e-09,-2.9792472858777733e-05,4.2,3.6
3.03125,-9.985162127094326e-09,-2.247019708094909e-05,-4.004141629053176e-05,-1.4654536717784373e-05,4.2,3.6
3.03515625,-2.100125661097122e-05,-3.46702522819867e-05,-5.322824066224153e-05,-9.283372709239316e-06,4.2,3.6
3.0390625,-3.0274644158083446e-05,-3.912208700694265e-06,1.6103506863508072e-05,-3.6139192751964584e-05,4.2,3.6
3.04296875,-2.7841361089494148e-05,9.27461567101551e-06,-6.8388763546196565e-06,-4.053480087586784e-05,4.2,3.6
3.046875,-2.247019708094909e-05,1.5621335564202352e-05,4.6379379145494796e-05,-4.053480087586784e-05,4.2,3.6
3.05078125,-2.832353238879986e-05,3.075927170519571e-05,6.738186388036928e-05,-3.0274644158083446e-05,4.2,3.6
3.0546875,-2.8816916974135942e-05,4.442826737621121e-05,3.8563718782330066e-05,-4.1016972175173556e-05,4.2,3.6
3.05859375,-2.7347976504158067e-05,5.7121707162584896e-05,5.517059539330131e-05,-4.7363692068360404e-05,4.2,3.6
3.0625,-2.832353238879986e-05,4.6872763730830864e-05,2.0992499572747406e-05,-3.32125250980392e-05,4.2,3.6
3.06640625,-3.711474863660638e-05,3.417932394445718e-05,2.489472311131459e-05,-4.39548531151293e-05,4.2,3.6
3.0703125,-2.686580520485235e-05,5.6146151277943115e-05,6.7864035179675e-05,-4.346146852979322e-05,4.2,3.6
3.07421875,-3.912208700694265e-06,8.984207579919129e-05,4.6872763730830864e-05,-2.7347976504158067e-05,4.2,3.6
3.078125,-6.356705055313938e-06,9.179318756847488e-05,4.833049091477838e-05,-3.46702522819867e-05,4.2,3.6
3.08203125,-1.4654536717784373e-05,6.981514694895858e-05,6.151731528648815e-05,-3.1250200042725244e-05,4.2,3.6
3.0859375,-1.5630092602426166e-05,7.518631095750365e-05,8.93486912138552e-05,-3.1250200042725244e-05,4.2,3.6
3.08984375,-2.0025700726329425e-05,8.055747496604868e-05,8.544646767528803e-05,-2.247019708094909e-05,4.2,3.6
3.09375,-2.197681249561301e-05,8.202641543602658e-05,5.272609903868164e-05,-3.516363686732278e-05,4.2,3.6
3.09765625,-1.270342494850078e-05,9.0324247098497e-05,6.933297564965288e-05,-4.199252805981535e-05,4.2,3.6
3.1015625,-8.307816824597524e-06,8.495308308995194e-05,0.00011864900761120014,-1.8556760256351552e-05,4.2,3.6
3.10546875,-1.8556760256351552e-05,8.202641543602658e-05,0.00011815562302586405,-2.0507872025635138e-05,4.2,3.6
3.109375,-2.100125661097122e-05,8.886651991454951e-05,7.713742272678723e-05,-3.0274644158083446e-05,4.2,3.6
3.11328125,-1.660564848706796e-05,8.690419485923555e-05,8.495308308995194e-05,-2.247019708094909e-05,4.2,3.6
3.1171875,-1.8074588957045832e-05,8.495308308995194e-05,9.374429933775845e-05,-2.1494641196307297e-05,4.2,3.6
3.12109375,-1.1234484478522915e-05,8.153303085069049e-05,4.5897207846189076e-05,-2.5879036034180194e-05,4.2,3.6
3.125,-3.4188241153581913e-06,8.153303085069049e-05,6.493736752574964e-05,-1.9532316140993343e-05,4.2,3.6
3.12890625,-1.2210040363164708e-05,9.276874345311669e-05,9.0324247098497e-05,-1.5136708017090086e-05,4.2,3.6
3.1328125,-2.9299088273441652e-05,9.08176316838331e-05,9.911546334630352e-05,-1.270342494850078e-05,4.2,3.6
3.13671875,-1.660564848706796e-05,8.787975074387733e-05,0.00010351107147020678,-1.660564848706796e-05,4.2,3.6
3.140625,-4.8877645853360576e-06,8.055747496604868e-05,7.567969554283973e-05,-1.1234484478522915e-05,4.2,3.6
3.14453125,9.655707225146983e-07,8.202641543602658e-05,9.227535886778059e-05,-9.283372709239316e-06,4.2,3.6
3.1484375,-4.921564614327991e-07,8.055747496604868e-05,8.690419485923555e-05,-1.6123477187762247e-05,4.2,3.6
3.15234375,-1.6123477187762247e-05,7.665525142748151e-05,3.6612607013046484e-05,-2.0507872025635138e-05,4.2,3.6
3.15625,1.458955307850786e-06,7.567969554283973e-05,6.444398294041354e-05,-3.4188080982680995e-05,4.2,3.6
3.16015625,1.1707898739604814e-05,8.105085955138477e-05,8.153303085069049e-05,-2.7841361089494148e-05,4.2,3.6
3.1640625,4.833994232089935e-07,7.812419189745938e-05,3.6130435713740764e-05,-1.5630092602426166e-05,4.2,3.6
3.16796875,-8.307816824597524e-06,6.249287117112996e-05,2.7339219465934247e-05,-2.832353238879986e-05,4.2,3.6
3.171875,-1.4161152132448294e-05,5.6639535863279176e-05,2.978371582055392e-05,-2.8816916974135942e-05,4.2,3.6
3.17578125,-1.7581204371709758e-05,5.272609903868164e-05,3.27103834744793e-05,-3.0274644158083446e-05,4.2,3.6
3.1796875,-1.660564848706796e-05,5.0292815970092335e-05,1.1225727440299095e-05,-3.66213640512703e-05,4.2,3.6
3.18359375,2.4345111924925786e-06,4.7354935030136584e-05,-1.9050144841687633e-05,-4.932601712367436e-05,4.2,3.6
3.1875,-6.356705055313938e-06,4.5897207846189076e-05,6.201069987182424e-05,-4.443702441443502e-05,4.2,3.6
3.19140625,-2.5879036034180194e-05,2.831477535057604e-05,5.3219483624017725e-05,-3.516363686732278e-05,4.2,3.6
3.1953125,-1.270342494850078e-05,3.075927170519571e-05,3.368593935912111e-05,-4.199252805981535e-05,4.2,3.6
3.19921875,-1.709903307240404e-05,3.955048795300223e-05,4.5403823260853e-05,-4.443702441443502e-05,4.2,3.6
3.203125,-2.7841361089494148e-05,2.7339219465934247e-05,2.5388107696650664e-05,-4.883263253833827e-05,4.2,3.6
3.20703125,-2.7841361089494148e-05,2.5388107696650664e-05,3.515487982909897e-05,-2.637242061951627e-05,4.2,3.6
3.2109375,-2.5879036034180194e-05,3.026588711985964e-05,4.2477155606927605e-05,-2.344575296559089e-05,4.2,3.6
3.21484375,-2.3927924264896602e-05,3.1734827589837505e-05,3.9057103367666154e-05,-2.637242061951627e-05,4.2,3.6
3.21875,-2.832353238879986e-05,2.5388107696650664e-05,2.2450226756694917e-05,-2.7347976504158067e-05,4.2,3.6
3.22265625,-3.32125250980392e-05,2.5388107696650664e-05,3.6612607013046484e-05,-4.1016972175173556e-05,4.2,3.6
3.2265625,-3.32125250980392e-05,1.512795097886628e-05,1.7572447333485938e-05,-3.56458081666285e-05,4.2,3.6
3.23046875,-2.247019708094909e-05,1.6103506863508072e-05,-2.295236838025481e-05,-3.0274644158083446e-05,4.2,3.6
3.234375,-2.832353238879986e-05,2.001694368810561e-05,1.458955307850786e-06,-3.271914051270312e-05,4.2,3.6
3.23828125,-2.7841361089494148e-05,1.0250171555657303e-05,3.903451662470459e-06,-3.46702522819867e-05,4.2,3.6
3.2421875,-1.5630092602426166e-05,1.8065831918822026e-05,4.385622961776164e-06,-3.0768028743419524e-05,4.2,3.6
3.24609375,-1.5630092602426166e-05,2.6845834880598176e-05,2.0992499572747406e-05,-3.0274644158083446e-05,4.2,3.6
3.25,-1.4161152132448294e-05,1.512795097886628e-05,-6.356705055313938e-06,-2.9299088273441652e-05,4.2,3.6
3.25390625,-1.2210040363164708e-05,9.756786970321215e-06,-2.5879036034180194e-05,-3.2236969213397407e-05,4.2,3.6
3.2578125,-2.295236838025481e-05,-9.85541046768887e-07,-3.4188241153581913e-06,-2.100125661097122e-05,4.2,3.6
3.26171875,-2.100125661097122e-05,-9.85541046768887e-07,1.9523559102769537e-05,-2.8816916974135942e-05,4.2,3.6
3.265625,-2.100125661097122e-05,-4.921564614327991e-07,-1.3678980833142573e-05,-3.1743584628061325e-05,4.2,3.6
3.26953125,-2.3927924264896602e-05,7.80567520103763e-06,-3.32125250980392e-05,-3.1250200042725244e-05,4.2,3.6
3.2734375,-2.4421308850232683e-05,1.1707898739604814e-05,1.6103506863508072e-05,-3.66213640512703e-05,4.2,3.6
3.27734375,-2.4421308850232683e-05,-2.4432682307163986e-06,-1.4654536717784373e-05,-1.709903307240404e-05,4.2,3.6
3.28125,-1.709903307240404e-05,4.833994232089935e-07,-3.1250200042725244e-05,-2.295236838025481e-05,4.2,3.6
3.28515625,-2.0025700726329425e-05,9.756786970321215e-06,2.343699592736708e-05,-3.809030452124817e-05,4.2,3.6
3.2890625,-2.832353238879986e-05,-9.85541046768887e-07,3.2216998889143225e-05,-2.4421308850232683e-05,4.2,3.6
3.29296875,-1.9532316140993343e-05,-4.921564614327991e-07,2.1968055457389197e-05,-1.270342494850078e-05,4.2,3.6
3.296875,-1.4654536717784373e-05,3.4100670771343713e-06,-5.86332046997785e-06,-2.247019708094909e-05,4.2,3.6
3.30078125,-2.1494641196307297e-05,-1.1727869063858988e-05,-2.936652816052472e-06,-2.0507872025635138e-05,4.2,3.6
3.3046875,-1.4654536717784373e-05,-2.5879036034180194e-05,2.4345111924925786e-06,-1.1727869063858988e-05,4.2,3.6
3.30859375,-1.4654536717784373e-05,-1.5630092602426166e-05,-5.3811491706721455e-06,-2.247019708094909e-05,4.2,3.6
3.3125,-1.4654536717784373e-05,-5.3811491706721455e-06,2.9278957778286665e-06,-1.709903307240404e-05,4.2,3.6
3.31640625,-2.4421308850232683e-05,-1.8556760256351552e-05,-1.9050144841687633e-05,-2.247019708094909e-05,4.2,3.6
3.3203125,-3.46702522819867e-05,-1.660564848706796e-05,-4.1016972175173556e-05,-2.4903480149538393e-05,4.2,3.6
3.32421875,-1.8556760256351552e-05,-2.1494641196307297e-05,-2.3927924264896602e-05,-2.197681249561301e-05,4.2,3.6
3.328125,-1.1727869063858988e-05,-2.5396864734874474e-05,-1.660564848706796e-05,-3.0768028743419524e-05,4.2,3.6
3.33203125,-1.8074588957045832e-05,-2.344575296559089e-05,-6.347718409399556e-05,-3.6139192751964584e-05,4.2,3.6
3.3359375,-2.1494641196307297e-05,-3.4188080982680995e-05,-5.420379654688332e-05,-3.271914051270312e-05,4.2,3.6
3.33984375,-1.8074588957045832e-05,-4.4930408999771095e-05,-7.031728857251849e-05,-4.6881520769054684e-05,4.2,3.6
3.34375,-2.7841361089494148e-05,-4.63881361837186e-05,-6.494612456397343e-05,-3.906586040588996e-05,4.2,3.6
3.34765625,-3.6139192751964584e-05,-2.637242061951627e-05,-6.356705055313938e-06,-2.5879036034180194e-05,4.2,3.6
3.3515625,-2.9299088273441652e-05,-9.765544008545035e-06,-2.197681249561301e-05,-4.2485912645151425e-05,4.2,3.6
3.35546875,-3.1743584628061325e-05,-1.8074588957045832e-05,-3.46702522819867e-05,-3.858368910658425e-05,4.2,3.6
3.359375,-3.6139192751964584e-05,-2.4903480149538393e-05,-6.641506503395131e-05,-3.1743584628061325e-05,4.2,3.6
3.36328125,-3.271914051270312e-05,-2.100125661097122e-05,-0.00010790422334630349,-3.6139192751964584e-05,4.2,3.6
3.3671875,-2.9792472858777733e-05,-8.307816824597524e-06,-3.2236969213397407e-05,-3.760813322194246e-05,4.2,3.6
3.37109375,-4.1016972175173556e-05,-3.0768028743419524e-05,3.8081547483024367e-05,-2.7841361089494148e-05,4.2,3.6
3.375,-5.6648292901502996e-05,-5.372162524757762e-05,-3.711474863660638e-05,-2.9792472858777733e-05,4.2,3.6
3.37890625,-5.810602008545051e-05,-6.543950914930951e-05,-0.0001284133234958419,-2.9792472858777733e-05,4.2,3.6
3.3828125,-5.810602008545051e-05,-4.5905964884412896e-05,-6.152607232471197e-05,-5.6154908316166915e-05,4.2,3.6
3.38671875,-5.372162524757762e-05,-1.2210040363164708e-05,1.458955307850786e-06,-5.078374430762186e-05,4.2,3.6
3.390625,-3.66213640512703e-05,-2.5396864734874474e-05,-1.1234484478522915e-05,-3.2236969213397407e-05,4.2,3.6
3.39453125,-3.0768028743419524e-05,-4.199252805981535e-05,-7.568845258106354e-05,-4.835046123903256e-05,4.2,3.6
3.3984375,-3.66213640512703e-05,-5.6154908316166915e-05,-9.4235227675288e-05,-4.932601712367436e-05,4.2,3.6
3.40234375,-3.6139192751964584e-05,-4.9808188422980074e-05,-3.32125250980392e-05,-4.4930408999771095e-05,4.2,3.6
3.40625,-3.1250200042725244e-05,-2.247019708094909e-05,-1.8074588957045832e-05,-1.8556760256351552e-05,4.2,3.6
3.41015625,-3.271914051270312e-05,-2.7347976504158067e-05,-2.7347976504158067e-05,-4.394379999999984e-06,4.2,3.6
3.4140625,-3.3694696397344914e-05,-4.5412580299076815e-05,-5.0301573008316155e-05,-3.6139192751964584e-05,4.2,3.6
3.41796875,-2.7841361089494148e-05,-4.5905964884412896e-05,-2.5879036034180194e-05,-4.443702441443502e-05,4.2,3.6
3.421875,-4.443702441443502e-05,-4.151035676050964e-05,-1.709903307240404e-05,-2.5396864734874474e-05,4.2,3.6
3.42578125,-7.129284445716028e-05,-4.785707665369648e-05,-4.1016972175173556e-05,-3.760813322194246e-05,4.2,3.6
3.4296875,-6.152607232471197e-05,-6.152607232471197e-05,-6.884834810254061e-05,-4.2485912645151425e-05,4.2,3.6
3.43359375,-4.5412580299076815e-05,-7.081067315785457e-05,-8.34928996581979e-05,-1.9050144841687633e-05,4.2,3.6
3.4375,-4.443702441443502e-05,-4.346146852979322e-05,-1.3678980833142573e-05,-2.9299088273441652e-05,4.2,3.6
3.44140625,-4.004141629053176e-05,-1.1727869063858988e-05,1.4645779679560561e-05,-4.7363692068360404e-05,4.2,3.6
3.4453125,-2.9299088273441652e-05,-5.175930019226366e-05,-7.520628128175783e-05,-4.9808188422980074e-05,4.2,3.6
3.44921875,-3.0274644158083446e-05,-8.544401142748148e-05,-0.00012011549183337146,-5.810602008545051e-05,4.2,3.6
3.453125,-4.2485912645151425e-05,-6.934173268787668e-05,-9.081517543602654e-05,-6.397056867933164e-05,4.2,3.6
3.45703125,-5.322824066224153e-05,-7.178622904249636e-05,-9.911300709849697e-05,-6.446395326466772e-05,4.2,3.6
3.4609375,-5.762384878614479e-05,-9.52107835599298e-05,-0.0001518490912993057,-7.957946283360036e-05,4.2,3.6
3.46484375,-4.053480087586784e-05,-0.00012791993891050584,-0.00015966475166247042,-8.299951507286181e-05,4.2,3.6
3.46875,-3.271914051270312e-05,-0.00013622898385900662,-0.00014500898682078277,-8.202395918822002e-05,4.2,3.6
3.47265625,-4.1016972175173556e-05,-0.00014550237140611885,-0.00015380020306858929,-8.788850778210115e-05,4.2,3.6
3.4765625,-2.9792472858777733e-05,-0.00013525342797436482,-0.0001411067632822156,-7.031728857251849e-05,4.2,3.6
3.48046875,-1.6123477187762247e-05,-0.00013378448750438695,-0.0001518490912993057,-7.373734081177994e-05,4.2,3.6
3.484375,-1.660564848706796e-05,-0.00016064030754711221,-0.00022557644694895854,-8.983961955138474e-05,4.2,3.6
3.48828125,-1.8556760256351552e-05,-0.000171864806863508,-0.00022411871976501106,-0.0001049775556923781,4.2,3.6
3.4921875,-1.8556760256351552e-05,-0.00015429358765392537,-0.00017284036274814986,-9.960639168383305e-05,4.2,3.6
3.49609375,-2.247019708094909e-05,-0.00013378448750438695,-0.00015331803176928357,-9.228411590600441e-05,4.2,3.6
3.5,-2.8816916974135942e-05,-0.00013963782281223774,-0.00014355125963683526,-8.691295189745936e-05,4.2,3.6
3.50390625,-3.4188080982680995e-05,-0.00012596882714122223,-0.0001254866558419165,-6.884834810254061e-05,4.2,3.6
3.5078125,-3.6139192751964584e-05,-9.813745121385516e-05,-0.0001264622117265583,-6.494612456397343e-05,4.2,3.6
3.51171875,-3.2236969213397407e-05,-7.763956435034713e-05,-0.00010887977923094528,-7.421951211108566e-05,4.2,3.6
3.515625,-2.9792472858777733e-05,-6.543950914930951e-05,-8.446845554283969e-05,-6.201945691004805e-05,4.2,3.6
3.51953125,-4.443702441443502e-05,-6.83661768032349e-05,-9.129734673533225e-05,-4.9808188422980074e-05,4.2,3.6
3.5234375,-5.957496055542838e-05,-6.83661768032349e-05,-8.983961955138474e-05,-4.63881361837186e-05,4.2,3.6
3.52734375,-5.859940467078658e-05,-6.347718409399556e-05,-6.884834810254061e-05,-4.6881520769054684e-05,4.2,3.6
3.53125,-4.7363692068360404e-05,-3.711474863660638e-05,-5.078374430762186e-05,-5.0301573008316155e-05,4.2,3.6
3.53515625,-4.1016972175173556e-05,-2.4903480149538393e-05,-3.809030452124817e-05,-4.785707665369648e-05,4.2,3.6
3.5390625,-6.884834810254061e-05,-4.9808188422980074e-05,-4.835046123903256e-05,-5.078374430762186e-05,4.2,3.6
3.54296875,-7.226840034180207e-05,-5.127712889295794e-05,-6.250162820935376e-05,-5.517935243152512e-05,4.2,3.6
3.546875,-3.6139192751964584e-05,-3.4188080982680995e-05,-4.932601712367436e-05,-5.322824066224153e-05,4.2,3.6
3.55078125,-3.1250200042725244e-05,-3.1743584628061325e-05,-2.344575296559089e-05,-4.785707665369648e-05,4.2,3.6
3.5546875,-4.151035676050964e-05,-4.2979297230487506e-05,-3.56458081666285e-05,-4.5905964884412896e-05,4.2,3.6
3.55859375,-3.4188080982680995e-05,-3.2236969213397407e-05,-4.39548531151293e-05,-4.2485912645151425e-05,4.2,3.6
3.5625,-3.809030452124817e-05,-3.0274644158083446e-05,-4.63881361837186e-05,-3.516363686732278e-05,4.2,3.6
3.56640625,-5.127712889295794e-05,-2.0025700726329425e-05,-6.494612456397343e-05,-4.443702441443502e-05,4.2,3.6
3.5703125,-5.517935243152512e-05,-2.4432682307163986e-06,-3.46702522819867e-05,-4.883263253833827e-05,4.2,3.6
3.57421875,-6.250162820935376e-05,-1.2210040363164708e-05,-3.0768028743419524e-05,-4.7363692068360404e-05,4.2,3.6
3.578125,-6.299501279468984e-05,-2.4421308850232683e-05,-3.0768028743419524e-05,-5.127712889295794e-05,4.2,3.6
3.58203125,-4.883263253833827e-05,-2.0507872025635138e-05,-2.5396864734874474e-05,-4.4930408999771095e-05,4.2,3.6
3.5859375,-4.835046123903256e-05,-2.295236838025481e-05,-4.9808188422980074e-05,-3.760813322194246e-05,4.2,3.6
3.58984375,-3.955924499122604e-05,-2.100125661097122e-05,-2.197681249561301e-05,-3.56458081666285e-05,4.2,3.6
3.59375,-3.858368910658425e-05,-2.0025700726329425e-05,-2.0025700726329425e-05,-2.5879036034180194e-05,4.2,3.6
3.59765625,-5.469718113221941e-05,-3.0274644158083446e-05,-4.883263253833827e-05,-1.709903307240404e-05,4.2,3.6
3.6015625,-4.4930408999771095e-05,-3.3694696397344914e-05,-7.178622904249636e-05,-3.858368910658425e-05,4.2,3.6
3.60546875,-3.760813322194246e-05,-2.8816916974135942e-05,-2.1494641196307297e-05,-4.443702441443502e-05,4.2,3.6
3.609375,-3.760813322194246e-05,-1.1727869063858988e-05,5.6146151277943115e-05,-1.660564848706796e-05,4.2,3.6
3.61328125,-4.883263253833827e-05,-3.32125250980392e-05,-3.809030452124817e-05,-1.5136708017090086e-05,4.2,3.6
3.6171875,-5.9092789256122666e-05,-4.346146852979322e-05,-6.934173268787668e-05,-3.0274644158083446e-05,4.2,3.6
3.62109375,-4.785707665369648e-05,-1.7581204371709758e-05,-9.85541046768887e-07,-3.56458081666285e-05,4.2,3.6
3.625,-4.2979297230487506e-05,-2.344575296559089e-05,4.879007547112252e-06,-2.4421308850232683e-05,4.2,3.6
3.62890625,-4.5905964884412896e-05,-4.785707665369648e-05,-1.1234484478522915e-05,-3.32125250980392e-05,4.2,3.6
3.6328125,-3.56458081666285e-05,-4.785707665369648e-05,-2.832353238879986e-05,-3.955924499122604e-05,4.2,3.6
3.63671875,-2.100125661097122e-05,-1.0752313179217195e-05,-9.765544008545035e-06,-2.7347976504158067e-05,4.2,3.6
3.640625,-3.6139192751964584e-05,-2.1494641196307297e-05,-2.197681249561301e-05,-2.247019708094909e-05,4.2,3.6
3.64453125,-5.0301573008316155e-05,-3.4188080982680995e-05,-4.9808188422980074e-05,-2.5396864734874474e-05,4.2,3.6
3.6484375,-3.955924499122604e-05,-2.7841361089494148e-05,-3.271914051270312e-05,-2.344575296559089e-05,4.2,3.6
3.65234375,-4.151035676050964e-05,-2.9792472858777733e-05,-3.0274644158083446e-05,-2.686580520485235e-05,4.2,3.6
3.65625,-6.201945691004805e-05,-4.151035676050964e-05,-5.175930019226366e-05,-2.344575296559089e-05,4.2,3.6
3.66015625,-6.641506503395131e-05,-5.322824066224153e-05,-4.2485912645151425e-05,-2.7841361089494148e-05,4.2,3.6
3.6640625,-4.932601712367436e-05,-4.443702441443502e-05,-2.0507872025635138e-05,-2.7841361089494148e-05,4.2,3.6
3.66796875,-2.8816916974135942e-05,-2.686580520485235e-05,-1.8556760256351552e-05,-2.3927924264896602e-05,4.2,3.6
3.671875,-3.711474863660638e-05,-1.709903307240404e-05,-6.152607232471197e-05,-1.6123477187762247e-05,4.2,3.6
3.67578125,-2.8816916974135942e-05,-2.832353238879986e-05,-7.373734081177994e-05,-2.197681249561301e-05,4.2,3.6
3.6796875,-4.8877645853360576e-06,-4.2979297230487506e-05,-4.2485912645151425e-05,-3.906586040588996e-05,4.2,3.6
3.68359375,-1.270342494850078e-05,-3.46702522819867e-05,1.458955307850786e-06,-2.8816916974135942e-05,4.2,3.6
3.6875,-3.1250200042725244e-05,-2.7841361089494148e-05,-1.3678980833142573e-05,-1.2210040363164708e-05,4.2,3.6
3.69140625,-4.9808188422980074e-05,-3.3694696397344914e-05,-4.151035676050964e-05,-1.709903307240404e-05,4.2,3.6
3.6953125,-5.56727370168612e-05,-3.46702522819867e-05,-4.5412580299076815e-05,-2.5879036034180194e-05,4.2,3.6
3.69921875,-4.835046123903256e-05,-4.785707665369648e-05,-5.078374430762186e-05,-3.858368910658425e-05,4.2,3.6
3.703125,-3.66213640512703e-05,-5.859940467078658e-05,-6.73906209185931e-05,-5.175930019226366e-05,4.2,3.6
3.70703125,-4.053480087586784e-05,-4.9808188422980074e-05,-7.226840034180207e-05,-3.906586040588996e-05,4.2,3.6
3.7109375,-4.932601712367436e-05,-4.6881520769054684e-05,-3.955924499122604e-05,-2.637242061951627e-05,4.2,3.6
3.71484375,-4.2485912645151425e-05,-4.443702441443502e-05,-1.1727869063858988e-05,-4.053480087586784e-05,4.2,3.6
3.71875,-3.3694696397344914e-05,-5.127712889295794e-05,-3.32125250980392e-05,-4.39548531151293e-05,4.2,3.6
3.72265625,-3.0768028743419524e-05,-5.127712889295794e-05,-4.932601712367436e-05,-4.346146852979322e-05,4.2,3.6
3.7265625,-4.346146852979322e-05,-4.39548531151293e-05,-4.2979297230487506e-05,-4.5412580299076815e-05,4.2,3.6
3.73046875,-4.932601712367436e-05,-4.053480087586784e-05,-5.420379654688332e-05,-4.053480087586784e-05,4.2,3.6
3.734375,-3.516363686732278e-05,-4.2485912645151425e-05,-3.809030452124817e-05,-3.1743584628061325e-05,4.2,3.6
3.73828125,-2.9792472858777733e-05,-5.273485607690546e-05,-2.5879036034180194e-05,-2.7347976504158067e-05,4.2,3.6
3.7421875,-2.7347976504158067e-05,-4.5412580299076815e-05,-5.078374430762186e-05,-3.271914051270312e-05,4.2,3.6
3.74609375,-1.8074588957045832e-05,-3.858368910658425e-05,-5.225268477759974e-05,-3.32125250980392e-05,4.2,3.6
3.75,-2.247019708094909e-05,-4.151035676050964e-05,-5.273485607690546e-05,-2.295236838025481e-05,4.2,3.6
3.75390625,-3.0274644158083446e-05,-5.127712889295794e-05,-4.6881520769054684e-05,-1.5630092602426166e-05,4.2,3.6
3.7578125,-2.7347976504158067e-05,-5.6154908316166915e-05,-5.810602008545051e-05,-2.197681249561301e-05,4.2,3.6
3.76171875,-2.832353238879986e-05,-4.883263253833827e-05,-5.7130464200808716e-05,-2.5396864734874474e-05,4.2,3.6
3.765625,-2.7841361089494148e-05,-4.1016972175173556e-05,-5.078374430762186e-05,-2.247019708094909e-05,4.2,3.6
3.76953125,-1.8556760256351552e-05,-5.175930019226366e-05,-6.983511727321277e-05,-2.8816916974135942e-05,4.2,3.6
3.7734375,-2.295236838025481e-05,-7.324395622644387e-05,-8.299951507286181e-05,-3.711474863660638e-05,4.2,3.6
3.77734375,-3.32125250980392e-05,-0.00010106411886778056,-9.32596717906462e-05,-3.906586040588996e-05,4.2,3.6
3.78125,-1.9532316140993343e-05,-0.00012596882714122223,-0.00011425094323949034,-3.0768028743419524e-05,4.2,3.6
3.78515625,-1.660564848706796e-05,-0.0001381800956282902,-0.00013573559927367054,-2.295236838025481e-05,4.2,3.6
3.7890625,-1.9532316140993343e-05,-0.00015771363989318683,-0.00017138263556420232,-2.9299088273441652e-05,4.2,3.6
3.79296875,-1.4161152132448294e-05,-0.00018407607535057602,-0.00021190745127794305,-2.637242061951627e-05,4.2,3.6
3.796875,-2.936652816052472e-06,-0.00021240083586327916,-0.0002441344353292134,-2.247019708094909e-05,4.2,3.6
3.80078125,7.323503901731911e-06,-0.00022557644694895854,-0.00023973882720531014,-2.637242061951627e-05,4.2,3.6
3.8046875,-1.0752313179217195e-05,-0.0002333921073121233,-0.0002426654948592355,-1.8074588957045832e-05,4.2,3.6
3.80859375,-1.0258928593881109e-05,-0.00027928808703440907,-0.00028320152385900664,-2.4432682307163986e-06,4.2,3.6
3.8125,1.1225727440299095e-05,-0.0003164040637949188,-0.00032567745134203093,2.9278957778286665e-06,4.2,3.6
3.81640625,1.317683920958268e-05,-0.0003203062873334859,-0.00033592639477378496,6.830119316395837e-06,4.2,3.6
3.8203125,8.781231085679422e-06,-0.00033592639477378496,-0.00035595332362401767,1.0250171555657303e-05,4.2,3.6
3.82421875,9.655707225146983e-07,-0.00033592639477378496,-0.00037499348330357826,3.903451662470459e-06,4.2,3.6
3.828125,-1.4161152132448294e-05,-0.0003178617909788662,-0.00033592639477378496,1.904138780346382e-05,4.2,3.6
3.83203125,-2.5396864734874474e-05,-0.0003090705747310598,-0.00028320152385900664,3.4661495243762895e-05,4.2,3.6
3.8359375,-2.247019708094909e-05,-0.00027685480396581974,-0.00025340782287632565,2.929033123521785e-05,4.2,3.6
3.83984375,-2.4903480149538393e-05,-0.0002621990391241321,-0.0002621990391241321,2.929033123521785e-05,4.2,3.6
3.84375,-4.199252805981535e-05,-0.000251456711107042,-0.00024168993897459373,1.8548003218127732e-05,4.2,3.6
3.84765625,-5.175930019226366e-05,-0.00020556073138475626,-0.00019139835112840466,1.1707898739604814e-05,4.2,3.6
3.8515625,-6.104390102540625e-05,-0.00013280893161974518,-0.0001274377676112001,1.0250171555657303e-05,4.2,3.6
3.85546875,-7.471289669642174e-05,-9.52107835599298e-05,-5.273485607690546e-05,1.6596891448844147e-05,4.2,3.6
3.859375,-7.71573930510414e-05,-7.909729153429464e-05,-5.420379654688332e-05,1.904138780346382e-05,4.2,3.6
3.86328125,-7.324395622644387e-05,-4.2485912645151425e-05,-4.2485912645151425e-05,4.879007547112252e-06,4.2,3.6
3.8671875,-6.104390102540625e-05,9.655707225146983e-07,3.515487982909897e-05,-6.8388763546196565e-06,4.2,3.6
3.87109375,-6.104390102540625e-05,1.2694667910276976e-05,1.4645779679560561e-05,-4.394379999999984e-06,4.2,3.6
3.875,-7.081067315785457e-05,1.6103506863508072e-05,2.880815993591213e-05,-3.4188241153581913e-06,4.2,3.6
3.87890625,-6.83661768032349e-05,3.1734827589837505e-05,6.59129234103914e-05,-2.0025700726329425e-05,4.2,3.6
3.8828125,-6.446395326466772e-05,3.1734827589837505e-05,4.833049091477838e-05,-2.1494641196307297e-05,4.2,3.6
3.88671875,-6.983511727321277e-05,3.710599159838256e-05,4.442826737621121e-05,-1.31855962478065e-05,4.2,3.6
3.890625,-7.276178492713814e-05,4.784831961547267e-05,4.6379379145494796e-05,-2.0025700726329425e-05,4.2,3.6
3.89453125,-7.081067315785457e-05,5.272609903868164e-05,7.909974778210118e-05,-2.4903480149538393e-05,4.2,3.6
3.8984375,-6.397056867933164e-05,6.201069987182424e-05,6.835741976501109e-05,-2.5396864734874474e-05,4.2,3.6
3.90234375,-5.762384878614479e-05,5.859064763256276e-05,6.249287117112996e-05,-3.32125250980392e-05,4.2,3.6
3.90625,-5.322824066224153e-05,5.5663979978637395e-05,4.198377102159154e-05,-4.2485912645151425e-05,4.2,3.6
3.91015625,-5.810602008545051e-05,5.9566203517204566e-05,5.7121707162584896e-05,-4.39548531151293e-05,4.2,3.6
3.9140625,-7.860390694895855e-05,6.7864035179675e-05,0.0001152289553719387,-3.1743584628061325e-05,4.2,3.6
3.91796875,-8.34928996581979e-05,5.7121707162584896e-05,8.250858673533229e-05,-3.3694696397344914e-05,4.2,3.6
3.921875,-6.983511727321277e-05,3.1734827589837505e-05,2.0992499572747406e-05,-4.199252805981535e-05,4.2,3.6
3.92578125,-5.859940467078658e-05,5.1750543154039856e-05,3.515487982909897e-05,-4.5412580299076815e-05,4.2,3.6
3.9296875,-5.7130464200808716e-05,7.176625871824217e-05,8.886651991454951e-05,-6.104390102540625e-05,4.2,3.6
3.93359375,-5.957496055542838e-05,4.6872763730830864e-05,9.471985522240026e-05,-5.322824066224153e-05,4.2,3.6
3.9375,-6.201945691004805e-05,3.710599159838256e-05,2.5388107696650664e-05,-3.2236969213397407e-05,4.2,3.6
3.94140625,-6.201945691004805e-05,3.8563718782330066e-05,1.9523559102769537e-05,-3.955924499122604e-05,4.2,3.6
3.9453125,-5.859940467078658e-05,5.3219483624017725e-05,8.93486912138552e-05,-3.809030452124817e-05,4.2,3.6
3.94921875,-4.835046123903256e-05,5.9566203517204566e-05,8.300197132066836e-05,-3.66213640512703e-05,4.2,3.6
3.953125,-4.2485912645151425e-05,4.7354935030136584e-05,6.493736752574964e-05,-3.955924499122604e-05,4.2,3.6
3.95703125,-4.199252805981535e-05,5.272609903868164e-05,2.294361134203099e-05,-4.2979297230487506e-05,4.2,3.6
3.9609375,-3.66213640512703e-05,5.6146151277943115e-05,2.2450226756694917e-05,-4.63881361837186e-05,4.2,3.6
3.96484375,-3.3694696397344914e-05,4.5403823260853e-05,6.835741976501109e-05,-3.66213640512703e-05,4.2,3.6
3.96875,-3.2236969213397407e-05,4.6872763730830864e-05,6.541953882505533e-05,-4.39548531151293e-05,4.2,3.6
3.97265625,-3.66213640512703e-05,5.272609903868164e-05,6.738186388036928e-05,-4.63881361837186e-05,4.2,3.6
3.9765625,-3.2236969213397407e-05,6.7864035179675e-05,6.493736752574964e-05,-4.199252805981535e-05,4.2,3.6
3.98046875,-3.516363686732278e-05,5.3219483624017725e-05,4.784831961547267e-05,-4.1016972175173556e-05,4.2,3.6
3.984375,-3.4188080982680995e-05,4.492165196154728e-05,2.1968055457389197e-05,-4.5905964884412896e-05,4.2,3.6
3.98828125,-4.004141629053176e-05,5.272609903868164e-05,4.979943138475626e-05,-4.39548531151293e-05,4.2,3.6
3.9921875,-5.322824066224153e-05,3.758816289768828e-05,5.517059539330131e-05,-3.858368910658425e-05,4.2,3.6
3.99609375,-4.7363692068360404e-05,3.27103834744793e-05,4.198377102159154e-05,-4.2979297230487506e-05,4.2,3.6
4.0,-4.63881361837186e-05,3.075927170519571e-05,2.294361134203099e-05,-4.4930408999771095e-05,4.2,3.6
4.00390625,-4.5905964884412896e-05,3.417932394445718e-05,4.052604383764402e-05,-4.151035676050964e-05,4.2,3.6
4.0078125,-4.053480087586784e-05,4.393488279087512e-05,4.930604679942017e-05,-3.1743584628061325e-05,4.2,3.6
4.01171875,-3.0768028743419524e-05,4.2477155606927605e-05,4.198377102159154e-05,-3.2236969213397407e-05,4.2,3.6
4.015625,-3.46702522819867e-05,3.515487982909897e-05,7.665525142748151e-05,-4.053480087586784e-05,4.2,3.6
4.01953125,-4.883263253833827e-05,2.831477535057604e-05,5.1268371854734136e-05,-4.004141629053176e-05,4.2,3.6
4.0234375,-4.5412580299076815e-05,2.343699592736708e-05,9.27461567101551e-06,-4.004141629053176e-05,4.2,3.6
4.02734375,-2.8816916974135942e-05,3.124144300450143e-05,2.7339219465934247e-05,-3.858368910658425e-05,4.2,3.6
4.03125,-2.3927924264896602e-05,3.026588711985964e-05,1.512795097886628e-05,-3.760813322194246e-05,4.2,3.6
4.03515625,-2.3927924264896602e-05,1.904138780346382e-05,-2.686580520485235e-05,-4.2979297230487506e-05,4.2,3.6
4.0390625,-2.5396864734874474e-05,2.2450226756694917e-05,1.5621335564202352e-05,-3.711474863660638e-05,4.2,3.6
4.04296875,-3.0768028743419524e-05,1.9523559102769537e-05,1.7572447333485938e-05,-2.4421308850232683e-05,4.2,3.6
4.046875,-3.1250200042725244e-05,1.7572447333485938e-05,9.756786970321215e-06,-3.809030452124817e-05,4.2,3.6
4.05078125,-4.151035676050964e-05,1.2201283324940888e-05,-9.985162127094326e-09,-5.273485607690546e-05,4.2,3.6
4.0546875,-4.151035676050964e-05,1.95233989318686e-06,-9.765544008545035e-06,-4.4930408999771095e-05,4.2,3.6
4.05859375,-2.4903480149538393e-05,4.833994232089935e-07,-3.66213640512703e-05,-4.5412580299076815e-05,4.2,3.6
4.0625,-2.4421308850232683e-05,-2.4432682307163986e-06,9.756786970321215e-06,-4.2979297230487506e-05,4.2,3.6
4.06640625,-3.66213640512703e-05,-6.356705055313938e-06,2.7821390765239967e-05,-3.3694696397344914e-05,4.2,3.6
4.0703125,-3.56458081666285e-05,1.458955307850786e-06,7.323503901731911e-06,-5.273485607690546e-05,4.2,3.6
4.07421875,-3.3694696397344914e-05,-4.394379999999984e-06,-3.66213640512703e-05,-5.6154908316166915e-05,4.2,3.6
4.078125,-2.8816916974135942e-05,-1.31855962478065e-05,-2.247019708094909e-05,-4.7363692068360404e-05,4.2,3.6
4.08203125,-2.5396864734874474e-05,-4.8877645853360576e-06,1.6103506863508072e-05,-3.32125250980392e-05,4.2,3.6
4.0859375,-3.6139192751964584e-05,-1.1727869063858988e-05,-2.344575296559089e-05,-2.5396864734874474e-05,4.2,3.6
4.08984375,-4.004141629053176e-05,-1.1234484478522915e-05,-3.1250200042725244e-05,-3.66213640512703e-05,4.2,3.6
4.09375,-4.004141629053176e-05,-3.912208700694265e-06,1.317683920958268e-05,-3.32125250980392e-05,4.2,3.6
4.09765625,-4.151035676050964e-05,-1.709903307240404e-05,1.8548003218127732e-05,-3.32125250980392e-05,4.2,3.6
4.1015625,-3.711474863660638e-05,-1.31855962478065e-05,-6.8388763546196565e-06,-4.151035676050964e-05,4.2,3.6
4.10546875,-3.858368910658425e-05,-6.356705055313938e-06,-1.3678980833142573e-05,-3.66213640512703e-05,4.2,3.6
4.109375,-4.5905964884412896e-05,-1.7581204371709758e-05,2.4345111924925786e-06,-3.711474863660638e-05,4.2,3.6
4.11328125,-4.346146852979322e-05,-2.4421308850232683e-05,-5.86332046997785e-06,-4.63881361837186e-05,4.2,3.6
4.1171875,-3.56458081666285e-05,-2.686580520485235e-05,-3.3694696397344914e-05,-4.1016972175173556e-05,4.2,3.6
4.12109375,-3.809030452124817e-05,-3.32125250980392e-05,-3.516363686732278e-05,-4.004141629053176e-05,4.2,3.6
4.125,-4.053480087586784e-05,-2.9299088273441652e-05,-1.1234484478522915e-05,-5.273485607690546e-05,4.2,3.6
4.12890625,-3.46702522819867e-05,-2.3927924264896602e-05,-2.4903480149538393e-05,-4.785707665369648e-05,4.2,3.6
4.1328125,-3.1743584628061325e-05,-2.832353238879986e-05,-1.9050144841687633e-05,-4.053480087586784e-05,4.2,3.6
4.13671875,-4.2979297230487506e-05,-3.271914051270312e-05,-4.394379999999984e-06,-3.66213640512703e-05,4.2,3.6
4.140625,-4.6881520769054684e-05,-3.955924499122604e-05,-2.295236838025481e-05,-3.6139192751964584e-05,4.2,3.6
4.14453125,-4.2979297230487506e-05,-2.7841361089494148e-05,-2.637242061951627e-05,-3.906586040588996e-05,4.2,3.6
4.1484375,-4.835046123903256e-05,-2.100125661097122e-05,-3.32125250980392e-05,-4.151035676050964e-05,4.2,3.6
4.15234375,-4.004141629053176e-05,-2.1494641196307297e-05,-2.197681249561301e-05,-4.6881520769054684e-05,4.2,3.6
4.15625,-3.1743584628061325e-05,-2.0025700726329425e-05,-1.660564848706796e-05,-4.63881361837186e-05,4.2,3.6
4.16015625,-3.955924499122604e-05,-3.760813322194246e-05,-5.322824066224153e-05,-3.516363686732278e-05,4.2,3.6
4.1640625,-4.346146852979322e-05,-3.66213640512703e-05,-2.9299088273441652e-05,-2.9299088273441652e-05,4.2,3.6
4.16796875,-3.760813322194246e-05,-1.1727869063858988e-05,7.323503901731911e-06,-3.2236969213397407e-05,4.2,3.6
4.171875,-2.9299088273441652e-05,-1.0258928593881109e-05,-1.9532316140993343e-05,-4.6881520769054684e-05,4.2,3.6
4.17578125,-3.1250200042725244e-05,-2.0025700726329425e-05,-2.9299088273441652e-05,-4.932601712367436e-05,4.2,3.6
4.1796875,-3.1743584628061325e-05,-2.637242061951627e-05,-3.66213640512703e-05,-4.2485912645151425e-05,4.2,3.6
4.18359375,-3.46702522819867e-05,-2.9299088273441652e-05,-2.9792472858777733e-05,-3.66213640512703e-05,4.2,3.6
4.1875,-4.053480087586784e-05,-2.295236838025481e-05,-4.8877645853360576e-06,-3.1743584628061325e-05,4.2,3.6
4.19140625,-4.346146852979322e-05,-2.637242061951627e-05,-1.0752313179217195e-05,-3.66213640512703e-05,4.2,3.6
4.1953125,-4.835046123903256e-05,-3.32125250980392e-05,-3.32125250980392e-05,-4.5412580299076815e-05,4.2,3.6
4.19921875,-5.7130464200808716e-05,-3.66213640512703e-05,-4.199252805981535e-05,-4.835046123903256e-05,4.2,3.6
4.203125,-5.859940467078658e-05,-3.271914051270312e-05,-3.56458081666285e-05,-3.906586040588996e-05,4.2,3.6
4.20703125,-5.372162524757762e-05,-2.100125661097122e-05,-4.004141629053176e-05,-3.4188080982680995e-05,4.2,3.6
4.2109375,-4.4930408999771095e-05,-2.5396864734874474e-05,-3.46702522819867e-05,-3.516363686732278e-05,4.2,3.6
4.21484375,-3.46702522819867e-05,-3.0274644158083446e-05,-2.9299088273441652e-05,-2.637242061951627e-05,4.2,3.6
4.21875,-3.6139192751964584e-05,-3.809030452124817e-05,-4.39548531151293e-05,-3.271914051270312e-05,4.2,3.6
4.22265625,-3.858368910658425e-05,-5.127712889295794e-05,-5.322824066224153e-05,-3.906586040588996e-05,4.2,3.6
4.2265625,-3.3694696397344914e-05,-4.151035676050964e-05,-1.4161152132448294e-05,-3.760813322194246e-05,4.2,3.6
4.23046875,-3.56458081666285e-05,-2.5879036034180194e-05,2.4345111924925786e-06,-3.906586040588996e-05,4.2,3.6
4.234375,-4.2485912645151425e-05,-3.3694696397344914e-05,-3.711474863660638e-05,-3.271914051270312e-05,4.2,3.6
