timestamp,TP9,AF7,AF8,TP10,Valence,Arousal
0.0,-5.274012167544061e-05,-2.636743726253148e-05,-5.615337102311742e-05,-3.858047008468757e-05,3.25,2.75
0.00390625,-4.10159657129778e-05,-2.930069842069124e-05,-7.177965319295034e-05,-3.564720892652782e-05,3.25,2.75
0.0078125,-2.832294470130465e-05,-2.7345190981918065e-05,-5.225124481574731e-05,-3.321171329823759e-05,3.25,2.75
0.01171875,-1.9532049897001612e-05,-2.148755733577478e-05,-3.1745082719157704e-05,-1.856318484779126e-05,3.25,2.75
0.015625,-2.7834067841611355e-05,-3.4669455207141224e-05,-2.9789575280384533e-05,-1.9043173037308305e-05,3.25,2.75
0.01953125,-4.688248802929732e-05,-4.394922687113757e-05,-3.125620585946442e-05,-3.515833206683452e-05,3.25,2.75
0.0234375,-4.786024174868391e-05,-4.10159657129778e-05,-3.418057834744793e-05,-3.321171329823759e-05,3.25,2.75
0.02734375,-4.834022993820097e-05,-3.760271636530099e-05,-4.004710066376746e-05,-2.832294470130465e-05,3.25,2.75
0.03125,-4.9317983657587555e-05,-4.7371364888990616e-05,-4.199371943236439e-05,-2.3931941634241255e-05,3.25,2.75
0.03515625,-4.053597752346075e-05,-4.6393611169604035e-05,-3.369170148775464e-05,-3.760271636530099e-05,3.25,2.75
0.0390625,-4.2482596292057686e-05,-4.541585745021744e-05,-2.881182156099794e-05,-5.0295737376974136e-05,3.25,2.75
0.04296875,-3.564720892652782e-05,-3.4669455207141224e-05,-2.2465311055161364e-05,-4.297147315175097e-05,3.25,2.75
0.046875,-2.2465311055161364e-05,-2.2465311055161364e-05,-3.272283643854429e-05,-3.076732899977112e-05,3.25,2.75
0.05078125,-3.515833206683452e-05,-2.5887449073014423e-05,-3.760271636530099e-05,-2.344306477454796e-05,3.25,2.75
0.0546875,-4.053597752346075e-05,-2.0509803616388196e-05,-1.1238920622568101e-05,-2.2954187914854657e-05,3.25,2.75
0.05859375,-2.1976434195468074e-05,-3.321171329823759e-05,-9.813952391851756e-07,-2.636743726253148e-05,3.25,2.75
0.0625,-1.856318484779126e-05,-5.0295737376974136e-05,-4.6393611169604035e-05,-3.418057834744793e-05,3.25,2.75
0.06640625,-1.9532049897001612e-05,-4.297147315175097e-05,-8.105942485694667e-05,-4.394922687113757e-05,3.25,2.75
0.0703125,-2.490969535362784e-05,-4.346035001144427e-05,-6.494426582742047e-05,-5.3228998535133904e-05,3.25,2.75
0.07421875,-3.2233959578851e-05,-3.6136085786221105e-05,-5.127349109636073e-05,-4.346035001144427e-05,3.25,2.75
0.078125,-2.7345190981918065e-05,-3.515833206683452e-05,-5.1762367956054016e-05,-4.394922687113757e-05,3.25,2.75
0.08203125,-2.3931941634241255e-05,-3.955822380407417e-05,-5.7620001602197305e-05,-4.834022993820097e-05,3.25,2.75
0.0859375,-2.490969535362784e-05,-3.4669455207141224e-05,-5.517561730373084e-05,-4.5904734309910735e-05,3.25,2.75
0.08984375,-3.125620585946442e-05,-3.272283643854429e-05,-4.394922687113757e-05,-4.980686051728084e-05,3.25,2.75
0.09375,-3.125620585946442e-05,-3.515833206683452e-05,-4.004710066376746e-05,-4.9317983657587555e-05,3.25,2.75
0.09765625,-3.515833206683452e-05,-3.809159322499428e-05,-4.7371364888990616e-05,-5.274012167544061e-05,3.25,2.75
0.1015625,-4.394922687113757e-05,-4.346035001144427e-05,-4.10159657129778e-05,-4.7371364888990616e-05,3.25,2.75
0.10546875,-3.760271636530099e-05,-3.9069346944380866e-05,-3.418057834744793e-05,-4.150484257267109e-05,3.25,2.75
0.109375,-3.1745082719157704e-05,-3.809159322499428e-05,-2.2954187914854657e-05,-4.004710066376746e-05,3.25,2.75
0.11328125,-3.955822380407417e-05,-4.10159657129778e-05,3.4096078278782326e-06,-2.4420818493934545e-05,3.25,2.75
0.1171875,-4.541585745021744e-05,-4.786024174868391e-05,1.0253883863584334e-05,-2.2465311055161364e-05,3.25,2.75
0.12109375,-2.636743726253148e-05,-5.371787539482719e-05,-2.7834067841611355e-05,-2.685631412222477e-05,3.25,2.75
0.125,-2.0509803616388196e-05,-5.0784614236667436e-05,-7.86150405584802e-05,-3.564720892652782e-05,3.25,2.75
0.12890625,-3.272283643854429e-05,-4.10159657129778e-05,-6.298875838864729e-05,-4.297147315175097e-05,3.25,2.75
0.1328125,-4.150484257267109e-05,-3.564720892652782e-05,-3.858047008468757e-05,-3.9069346944380866e-05,3.25,2.75
0.13671875,-4.297147315175097e-05,-4.004710066376746e-05,-2.7834067841611355e-05,-3.321171329823759e-05,3.25,2.75
0.140625,-3.076732899977112e-05,-3.760271636530099e-05,-1.3185539391165036e-05,-2.881182156099794e-05,3.25,2.75
0.14453125,-3.125620585946442e-05,-4.7371364888990616e-05,-1.660767740901808e-05,-2.636743726253148e-05,3.25,2.75
0.1484375,-3.760271636530099e-05,-4.834022993820097e-05,-2.490969535362784e-05,-2.2465311055161364e-05,3.25,2.75
0.15234375,-3.6136085786221105e-05,-3.1745082719157704e-05,-3.125620585946442e-05,-1.9532049897001612e-05,3.25,2.75
0.15625,-2.539857221332113e-05,-3.125620585946442e-05,-4.9317983657587555e-05,-2.930069842069124e-05,3.25,2.75
0.16015625,-3.076732899977112e-05,-4.10159657129778e-05,-6.201989333943695e-05,-3.564720892652782e-05,3.25,2.75
0.1640625,-3.66249626459144e-05,-3.809159322499428e-05,-5.566449416342413e-05,-3.125620585946442e-05,3.25,2.75
0.16796875,-4.5904734309910735e-05,-2.3931941634241255e-05,-4.053597752346075e-05,-3.321171329823759e-05,3.25,2.75
0.171875,-4.053597752346075e-05,-2.344306477454796e-05,-3.0278452140077823e-05,-3.2233959578851e-05,3.25,2.75
0.17578125,-1.9043173037308305e-05,-2.490969535362784e-05,-2.1976434195468074e-05,-3.272283643854429e-05,3.25,2.75
0.1796875,-1.416329311055162e-05,-2.4420818493934545e-05,-2.685631412222477e-05,-2.7834067841611355e-05,3.25,2.75
0.18359375,-2.0020926756694906e-05,-2.881182156099794e-05,-3.564720892652782e-05,-2.4420818493934545e-05,3.25,2.75
0.1875,-3.1745082719157704e-05,-2.148755733577478e-05,-2.7834067841611355e-05,-3.369170148775464e-05,3.25,2.75
0.19140625,-4.10159657129778e-05,-1.7585431128404676e-05,-2.881182156099794e-05,-4.394922687113757e-05,3.25,2.75
0.1953125,-4.786024174868391e-05,-2.7345190981918065e-05,-2.832294470130465e-05,-4.834022993820097e-05,3.25,2.75
0.19921875,-4.980686051728084e-05,-3.369170148775464e-05,-2.344306477454796e-05,-4.053597752346075e-05,3.25,2.75
0.203125,-3.272283643854429e-05,-3.272283643854429e-05,-1.9043173037308305e-05,-2.3931941634241255e-05,3.25,2.75
0.20703125,-3.4669455207141224e-05,-2.1976434195468074e-05,-1.1238920622568101e-05,-2.7834067841611355e-05,3.25,2.75
0.2109375,-4.150484257267109e-05,-1.9532049897001612e-05,-4.394644586861986e-06,-3.9069346944380866e-05,3.25,2.75
0.21484375,-2.636743726253148e-05,-3.515833206683452e-05,-4.8835214465552775e-06,-2.2954187914854657e-05,3.25,2.75
0.21875,-1.7096554268711386e-05,-3.711383950560769e-05,-1.807430798809797e-05,-9.28341318379492e-06,3.25,2.75
0.22265625,-2.636743726253148e-05,-4.10159657129778e-05,-2.5887449073014423e-05,-1.807430798809797e-05,3.25,2.75
0.2265625,-3.272283643854429e-05,-4.7371364888990616e-05,-2.9789575280384533e-05,-2.490969535362784e-05,3.25,2.75
0.23046875,-4.492698059052415e-05,-4.5904734309910735e-05,-2.5887449073014423e-05,-2.5887449073014423e-05,3.25,2.75
0.234375,-5.957550904097048e-05,-3.418057834744793e-05,-1.5141046829938203e-05,-2.4420818493934545e-05,3.25,2.75
0.23828125,-4.10159657129778e-05,-3.125620585946442e-05,-2.7345190981918065e-05,-2.344306477454796e-05,3.25,2.75
0.2421875,-1.660767740901808e-05,-3.0278452140077823e-05,-4.5904734309910735e-05,-3.1745082719157704e-05,3.25,2.75
0.24609375,-2.7834067841611355e-05,-2.0020926756694906e-05,-3.858047008468757e-05,-4.346035001144427e-05,3.25,2.75
0.25,-4.150484257267109e-05,-8.794536324101628e-06,-2.539857221332113e-05,-3.711383950560769e-05,3.25,2.75
0.25390625,-5.225124481574731e-05,-1.611880054932479e-05,-2.4420818493934545e-05,-3.125620585946442e-05,3.25,2.75
0.2578125,-5.957550904097048e-05,-2.344306477454796e-05,-2.930069842069124e-05,-3.125620585946442e-05,3.25,2.75
0.26171875,-3.9069346944380866e-05,-1.416329311055162e-05,-2.3931941634241255e-05,-2.1976434195468074e-05,3.25,2.75
0.265625,-3.0278452140077823e-05,-3.1745082719157704e-05,-4.8835214465552775e-06,-2.099868047608149e-05,3.25,2.75
0.26953125,-2.881182156099794e-05,-4.10159657129778e-05,8.298376424811166e-06,-9.28341318379492e-06,3.25,2.75
0.2734375,-2.1976434195468074e-05,-2.2465311055161364e-05,4.876238406958108e-06,4.3873615472648165e-06,3.25,2.75
0.27734375,-3.809159322499428e-05,-2.930069842069124e-05,-1.611880054932479e-05,-5.861275165941861e-06,3.25,2.75
0.28125,-4.541585745021744e-05,-5.127349109636073e-05,-3.66249626459144e-05,-2.099868047608149e-05,3.25,2.75
0.28515625,-2.7834067841611355e-05,-4.492698059052415e-05,-2.9789575280384533e-05,-3.914656397344927e-06,3.25,2.75
0.2890625,-2.3931941634241255e-05,-4.394922687113757e-05,-2.3931941634241255e-05,1.2200502632181268e-05,3.25,2.75
0.29296875,-3.2233959578851e-05,-6.885528070496682e-05,-3.809159322499428e-05,9.741121995880065e-07,3.25,2.75
0.296875,-3.418057834744793e-05,-7.812616369878691e-05,-5.274012167544061e-05,-6.350152025635168e-06,3.25,2.75
0.30078125,-1.2207785671778438e-05,-8.008167113756009e-05,-7.226853005264363e-05,-4.8835214465552775e-06,3.25,2.75
0.3046875,8.787253284504458e-06,-0.00011181422366674297,-0.00011083646994735637,-2.4480258182650514e-06,3.25,2.75
0.30859375,1.5133763790341035e-05,-0.00013329813948271917,-0.00013817801940947585,-1.1718908812085146e-05,3.25,2.75
0.3125,2.490241231403067e-05,-0.00016845283002975508,-0.00016454181515220874,-2.5887449073014423e-05,3.25,2.75
0.31640625,4.491969755092697e-05,-0.00023339345433737697,-0.00021630054158846415,-2.930069842069124e-05,3.25,2.75
0.3203125,4.6866316319523914e-05,-0.0002675703911650263,-0.0002612238806591897,-3.955822380407417e-05,3.25,2.75
0.32421875,3.8573187045090406e-05,-0.0002748946553902494,-0.00029443195243762877,-6.934415756466011e-05,3.25,2.75
0.328125,6.49369827878233e-05,-0.00029443195243762877,-0.00032128462504005495,-7.47129143511101e-05,3.25,2.75
0.33203125,8.69097754634928e-05,-0.00033691090720988783,-0.00035302606623941406,-8.203717857633326e-05,3.25,2.75
0.3359375,9.570067026779582e-05,-0.00034911505136186766,-0.00037011009031815063,-0.00011328085424582284,3.25,2.75
0.33984375,7.763000379949644e-05,-0.000340813033417258,-0.00038085649256122683,-0.00011816073417257954,3.25,2.75
0.34375,7.372787759212632e-05,-0.0003286088892652781,-0.00038183424628061337,-0.00011718298045319295,3.25,2.75
0.34765625,0.00010351381135271228,-0.00031932911760128177,-0.00036718571783016707,-0.0001249961215381094,3.25,2.75
0.3515625,9.813616589608605e-05,-0.00033691090720988783,-0.00037890098512245366,-0.00013476477006179905,3.25,2.75
0.35546875,6.34703522087434e-05,-0.00033642203035019454,-0.00037645660082398714,-0.0001445245299153124,3.25,2.75
0.359375,5.419058054474709e-05,-0.00033154215042343786,-0.0003735322283360037,-0.00015380430157930876,3.25,2.75
0.36328125,8.642089860379949e-05,-0.00032079574818036165,-0.000382812,-0.00016259519638361182,3.25,2.75
0.3671875,0.00010351381135271228,-0.0002934541987182422,-0.0003554615618677043,-0.00017186607937743188,3.25,2.75
0.37109375,8.10521418173495e-05,-0.00028319667333485927,-0.0003437462945754177,-0.0001850568659189746,3.25,2.75
0.375,6.981686271457999e-05,-0.0002690370217441062,-0.00033105327356374456,-0.0001850568659189746,3.25,2.75
0.37890625,8.007438809796293e-05,-0.0002460864753490501,-0.00031200485337605857,-0.0001723549562371252,3.25,2.75
0.3828125,7.665225008010986e-05,-0.0002314379468986038,-0.0002998007092240788,-0.00017528821739528494,3.25,2.75
0.38671875,7.323900073243306e-05,-0.00022655806697184712,-0.0002822189196154726,-0.00018163472790112156,3.25,2.75
0.390625,7.470563131151291e-05,-0.00021727829530785077,-0.0002607350037994964,-0.00018114585104142826,3.25,2.75
0.39453125,7.421675445181963e-05,-0.0002104429079423209,-0.00024755310592813,-0.00018114585104142826,3.25,2.75
0.3984375,5.7123841702906845e-05,-0.00021630054158846415,-0.00025536624701304645,-0.0001845679890592813,3.25,2.75
0.40234375,4.931070061799039e-05,-0.0001943277489127947,-0.00023632671549553673,-0.00017479934053559167,3.25,2.75
0.40625,3.80843101853971e-05,-0.00018603461963836117,-0.00023241570061799038,-0.00016259519638361182,3.25,2.75
0.41015625,1.611151750972762e-05,-0.0001850568659189746,-0.00022655806697184712,-0.00017675484797436485,3.25,2.75
0.4140625,4.0030928953994045e-05,-0.00016991946060883497,-0.00020458527429617762,-0.00019189225328450447,3.25,2.75
0.41796875,6.005710286106659e-05,-0.00016015081208514532,-0.00019530550263218127,-0.00017967922046234838,3.25,2.75
0.421875,4.833294689860381e-05,-0.0001411112805676356,-0.00017724372483405811,-0.0001503821635614557,3.25,2.75
0.42578125,2.5871277363241004e-05,-0.00013573363511100938,-0.00017528821739528494,-0.00015478205529869535,3.25,2.75
0.4296875,6.8317458457312905e-06,-0.00010839208564888992,-0.0001474577910734722,-0.00017431046367589838,3.25,2.75
0.43359375,-7.816782604715044e-06,-8.496155106431678e-05,-0.00012646275211718929,-0.00015575980901808196,3.25,2.75
0.4375,5.3651152666514e-06,-8.154830171663997e-05,-0.00012840937088578623,-0.00012889824774547952,3.25,2.75
0.44140625,2.2458028015564194e-05,-6.396651210803388e-05,-0.00010839208564888992,-0.0001254849983978027,3.25,2.75
0.4453125,8.298376424811166e-06,-5.274012167544061e-05,-7.86150405584802e-05,-0.00011767185731288624,3.25,2.75
0.44921875,-4.925183794918837e-07,-4.297147315175097e-05,-4.492698059052415e-05,-0.00010936983936827649,3.25,2.75
0.453125,-1.9532049897001612e-05,-4.004710066376746e-05,-3.418057834744793e-05,-0.00010302332886243992,3.25,2.75
0.45703125,-3.4669455207141224e-05,-3.369170148775464e-05,-3.321171329823759e-05,-0.00010057894456397345,3.25,2.75
0.4609375,-4.053597752346075e-05,-1.4652169970244911e-05,-1.0261166903181504e-05,-9.569906463721676e-05,3.25,2.75
0.46484375,-5.7620001602197305e-05,-3.4257795376516352e-06,8.298376424811166e-06,-8.008167113756009e-05,3.25,2.75
0.46875,-5.8597755321583885e-05,2.3924658594644085e-05,2.9293415381094063e-05,-8.838368908216983e-05,3.25,2.75
0.47265625,-5.615337102311742e-05,4.979957747768367e-05,6.787024394598304e-05,-8.154830171663997e-05,3.25,2.75
0.4765625,-6.0553262760357066e-05,5.077733119707025e-05,7.470563131151291e-05,-5.7620001602197305e-05,3.25,2.75
0.48046875,-6.298875838864729e-05,6.005710286106659e-05,8.886528290226596e-05,-5.615337102311742e-05,3.25,2.75
0.484375,-7.91039174181735e-05,5.663496484321354e-05,9.472291654840924e-05,-4.6393611169604035e-05,3.25,2.75
0.48828125,-8.936144280155642e-05,5.077733119707025e-05,9.178965539024949e-05,-4.7371364888990616e-05,3.25,2.75
0.4921875,-8.887256594186313e-05,6.151484476997024e-05,0.00010643818384069581,-5.127349109636073e-05,3.25,2.75
0.49609375,-8.936144280155642e-05,6.39592290684367e-05,0.0001015583039139391,-3.272283643854429e-05,3.25,2.75
0.5,-9.22769266193637e-05,6.689249022659647e-05,0.000103024934493019,-2.5887449073014423e-05,3.25,2.75
0.50390625,-0.00010155669828336005,7.568338503089952e-05,0.00012548660402838177,-2.7834067841611355e-05,3.25,2.75
0.5078125,-0.00010253445200274662,8.10521418173495e-05,0.00014111288619821468,-2.3931941634241255e-05,3.25,2.75
0.51171875,-8.887256594186313e-05,7.811888065918975e-05,0.00013817962504005492,-1.660767740901808e-05,3.25,2.75
0.515625,-8.593930478370335e-05,7.323900073243306e-05,0.00013475748702220186,-1.7585431128404676e-05,3.25,2.75
0.51953125,-9.325468033875029e-05,7.958551123826962e-05,0.00014305950496681162,-2.2465311055161364e-05,3.25,2.75
0.5234375,-9.569906463721676e-05,8.25187723964294e-05,0.0001440372586861982,-2.344306477454796e-05,3.25,2.75
0.52734375,-9.521018777752346e-05,7.372787759212632e-05,0.00013964625561913482,-1.7585431128404676e-05,3.25,2.75
0.53125,-9.374355719844358e-05,8.446539116502631e-05,0.00014891713861295492,-1.0261166903181504e-05,3.25,2.75
0.53515625,-9.423243405813687e-05,9.570067026779582e-05,0.00015917466399633783,-1.0261166903181504e-05,3.25,2.75
0.5390625,-9.13169502403296e-05,7.860775751888303e-05,0.00015819691027695124,-6.350152025635168e-06,3.25,2.75
0.54296875,-9.374355719844358e-05,8.202989553673609e-05,0.000161130171435111,7.809499565117874e-06,3.25,2.75
0.546875,-0.00010497883630121309,8.54431448844129e-05,0.00016259680201419089,-3.914656397344927e-06,3.25,2.75
0.55078125,-0.00010302332886243992,7.860775751888303e-05,0.00015770803341725795,-1.7585431128404676e-05,3.25,2.75
0.5546875,-9.472131091783017e-05,7.519450817120622e-05,0.00015478366092927442,-1.807430798809797e-05,3.25,2.75
0.55859375,-9.08280733806363e-05,6.444810592812999e-05,0.00014891713861295492,-1.269666253147173e-05,3.25,2.75
0.5625,-9.618794149691005e-05,5.565721112382695e-05,0.00013964625561913482,-1.0261166903181504e-05,3.25,2.75
0.56640625,-9.863232579537652e-05,5.516833426413368e-05,0.00013281086825360494,-1.660767740901808e-05,3.25,2.75
0.5703125,-8.691705850308995e-05,5.7123841702906845e-05,0.00013622411760128174,-4.394644586861986e-06,3.25,2.75
0.57421875,-8.496155106431678e-05,4.931070061799039e-05,0.00013232199139391165,4.852353398947144e-07,3.25,2.75
0.578125,-8.203717857633326e-05,4.7355193179217194e-05,0.0001274332227969787,-1.269666253147173e-05,3.25,2.75
0.58203125,-8.399268601510643e-05,4.931070061799039e-05,0.0001274332227969787,-1.1718908812085146e-05,3.25,2.75
0.5859375,-8.105942485694667e-05,5.467945740444037e-05,0.0001235310965896086,-2.4480258182650514e-06,3.25,2.75
0.58984375,-6.885528070496682e-05,6.738136708628976e-05,0.00011816233980315859,-1.7096554268711386e-05,3.25,2.75
0.59375,-6.494426582742047e-05,6.787024394598304e-05,0.00011669570922407874,-2.2465311055161364e-05,3.25,2.75
0.59765625,-7.666842178988326e-05,5.565721112382695e-05,0.00012059783543144882,-1.9591489585717595e-06,3.25,2.75
0.6015625,-7.86150405584802e-05,4.833294689860381e-05,0.00011083807557793546,4.3873615472648165e-06,3.25,2.75
0.60546875,-6.885528070496682e-05,3.9542052094300745e-05,0.00011132695243762872,1.9518659189745903e-06,3.25,2.75
0.609375,-6.543314268711376e-05,3.3195541588464176e-05,0.00010937144499885556,-9.813952391851756e-07,3.25,2.75
0.61328125,-6.006438590066377e-05,4.931070061799039e-05,0.00010498044193179216,9.741121995880065e-07,3.25,2.75
0.6171875,-5.615337102311742e-05,4.7355193179217194e-05,0.00010449156507209887,6.342868986037984e-06,3.25,2.75
0.62109375,-6.153101647974365e-05,2.1969151155870904e-05,0.00010009167333485922,1.5133763790341035e-05,3.25,2.75
0.625,-7.177965319295034e-05,3.222667653925383e-05,0.00010253605763332569,1.952476685740443e-05,3.25,2.75
0.62890625,-6.787752698558023e-05,3.270666472877089e-05,9.325628596932936e-05,3.8984846875715245e-06,3.25,2.75
0.6328125,-6.592201954680704e-05,1.805813627832455e-05,9.960279647516594e-05,-9.813952391851756e-07,3.25,2.75
0.63671875,-7.031302261387045e-05,1.1222748912794684e-05,9.911391961547264e-05,-1.4702720988784675e-06,3.25,2.75
0.640625,-6.689977326619364e-05,-6.350152025635168e-06,8.202989553673609e-05,-1.7096554268711386e-05,3.25,2.75
0.64453125,-6.592201954680704e-05,8.787253284504458e-06,9.521179340810254e-05,-9.813952391851756e-07,3.25,2.75
0.6484375,-5.225124481574731e-05,1.7089271229114203e-05,8.446539116502631e-05,1.7089271229114203e-05,3.25,2.75
0.65234375,-4.10159657129778e-05,1.757814808880751e-05,7.568338503089952e-05,7.809499565117874e-06,3.25,2.75
0.65625,-4.492698059052415e-05,-1.9591489585717595e-06,6.738136708628976e-05,-4.925183794918837e-07,3.25,2.75
0.66015625,-5.1762367956054016e-05,-2.0509803616388196e-05,4.345306697184711e-05,-1.9591489585717595e-06,3.25,2.75
0.6640625,-5.274012167544061e-05,-2.9369026779583433e-06,5.273283863584345e-05,-4.394644586861986e-06,3.25,2.75
0.66796875,-7.031302261387045e-05,-4.394644586861986e-06,6.835912080567635e-05,-1.7096554268711386e-05,3.25,2.75
0.671875,-7.714840997940032e-05,-7.816782604715044e-06,7.470563131151291e-05,-1.5629923689631495e-05,3.25,2.75
0.67578125,-6.201989333943695e-05,-7.3279057450217515e-06,7.128349329365988e-05,-5.3723983062485694e-06,3.25,2.75
0.6796875,-6.153101647974365e-05,-5.3723983062485694e-06,6.34703522087434e-05,-7.816782604715044e-06,3.25,2.75
0.68359375,-6.787752698558023e-05,-1.075004376287481e-05,5.273283863584345e-05,-1.1718908812085146e-05,3.25,2.75
0.6875,-6.396651210803388e-05,-6.83902888532846e-06,7.177237015335316e-05,-4.394644586861986e-06,3.25,2.75
0.69140625,-5.713112474250401e-05,4.3873615472648165e-06,6.93279858548867e-05,-4.925183794918837e-07,3.25,2.75
0.6953125,-6.153101647974365e-05,1.7089271229114203e-05,5.0288454337376976e-05,-1.0261166903181504e-05,3.25,2.75
0.69921875,-6.396651210803388e-05,3.5151049027237344e-05,5.419058054474709e-05,-1.7096554268711386e-05,3.25,2.75
0.703125,-5.3228998535133904e-05,4.876238406958108e-06,4.149755953307394e-05,-1.7096554268711386e-05,3.25,2.75
0.70703125,-3.760271636530099e-05,-1.5629923689631495e-05,5.1755084916456836e-05,-9.772290043488212e-06,3.25,2.75
0.7109375,-3.6136085786221105e-05,-1.4702720988784675e-06,6.49369827878233e-05,-1.416329311055162e-05,3.25,2.75
0.71484375,-4.297147315175097e-05,8.298376424811166e-06,6.640361336690319e-05,-1.075004376287481e-05,3.25,2.75
0.71875,-4.882910679789426e-05,3.8984846875715245e-06,5.3221715495536724e-05,-5.861275165941861e-06,3.25,2.75
0.72265625,-5.3228998535133904e-05,-1.4652169970244911e-05,3.3195541588464176e-05,-1.1718908812085146e-05,3.25,2.75
0.7265625,-4.9317983657587555e-05,-1.416329311055162e-05,3.076004596017395e-05,-8.794536324101628e-06,3.25,2.75
0.73046875,-5.615337102311742e-05,-4.8835214465552775e-06,5.761271856260012e-05,-1.1718908812085146e-05,3.25,2.75
0.734375,-5.664224788281071e-05,-2.099868047608149e-05,6.05459797207599e-05,-1.7096554268711386e-05,3.25,2.75
0.73828125,-3.321171329823759e-05,3.8984846875715245e-06,4.29641901121538e-05,-4.8835214465552775e-06,3.25,2.75
0.7421875,-4.346035001144427e-05,4.876238406958108e-06,4.100868267338063e-05,2.4407427786678822e-06,3.25,2.75
0.74609375,-3.711383950560769e-05,-2.2954187914854657e-05,3.270666472877089e-05,-4.925183794918837e-07,3.25,2.75
0.75,-2.490969535362784e-05,-1.0261166903181504e-05,3.368441844815747e-05,-9.813952391851756e-07,3.25,2.75
0.75390625,-2.099868047608149e-05,4.852353398947144e-07,2.8804538521400772e-05,-4.925183794918837e-07,3.25,2.75
0.7578125,-1.5141046829938203e-05,-2.490969535362784e-05,1.4644886930647743e-05,-1.5141046829938203e-05,3.25,2.75
0.76171875,-2.881182156099794e-05,-3.858047008468757e-05,1.1222748912794684e-05,-2.0509803616388196e-05,3.25,2.75
0.765625,-3.4669455207141224e-05,-3.515833206683452e-05,2.0013643717097736e-05,-1.7096554268711386e-05,3.25,2.75
0.76953125,-3.9069346944380866e-05,-3.125620585946442e-05,2.490241231403067e-05,-2.148755733577478e-05,3.25,2.75
0.7734375,-4.10159657129778e-05,-2.9369026779583433e-06,4.0030928953994045e-05,-2.1976434195468074e-05,3.25,2.75
0.77734375,-3.809159322499428e-05,-6.350152025635168e-06,5.419058054474709e-05,-2.0509803616388196e-05,3.25,2.75
0.78125,-3.955822380407417e-05,-1.660767740901808e-05,3.5151049027237344e-05,-9.28341318379492e-06,3.25,2.75
0.78515625,-4.2482596292057686e-05,-2.148755733577478e-05,1.611151750972762e-05,-1.1238920622568101e-05,3.25,2.75
0.7890625,-5.127349109636073e-05,-2.7834067841611355e-05,2.441353545433738e-05,-1.1238920622568101e-05,3.25,2.75
0.79296875,-5.127349109636073e-05,-1.807430798809797e-05,3.466217216754406e-05,-1.4702720988784675e-06,3.25,2.75
0.796875,-4.394922687113757e-05,-9.772290043488212e-06,2.7337907942320895e-05,-9.28341318379492e-06,3.25,2.75
0.80078125,-3.9069346944380866e-05,-1.2207785671778438e-05,3.368441844815747e-05,-1.611880054932479e-05,3.25,2.75
0.8046875,-4.150484257267109e-05,-3.272283643854429e-05,2.8804538521400772e-05,-1.5629923689631495e-05,3.25,2.75
0.80859375,-3.809159322499428e-05,-2.9789575280384533e-05,3.027116910048066e-05,-6.350152025635168e-06,3.25,2.75
0.8125,-4.150484257267109e-05,-2.832294470130465e-05,3.5151049027237344e-05,-4.394644586861986e-06,3.25,2.75
0.81640625,-4.053597752346075e-05,-3.369170148775464e-05,2.9782292240787356e-05,4.852353398947144e-07,3.25,2.75
0.8203125,-3.076732899977112e-05,-3.125620585946442e-05,2.782678480201419e-05,-7.816782604715044e-06,3.25,2.75
0.82421875,-3.418057834744793e-05,-3.125620585946442e-05,2.1969151155870904e-05,-1.7585431128404676e-05,3.25,2.75
0.828125,-4.053597752346075e-05,-2.490969535362784e-05,2.8804538521400772e-05,-8.305659464408336e-06,3.25,2.75
0.83203125,-3.858047008468757e-05,-2.0020926756694906e-05,4.149755953307394e-05,-8.794536324101628e-06,3.25,2.75
0.8359375,-4.492698059052415e-05,-2.148755733577478e-05,3.612880274662393e-05,-1.3185539391165036e-05,3.25,2.75
0.83984375,-5.566449416342413e-05,-2.3931941634241255e-05,3.270666472877089e-05,-1.1238920622568101e-05,3.25,2.75
0.84375,-4.6393611169604035e-05,-2.636743726253148e-05,3.222667653925383e-05,-1.5629923689631495e-05,3.25,2.75
0.84765625,-3.9069346944380866e-05,-2.7834067841611355e-05,2.831566166170748e-05,-3.515833206683452e-05,3.25,2.75
0.8515625,-4.346035001144427e-05,-2.9789575280384533e-05,2.5382400503547714e-05,-3.564720892652782e-05,3.25,2.75
0.85546875,-4.053597752346075e-05,-3.369170148775464e-05,2.490241231403067e-05,-9.772290043488212e-06,3.25,2.75
0.859375,-3.076732899977112e-05,-2.636743726253148e-05,2.1969151155870904e-05,-3.4257795376516352e-06,3.25,2.75
0.86328125,-2.7834067841611355e-05,-1.3185539391165036e-05,3.173779967956054e-05,-9.772290043488212e-06,3.25,2.75
0.8671875,-3.369170148775464e-05,-6.350152025635168e-06,4.247531325246052e-05,-1.7585431128404676e-05,3.25,2.75
0.87109375,-2.636743726253148e-05,-1.269666253147173e-05,3.222667653925383e-05,-1.7585431128404676e-05,3.25,2.75
0.875,-3.9069346944380866e-05,-3.0278452140077823e-05,2.7337907942320895e-05,-1.660767740901808e-05,3.25,2.75
0.87890625,-4.297147315175097e-05,-3.4669455207141224e-05,2.831566166170748e-05,-2.2954187914854657e-05,3.25,2.75
0.8828125,-2.636743726253148e-05,-2.0020926756694906e-05,2.782678480201419e-05,-3.1745082719157704e-05,3.25,2.75
0.88671875,-3.4669455207141224e-05,-2.2954187914854657e-05,3.076004596017395e-05,-3.0278452140077823e-05,3.25,2.75
0.890625,-4.6393611169604035e-05,-4.443810373083086e-05,1.5133763790341035e-05,-1.9532049897001612e-05,3.25,2.75
0.89453125,-4.882910679789426e-05,-4.2482596292057686e-05,-3.64151979859173e-09,-2.4420818493934545e-05,3.25,2.75
0.8984375,-3.809159322499428e-05,-2.685631412222477e-05,8.298376424811166e-06,-3.272283643854429e-05,3.25,2.75
0.90234375,-3.0278452140077823e-05,-3.369170148775464e-05,8.787253284504458e-06,-2.7834067841611355e-05,3.25,2.75
0.90625,-4.443810373083086e-05,-5.0784614236667436e-05,-6.83902888532846e-06,-2.3931941634241255e-05,3.25,2.75
0.91015625,-4.882910679789426e-05,-3.66249626459144e-05,-6.350152025635168e-06,-1.7096554268711386e-05,3.25,2.75
0.9140625,-3.515833206683452e-05,-2.2465311055161364e-05,8.787253284504458e-06,-1.9043173037308305e-05,3.25,2.75
0.91796875,-2.881182156099794e-05,-1.9532049897001612e-05,8.787253284504458e-06,-1.7585431128404676e-05,3.25,2.75
0.921875,-3.809159322499428e-05,-1.611880054932479e-05,7.320622705424582e-06,-1.5629923689631495e-05,3.25,2.75
0.92578125,-4.394922687113757e-05,-1.660767740901808e-05,9.27613014419775e-06,-2.344306477454796e-05,3.25,2.75
0.9296875,-3.711383950560769e-05,-2.099868047608149e-05,2.441353545433738e-05,-2.490969535362784e-05,3.25,2.75
0.93359375,-3.4669455207141224e-05,-2.7834067841611355e-05,2.7337907942320895e-05,-2.0509803616388196e-05,3.25,2.75
0.9375,-3.076732899977112e-05,-1.075004376287481e-05,2.5382400503547714e-05,-1.660767740901808e-05,3.25,2.75
0.94140625,-3.076732899977112e-05,-1.3185539391165036e-05,2.441353545433738e-05,-2.099868047608149e-05,3.25,2.75
0.9453125,-2.2954187914854657e-05,-2.4420818493934545e-05,1.660039436942091e-05,-2.5887449073014423e-05,3.25,2.75
0.94921875,-1.660767740901808e-05,-1.3674416250858327e-05,2.6849031082627605e-05,-1.9532049897001612e-05,3.25,2.75
0.953125,-3.272283643854429e-05,-7.816782604715044e-06,4.149755953307394e-05,-1.807430798809797e-05,3.25,2.75
0.95703125,-3.711383950560769e-05,-1.075004376287481e-05,3.563992588693064e-05,-2.0509803616388196e-05,3.25,2.75
0.9609375,-3.515833206683452e-05,-1.807430798809797e-05,3.173779967956054e-05,-1.075004376287481e-05,3.25,2.75
0.96484375,-4.004710066376746e-05,-3.076732899977112e-05,2.6849031082627605e-05,-1.9591489585717595e-06,3.25,2.75
0.96875,-3.076732899977112e-05,-2.7834067841611355e-05,2.782678480201419e-05,-2.148755733577478e-05,3.25,2.75
0.97265625,-2.3931941634241255e-05,-1.9532049897001612e-05,4.394194383154038e-05,-2.636743726253148e-05,3.25,2.75
0.9765625,-2.2954187914854657e-05,-2.1976434195468074e-05,3.368441844815747e-05,-8.794536324101628e-06,3.25,2.75
0.98046875,-2.490969535362784e-05,-1.3674416250858327e-05,1.660039436942091e-05,-2.0020926756694906e-05,3.25,2.75
0.984375,-2.881182156099794e-05,-1.7096554268711386e-05,1.4644886930647743e-05,-2.7834067841611355e-05,3.25,2.75
0.98828125,-2.9789575280384533e-05,-3.760271636530099e-05,1.366713321126116e-05,-2.344306477454796e-05,3.25,2.75
0.9921875,-2.2465311055161364e-05,-3.564720892652782e-05,1.268937949187456e-05,-2.7834067841611355e-05,3.25,2.75
0.99609375,-1.1718908812085146e-05,-2.2954187914854657e-05,1.3178256351567867e-05,-2.7834067841611355e-05,3.25,2.75
1.0,-3.0278452140077823e-05,-2.148755733577478e-05,9.27613014419775e-06,-2.7345190981918065e-05,3.25,2.75
1.00390625,-4.346035001144427e-05,-3.515833206683452e-05,2.4407427786678822e-06,-3.6136085786221105e-05,3.25,2.75
1.0078125,-2.2954187914854657e-05,-2.099868047608149e-05,1.0253883863584334e-05,-2.930069842069124e-05,3.25,2.75
1.01171875,-2.881182156099794e-05,-2.0020926756694906e-05,1.611151750972762e-05,-2.636743726253148e-05,3.25,2.75
1.015625,-4.394922687113757e-05,-2.930069842069124e-05,1.805813627832455e-05,-3.6136085786221105e-05,3.25,2.75
1.01953125,-3.858047008468757e-05,-3.125620585946442e-05,1.660039436942091e-05,-2.539857221332113e-05,3.25,2.75
1.0234375,-4.053597752346075e-05,-4.150484257267109e-05,-4.925183794918837e-07,-2.4420818493934545e-05,3.25,2.75
1.02734375,-3.076732899977112e-05,-4.346035001144427e-05,-6.350152025635168e-06,-3.564720892652782e-05,3.25,2.75
1.03125,-2.099868047608149e-05,-5.957550904097048e-05,-4.8835214465552775e-06,-3.564720892652782e-05,3.25,2.75
1.03515625,-3.321171329823759e-05,-6.006438590066377e-05,9.741121995880065e-07,-3.6136085786221105e-05,3.25,2.75
1.0390625,-3.418057834744793e-05,-4.443810373083086e-05,-2.4480258182650514e-06,-3.369170148775464e-05,3.25,2.75
1.04296875,-3.0278452140077823e-05,-4.980686051728084e-05,-1.4652169970244911e-05,-3.321171329823759e-05,3.25,2.75
1.046875,-4.053597752346075e-05,-4.541585745021744e-05,-9.28341318379492e-06,-3.564720892652782e-05,3.25,2.75
1.05078125,-4.297147315175097e-05,-3.2233959578851e-05,-1.3185539391165036e-05,-4.346035001144427e-05,3.25,2.75
1.0546875,-2.7834067841611355e-05,-2.7834067841611355e-05,-2.2465311055161364e-05,-5.371787539482719e-05,3.25,2.75
1.05859375,-1.9532049897001612e-05,-5.861275165941861e-06,9.741121995880065e-07,-3.809159322499428e-05,3.25,2.75
1.0625,-1.9532049897001612e-05,-2.148755733577478e-05,8.787253284504458e-06,-2.930069842069124e-05,3.25,2.75
1.06640625,-3.272283643854429e-05,-4.834022993820097e-05,-2.099868047608149e-05,-3.858047008468757e-05,3.25,2.75
1.0703125,-2.2954187914854657e-05,-2.2954187914854657e-05,-1.3674416250858327e-05,-3.515833206683452e-05,3.25,2.75
1.07421875,-1.5629923689631495e-05,-1.7096554268711386e-05,-9.772290043488212e-06,-3.1745082719157704e-05,3.25,2.75
1.078125,-2.490969535362784e-05,-4.882910679789426e-05,-2.881182156099794e-05,-3.9069346944380866e-05,3.25,2.75
1.08203125,-3.125620585946442e-05,-6.689977326619364e-05,-3.272283643854429e-05,-3.711383950560769e-05,3.25,2.75
1.0859375,-3.1745082719157704e-05,-5.8597755321583885e-05,-2.7345190981918065e-05,-3.711383950560769e-05,3.25,2.75
1.08984375,-3.515833206683452e-05,-5.1762367956054016e-05,-1.416329311055162e-05,-4.297147315175097e-05,3.25,2.75
1.09375,-4.443810373083086e-05,-4.882910679789426e-05,-1.1238920622568101e-05,-4.004710066376746e-05,3.25,2.75
1.09765625,-4.541585745021744e-05,-5.7620001602197305e-05,-2.344306477454796e-05,-4.297147315175097e-05,3.25,2.75
1.1015625,-4.6393611169604035e-05,-5.810887846189059e-05,-2.2954187914854657e-05,-5.615337102311742e-05,3.25,2.75
1.10546875,-4.150484257267109e-05,-5.1762367956054016e-05,-1.7585431128404676e-05,-4.688248802929732e-05,3.25,2.75
1.109375,-3.9069346944380866e-05,-5.225124481574731e-05,-1.3185539391165036e-05,-3.125620585946442e-05,3.25,2.75
1.11328125,-3.6136085786221105e-05,-5.7620001602197305e-05,-8.794536324101628e-06,-3.515833206683452e-05,3.25,2.75
1.1171875,-2.7834067841611355e-05,-5.713112474250401e-05,-2.7345190981918065e-05,-4.10159657129778e-05,3.25,2.75
1.12109375,-2.9789575280384533e-05,-3.9069346944380866e-05,-2.0020926756694906e-05,-5.0295737376974136e-05,3.25,2.75
1.125,-2.5887449073014423e-05,-3.858047008468757e-05,-1.9532049897001612e-05,-4.9317983657587555e-05,3.25,2.75
1.12890625,-2.2954187914854657e-05,-3.6136085786221105e-05,-2.1976434195468074e-05,-4.5904734309910735e-05,3.25,2.75
1.1328125,-2.3931941634241255e-05,-2.7345190981918065e-05,-7.3279057450217515e-06,-4.6393611169604035e-05,3.25,2.75
1.13671875,-2.344306477454796e-05,-4.394922687113757e-05,-2.1976434195468074e-05,-5.1762367956054016e-05,3.25,2.75
1.140625,-2.685631412222477e-05,-4.053597752346075e-05,-2.5887449073014423e-05,-5.4695629114213785e-05,3.25,2.75
1.14453125,-2.881182156099794e-05,-3.076732899977112e-05,-1.856318484779126e-05,-5.1762367956054016e-05,3.25,2.75
1.1484375,-4.2482596292057686e-05,-4.541585745021744e-05,-1.9532049897001612e-05,-5.615337102311742e-05,3.25,2.75
1.15234375,-4.150484257267109e-05,-3.955822380407417e-05,-7.816782604715044e-06,-4.5904734309910735e-05,3.25,2.75
1.15625,-2.0020926756694906e-05,-4.541585745021744e-05,-2.2954187914854657e-05,-3.4669455207141224e-05,3.25,2.75
1.16015625,-1.856318484779126e-05,-4.492698059052415e-05,-2.7834067841611355e-05,-4.10159657129778e-05,3.25,2.75
1.1640625,-2.881182156099794e-05,-3.809159322499428e-05,-2.0020926756694906e-05,-4.786024174868391e-05,3.25,2.75
1.16796875,-3.0278452140077823e-05,-3.076732899977112e-05,1.4629890592812984e-06,-3.66249626459144e-05,3.25,2.75
1.171875,-3.369170148775464e-05,-4.053597752346075e-05,7.320622705424582e-06,-2.930069842069124e-05,3.25,2.75
1.17578125,-3.66249626459144e-05,-4.394922687113757e-05,-1.0261166903181504e-05,-4.10159657129778e-05,3.25,2.75
1.1796875,-2.685631412222477e-05,-2.9789575280384533e-05,-1.075004376287481e-05,-4.492698059052415e-05,3.25,2.75
1.18359375,-2.0509803616388196e-05,-2.7345190981918065e-05,-1.1238920622568101e-05,-4.882910679789426e-05,3.25,2.75
1.1875,-3.272283643854429e-05,-2.832294470130465e-05,-1.3185539391165036e-05,-6.396651210803388e-05,3.25,2.75
1.19140625,-3.369170148775464e-05,-3.6136085786221105e-05,-1.611880054932479e-05,-5.1762367956054016e-05,3.25,2.75
1.1953125,-3.9069346944380866e-05,-3.66249626459144e-05,-2.4480258182650514e-06,-3.515833206683452e-05,3.25,2.75
1.19921875,-5.517561730373084e-05,-5.8597755321583885e-05,-2.099868047608149e-05,-3.66249626459144e-05,3.25,2.75
1.203125,-5.0784614236667436e-05,-6.104213962005036e-05,-3.858047008468757e-05,-3.6136085786221105e-05,3.25,2.75
1.20703125,-5.0295737376974136e-05,-4.10159657129778e-05,-1.3674416250858327e-05,-3.9069346944380866e-05,3.25,2.75
1.2109375,-4.053597752346075e-05,-3.515833206683452e-05,-1.269666253147173e-05,-4.541585745021744e-05,3.25,2.75
1.21484375,-3.564720892652782e-05,-2.881182156099794e-05,-1.7585431128404676e-05,-3.955822380407417e-05,3.25,2.75
1.21875,-4.10159657129778e-05,-3.125620585946442e-05,-1.856318484779126e-05,-4.004710066376746e-05,3.25,2.75
1.22265625,-3.6136085786221105e-05,-2.5887449073014423e-05,-1.269666253147173e-05,-4.786024174868391e-05,3.25,2.75
1.2265625,-4.199371943236439e-05,-1.9043173037308305e-05,-2.4480258182650514e-06,-3.0278452140077823e-05,3.25,2.75
1.23046875,-4.10159657129778e-05,-2.685631412222477e-05,-9.28341318379492e-06,-2.344306477454796e-05,3.25,2.75
1.234375,-3.418057834744793e-05,-2.2954187914854657e-05,-4.8835214465552775e-06,-2.539857221332113e-05,3.25,2.75
1.23828125,-2.490969535362784e-05,-4.925183794918837e-07,1.0733872053101392e-05,-1.611880054932479e-05,3.25,2.75
1.2421875,-1.7096554268711386e-05,-3.4257795376516352e-06,5.3651152666514e-06,-1.4652169970244911e-05,3.25,2.75
1.24609375,-3.272283643854429e-05,-3.418057834744793e-05,-1.9532049897001612e-05,-1.856318484779126e-05,3.25,2.75
1.25,-5.0784614236667436e-05,-5.1762367956054016e-05,-3.076732899977112e-05,-3.66249626459144e-05,3.25,2.75
1.25390625,-5.0784614236667436e-05,-4.346035001144427e-05,-7.3279057450217515e-06,-4.786024174868391e-05,3.25,2.75
1.2578125,-4.150484257267109e-05,-3.321171329823759e-05,1.4629890592812984e-06,-3.711383950560769e-05,3.25,2.75
1.26171875,-3.2233959578851e-05,-3.272283643854429e-05,-1.1718908812085146e-05,-1.3674416250858327e-05,3.25,2.75
1.265625,-3.66249626459144e-05,-3.418057834744793e-05,-1.7585431128404676e-05,-1.269666253147173e-05,3.25,2.75
1.26953125,-3.2233959578851e-05,-2.344306477454796e-05,-1.269666253147173e-05,-2.930069842069124e-05,3.25,2.75
1.2734375,-3.125620585946442e-05,-2.3931941634241255e-05,-8.794536324101628e-06,-2.7345190981918065e-05,3.25,2.75
1.27734375,-2.7834067841611355e-05,-4.004710066376746e-05,-1.7585431128404676e-05,-2.539857221332113e-05,3.25,2.75
1.28125,-1.416329311055162e-05,-2.5887449073014423e-05,-2.9369026779583433e-06,-1.611880054932479e-05,3.25,2.75
1.28515625,-2.832294470130465e-05,-1.3185539391165036e-05,1.0253883863584334e-05,-1.611880054932479e-05,3.25,2.75
1.2890625,-3.858047008468757e-05,-3.321171329823759e-05,-6.350152025635168e-06,-2.7345190981918065e-05,3.25,2.75
1.29296875,-2.5887449073014423e-05,-3.66249626459144e-05,-7.3279057450217515e-06,-2.539857221332113e-05,3.25,2.75
1.296875,-2.685631412222477e-05,-2.881182156099794e-05,1.4629890592812984e-06,-2.539857221332113e-05,3.25,2.75
1.30078125,-4.053597752346075e-05,-3.272283643854429e-05,5.853992126344692e-06,-2.2954187914854657e-05,3.25,2.75
1.3046875,-3.858047008468757e-05,-2.344306477454796e-05,1.660039436942091e-05,-1.269666253147173e-05,3.25,2.75
1.30859375,-2.5887449073014423e-05,-2.0020926756694906e-05,2.3924658594644085e-05,-1.4652169970244911e-05,3.25,2.75
1.3125,-3.760271636530099e-05,-2.930069842069124e-05,8.787253284504458e-06,-1.807430798809797e-05,3.25,2.75
1.31640625,-3.564720892652782e-05,-2.881182156099794e-05,4.852353398947144e-07,-1.416329311055162e-05,3.25,2.75
1.3203125,-2.099868047608149e-05,-3.515833206683452e-05,-1.660767740901808e-05,-2.2954187914854657e-05,3.25,2.75
1.32421875,-1.7096554268711386e-05,-4.150484257267109e-05,-2.685631412222477e-05,-3.076732899977112e-05,3.25,2.75
1.328125,-2.539857221332113e-05,-4.297147315175097e-05,-2.0509803616388196e-05,-4.053597752346075e-05,3.25,2.75
1.33203125,-3.1745082719157704e-05,-4.053597752346075e-05,-9.772290043488212e-06,-3.4669455207141224e-05,3.25,2.75
1.3359375,-3.4669455207141224e-05,-3.076732899977112e-05,-1.1238920622568101e-05,-3.321171329823759e-05,3.25,2.75
1.33984375,-3.955822380407417e-05,-4.297147315175097e-05,-3.321171329823759e-05,-3.760271636530099e-05,3.25,2.75
1.34375,-3.760271636530099e-05,-5.274012167544061e-05,-2.344306477454796e-05,-3.0278452140077823e-05,3.25,2.75
1.34765625,-3.6136085786221105e-05,-3.0278452140077823e-05,-1.9591489585717595e-06,-2.832294470130465e-05,3.25,2.75
1.3515625,-3.711383950560769e-05,-2.636743726253148e-05,-1.4652169970244911e-05,-2.636743726253148e-05,3.25,2.75
1.35546875,-3.6136085786221105e-05,-4.7371364888990616e-05,-1.660767740901808e-05,-3.418057834744793e-05,3.25,2.75
1.359375,-3.369170148775464e-05,-3.418057834744793e-05,-4.8835214465552775e-06,-3.2233959578851e-05,3.25,2.75
1.36328125,-3.076732899977112e-05,-2.636743726253148e-05,2.929619638361174e-06,-2.4420818493934545e-05,3.25,2.75
1.3671875,-2.3931941634241255e-05,-4.10159657129778e-05,-3.4257795376516352e-06,-2.099868047608149e-05,3.25,2.75
1.37109375,-2.3931941634241255e-05,-4.688248802929732e-05,-8.794536324101628e-06,-2.3931941634241255e-05,3.25,2.75
1.375,-2.7834067841611355e-05,-4.5904734309910735e-05,-1.9591489585717595e-06,-3.369170148775464e-05,3.25,2.75
1.37890625,-3.076732899977112e-05,-3.321171329823759e-05,9.765007003891042e-06,-3.0278452140077823e-05,3.25,2.75
1.3828125,-2.881182156099794e-05,-3.076732899977112e-05,3.8984846875715245e-06,-2.539857221332113e-05,3.25,2.75
1.38671875,-3.6136085786221105e-05,-5.810887846189059e-05,-3.760271636530099e-05,-3.9069346944380866e-05,3.25,2.75
1.390625,-4.297147315175097e-05,-6.885528070496682e-05,-2.930069842069124e-05,-5.517561730373084e-05,3.25,2.75
1.39453125,-3.858047008468757e-05,-5.371787539482719e-05,-2.0509803616388196e-05,-5.664224788281071e-05,3.25,2.75
1.3984375,-2.636743726253148e-05,-5.566449416342413e-05,-4.346035001144427e-05,-5.0295737376974136e-05,3.25,2.75
1.40234375,-1.4652169970244911e-05,-4.834022993820097e-05,-3.809159322499428e-05,-6.885528070496682e-05,3.25,2.75
1.40625,-7.816782604715044e-06,-4.394922687113757e-05,-4.150484257267109e-05,-9.716569521629664e-05,3.25,2.75
1.41015625,-1.3185539391165036e-05,-5.7620001602197305e-05,-4.786024174868391e-05,-9.814344893568322e-05,3.25,2.75
1.4140625,-9.28341318379492e-06,-5.0295737376974136e-05,-4.394922687113757e-05,-9.569906463721676e-05,3.25,2.75
1.41796875,-4.925183794918837e-07,-3.9069346944380866e-05,-4.2482596292057686e-05,-0.00011181422366674297,3.25,2.75
1.421875,-8.305659464408336e-06,-4.6393611169604035e-05,-5.3228998535133904e-05,-0.00012352949095902952,3.25,2.75
1.42578125,-5.861275165941861e-06,-3.66249626459144e-05,-5.274012167544061e-05,-0.0001249961215381094,3.25,2.75
1.4296875,6.8317458457312905e-06,-1.660767740901808e-05,-4.150484257267109e-05,-0.0001298760014648661,3.25,2.75
1.43359375,1.1222748912794684e-05,-2.099868047608149e-05,-2.9789575280384533e-05,-0.0001303648783245594,3.25,2.75
1.4375,-4.925183794918837e-07,-3.564720892652782e-05,-4.7371364888990616e-05,-0.00012695162897688258,3.25,2.75
1.44140625,-4.925183794918837e-07,-3.0278452140077823e-05,-5.4695629114213785e-05,-0.00012695162897688258,3.25,2.75
1.4453125,1.0733872053101392e-05,-2.0020926756694906e-05,-4.10159657129778e-05,-0.000125973875257496,3.25,2.75
1.44921875,6.342868986037984e-06,-2.539857221332113e-05,-2.636743726253148e-05,-0.00011473859615472648,3.25,2.75
1.453125,3.4096078278782326e-06,-2.539857221332113e-05,-1.5629923689631495e-05,-0.00010497883630121309,3.25,2.75
1.45703125,1.9518659189745903e-06,-1.807430798809797e-05,-2.881182156099794e-05,-0.00010155669828336005,3.25,2.75
1.4609375,-2.4480258182650514e-06,-1.0261166903181504e-05,-3.125620585946442e-05,-9.423243405813687e-05,3.25,2.75
1.46484375,-8.794536324101628e-06,-2.3931941634241255e-05,-2.2465311055161364e-05,-8.105942485694667e-05,3.25,2.75
1.46875,-1.416329311055162e-05,-2.1976434195468074e-05,-1.0261166903181504e-05,-7.226853005264363e-05,3.25,2.75
1.47265625,-2.881182156099794e-05,-1.269666253147173e-05,-9.772290043488212e-06,-7.569066807049668e-05,3.25,2.75
1.4765625,-2.148755733577478e-05,-1.416329311055162e-05,-2.099868047608149e-05,-8.496155106431678e-05,3.25,2.75
1.48046875,-6.83902888532846e-06,-1.0261166903181504e-05,-1.7585431128404676e-05,-8.399268601510643e-05,3.25,2.75
1.484375,-1.3674416250858327e-05,-1.5141046829938203e-05,-1.5141046829938203e-05,-7.42240374914168e-05,3.25,2.75
1.48828125,-1.611880054932479e-05,-3.711383950560769e-05,-2.881182156099794e-05,-8.057054799725338e-05,3.25,2.75
1.4921875,-2.490969535362784e-05,-4.6393611169604035e-05,-3.9069346944380866e-05,-8.203717857633326e-05,3.25,2.75
1.49609375,-3.2233959578851e-05,-3.418057834744793e-05,-2.344306477454796e-05,-6.982414575417716e-05,3.25,2.75
1.5,-2.0020926756694906e-05,-2.0509803616388196e-05,-1.7585431128404676e-05,-6.104213962005036e-05,3.25,2.75
1.50390625,-1.807430798809797e-05,-2.7834067841611355e-05,-2.0020926756694906e-05,-5.7620001602197305e-05,3.25,2.75
1.5078125,-2.4420818493934545e-05,-2.539857221332113e-05,-7.816782604715044e-06,-5.566449416342413e-05,3.25,2.75
1.51171875,-2.2954187914854657e-05,-2.344306477454796e-05,-7.3279057450217515e-06,-4.9317983657587555e-05,3.25,2.75
1.515625,-2.344306477454796e-05,-5.861275165941861e-06,-1.4702720988784675e-06,-5.274012167544061e-05,3.25,2.75
1.51953125,-3.272283643854429e-05,-1.5629923689631495e-05,-3.64151979859173e-09,-5.810887846189059e-05,3.25,2.75
1.5234375,-4.2482596292057686e-05,-4.2482596292057686e-05,-4.8835214465552775e-06,-4.5904734309910735e-05,3.25,2.75
1.52734375,-3.418057834744793e-05,-2.0509803616388196e-05,1.366713321126116e-05,-3.0278452140077823e-05,3.25,2.75
1.53125,-2.539857221332113e-05,-2.930069842069124e-05,-3.4257795376516352e-06,-3.2233959578851e-05,3.25,2.75
1.53515625,-2.881182156099794e-05,-3.66249626459144e-05,-1.1238920622568101e-05,-3.760271636530099e-05,3.25,2.75
1.5390625,-2.832294470130465e-05,-2.9789575280384533e-05,3.4096078278782326e-06,-4.150484257267109e-05,3.25,2.75
1.54296875,-1.5141046829938203e-05,-1.4652169970244911e-05,9.27613014419775e-06,-4.882910679789426e-05,3.25,2.75
1.546875,-1.1238920622568101e-05,-2.539857221332113e-05,1.0253883863584334e-05,-4.004710066376746e-05,3.25,2.75
1.55078125,-1.5629923689631495e-05,-4.10159657129778e-05,5.853992126344692e-06,-3.809159322499428e-05,3.25,2.75
1.5546875,-1.5629923689631495e-05,-3.6136085786221105e-05,1.611151750972762e-05,-4.150484257267109e-05,3.25,2.75
1.55859375,-1.9043173037308305e-05,-3.955822380407417e-05,1.9518659189745903e-06,-4.9317983657587555e-05,3.25,2.75
1.5625,-2.1976434195468074e-05,-2.7345190981918065e-05,-4.925183794918837e-07,-5.1762367956054016e-05,3.25,2.75
1.56640625,-3.711383950560769e-05,-3.0278452140077823e-05,2.929619638361174e-06,-4.150484257267109e-05,3.25,2.75
1.5703125,-4.443810373083086e-05,-4.394922687113757e-05,7.809499565117874e-06,-4.541585745021744e-05,3.25,2.75
1.57421875,-4.150484257267109e-05,-4.297147315175097e-05,2.636015422293431e-05,-4.6393611169604035e-05,3.25,2.75
1.578125,-3.809159322499428e-05,-3.809159322499428e-05,1.7089271229114203e-05,-3.66249626459144e-05,3.25,2.75
1.58203125,-3.955822380407417e-05,-2.832294470130465e-05,1.757814808880751e-05,-3.418057834744793e-05,3.25,2.75
1.5859375,-4.6393611169604035e-05,-2.7834067841611355e-05,1.952476685740443e-05,-3.9069346944380866e-05,3.25,2.75
1.58984375,-3.711383950560769e-05,-3.809159322499428e-05,1.268937949187456e-05,-3.760271636530099e-05,3.25,2.75
1.59375,-3.125620585946442e-05,-3.2233959578851e-05,9.765007003891042e-06,-3.515833206683452e-05,3.25,2.75
1.59765625,-3.564720892652782e-05,-4.297147315175097e-05,6.342868986037984e-06,-3.321171329823759e-05,3.25,2.75
1.6015625,-3.418057834744793e-05,-5.9086632181277186e-05,-1.075004376287481e-05,-3.369170148775464e-05,3.25,2.75
1.60546875,-3.809159322499428e-05,-4.5904734309910735e-05,-2.0509803616388196e-05,-4.297147315175097e-05,3.25,2.75
1.609375,-5.0295737376974136e-05,-4.688248802929732e-05,-3.4257795376516352e-06,-3.760271636530099e-05,3.25,2.75
1.61328125,-3.809159322499428e-05,-4.10159657129778e-05,4.876238406958108e-06,-3.369170148775464e-05,3.25,2.75
1.6171875,-3.272283643854429e-05,-3.711383950560769e-05,7.320622705424582e-06,-3.515833206683452e-05,3.25,2.75
1.62109375,-3.9069346944380866e-05,-3.564720892652782e-05,-4.394644586861986e-06,-2.636743726253148e-05,3.25,2.75
1.625,-2.7834067841611355e-05,-3.2233959578851e-05,-1.9043173037308305e-05,-2.7834067841611355e-05,3.25,2.75
1.62890625,-2.832294470130465e-05,-3.515833206683452e-05,-1.416329311055162e-05,-3.760271636530099e-05,3.25,2.75
1.6328125,-2.5887449073014423e-05,-4.199371943236439e-05,-1.0261166903181504e-05,-3.076732899977112e-05,3.25,2.75
1.63671875,-2.4420818493934545e-05,-3.711383950560769e-05,-1.3185539391165036e-05,-1.5629923689631495e-05,3.25,2.75
1.640625,-4.053597752346075e-05,-4.346035001144427e-05,-2.1976434195468074e-05,-2.4420818493934545e-05,3.25,2.75
1.64453125,-5.274012167544061e-05,-5.4206752254520485e-05,-2.7834067841611355e-05,-3.418057834744793e-05,3.25,2.75
1.6484375,-4.492698059052415e-05,-4.688248802929732e-05,-2.0020926756694906e-05,-3.1745082719157704e-05,3.25,2.75
1.65234375,-3.564720892652782e-05,-4.394922687113757e-05,-2.0020926756694906e-05,-3.955822380407417e-05,3.25,2.75
1.65625,-3.418057834744793e-05,-4.004710066376746e-05,-2.0509803616388196e-05,-3.6136085786221105e-05,3.25,2.75
1.66015625,-4.004710066376746e-05,-5.371787539482719e-05,-2.7345190981918065e-05,-3.272283643854429e-05,3.25,2.75
1.6640625,-3.955822380407417e-05,-5.615337102311742e-05,-3.564720892652782e-05,-3.809159322499428e-05,3.25,2.75
1.66796875,-3.564720892652782e-05,-5.0295737376974136e-05,-2.490969535362784e-05,-2.881182156099794e-05,3.25,2.75
1.671875,-3.076732899977112e-05,-4.6393611169604035e-05,-2.5887449073014423e-05,-1.856318484779126e-05,3.25,2.75
1.67578125,-2.7834067841611355e-05,-3.858047008468757e-05,-2.5887449073014423e-05,-2.490969535362784e-05,3.25,2.75
1.6796875,-4.150484257267109e-05,-4.346035001144427e-05,-2.2465311055161364e-05,-2.2465311055161364e-05,3.25,2.75
1.68359375,-4.834022993820097e-05,-4.443810373083086e-05,-1.7585431128404676e-05,-2.1976434195468074e-05,3.25,2.75
1.6875,-4.053597752346075e-05,-3.711383950560769e-05,-6.350152025635168e-06,-2.832294470130465e-05,3.25,2.75
1.69140625,-3.515833206683452e-05,-3.272283643854429e-05,-3.914656397344927e-06,-3.418057834744793e-05,3.25,2.75
1.6953125,-3.076732899977112e-05,-3.272283643854429e-05,-5.861275165941861e-06,-4.492698059052415e-05,3.25,2.75
1.69921875,-3.6136085786221105e-05,-4.004710066376746e-05,-1.660767740901808e-05,-3.321171329823759e-05,3.25,2.75
1.703125,-5.127349109636073e-05,-4.5904734309910735e-05,-1.9043173037308305e-05,-2.5887449073014423e-05,3.25,2.75
1.70703125,-4.7371364888990616e-05,-4.10159657129778e-05,-1.2207785671778438e-05,-2.636743726253148e-05,3.25,2.75
1.7109375,-3.1745082719157704e-05,-3.760271636530099e-05,-1.3185539391165036e-05,-2.148755733577478e-05,3.25,2.75
1.71484375,-2.930069842069124e-05,-4.980686051728084e-05,-2.0509803616388196e-05,-2.7834067841611355e-05,3.25,2.75
1.71875,-4.150484257267109e-05,-5.566449416342413e-05,-2.539857221332113e-05,-4.541585745021744e-05,3.25,2.75
1.72265625,-4.9317983657587555e-05,-5.4695629114213785e-05,-1.4652169970244911e-05,-3.564720892652782e-05,3.25,2.75
1.7265625,-4.199371943236439e-05,-5.566449416342413e-05,-1.4702720988784675e-06,-8.305659464408336e-06,3.25,2.75
1.73046875,-3.809159322499428e-05,-4.834022993820097e-05,-2.4480258182650514e-06,-2.1976434195468074e-05,3.25,2.75
1.734375,-2.7834067841611355e-05,-4.297147315175097e-05,-1.416329311055162e-05,-4.004710066376746e-05,3.25,2.75
1.73828125,-3.9069346944380866e-05,-2.930069842069124e-05,1.4629890592812984e-06,-2.2465311055161364e-05,3.25,2.75
1.7421875,-5.4206752254520485e-05,-4.786024174868391e-05,-2.9369026779583433e-06,2.4407427786678822e-06,3.25,2.75
1.74609375,-4.10159657129778e-05,-7.080189947356375e-05,-2.2465311055161364e-05,-3.914656397344927e-06,3.25,2.75
1.75,-4.199371943236439e-05,-6.445538896772717e-05,-2.0509803616388196e-05,-1.4652169970244911e-05,3.25,2.75
1.75390625,-5.615337102311742e-05,-7.42240374914168e-05,-2.148755733577478e-05,-2.4480258182650514e-06,3.25,2.75
1.7578125,-6.885528070496682e-05,-9.13169502403296e-05,-3.076732899977112e-05,6.342868986037984e-06,3.25,2.75
1.76171875,-6.836640384527352e-05,-8.447267420462349e-05,-3.711383950560769e-05,1.7089271229114203e-05,3.25,2.75
1.765625,-5.8597755321583885e-05,-6.982414575417716e-05,-1.1718908812085146e-05,2.441353545433738e-05,3.25,2.75
1.76953125,-7.031302261387045e-05,-7.91039174181735e-05,-2.0020926756694906e-05,2.441353545433738e-05,3.25,2.75
1.7734375,-9.521018777752346e-05,-0.00010302332886243992,-5.127349109636073e-05,3.4173295307850764e-05,3.25,2.75
1.77734375,-9.911231398489357e-05,-0.00011620522673380636,-4.688248802929732e-05,4.589745127031358e-05,3.25,2.75
1.78125,-9.13169502403296e-05,-0.00010985871622796979,-4.7371364888990616e-05,4.931070061799039e-05,3.25,2.75
1.78515625,-0.00010057894456397345,-0.00010351220572213321,-3.955822380407417e-05,5.419058054474709e-05,3.25,2.75
1.7890625,-0.00010253445200274662,-9.911231398489357e-05,-2.930069842069124e-05,6.200372162966355e-05,3.25,2.75
1.79296875,-9.667681835660334e-05,-9.667681835660334e-05,-2.4420818493934545e-05,6.835912080567635e-05,3.25,2.75
1.796875,-9.13169502403296e-05,-9.22769266193637e-05,-1.660767740901808e-05,7.470563131151291e-05,3.25,2.75
1.80078125,-9.765457207598993e-05,-9.863232579537652e-05,-2.099868047608149e-05,7.568338503089952e-05,3.25,2.75
1.8046875,-0.00010009006770428016,-9.325468033875029e-05,-1.9532049897001612e-05,7.616337322041656e-05,3.25,2.75
1.80859375,-8.496155106431678e-05,-7.569066807049668e-05,-1.1718908812085146e-05,6.249259848935683e-05,3.25,2.75
1.8125,-7.714840997940032e-05,-6.689977326619364e-05,9.741121995880065e-07,6.05459797207599e-05,3.25,2.75
1.81640625,-7.666842178988326e-05,-6.592201954680704e-05,-6.350152025635168e-06,7.275012387273975e-05,3.25,2.75
1.8203125,-7.520179121080339e-05,-6.153101647974365e-05,-1.5141046829938203e-05,5.419058054474709e-05,3.25,2.75
1.82421875,-7.42240374914168e-05,-5.615337102311742e-05,-1.2207785671778438e-05,3.906206390478371e-05,3.25,2.75
1.828125,-7.42240374914168e-05,-5.810887846189059e-05,-7.816782604715044e-06,4.5408574410620275e-05,3.25,2.75
1.83203125,-7.177965319295034e-05,-5.1762367956054016e-05,-9.28341318379492e-06,3.9542052094300745e-05,3.25,2.75
1.8359375,-6.641089640650033e-05,-4.004710066376746e-05,-3.914656397344927e-06,3.466217216754406e-05,3.25,2.75
1.83984375,-6.104213962005036e-05,-4.541585745021744e-05,-7.816782604715044e-06,3.173779967956054e-05,3.25,2.75
1.84375,-5.9086632181277186e-05,-5.4206752254520485e-05,-2.5887449073014423e-05,1.8547013138017845e-05,3.25,2.75
1.84765625,-6.641089640650033e-05,-5.664224788281071e-05,-2.490969535362784e-05,8.787253284504458e-06,3.25,2.75
1.8515625,-6.934415756466011e-05,-5.664224788281071e-05,-2.636743726253148e-05,1.0733872053101392e-05,3.25,2.75
1.85546875,-6.934415756466011e-05,-4.882910679789426e-05,-2.490969535362784e-05,8.787253284504458e-06,3.25,2.75
1.859375,-6.494426582742047e-05,-5.0295737376974136e-05,-1.807430798809797e-05,9.741121995880065e-07,3.25,2.75
1.86328125,-6.006438590066377e-05,-5.1762367956054016e-05,-2.5887449073014423e-05,3.8984846875715245e-06,3.25,2.75
1.8671875,-5.274012167544061e-05,-3.515833206683452e-05,-2.4420818493934545e-05,-4.925183794918837e-07,3.25,2.75
1.87109375,-4.443810373083086e-05,-3.1745082719157704e-05,-2.0509803616388196e-05,-2.4480258182650514e-06,3.25,2.75
1.875,-4.834022993820097e-05,-3.2233959578851e-05,-2.2954187914854657e-05,-4.925183794918837e-07,3.25,2.75
1.87890625,-4.199371943236439e-05,-2.5887449073014423e-05,-2.539857221332113e-05,-5.3723983062485694e-06,3.25,2.75
1.8828125,-2.7834067841611355e-05,-2.5887449073014423e-05,-2.490969535362784e-05,-9.813952391851756e-07,3.25,2.75
1.88671875,-3.955822380407417e-05,-3.809159322499428e-05,-3.0278452140077823e-05,1.9518659189745903e-06,3.25,2.75
1.890625,-5.3228998535133904e-05,-4.150484257267109e-05,-2.4420818493934545e-05,-1.9591489585717595e-06,3.25,2.75
1.89453125,-4.834022993820097e-05,-4.688248802929732e-05,-2.4420818493934545e-05,-1.4652169970244911e-05,3.25,2.75
1.8984375,-3.9069346944380866e-05,-4.150484257267109e-05,-2.344306477454796e-05,-1.7585431128404676e-05,3.25,2.75
1.90234375,-3.564720892652782e-05,-3.711383950560769e-05,-1.807430798809797e-05,-9.772290043488212e-06,3.25,2.75
1.90625,-4.004710066376746e-05,-4.346035001144427e-05,-2.832294470130465e-05,-5.3723983062485694e-06,3.25,2.75
1.91015625,-4.053597752346075e-05,-3.272283643854429e-05,-2.4420818493934545e-05,-2.4480258182650514e-06,3.25,2.75
1.9140625,-4.053597752346075e-05,-3.564720892652782e-05,-2.0020926756694906e-05,-6.83902888532846e-06,3.25,2.75
1.91796875,-3.711383950560769e-05,-3.564720892652782e-05,-1.3674416250858327e-05,-1.2207785671778438e-05,3.25,2.75
1.921875,-3.711383950560769e-05,-3.9069346944380866e-05,-1.9043173037308305e-05,-1.807430798809797e-05,3.25,2.75
1.92578125,-4.297147315175097e-05,-4.786024174868391e-05,-2.636743726253148e-05,-1.7096554268711386e-05,3.25,2.75
1.9296875,-4.297147315175097e-05,-4.297147315175097e-05,-9.28341318379492e-06,-1.3674416250858327e-05,3.25,2.75
1.93359375,-5.517561730373084e-05,-4.297147315175097e-05,-1.0261166903181504e-05,-1.7096554268711386e-05,3.25,2.75
1.9375,-5.3228998535133904e-05,-5.9086632181277186e-05,-2.685631412222477e-05,-2.930069842069124e-05,3.25,2.75
1.94140625,-2.832294470130465e-05,-5.4206752254520485e-05,-2.4420818493934545e-05,-3.125620585946442e-05,3.25,2.75
1.9453125,-2.148755733577478e-05,-3.955822380407417e-05,-1.0261166903181504e-05,-2.148755733577478e-05,3.25,2.75
1.94921875,-3.564720892652782e-05,-4.5904734309910735e-05,-1.5629923689631495e-05,-1.5141046829938203e-05,3.25,2.75
1.953125,-3.955822380407417e-05,-5.371787539482719e-05,-1.611880054932479e-05,-1.807430798809797e-05,3.25,2.75
1.95703125,-3.125620585946442e-05,-5.3228998535133904e-05,-1.807430798809797e-05,-2.344306477454796e-05,3.25,2.75
1.9609375,-2.539857221332113e-05,-4.150484257267109e-05,-2.539857221332113e-05,-2.539857221332113e-05,3.25,2.75
1.96484375,-2.881182156099794e-05,-4.9317983657587555e-05,-2.9789575280384533e-05,-1.7585431128404676e-05,3.25,2.75
1.96875,-3.6136085786221105e-05,-5.4206752254520485e-05,-3.9069346944380866e-05,-1.856318484779126e-05,3.25,2.75
1.97265625,-4.492698059052415e-05,-3.564720892652782e-05,-3.418057834744793e-05,-2.685631412222477e-05,3.25,2.75
1.9765625,-5.0784614236667436e-05,-3.272283643854429e-05,-3.369170148775464e-05,-2.0509803616388196e-05,3.25,2.75
1.98046875,-4.492698059052415e-05,-3.564720892652782e-05,-5.225124481574731e-05,-2.099868047608149e-05,3.25,2.75
1.984375,-3.076732899977112e-05,-3.418057834744793e-05,-6.0553262760357066e-05,-2.2954187914854657e-05,3.25,2.75
1.98828125,-2.539857221332113e-05,-3.272283643854429e-05,-0.00012304061409933623,-3.125620585946442e-05,3.25,2.75
1.9921875,-1.9043173037308305e-05,-3.711383950560769e-05,-0.00018651460782787824,-3.955822380407417e-05,3.25,2.75
1.99609375,-1.856318484779126e-05,-5.0784614236667436e-05,-0.00019530550263218127,-3.369170148775464e-05,3.25,2.75
2.0,-2.099868047608149e-05,-4.2482596292057686e-05,-0.0001943277489127947,-2.148755733577478e-05,3.25,2.75
2.00390625,-2.5887449073014423e-05,-4.834022993820097e-05,-0.00017528821739528494,-2.2465311055161364e-05,3.25,2.75
2.0078125,-4.199371943236439e-05,-5.8597755321583885e-05,-0.00015380430157930876,-3.9069346944380866e-05,3.25,2.75
2.01171875,-4.053597752346075e-05,-4.688248802929732e-05,-0.00013768914254978255,-4.199371943236439e-05,3.25,2.75
2.015625,-2.685631412222477e-05,-3.515833206683452e-05,-0.000120605118471046,-3.076732899977112e-05,3.25,2.75
2.01953125,-2.099868047608149e-05,-3.418057834744793e-05,-0.00012011624161135271,-2.1976434195468074e-05,3.25,2.75
2.0234375,-1.269666253147173e-05,-2.685631412222477e-05,-0.00011328085424582284,-1.4652169970244911e-05,3.25,2.75
2.02734375,-1.3674416250858327e-05,-3.66249626459144e-05,-0.00010692545506981002,-2.0020926756694906e-05,3.25,2.75
2.03125,-2.148755733577478e-05,-4.9317983657587555e-05,-9.569906463721676e-05,-2.099868047608149e-05,3.25,2.75
2.03515625,-2.685631412222477e-05,-6.2499881528954e-05,-0.00011669410359349965,-2.490969535362784e-05,3.25,2.75
2.0390625,-3.418057834744793e-05,-9.13169502403296e-05,-0.0001630840732433051,-3.4669455207141224e-05,3.25,2.75
2.04296875,-2.099868047608149e-05,-9.22769266193637e-05,-0.00015527093215838864,-5.3723983062485694e-06,3.25,2.75
2.046875,9.741121995880065e-07,-0.00010009006770428016,-0.00015184879414053559,9.765007003891042e-06,3.25,2.75
2.05078125,4.3873615472648165e-06,-0.00014648003735408558,-0.000189447868986038,-8.305659464408336e-06,3.25,2.75
2.0546875,-3.914656397344927e-06,-0.00019530550263218127,-0.0002285135744106203,-2.4480258182650514e-06,3.25,2.75
2.05859375,1.268937949187456e-05,-0.00022802469755092697,-0.0002568328775921263,6.342868986037984e-06,3.25,2.75
2.0625,3.270666472877089e-05,-0.0002465753522087434,-0.0002758724091096361,1.1222748912794684e-05,3.25,2.75
2.06640625,2.3435781734950778e-05,-0.00025585512387273974,-0.00030175621666285186,8.787253284504458e-06,3.25,2.75
2.0703125,2.441353545433738e-05,-0.000280761177706569,-0.0003295866429846647,1.1222748912794684e-05,3.25,2.75
2.07421875,4.0030928953994045e-05,-0.0003232401324788281,-0.0003505816819409476,1.7089271229114203e-05,3.25,2.75
2.078125,3.5151049027237344e-05,-0.0003339776460517281,-0.00036864345973907075,1.1222748912794684e-05,3.25,2.75
2.08203125,2.0013643717097736e-05,-0.0003286088892652781,-0.0003593725767452506,1.611151750972762e-05,3.25,2.75
2.0859375,2.099139743648432e-05,-0.00032128462504005495,-0.0003520483125200275,3.9542052094300745e-05,3.25,2.75
2.08984375,1.1711625772487976e-05,-0.0003159158682536049,-0.00035790594616617074,3.8573187045090406e-05,3.25,2.75
2.09375,9.741121995880065e-07,-0.0003154269913939116,-0.0003486261745021744,2.5382400503547714e-05,3.25,2.75
2.09765625,1.1222748912794684e-05,-0.00030028958608377203,-0.00033593315349050124,3.9542052094300745e-05,3.25,2.75
2.1015625,-5.861275165941861e-06,-0.00028954318384069583,-0.0003232401324788281,4.7355193179217194e-05,3.25,2.75
2.10546875,-3.1745082719157704e-05,-0.00030175621666285186,-0.00032714225868619827,4.443082069123369e-05,3.25,2.75
2.109375,-1.1238920622568101e-05,-0.00027245915976195927,-0.00029931183236438545,4.394194383154038e-05,3.25,2.75
2.11328125,1.5133763790341035e-05,-0.00023925108798352027,-0.0002607350037994964,4.345306697184711e-05,3.25,2.75
2.1171875,2.929619638361174e-06,-0.00023876221112382697,-0.00026171275751888306,3.661767960631724e-05,3.25,2.75
2.12109375,-1.5141046829938203e-05,-0.00022362480581368733,-0.00025292186271458,1.660039436942091e-05,3.25,2.75
2.125,-3.4257795376516352e-06,-0.00021386504596017397,-0.00023827333426413365,4.876238406958108e-06,3.25,2.75
2.12890625,-2.4480258182650514e-06,-0.00019921651750972761,-0.0002216781870450904,5.3651152666514e-06,3.25,2.75
2.1328125,-1.5629923689631495e-05,-0.00016357295010299838,-0.00019383887205310139,5.853992126344692e-06,3.25,2.75
2.13671875,-9.28341318379492e-06,-0.00013671138883039597,-0.00018065697418173494,8.787253284504458e-06,3.25,2.75
2.140625,-2.490969535362784e-05,-0.00012108510666056307,-0.00015917305836575876,-4.8835214465552775e-06,3.25,2.75
2.14453125,-3.66249626459144e-05,-0.00011230310052643625,-0.00013427589320210575,-1.3185539391165036e-05,3.25,2.75
2.1484375,-1.856318484779126e-05,-0.00011181422366674297,-0.00013573363511100938,1.9518659189745903e-06,3.25,2.75
2.15234375,-1.5141046829938203e-05,-8.936144280155642e-05,-0.00011328085424582284,-5.3723983062485694e-06,3.25,2.75
2.15625,-2.685631412222477e-05,-8.887256594186313e-05,-0.00010790320878919661,-2.5887449073014423e-05,3.25,2.75
2.16015625,-4.541585745021744e-05,-7.959279427786679e-05,-0.0001088809625085832,-3.125620585946442e-05,3.25,2.75
2.1640625,-5.615337102311742e-05,-5.371787539482719e-05,-7.91039174181735e-05,-3.076732899977112e-05,3.25,2.75
2.16796875,-4.834022993820097e-05,-4.6393611169604035e-05,-7.177965319295034e-05,-3.1745082719157704e-05,3.25,2.75
2.171875,-4.394922687113757e-05,-2.5887449073014423e-05,-5.517561730373084e-05,-4.297147315175097e-05,3.25,2.75
2.17578125,-4.394922687113757e-05,-1.2207785671778438e-05,-3.4669455207141224e-05,-4.2482596292057686e-05,3.25,2.75
2.1796875,-3.711383950560769e-05,-2.0020926756694906e-05,-4.688248802929732e-05,-3.9069346944380866e-05,3.25,2.75
2.18359375,-3.2233959578851e-05,-4.925183794918837e-07,-2.881182156099794e-05,-4.882910679789426e-05,3.25,2.75
2.1875,-4.882910679789426e-05,1.0253883863584334e-05,-7.3279057450217515e-06,-5.4695629114213785e-05,3.25,2.75
2.19140625,-5.517561730373084e-05,-4.925183794918837e-07,-2.344306477454796e-05,-5.274012167544061e-05,3.25,2.75
2.1953125,-4.053597752346075e-05,1.903588999771114e-05,-9.813952391851756e-07,-5.4206752254520485e-05,3.25,2.75
2.19921875,-4.150484257267109e-05,1.5133763790341035e-05,5.853992126344692e-06,-6.347763524834059e-05,3.25,2.75
2.203125,-4.2482596292057686e-05,1.9518659189745903e-06,-5.861275165941861e-06,-6.885528070496682e-05,3.25,2.75
2.20703125,-4.7371364888990616e-05,1.366713321126116e-05,-9.813952391851756e-07,-6.201989333943695e-05,3.25,2.75
2.2109375,-5.7620001602197305e-05,1.805813627832455e-05,5.853992126344692e-06,-5.9086632181277186e-05,3.25,2.75
2.21484375,-5.566449416342413e-05,3.076004596017395e-05,1.611151750972762e-05,-7.080189947356375e-05,3.25,2.75
2.21875,-5.713112474250401e-05,5.1755084916456836e-05,3.173779967956054e-05,-6.689977326619364e-05,3.25,2.75
2.22265625,-5.713112474250401e-05,5.516833426413368e-05,3.661767960631724e-05,-6.2499881528954e-05,3.25,2.75
2.2265625,-4.786024174868391e-05,4.833294689860381e-05,4.149755953307394e-05,-5.9086632181277186e-05,3.25,2.75
2.23046875,-4.688248802929732e-05,5.1266208056763556e-05,6.39592290684367e-05,-5.4206752254520485e-05,3.25,2.75
2.234375,-4.786024174868391e-05,4.931070061799039e-05,5.077733119707025e-05,-6.2499881528954e-05,3.25,2.75
2.23828125,-5.127349109636073e-05,3.466217216754406e-05,2.0502520576791026e-05,-7.177965319295034e-05,3.25,2.75
2.2421875,-5.713112474250401e-05,3.3195541588464176e-05,1.366713321126116e-05,-7.520179121080339e-05,3.25,2.75
2.24609375,-4.834022993820097e-05,3.9542052094300745e-05,9.27613014419775e-06,-7.617954493018998e-05,3.25,2.75
2.25,-4.394922687113757e-05,4.149755953307394e-05,8.787253284504458e-06,-7.520179121080339e-05,3.25,2.75
2.25390625,-5.4206752254520485e-05,2.8804538521400772e-05,2.4407427786678822e-06,-7.32462837720302e-05,3.25,2.75
2.2578125,-5.1762367956054016e-05,2.5382400503547714e-05,-1.9591489585717595e-06,-7.569066807049668e-05,3.25,2.75
2.26171875,-5.3228998535133904e-05,3.222667653925383e-05,9.741121995880065e-07,-6.934415756466011e-05,3.25,2.75
2.265625,-5.615337102311742e-05,3.5151049027237344e-05,9.741121995880065e-07,-6.2499881528954e-05,3.25,2.75
2.26953125,-4.6393611169604035e-05,3.80843101853971e-05,1.2200502632181268e-05,-6.836640384527352e-05,3.25,2.75
2.2734375,-4.297147315175097e-05,4.394194383154038e-05,3.612880274662393e-05,-6.738865012588694e-05,3.25,2.75
2.27734375,-5.4695629114213785e-05,3.8573187045090406e-05,4.0030928953994045e-05,-6.396651210803388e-05,3.25,2.75
2.28125,-4.9317983657587555e-05,3.563992588693064e-05,3.027116910048066e-05,-5.3228998535133904e-05,3.25,2.75
2.28515625,-4.297147315175097e-05,3.759543332570382e-05,3.906206390478371e-05,-5.127349109636073e-05,3.25,2.75
2.2890625,-4.6393611169604035e-05,4.149755953307394e-05,5.956822600137331e-05,-5.0784614236667436e-05,3.25,2.75
2.29296875,-4.10159657129778e-05,4.882182375829708e-05,6.444810592812999e-05,-4.7371364888990616e-05,3.25,2.75
2.296875,-4.2482596292057686e-05,2.099139743648432e-05,4.5408574410620275e-05,-5.9086632181277186e-05,3.25,2.75
2.30078125,-4.980686051728084e-05,1.3178256351567867e-05,2.636015422293431e-05,-6.494426582742047e-05,3.25,2.75
2.3046875,-4.492698059052415e-05,3.80843101853971e-05,2.2946904875257487e-05,-5.7620001602197305e-05,3.25,2.75
2.30859375,-3.6136085786221105e-05,2.5871277363241004e-05,2.3435781734950778e-05,-4.541585745021744e-05,3.25,2.75
2.3125,-4.004710066376746e-05,1.5133763790341035e-05,2.636015422293431e-05,-5.127349109636073e-05,3.25,2.75
2.31640625,-5.127349109636073e-05,1.3178256351567867e-05,1.805813627832455e-05,-5.713112474250401e-05,3.25,2.75
2.3203125,-5.664224788281071e-05,4.876238406958108e-06,2.2458028015564194e-05,-5.3228998535133904e-05,3.25,2.75
2.32421875,-4.5904734309910735e-05,-3.914656397344927e-06,1.611151750972762e-05,-5.8597755321583885e-05,3.25,2.75
2.328125,-4.7371364888990616e-05,-4.8835214465552775e-06,4.876238406958108e-06,-5.3228998535133904e-05,3.25,2.75
2.33203125,-5.371787539482719e-05,9.765007003891042e-06,3.466217216754406e-05,-5.127349109636073e-05,3.25,2.75
2.3359375,-4.882910679789426e-05,1.1711625772487976e-05,4.100868267338063e-05,-4.6393611169604035e-05,3.25,2.75
2.33984375,-4.150484257267109e-05,-9.813952391851756e-07,2.1969151155870904e-05,-4.346035001144427e-05,3.25,2.75
2.34375,-4.346035001144427e-05,-9.772290043488212e-06,1.2200502632181268e-05,-5.4695629114213785e-05,3.25,2.75
2.34765625,-4.688248802929732e-05,-4.8835214465552775e-06,2.9782292240787356e-05,-5.225124481574731e-05,3.25,2.75
2.3515625,-4.346035001144427e-05,-3.4257795376516352e-06,4.6866316319523914e-05,-4.492698059052415e-05,3.25,2.75
2.35546875,-4.9317983657587555e-05,-9.28341318379492e-06,4.979957747768367e-05,-4.443810373083086e-05,3.25,2.75
2.359375,-4.882910679789426e-05,-1.269666253147173e-05,6.05459797207599e-05,-4.541585745021744e-05,3.25,2.75
2.36328125,-5.4206752254520485e-05,-1.7585431128404676e-05,6.883910899519341e-05,-5.3228998535133904e-05,3.25,2.75
2.3671875,-5.664224788281071e-05,-3.0278452140077823e-05,8.446539116502631e-05,-5.1762367956054016e-05,3.25,2.75
2.37109375,-4.541585745021744e-05,-2.3931941634241255e-05,0.00010400268821240559,-4.394922687113757e-05,3.25,2.75
2.375,-3.9069346944380866e-05,-9.28341318379492e-06,0.000103024934493019,-3.955822380407417e-05,3.25,2.75
2.37890625,-3.955822380407417e-05,-5.861275165941861e-06,0.00011230470615701534,-3.711383950560769e-05,3.25,2.75
2.3828125,-4.004710066376746e-05,1.4629890592812984e-06,0.00013378862197299153,-4.053597752346075e-05,3.25,2.75
2.38671875,-3.515833206683452e-05,3.4096078278782326e-06,0.0001342686101625086,-4.199371943236439e-05,3.25,2.75
2.390625,-3.1745082719157704e-05,-2.9369026779583433e-06,0.00013671299446097504,-4.199371943236439e-05,3.25,2.75
2.39453125,-3.858047008468757e-05,4.3873615472648165e-06,0.00014208175124742504,-3.125620585946442e-05,3.25,2.75
2.3984375,-4.2482596292057686e-05,9.27613014419775e-06,0.0001391573787594415,-3.272283643854429e-05,3.25,2.75
2.40234375,-4.053597752346075e-05,-1.1238920622568101e-05,0.00012255334287022203,-3.66249626459144e-05,3.25,2.75
2.40625,-3.858047008468757e-05,-1.3185539391165036e-05,0.00011474020178530556,-3.125620585946442e-05,3.25,2.75
2.41015625,-5.0295737376974136e-05,-1.4702720988784675e-06,0.00013475748702220186,-3.0278452140077823e-05,3.25,2.75
2.4140625,-5.3228998535133904e-05,-1.7096554268711386e-05,0.00013281086825360494,-3.272283643854429e-05,3.25,2.75
2.41796875,-4.150484257267109e-05,-2.099868047608149e-05,0.00012010895857175555,-3.076732899977112e-05,3.25,2.75
2.421875,-4.199371943236439e-05,-9.28341318379492e-06,0.0001249977271686885,-3.418057834744793e-05,3.25,2.75
2.42578125,-3.564720892652782e-05,-8.305659464408336e-06,0.00013573524074158845,-4.004710066376746e-05,3.25,2.75
2.4296875,-4.10159657129778e-05,-1.4652169970244911e-05,0.00013964625561913482,-3.564720892652782e-05,3.25,2.75
2.43359375,-4.004710066376746e-05,-1.2207785671778438e-05,0.00013085536081483174,-4.492698059052415e-05,3.25,2.75
2.4375,-2.636743726253148e-05,-3.914656397344927e-06,0.0001284109765163653,-4.492698059052415e-05,3.25,2.75
2.44140625,-3.272283643854429e-05,-1.2207785671778438e-05,0.0001230422197299153,-3.369170148775464e-05,3.25,2.75
2.4453125,-3.1745082719157704e-05,4.3873615472648165e-06,0.00013671299446097504,-3.125620585946442e-05,3.25,2.75
2.44921875,-3.858047008468757e-05,-3.64151979859173e-09,0.0001259754808880751,-4.10159657129778e-05,3.25,2.75
2.453125,-4.10159657129778e-05,-1.1238920622568101e-05,0.00010400268821240559,-5.566449416342413e-05,3.25,2.75
2.45703125,-3.4669455207141224e-05,-2.9369026779583433e-06,0.00011230470615701534,-4.9317983657587555e-05,3.25,2.75
2.4609375,-3.564720892652782e-05,-9.772290043488212e-06,0.00010839369127946897,-4.492698059052415e-05,3.25,2.75
2.46484375,-3.955822380407417e-05,-4.925183794918837e-07,0.00011327357120622568,-4.004710066376746e-05,3.25,2.75
2.46875,-3.66249626459144e-05,-4.394644586861986e-06,0.00011327357120622568,-3.076732899977112e-05,3.25,2.75
2.47265625,-3.0278452140077823e-05,-3.914656397344927e-06,9.423403968871593e-05,-4.346035001144427e-05,3.25,2.75
2.4765625,-4.004710066376746e-05,-1.0261166903181504e-05,7.665225008010986e-05,-5.664224788281071e-05,3.25,2.75
2.48046875,-4.346035001144427e-05,-1.9043173037308305e-05,7.763000379949644e-05,-5.713112474250401e-05,3.25,2.75
2.484375,-4.150484257267109e-05,-1.1718908812085146e-05,8.642089860379949e-05,-4.882910679789426e-05,3.25,2.75
2.48828125,-4.443810373083086e-05,-8.794536324101628e-06,7.860775751888303e-05,-3.809159322499428e-05,3.25,2.75
2.4921875,-3.858047008468757e-05,-7.3279057450217515e-06,7.421675445181963e-05,-2.9789575280384533e-05,3.25,2.75
2.49609375,-3.4669455207141224e-05,-6.83902888532846e-06,7.470563131151291e-05,-3.515833206683452e-05,3.25,2.75
2.5,-3.955822380407417e-05,-2.099868047608149e-05,6.05459797207599e-05,-4.10159657129778e-05,3.25,2.75
2.50390625,-4.053597752346075e-05,-2.148755733577478e-05,5.516833426413368e-05,-4.394922687113757e-05,3.25,2.75
2.5078125,-3.760271636530099e-05,-1.269666253147173e-05,5.077733119707025e-05,-4.541585745021744e-05,3.25,2.75
2.51171875,-3.272283643854429e-05,-1.807430798809797e-05,3.710655646601051e-05,-4.297147315175097e-05,3.25,2.75
2.515625,-3.1745082719157704e-05,-2.4420818493934545e-05,3.9542052094300745e-05,-4.443810373083086e-05,3.25,2.75
2.51953125,-2.832294470130465e-05,-2.1976434195468074e-05,3.270666472877089e-05,-4.199371943236439e-05,3.25,2.75
2.5234375,-2.636743726253148e-05,-2.636743726253148e-05,4.876238406958108e-06,-4.688248802929732e-05,3.25,2.75
2.52734375,-3.321171329823759e-05,-2.4420818493934545e-05,5.3651152666514e-06,-4.834022993820097e-05,3.25,2.75
2.53125,-4.10159657129778e-05,-1.9043173037308305e-05,8.298376424811166e-06,-4.346035001144427e-05,3.25,2.75
2.53515625,-3.564720892652782e-05,-1.807430798809797e-05,1.268937949187456e-05,-3.858047008468757e-05,3.25,2.75
2.5390625,-3.321171329823759e-05,-2.148755733577478e-05,9.741121995880065e-07,-3.272283643854429e-05,3.25,2.75
2.54296875,-3.1745082719157704e-05,-5.3723983062485694e-06,-7.3279057450217515e-06,-3.321171329823759e-05,3.25,2.75
2.546875,-2.7834067841611355e-05,-9.813952391851756e-07,2.929619638361174e-06,-3.66249626459144e-05,3.25,2.75
2.55078125,-3.9069346944380866e-05,-1.7585431128404676e-05,-6.83902888532846e-06,-5.225124481574731e-05,3.25,2.75
2.5546875,-3.711383950560769e-05,-1.0261166903181504e-05,-1.2207785671778438e-05,-5.274012167544061e-05,3.25,2.75
2.55859375,-2.7834067841611355e-05,-1.7585431128404676e-05,-1.1718908812085146e-05,-4.5904734309910735e-05,3.25,2.75
2.5625,-3.369170148775464e-05,-2.9789575280384533e-05,-1.1238920622568101e-05,-5.127349109636073e-05,3.25,2.75
2.56640625,-3.9069346944380866e-05,-2.099868047608149e-05,-9.813952391851756e-07,-4.199371943236439e-05,3.25,2.75
2.5703125,-3.858047008468757e-05,-1.807430798809797e-05,-9.772290043488212e-06,-3.1745082719157704e-05,3.25,2.75
2.57421875,-4.053597752346075e-05,-1.269666253147173e-05,-1.856318484779126e-05,-3.2233959578851e-05,3.25,2.75
2.578125,-4.053597752346075e-05,-1.1238920622568101e-05,-1.075004376287481e-05,-2.636743726253148e-05,3.25,2.75
2.58203125,-4.492698059052415e-05,-2.2465311055161364e-05,-3.0278452140077823e-05,-2.685631412222477e-05,3.25,2.75
2.5859375,-4.6393611169604035e-05,-2.099868047608149e-05,-3.564720892652782e-05,-3.9069346944380866e-05,3.25,2.75
2.58984375,-4.2482596292057686e-05,-2.099868047608149e-05,-2.148755733577478e-05,-4.297147315175097e-05,3.25,2.75
2.59375,-3.858047008468757e-05,-3.076732899977112e-05,-2.490969535362784e-05,-4.150484257267109e-05,3.25,2.75
2.59765625,-3.809159322499428e-05,-3.272283643854429e-05,-2.3931941634241255e-05,-5.127349109636073e-05,3.25,2.75
2.6015625,-4.7371364888990616e-05,-3.4669455207141224e-05,-2.685631412222477e-05,-5.127349109636073e-05,3.25,2.75
2.60546875,-3.809159322499428e-05,-2.7345190981918065e-05,-8.794536324101628e-06,-4.10159657129778e-05,3.25,2.75
2.609375,-2.344306477454796e-05,-2.685631412222477e-05,1.1222748912794684e-05,-3.369170148775464e-05,3.25,2.75
2.61328125,-2.832294470130465e-05,-3.515833206683452e-05,4.852353398947144e-07,-3.66249626459144e-05,3.25,2.75
2.6171875,-3.66249626459144e-05,-3.2233959578851e-05,6.8317458457312905e-06,-3.6136085786221105e-05,3.25,2.75
2.62109375,-3.4669455207141224e-05,-4.10159657129778e-05,-4.394644586861986e-06,-3.272283643854429e-05,3.25,2.75
2.625,-2.0509803616388196e-05,-2.9789575280384533e-05,-2.0509803616388196e-05,-3.9069346944380866e-05,3.25,2.75
2.62890625,-1.9043173037308305e-05,-2.148755733577478e-05,-1.5141046829938203e-05,-4.199371943236439e-05,3.25,2.75
2.6328125,-2.4420818493934545e-05,-2.685631412222477e-05,-1.660767740901808e-05,-3.711383950560769e-05,3.25,2.75
2.63671875,-2.7834067841611355e-05,-2.636743726253148e-05,-1.5141046829938203e-05,-3.515833206683452e-05,3.25,2.75
2.640625,-3.418057834744793e-05,-2.099868047608149e-05,-2.2954187914854657e-05,-4.053597752346075e-05,3.25,2.75
2.64453125,-3.2233959578851e-05,-1.7096554268711386e-05,-3.564720892652782e-05,-3.9069346944380866e-05,3.25,2.75
2.6484375,-2.7834067841611355e-05,-1.856318484779126e-05,-2.7834067841611355e-05,-3.1745082719157704e-05,3.25,2.75
2.65234375,-2.881182156099794e-05,-2.636743726253148e-05,-2.881182156099794e-05,-3.321171329823759e-05,3.25,2.75
2.65625,-2.1976434195468074e-05,-3.564720892652782e-05,-4.6393611169604035e-05,-3.858047008468757e-05,3.25,2.75
2.66015625,-2.3931941634241255e-05,-2.9789575280384533e-05,-4.9317983657587555e-05,-3.369170148775464e-05,3.25,2.75
2.6640625,-3.66249626459144e-05,-3.418057834744793e-05,-3.858047008468757e-05,-2.685631412222477e-05,3.25,2.75
2.66796875,-3.0278452140077823e-05,-3.760271636530099e-05,-3.125620585946442e-05,-3.515833206683452e-05,3.25,2.75
2.671875,-2.344306477454796e-05,-2.3931941634241255e-05,-1.416329311055162e-05,-3.076732899977112e-05,3.25,2.75
2.67578125,-2.539857221332113e-05,-2.148755733577478e-05,-1.1718908812085146e-05,-1.9043173037308305e-05,3.25,2.75
2.6796875,-3.369170148775464e-05,-4.297147315175097e-05,-2.539857221332113e-05,-1.5141046829938203e-05,3.25,2.75
2.68359375,-3.9069346944380866e-05,-4.5904734309910735e-05,-3.6136085786221105e-05,-1.7585431128404676e-05,3.25,2.75
2.6875,-3.66249626459144e-05,-3.0278452140077823e-05,-2.881182156099794e-05,-2.344306477454796e-05,3.25,2.75
2.69140625,-3.955822380407417e-05,-3.711383950560769e-05,-2.685631412222477e-05,-2.832294470130465e-05,3.25,2.75
2.6953125,-4.2482596292057686e-05,-4.150484257267109e-05,-2.2465311055161364e-05,-3.272283643854429e-05,3.25,2.75
2.69921875,-5.0295737376974136e-05,-5.0295737376974136e-05,-2.9789575280384533e-05,-1.856318484779126e-05,3.25,2.75
2.703125,-5.566449416342413e-05,-5.0784614236667436e-05,-3.2233959578851e-05,9.741121995880065e-07,3.25,2.75
2.70703125,-4.9317983657587555e-05,-3.272283643854429e-05,-3.125620585946442e-05,-5.861275165941861e-06,3.25,2.75
2.7109375,-5.127349109636073e-05,-2.685631412222477e-05,-4.053597752346075e-05,-1.416329311055162e-05,3.25,2.75
2.71484375,-5.3228998535133904e-05,-2.3931941634241255e-05,-3.711383950560769e-05,-1.4652169970244911e-05,3.25,2.75
2.71875,-4.688248802929732e-05,-1.660767740901808e-05,-3.418057834744793e-05,-1.807430798809797e-05,3.25,2.75
2.72265625,-4.443810373083086e-05,-9.772290043488212e-06,-2.539857221332113e-05,-1.3674416250858327e-05,3.25,2.75
2.7265625,-3.858047008468757e-05,-1.3674416250858327e-05,-2.148755733577478e-05,-2.148755733577478e-05,3.25,2.75
2.73046875,-3.858047008468757e-05,-1.4652169970244911e-05,-1.9043173037308305e-05,-2.4420818493934545e-05,3.25,2.75
2.734375,-5.127349109636073e-05,-1.416329311055162e-05,-1.075004376287481e-05,-1.3674416250858327e-05,3.25,2.75
2.73828125,-4.786024174868391e-05,-2.099868047608149e-05,-9.772290043488212e-06,-1.7096554268711386e-05,3.25,2.75
2.7421875,-3.418057834744793e-05,-3.1745082719157704e-05,-1.9591489585717595e-06,-1.807430798809797e-05,3.25,2.75
2.74609375,-3.272283643854429e-05,-3.4669455207141224e-05,-1.7096554268711386e-05,-1.9532049897001612e-05,3.25,2.75
2.75,-3.321171329823759e-05,-2.2954187914854657e-05,-3.6136085786221105e-05,-2.5887449073014423e-05,3.25,2.75
2.75390625,-3.1745082719157704e-05,-1.9532049897001612e-05,-1.4652169970244911e-05,-2.490969535362784e-05,3.25,2.75
2.7578125,-2.490969535362784e-05,-2.1976434195468074e-05,-1.9532049897001612e-05,-2.0020926756694906e-05,3.25,2.75
2.76171875,-2.344306477454796e-05,-2.5887449073014423e-05,-3.076732899977112e-05,-1.7585431128404676e-05,3.25,2.75
2.765625,-3.369170148775464e-05,-3.321171329823759e-05,-1.3185539391165036e-05,-1.5629923689631495e-05,3.25,2.75
2.76953125,-3.955822380407417e-05,-3.955822380407417e-05,-9.28341318379492e-06,-2.490969535362784e-05,3.25,2.75
2.7734375,-4.443810373083086e-05,-2.9789575280384533e-05,-4.8835214465552775e-06,-2.344306477454796e-05,3.25,2.75
2.77734375,-4.541585745021744e-05,-2.5887449073014423e-05,2.8804538521400772e-05,-1.3185539391165036e-05,3.25,2.75
2.78125,-4.10159657129778e-05,-3.1745082719157704e-05,3.759543332570382e-05,-2.148755733577478e-05,3.25,2.75
2.78515625,-4.199371943236439e-05,-3.1745082719157704e-05,1.1711625772487976e-05,-1.7585431128404676e-05,3.25,2.75
2.7890625,-5.3228998535133904e-05,-3.760271636530099e-05,-2.1976434195468074e-05,-1.856318484779126e-05,3.25,2.75
2.79296875,-4.7371364888990616e-05,-3.2233959578851e-05,-0.00010106782142366674,-2.099868047608149e-05,3.25,2.75
2.796875,-4.346035001144427e-05,-3.272283643854429e-05,-0.00012352949095902952,-1.5141046829938203e-05,3.25,2.75
2.80078125,-4.5904734309910735e-05,-3.2233959578851e-05,-8.545042792401007e-05,-1.9532049897001612e-05,3.25,2.75
2.8046875,-3.321171329823759e-05,-2.930069842069124e-05,-6.592201954680704e-05,-2.148755733577478e-05,3.25,2.75
2.80859375,-3.369170148775464e-05,-2.3931941634241255e-05,-6.494426582742047e-05,-2.099868047608149e-05,3.25,2.75
2.8125,-4.2482596292057686e-05,-2.0509803616388196e-05,-5.4695629114213785e-05,-2.930069842069124e-05,3.25,2.75
2.81640625,-3.809159322499428e-05,-2.2954187914854657e-05,-4.346035001144427e-05,-3.515833206683452e-05,3.25,2.75
2.8203125,-3.858047008468757e-05,-3.125620585946442e-05,-3.809159322499428e-05,-2.881182156099794e-05,3.25,2.75
2.82421875,-4.004710066376746e-05,-3.321171329823759e-05,-3.515833206683452e-05,-2.5887449073014423e-05,3.25,2.75
2.828125,-3.2233959578851e-05,-2.7834067841611355e-05,-3.564720892652782e-05,-3.2233959578851e-05,3.25,2.75
2.83203125,-3.4669455207141224e-05,-2.7345190981918065e-05,-1.9043173037308305e-05,-2.0020926756694906e-05,3.25,2.75
2.8359375,-4.004710066376746e-05,-3.369170148775464e-05,-2.3931941634241255e-05,-1.1238920622568101e-05,3.25,2.75
2.83984375,-4.10159657129778e-05,-4.150484257267109e-05,-4.10159657129778e-05,-2.7345190981918065e-05,3.25,2.75
2.84375,-4.5904734309910735e-05,-3.0278452140077823e-05,-3.0278452140077823e-05,-3.076732899977112e-05,3.25,2.75
2.84765625,-3.418057834744793e-05,-2.832294470130465e-05,-2.2954187914854657e-05,-2.3931941634241255e-05,3.25,2.75
2.8515625,-2.0509803616388196e-05,-2.148755733577478e-05,-3.515833206683452e-05,-3.2233959578851e-05,3.25,2.75
2.85546875,-2.685631412222477e-05,-2.1976434195468074e-05,-3.858047008468757e-05,-2.930069842069124e-05,3.25,2.75
2.859375,-4.150484257267109e-05,-3.858047008468757e-05,-4.004710066376746e-05,-1.611880054932479e-05,3.25,2.75
2.86328125,-3.66249626459144e-05,-3.66249626459144e-05,-5.4206752254520485e-05,-2.636743726253148e-05,3.25,2.75
2.8671875,-2.7345190981918065e-05,-3.515833206683452e-05,-5.810887846189059e-05,-3.418057834744793e-05,3.25,2.75
2.87109375,-2.930069842069124e-05,-3.955822380407417e-05,-4.541585745021744e-05,-2.930069842069124e-05,3.25,2.75
2.875,-3.272283643854429e-05,-4.10159657129778e-05,-4.443810373083086e-05,-2.881182156099794e-05,3.25,2.75
2.87890625,-3.515833206683452e-05,-4.394922687113757e-05,-4.492698059052415e-05,-2.685631412222477e-05,3.25,2.75
2.8828125,-2.685631412222477e-05,-5.957550904097048e-05,-6.298875838864729e-05,-2.5887449073014423e-05,3.25,2.75
2.88671875,-2.539857221332113e-05,-6.592201954680704e-05,-7.275740691233692e-05,-3.6136085786221105e-05,3.25,2.75
2.890625,-2.4420818493934545e-05,-6.738865012588694e-05,-4.882910679789426e-05,-4.053597752346075e-05,3.25,2.75
2.89453125,-1.7585431128404676e-05,-6.347763524834059e-05,-3.9069346944380866e-05,-4.6393611169604035e-05,3.25,2.75
2.8984375,-1.075004376287481e-05,-6.006438590066377e-05,-5.810887846189059e-05,-5.4206752254520485e-05,3.25,2.75
2.90234375,-1.416329311055162e-05,-6.689977326619364e-05,-6.934415756466011e-05,-5.957550904097048e-05,3.25,2.75
2.90625,-2.099868047608149e-05,-6.0553262760357066e-05,-7.812616369878691e-05,-7.666842178988326e-05,3.25,2.75
2.91015625,-2.3931941634241255e-05,-6.298875838864729e-05,-8.350380915541313e-05,-7.569066807049668e-05,3.25,2.75
2.9140625,-2.3931941634241255e-05,-6.787752698558023e-05,-6.592201954680704e-05,-6.298875838864729e-05,3.25,2.75
2.91796875,-3.0278452140077823e-05,-6.982414575417716e-05,-5.664224788281071e-05,-6.445538896772717e-05,3.25,2.75
2.921875,-2.7345190981918065e-05,-6.0553262760357066e-05,-5.615337102311742e-05,-6.445538896772717e-05,3.25,2.75
2.92578125,-2.0509803616388196e-05,-4.5904734309910735e-05,-6.543314268711376e-05,-6.934415756466011e-05,3.25,2.75
2.9296875,-2.5887449073014423e-05,-4.834022993820097e-05,-8.496155106431678e-05,-7.32462837720302e-05,3.25,2.75
2.93359375,-3.6136085786221105e-05,-6.201989333943695e-05,-7.714840997940032e-05,-6.104213962005036e-05,3.25,2.75
2.9375,-4.6393611169604035e-05,-6.689977326619364e-05,-6.298875838864729e-05,-5.7620001602197305e-05,3.25,2.75
2.94140625,-3.711383950560769e-05,-6.689977326619364e-05,-5.8597755321583885e-05,-4.882910679789426e-05,3.25,2.75
2.9453125,-2.148755733577478e-05,-5.3228998535133904e-05,-5.957550904097048e-05,-4.834022993820097e-05,3.25,2.75
2.94921875,-3.1745082719157704e-05,-4.394922687113757e-05,-6.738865012588694e-05,-6.982414575417716e-05,3.25,2.75
2.953125,-3.564720892652782e-05,-4.9317983657587555e-05,-5.4695629114213785e-05,-6.543314268711376e-05,3.25,2.75
2.95703125,-2.1976434195468074e-05,-5.0784614236667436e-05,-5.7620001602197305e-05,-4.10159657129778e-05,3.25,2.75
2.9609375,-2.2954187914854657e-05,-3.9069346944380866e-05,-6.787752698558023e-05,-4.346035001144427e-05,3.25,2.75
2.96484375,-2.9789575280384533e-05,-3.760271636530099e-05,-5.9086632181277186e-05,-4.786024174868391e-05,3.25,2.75
2.96875,-2.9789575280384533e-05,-4.199371943236439e-05,-5.517561730373084e-05,-4.786024174868391e-05,3.25,2.75
2.97265625,-2.9789575280384533e-05,-4.980686051728084e-05,-6.738865012588694e-05,-5.274012167544061e-05,3.25,2.75
2.9765625,-2.490969535362784e-05,-3.1745082719157704e-05,-6.494426582742047e-05,-4.7371364888990616e-05,3.25,2.75
2.98046875,-2.3931941634241255e-05,-2.0020926756694906e-05,-4.882910679789426e-05,-4.346035001144427e-05,3.25,2.75
2.984375,-3.125620585946442e-05,-1.807430798809797e-05,-4.443810373083086e-05,-4.346035001144427e-05,3.25,2.75
2.98828125,-4.053597752346075e-05,-2.0509803616388196e-05,-4.004710066376746e-05,-3.418057834744793e-05,3.25,2.75
2.9921875,-3.4669455207141224e-05,-3.2233959578851e-05,-3.076732899977112e-05,-4.394922687113757e-05,3.25,2.75
2.99609375,-2.539857221332113e-05,-3.125620585946442e-05,-3.858047008468757e-05,-6.396651210803388e-05,3.25,2.75
3.0,-2.881182156099794e-05,-2.636743726253148e-05,-2.881182156099794e-05,-4.882910679789426e-05,3.25,2.75
3.00390625,-3.2233959578851e-05,-1.7585431128404676e-05,-8.794536324101628e-06,-3.272283643854429e-05,3.25,2.75
3.0078125,-3.125620585946442e-05,-2.3931941634241255e-05,-1.3674416250858327e-05,-3.9069346944380866e-05,3.25,2.75
3.01171875,-3.515833206683452e-05,-2.490969535362784e-05,-3.515833206683452e-05,-4.297147315175097e-05,3.25,2.75
3.015625,-2.881182156099794e-05,-2.7345190981918065e-05,-3.4669455207141224e-05,-4.688248802929732e-05,3.25,2.75
3.01953125,-2.148755733577478e-05,-1.9043173037308305e-05,-2.832294470130465e-05,-4.6393611169604035e-05,3.25,2.75
3.0234375,-3.4669455207141224e-05,-2.3931941634241255e-05,-1.3185539391165036e-05,-2.539857221332113e-05,3.25,2.75
3.02734375,-3.955822380407417e-05,-4.297147315175097e-05,1.1222748912794684e-05,-1.1718908812085146e-05,3.25,2.75
3.03125,-2.5887449073014423e-05,-3.272283643854429e-05,-2.099868047608149e-05,-2.7345190981918065e-05,3.25,2.75
3.03515625,-3.125620585946442e-05,-3.418057834744793e-05,-3.760271636530099e-05,-2.881182156099794e-05,3.25,2.75
3.0390625,-4.297147315175097e-05,-4.199371943236439e-05,-2.344306477454796e-05,-2.685631412222477e-05,3.25,2.75
3.04296875,-3.515833206683452e-05,-2.7345190981918065e-05,-2.2954187914854657e-05,-3.858047008468757e-05,3.25,2.75
3.046875,-3.321171329823759e-05,-2.930069842069124e-05,-2.5887449073014423e-05,-3.760271636530099e-05,3.25,2.75
3.05078125,-2.930069842069124e-05,-3.418057834744793e-05,-2.3931941634241255e-05,-3.711383950560769e-05,3.25,2.75
3.0546875,-3.6136085786221105e-05,-3.809159322499428e-05,-1.7585431128404676e-05,-3.564720892652782e-05,3.25,2.75
3.05859375,-3.760271636530099e-05,-2.4420818493934545e-05,-2.148755733577478e-05,-3.1745082719157704e-05,3.25,2.75
3.0625,-2.881182156099794e-05,-2.1976434195468074e-05,-4.053597752346075e-05,-4.541585745021744e-05,3.25,2.75
3.06640625,-4.492698059052415e-05,-3.809159322499428e-05,-4.443810373083086e-05,-5.9086632181277186e-05,3.25,2.75
3.0703125,-5.4695629114213785e-05,-4.492698059052415e-05,-2.9789575280384533e-05,-6.0553262760357066e-05,3.25,2.75
3.07421875,-4.980686051728084e-05,-5.7620001602197305e-05,-2.0509803616388196e-05,-4.7371364888990616e-05,3.25,2.75
3.078125,-4.297147315175097e-05,-4.394922687113757e-05,-3.125620585946442e-05,-4.150484257267109e-05,3.25,2.75
3.08203125,-4.053597752346075e-05,-2.636743726253148e-05,-2.9789575280384533e-05,-4.492698059052415e-05,3.25,2.75
3.0859375,-3.515833206683452e-05,-3.272283643854429e-05,-1.5141046829938203e-05,-2.930069842069124e-05,3.25,2.75
3.08984375,-3.1745082719157704e-05,-3.272283643854429e-05,-9.772290043488212e-06,-3.125620585946442e-05,3.25,2.75
3.09375,-3.0278452140077823e-05,-2.344306477454796e-05,4.852353398947144e-07,-4.541585745021744e-05,3.25,2.75
3.09765625,-3.6136085786221105e-05,-4.297147315175097e-05,1.4629890592812984e-06,-3.760271636530099e-05,3.25,2.75
3.1015625,-3.6136085786221105e-05,-5.127349109636073e-05,-2.636743726253148e-05,-3.321171329823759e-05,3.25,2.75
3.10546875,-3.1745082719157704e-05,-3.760271636530099e-05,-4.492698059052415e-05,-3.955822380407417e-05,3.25,2.75
3.109375,-4.492698059052415e-05,-5.127349109636073e-05,-2.148755733577478e-05,-3.418057834744793e-05,3.25,2.75
3.11328125,-5.0295737376974136e-05,-6.201989333943695e-05,-5.3723983062485694e-06,-4.150484257267109e-05,3.25,2.75
3.1171875,-3.955822380407417e-05,-4.882910679789426e-05,6.8317458457312905e-06,-5.4206752254520485e-05,3.25,2.75
3.12109375,-2.490969535362784e-05,-5.615337102311742e-05,6.8317458457312905e-06,-3.858047008468757e-05,3.25,2.75
3.125,-2.1976434195468074e-05,-6.0553262760357066e-05,1.660039436942091e-05,-2.930069842069124e-05,3.25,2.75
3.12890625,-2.490969535362784e-05,-4.541585745021744e-05,4.931070061799039e-05,-4.5904734309910735e-05,3.25,2.75
3.1328125,-2.4420818493934545e-05,-2.832294470130465e-05,7.323900073243306e-05,-6.006438590066377e-05,3.25,2.75
3.13671875,-1.5141046829938203e-05,-1.9591489585717595e-06,8.007438809796293e-05,-6.689977326619364e-05,3.25,2.75
3.140625,-1.269666253147173e-05,-6.83902888532846e-06,8.348763744563973e-05,-7.226853005264363e-05,3.25,2.75
3.14453125,-1.807430798809797e-05,-2.9369026779583433e-06,9.813616589608605e-05,-7.617954493018998e-05,3.25,2.75
3.1484375,-1.5629923689631495e-05,2.636015422293431e-05,0.00010839369127946897,-8.252605543602655e-05,3.25,2.75
3.15234375,-2.148755733577478e-05,3.270666472877089e-05,0.00013085536081483174,-6.836640384527352e-05,3.25,2.75
3.15625,-2.2954187914854657e-05,2.636015422293431e-05,0.00013817962504005492,-6.347763524834059e-05,3.25,2.75
3.16015625,-2.2465311055161364e-05,3.368441844815747e-05,0.00013866850189974824,-6.738865012588694e-05,3.25,2.75
3.1640625,-2.685631412222477e-05,4.6866316319523914e-05,0.00014940601547264819,-5.1762367956054016e-05,3.25,2.75
3.16796875,-3.125620585946442e-05,3.759543332570382e-05,0.00014648164298466468,-4.5904734309910735e-05,3.25,2.75
3.171875,-4.6393611169604035e-05,2.099139743648432e-05,0.00013329974511329824,-4.2482596292057686e-05,3.25,2.75
3.17578125,-4.2482596292057686e-05,2.441353545433738e-05,0.00012694434593728542,-4.541585745021744e-05,3.25,2.75
3.1796875,-1.856318484779126e-05,3.661767960631724e-05,0.00010986032185854887,-5.713112474250401e-05,3.25,2.75
3.18359375,-3.0278452140077823e-05,1.268937949187456e-05,0.00010498044193179216,-4.443810373083086e-05,3.25,2.75
3.1875,-3.9069346944380866e-05,7.320622705424582e-06,0.00011034919871824215,-2.7834067841611355e-05,3.25,2.75
3.19140625,-2.7345190981918065e-05,1.1711625772487976e-05,9.618954712748913e-05,-2.881182156099794e-05,3.25,2.75
3.1953125,-1.5141046829938203e-05,1.1711625772487976e-05,8.886528290226596e-05,-4.199371943236439e-05,3.25,2.75
3.19921875,-1.1238920622568101e-05,2.5382400503547714e-05,6.54258596475166e-05,-4.541585745021744e-05,3.25,2.75
3.203125,-2.5887449073014423e-05,1.268937949187456e-05,5.1266208056763556e-05,-3.760271636530099e-05,3.25,2.75
3.20703125,-2.881182156099794e-05,-1.1238920622568101e-05,5.907934914168001e-05,-3.321171329823759e-05,3.25,2.75
3.2109375,-2.2465311055161364e-05,-2.2954187914854657e-05,6.34703522087434e-05,-2.685631412222477e-05,3.25,2.75
3.21484375,-2.3931941634241255e-05,-1.611880054932479e-05,6.591473650720988e-05,-2.7834067841611355e-05,3.25,2.75
3.21875,-1.7585431128404676e-05,-6.83902888532846e-06,4.491969755092697e-05,-3.9069346944380866e-05,3.25,2.75
3.22265625,-1.3674416250858327e-05,-8.794536324101628e-06,4.3873615472648165e-06,-4.004710066376746e-05,3.25,2.75
3.2265625,-2.7834067841611355e-05,-2.490969535362784e-05,8.298376424811166e-06,-3.076732899977112e-05,3.25,2.75
3.23046875,-2.930069842069124e-05,-2.3931941634241255e-05,2.441353545433738e-05,-2.881182156099794e-05,3.25,2.75
3.234375,-2.685631412222477e-05,-1.856318484779126e-05,2.636015422293431e-05,-3.515833206683452e-05,3.25,2.75
3.23828125,-3.321171329823759e-05,-3.1745082719157704e-05,1.366713321126116e-05,-3.955822380407417e-05,3.25,2.75
3.2421875,-3.858047008468757e-05,-3.418057834744793e-05,-1.660767740901808e-05,-3.809159322499428e-05,3.25,2.75
3.24609375,-2.5887449073014423e-05,-2.4420818493934545e-05,-1.611880054932479e-05,-3.564720892652782e-05,3.25,2.75
3.25,-2.0020926756694906e-05,-1.416329311055162e-05,9.741121995880065e-07,-4.394922687113757e-05,3.25,2.75
3.25390625,-3.369170148775464e-05,-2.490969535362784e-05,-4.8835214465552775e-06,-4.394922687113757e-05,3.25,2.75
3.2578125,-2.9789575280384533e-05,-3.321171329823759e-05,-2.3931941634241255e-05,-3.9069346944380866e-05,3.25,2.75
3.26171875,-2.344306477454796e-05,-4.786024174868391e-05,-2.685631412222477e-05,-3.564720892652782e-05,3.25,2.75
3.265625,-3.0278452140077823e-05,-4.9317983657587555e-05,-4.394644586861986e-06,-3.2233959578851e-05,3.25,2.75
3.26953125,-2.4420818493934545e-05,-2.9789575280384533e-05,-1.4652169970244911e-05,-4.7371364888990616e-05,3.25,2.75
3.2734375,-2.5887449073014423e-05,-3.6136085786221105e-05,-3.955822380407417e-05,-3.955822380407417e-05,3.25,2.75
3.27734375,-3.564720892652782e-05,-3.711383950560769e-05,-2.636743726253148e-05,-2.832294470130465e-05,3.25,2.75
3.28125,-2.9789575280384533e-05,-2.490969535362784e-05,-3.076732899977112e-05,-4.10159657129778e-05,3.25,2.75
3.28515625,-2.636743726253148e-05,-1.660767740901808e-05,-3.66249626459144e-05,-4.297147315175097e-05,3.25,2.75
3.2890625,-2.636743726253148e-05,-2.344306477454796e-05,-2.490969535362784e-05,-3.321171329823759e-05,3.25,2.75
3.29296875,-2.3931941634241255e-05,-2.1976434195468074e-05,-2.490969535362784e-05,-3.515833206683452e-05,3.25,2.75
3.296875,-2.685631412222477e-05,-2.9789575280384533e-05,-2.636743726253148e-05,-4.443810373083086e-05,3.25,2.75
3.30078125,-3.369170148775464e-05,-3.858047008468757e-05,-2.5887449073014423e-05,-3.66249626459144e-05,3.25,2.75
3.3046875,-3.1745082719157704e-05,-2.881182156099794e-05,-1.611880054932479e-05,-3.321171329823759e-05,3.25,2.75
3.30859375,-3.125620585946442e-05,-4.053597752346075e-05,-1.611880054932479e-05,-3.760271636530099e-05,3.25,2.75
3.3125,-3.9069346944380866e-05,-4.834022993820097e-05,-1.9532049897001612e-05,-3.418057834744793e-05,3.25,2.75
3.31640625,-3.711383950560769e-05,-4.688248802929732e-05,-1.807430798809797e-05,-3.369170148775464e-05,3.25,2.75
3.3203125,-1.2207785671778438e-05,-4.10159657129778e-05,-3.076732899977112e-05,-3.418057834744793e-05,3.25,2.75
3.32421875,-2.9369026779583433e-06,-3.321171329823759e-05,-4.7371364888990616e-05,-4.2482596292057686e-05,3.25,2.75
3.328125,-1.1238920622568101e-05,-3.418057834744793e-05,-4.2482596292057686e-05,-4.297147315175097e-05,3.25,2.75
3.33203125,-2.0509803616388196e-05,-3.858047008468757e-05,-2.5887449073014423e-05,-3.125620585946442e-05,3.25,2.75
3.3359375,-2.539857221332113e-05,-4.492698059052415e-05,-4.297147315175097e-05,-3.6136085786221105e-05,3.25,2.75
3.33984375,-2.539857221332113e-05,-4.2482596292057686e-05,-5.274012167544061e-05,-3.1745082719157704e-05,3.25,2.75
3.34375,-3.418057834744793e-05,-3.955822380407417e-05,-3.955822380407417e-05,-2.099868047608149e-05,3.25,2.75
3.34765625,-2.9789575280384533e-05,-1.7585431128404676e-05,-3.1745082719157704e-05,-2.685631412222477e-05,3.25,2.75
3.3515625,-2.099868047608149e-05,-3.125620585946442e-05,-3.4669455207141224e-05,-2.832294470130465e-05,3.25,2.75
3.35546875,-2.930069842069124e-05,-5.7620001602197305e-05,-3.6136085786221105e-05,-3.1745082719157704e-05,3.25,2.75
3.359375,-3.0278452140077823e-05,-5.1762367956054016e-05,-5.0784614236667436e-05,-4.2482596292057686e-05,3.25,2.75
3.36328125,-3.760271636530099e-05,-5.225124481574731e-05,-6.396651210803388e-05,-3.858047008468757e-05,3.25,2.75
3.3671875,-4.6393611169604035e-05,-5.3228998535133904e-05,-5.1762367956054016e-05,-3.9069346944380866e-05,3.25,2.75
3.37109375,-3.6136085786221105e-05,-4.688248802929732e-05,-4.053597752346075e-05,-4.297147315175097e-05,3.25,2.75
3.375,-2.636743726253148e-05,-3.6136085786221105e-05,-3.515833206683452e-05,-3.858047008468757e-05,3.25,2.75
3.37890625,-1.807430798809797e-05,-2.0020926756694906e-05,-4.150484257267109e-05,-3.564720892652782e-05,3.25,2.75
3.3828125,-2.2465311055161364e-05,-2.148755733577478e-05,-2.930069842069124e-05,-3.0278452140077823e-05,3.25,2.75
3.38671875,-2.5887449073014423e-05,-3.1745082719157704e-05,-2.539857221332113e-05,-3.272283643854429e-05,3.25,2.75
3.390625,-1.807430798809797e-05,-3.321171329823759e-05,-2.685631412222477e-05,-2.881182156099794e-05,3.25,2.75
3.39453125,-2.099868047608149e-05,-4.053597752346075e-05,-2.930069842069124e-05,-2.832294470130465e-05,3.25,2.75
3.3984375,-2.539857221332113e-05,-3.858047008468757e-05,-2.7345190981918065e-05,-3.272283643854429e-05,3.25,2.75
3.40234375,-2.9789575280384533e-05,-4.5904734309910735e-05,-2.930069842069124e-05,-3.321171329823759e-05,3.25,2.75
3.40625,-3.4669455207141224e-05,-5.0295737376974136e-05,-3.321171329823759e-05,-3.711383950560769e-05,3.25,2.75
3.41015625,-2.930069842069124e-05,-4.150484257267109e-05,-3.0278452140077823e-05,-3.711383950560769e-05,3.25,2.75
3.4140625,-2.9789575280384533e-05,-4.10159657129778e-05,-3.418057834744793e-05,-4.297147315175097e-05,3.25,2.75
3.41796875,-3.515833206683452e-05,-4.786024174868391e-05,-3.858047008468757e-05,-3.6136085786221105e-05,3.25,2.75
3.421875,-3.809159322499428e-05,-4.10159657129778e-05,-4.9317983657587555e-05,-2.881182156099794e-05,3.25,2.75
3.42578125,-3.760271636530099e-05,-2.7834067841611355e-05,-4.541585745021744e-05,-3.564720892652782e-05,3.25,2.75
3.4296875,-2.539857221332113e-05,-2.148755733577478e-05,-4.834022993820097e-05,-4.5904734309910735e-05,3.25,2.75
3.43359375,-2.0509803616388196e-05,-1.5141046829938203e-05,-4.9317983657587555e-05,-4.834022993820097e-05,3.25,2.75
3.4375,-4.053597752346075e-05,-2.099868047608149e-05,-4.6393611169604035e-05,-4.2482596292057686e-05,3.25,2.75
3.44140625,-5.127349109636073e-05,-2.2954187914854657e-05,-5.3228998535133904e-05,-3.515833206683452e-05,3.25,2.75
3.4453125,-4.004710066376746e-05,-2.5887449073014423e-05,-3.321171329823759e-05,-4.150484257267109e-05,3.25,2.75
3.44921875,-3.6136085786221105e-05,-4.004710066376746e-05,-2.4420818493934545e-05,-3.564720892652782e-05,3.25,2.75
3.453125,-3.6136085786221105e-05,-2.4420818493934545e-05,-4.053597752346075e-05,-2.3931941634241255e-05,3.25,2.75
3.45703125,-3.4669455207141224e-05,-1.0261166903181504e-05,-3.6136085786221105e-05,-2.930069842069124e-05,3.25,2.75
3.4609375,-3.0278452140077823e-05,-2.930069842069124e-05,-4.541585745021744e-05,-4.10159657129778e-05,3.25,2.75
3.46484375,-3.6136085786221105e-05,-3.66249626459144e-05,-5.371787539482719e-05,-4.053597752346075e-05,3.25,2.75
3.46875,-3.321171329823759e-05,-3.809159322499428e-05,-4.6393611169604035e-05,-4.053597752346075e-05,3.25,2.75
3.47265625,-2.832294470130465e-05,-2.832294470130465e-05,-3.809159322499428e-05,-4.10159657129778e-05,3.25,2.75
3.4765625,-3.564720892652782e-05,-2.2954187914854657e-05,-2.930069842069124e-05,-3.809159322499428e-05,3.25,2.75
3.48046875,-3.66249626459144e-05,-3.076732899977112e-05,-3.125620585946442e-05,-3.711383950560769e-05,3.25,2.75
3.484375,-2.9789575280384533e-05,-2.7345190981918065e-05,-4.2482596292057686e-05,-4.346035001144427e-05,3.25,2.75
3.48828125,-3.369170148775464e-05,-2.832294470130465e-05,-4.199371943236439e-05,-4.5904734309910735e-05,3.25,2.75
3.4921875,-4.492698059052415e-05,-3.809159322499428e-05,-2.7834067841611355e-05,-4.2482596292057686e-05,3.25,2.75
3.49609375,-3.760271636530099e-05,-3.564720892652782e-05,-4.346035001144427e-05,-3.515833206683452e-05,3.25,2.75
3.5,-2.2954187914854657e-05,-2.490969535362784e-05,-5.371787539482719e-05,-3.272283643854429e-05,3.25,2.75
3.50390625,-3.125620585946442e-05,-3.418057834744793e-05,-2.930069842069124e-05,-3.564720892652782e-05,3.25,2.75
3.5078125,-4.10159657129778e-05,-2.930069842069124e-05,-1.3185539391165036e-05,-4.346035001144427e-05,3.25,2.75
3.51171875,-3.1745082719157704e-05,-2.1976434195468074e-05,-1.416329311055162e-05,-3.955822380407417e-05,3.25,2.75
3.515625,-2.490969535362784e-05,-2.9789575280384533e-05,-1.9043173037308305e-05,-2.9789575280384533e-05,3.25,2.75
3.51953125,-2.881182156099794e-05,-2.099868047608149e-05,-2.2954187914854657e-05,-2.881182156099794e-05,3.25,2.75
3.5234375,-3.711383950560769e-05,-1.807430798809797e-05,-2.4420818493934545e-05,-2.636743726253148e-05,3.25,2.75
3.52734375,-2.881182156099794e-05,-3.2233959578851e-05,-4.346035001144427e-05,-3.1745082719157704e-05,3.25,2.75
3.53125,-2.490969535362784e-05,-3.272283643854429e-05,-3.076732899977112e-05,-3.1745082719157704e-05,3.25,2.75
3.53515625,-2.2465311055161364e-05,-1.416329311055162e-05,-1.0261166903181504e-05,-3.564720892652782e-05,3.25,2.75
3.5390625,-2.636743726253148e-05,-2.685631412222477e-05,-2.539857221332113e-05,-4.199371943236439e-05,3.25,2.75
3.54296875,-4.053597752346075e-05,-4.150484257267109e-05,-1.269666253147173e-05,-3.369170148775464e-05,3.25,2.75
3.546875,-4.492698059052415e-05,-4.786024174868391e-05,-3.858047008468757e-05,-3.369170148775464e-05,3.25,2.75
3.55078125,-4.2482596292057686e-05,-6.006438590066377e-05,-6.2499881528954e-05,-3.809159322499428e-05,3.25,2.75
3.5546875,-3.4669455207141224e-05,-4.7371364888990616e-05,-4.9317983657587555e-05,-3.418057834744793e-05,3.25,2.75
3.55859375,-2.832294470130465e-05,-3.6136085786221105e-05,-5.3228998535133904e-05,-2.9789575280384533e-05,3.25,2.75
3.5625,-3.4669455207141224e-05,-2.7834067841611355e-05,-4.541585745021744e-05,-3.515833206683452e-05,3.25,2.75
3.56640625,-3.272283643854429e-05,-2.7834067841611355e-05,-3.809159322499428e-05,-4.004710066376746e-05,3.25,2.75
3.5703125,-3.564720892652782e-05,-3.9069346944380866e-05,-3.955822380407417e-05,-3.4669455207141224e-05,3.25,2.75
3.57421875,-4.541585745021744e-05,-3.809159322499428e-05,-2.881182156099794e-05,-3.0278452140077823e-05,3.25,2.75
3.578125,-4.053597752346075e-05,-3.272283643854429e-05,-2.881182156099794e-05,-2.1976434195468074e-05,3.25,2.75
3.58203125,-3.6136085786221105e-05,-3.418057834744793e-05,-4.688248802929732e-05,-3.369170148775464e-05,3.25,2.75
3.5859375,-4.150484257267109e-05,-3.809159322499428e-05,-4.199371943236439e-05,-4.004710066376746e-05,3.25,2.75
3.58984375,-3.760271636530099e-05,-4.10159657129778e-05,-4.10159657129778e-05,-3.369170148775464e-05,3.25,2.75
3.59375,-3.1745082719157704e-05,-4.9317983657587555e-05,-5.4695629114213785e-05,-4.150484257267109e-05,3.25,2.75
3.59765625,-4.2482596292057686e-05,-4.6393611169604035e-05,-4.7371364888990616e-05,-5.1762367956054016e-05,3.25,2.75
3.6015625,-4.394922687113757e-05,-4.688248802929732e-05,-5.0295737376974136e-05,-4.443810373083086e-05,3.25,2.75
3.60546875,-4.346035001144427e-05,-4.541585745021744e-05,-4.443810373083086e-05,-3.66249626459144e-05,3.25,2.75
3.609375,-4.150484257267109e-05,-4.150484257267109e-05,-3.9069346944380866e-05,-3.711383950560769e-05,3.25,2.75
3.61328125,-3.125620585946442e-05,-5.127349109636073e-05,-4.688248802929732e-05,-4.004710066376746e-05,3.25,2.75
3.6171875,-2.490969535362784e-05,-3.4669455207141224e-05,-3.858047008468757e-05,-4.882910679789426e-05,3.25,2.75
3.62109375,-3.418057834744793e-05,-3.2233959578851e-05,-4.297147315175097e-05,-3.66249626459144e-05,3.25,2.75
3.625,-4.053597752346075e-05,-3.321171329823759e-05,-4.150484257267109e-05,-3.4669455207141224e-05,3.25,2.75
3.62890625,-3.515833206683452e-05,-1.7096554268711386e-05,-6.350152025635168e-06,-3.858047008468757e-05,3.25,2.75
3.6328125,-2.832294470130465e-05,-3.076732899977112e-05,-6.83902888532846e-06,-3.515833206683452e-05,3.25,2.75
3.63671875,-3.418057834744793e-05,-5.4206752254520485e-05,-2.7834067841611355e-05,-3.4669455207141224e-05,3.25,2.75
3.640625,-3.858047008468757e-05,-5.0784614236667436e-05,-5.4695629114213785e-05,-4.297147315175097e-05,3.25,2.75
3.64453125,-3.760271636530099e-05,-3.955822380407417e-05,-6.689977326619364e-05,-4.053597752346075e-05,3.25,2.75
3.6484375,-3.2233959578851e-05,-3.515833206683452e-05,-5.371787539482719e-05,-3.418057834744793e-05,3.25,2.75
3.65234375,-2.490969535362784e-05,-4.199371943236439e-05,-5.274012167544061e-05,-3.272283643854429e-05,3.25,2.75
3.65625,-2.7834067841611355e-05,-3.66249626459144e-05,-5.4206752254520485e-05,-2.9789575280384533e-05,3.25,2.75
3.66015625,-4.053597752346075e-05,-3.4669455207141224e-05,-5.4695629114213785e-05,-4.297147315175097e-05,3.25,2.75
3.6640625,-4.346035001144427e-05,-4.199371943236439e-05,-4.004710066376746e-05,-4.053597752346075e-05,3.25,2.75
3.66796875,-3.564720892652782e-05,-4.297147315175097e-05,-2.9789575280384533e-05,-3.760271636530099e-05,3.25,2.75
3.671875,-2.9789575280384533e-05,-4.297147315175097e-05,-1.7585431128404676e-05,-3.9069346944380866e-05,3.25,2.75
3.67578125,-3.4669455207141224e-05,-4.443810373083086e-05,-2.3931941634241255e-05,-3.564720892652782e-05,3.25,2.75
3.6796875,-3.858047008468757e-05,-4.199371943236439e-05,-2.2465311055161364e-05,-2.881182156099794e-05,3.25,2.75
3.68359375,-3.1745082719157704e-05,-3.66249626459144e-05,-8.305659464408336e-06,-2.4420818493934545e-05,3.25,2.75
3.6875,-3.0278452140077823e-05,-3.760271636530099e-05,-1.3185539391165036e-05,-2.539857221332113e-05,3.25,2.75
3.69140625,-3.66249626459144e-05,-4.834022993820097e-05,-2.636743726253148e-05,-3.369170148775464e-05,3.25,2.75
3.6953125,-3.515833206683452e-05,-3.6136085786221105e-05,-2.344306477454796e-05,-3.272283643854429e-05,3.25,2.75
3.69921875,-3.564720892652782e-05,-2.4420818493934545e-05,-9.28341318379492e-06,-2.7345190981918065e-05,3.25,2.75
3.703125,-3.1745082719157704e-05,-3.760271636530099e-05,-2.0020926756694906e-05,-3.369170148775464e-05,3.25,2.75
3.70703125,-2.9789575280384533e-05,-4.9317983657587555e-05,-3.369170148775464e-05,-3.369170148775464e-05,3.25,2.75
3.7109375,-4.492698059052415e-05,-4.980686051728084e-05,-2.490969535362784e-05,-3.564720892652782e-05,3.25,2.75
3.71484375,-4.492698059052415e-05,-4.786024174868391e-05,-2.099868047608149e-05,-3.369170148775464e-05,3.25,2.75
3.71875,-2.881182156099794e-05,-4.492698059052415e-05,-1.269666253147173e-05,-2.5887449073014423e-05,3.25,2.75
3.72265625,-3.076732899977112e-05,-2.5887449073014423e-05,1.366713321126116e-05,-2.2954187914854657e-05,3.25,2.75
3.7265625,-5.0295737376974136e-05,-2.2954187914854657e-05,3.80843101853971e-05,-3.66249626459144e-05,3.25,2.75
3.73046875,-4.10159657129778e-05,-4.053597752346075e-05,6.05459797207599e-05,-4.882910679789426e-05,3.25,2.75
3.734375,-2.344306477454796e-05,-4.2482596292057686e-05,-2.2465311055161364e-05,-4.004710066376746e-05,3.25,2.75
3.73828125,-3.2233959578851e-05,-3.321171329823759e-05,-0.0001044899594415198,-3.076732899977112e-05,3.25,2.75
3.7421875,-4.297147315175097e-05,-3.809159322499428e-05,-8.447267420462349e-05,-2.5887449073014423e-05,3.25,2.75
3.74609375,-4.297147315175097e-05,-4.150484257267109e-05,-5.7620001602197305e-05,-2.4420818493934545e-05,3.25,2.75
3.75,-3.858047008468757e-05,-3.515833206683452e-05,-4.199371943236439e-05,-3.125620585946442e-05,3.25,2.75
3.75390625,-3.858047008468757e-05,-4.199371943236439e-05,-3.4669455207141224e-05,-3.809159322499428e-05,3.25,2.75
3.7578125,-4.6393611169604035e-05,-3.9069346944380866e-05,-2.7834067841611355e-05,-2.685631412222477e-05,3.25,2.75
3.76171875,-4.541585745021744e-05,-3.711383950560769e-05,-3.858047008468757e-05,-2.344306477454796e-05,3.25,2.75
3.765625,-3.564720892652782e-05,-4.150484257267109e-05,-4.10159657129778e-05,-3.66249626459144e-05,3.25,2.75
3.76953125,-3.809159322499428e-05,-4.882910679789426e-05,-3.4669455207141224e-05,-3.0278452140077823e-05,3.25,2.75
3.7734375,-4.004710066376746e-05,-4.980686051728084e-05,-4.199371943236439e-05,-2.930069842069124e-05,3.25,2.75
3.77734375,-3.711383950560769e-05,-4.150484257267109e-05,-5.0295737376974136e-05,-3.66249626459144e-05,3.25,2.75
3.78125,-4.492698059052415e-05,-5.225124481574731e-05,-5.7620001602197305e-05,-3.9069346944380866e-05,3.25,2.75
3.78515625,-4.492698059052415e-05,-6.0553262760357066e-05,-5.664224788281071e-05,-3.858047008468757e-05,3.25,2.75
3.7890625,-3.321171329823759e-05,-5.0784614236667436e-05,-5.225124481574731e-05,-3.515833206683452e-05,3.25,2.75
3.79296875,-3.955822380407417e-05,-3.418057834744793e-05,-4.199371943236439e-05,-2.539857221332113e-05,3.25,2.75
3.796875,-4.004710066376746e-05,-3.6136085786221105e-05,-4.10159657129778e-05,-2.1976434195468074e-05,3.25,2.75
3.80078125,-4.5904734309910735e-05,-4.688248802929732e-05,-5.4206752254520485e-05,-2.832294470130465e-05,3.25,2.75
3.8046875,-5.1762367956054016e-05,-4.10159657129778e-05,-5.1762367956054016e-05,-2.881182156099794e-05,3.25,2.75
3.80859375,-3.564720892652782e-05,-4.2482596292057686e-05,-4.199371943236439e-05,-3.321171329823759e-05,3.25,2.75
3.8125,-3.125620585946442e-05,-4.150484257267109e-05,-3.760271636530099e-05,-2.9789575280384533e-05,3.25,2.75
3.81640625,-3.515833206683452e-05,-3.809159322499428e-05,-3.2233959578851e-05,-2.344306477454796e-05,3.25,2.75
3.8203125,-3.711383950560769e-05,-3.2233959578851e-05,-2.5887449073014423e-05,-3.2233959578851e-05,3.25,2.75
3.82421875,-3.564720892652782e-05,-4.541585745021744e-05,-2.5887449073014423e-05,-3.1745082719157704e-05,3.25,2.75
3.828125,-2.930069842069124e-05,-4.443810373083086e-05,-4.346035001144427e-05,-3.076732899977112e-05,3.25,2.75
3.83203125,-2.9789575280384533e-05,-3.66249626459144e-05,-4.346035001144427e-05,-4.053597752346075e-05,3.25,2.75
3.8359375,-3.418057834744793e-05,-4.688248802929732e-05,-3.809159322499428e-05,-3.4669455207141224e-05,3.25,2.75
3.83984375,-3.955822380407417e-05,-4.6393611169604035e-05,-5.8597755321583885e-05,-3.515833206683452e-05,3.25,2.75
3.84375,-3.809159322499428e-05,-5.664224788281071e-05,-8.399268601510643e-05,-4.6393611169604035e-05,3.25,2.75
3.84765625,-3.321171329823759e-05,-6.104213962005036e-05,-7.42240374914168e-05,-4.7371364888990616e-05,3.25,2.75
3.8515625,-2.881182156099794e-05,-3.760271636530099e-05,-4.882910679789426e-05,-4.786024174868391e-05,3.25,2.75
3.85546875,-3.272283643854429e-05,-3.711383950560769e-05,-4.297147315175097e-05,-4.688248802929732e-05,3.25,2.75
3.859375,-3.760271636530099e-05,-5.371787539482719e-05,-3.9069346944380866e-05,-4.346035001144427e-05,3.25,2.75
3.86328125,-3.4669455207141224e-05,-4.297147315175097e-05,-2.9789575280384533e-05,-4.10159657129778e-05,3.25,2.75
3.8671875,-3.66249626459144e-05,-2.881182156099794e-05,-2.636743726253148e-05,-4.394922687113757e-05,3.25,2.75
3.87109375,-3.418057834744793e-05,-3.0278452140077823e-05,-3.6136085786221105e-05,-4.150484257267109e-05,3.25,2.75
3.875,-2.490969535362784e-05,-4.5904734309910735e-05,-4.10159657129778e-05,-3.076732899977112e-05,3.25,2.75
3.87890625,-3.711383950560769e-05,-4.834022993820097e-05,-3.6136085786221105e-05,-3.4669455207141224e-05,3.25,2.75
3.8828125,-3.858047008468757e-05,-5.274012167544061e-05,-4.199371943236439e-05,-3.369170148775464e-05,3.25,2.75
3.88671875,-3.711383950560769e-05,-5.713112474250401e-05,-7.86150405584802e-05,-2.685631412222477e-05,3.25,2.75
3.890625,-4.394922687113757e-05,-3.6136085786221105e-05,-9.765457207598993e-05,-3.66249626459144e-05,3.25,2.75
3.89453125,-3.272283643854429e-05,-3.125620585946442e-05,-7.569066807049668e-05,-4.7371364888990616e-05,3.25,2.75
3.8984375,-2.344306477454796e-05,-4.9317983657587555e-05,-5.566449416342413e-05,-3.955822380407417e-05,3.25,2.75
3.90234375,-3.1745082719157704e-05,-4.6393611169604035e-05,-5.9086632181277186e-05,-3.0278452140077823e-05,3.25,2.75
3.90625,-3.9069346944380866e-05,-4.394922687113757e-05,-5.7620001602197305e-05,-3.125620585946442e-05,3.25,2.75
3.91015625,-3.515833206683452e-05,-3.955822380407417e-05,-4.2482596292057686e-05,-3.760271636530099e-05,3.25,2.75
3.9140625,-4.053597752346075e-05,-3.272283643854429e-05,-3.125620585946442e-05,-2.930069842069124e-05,3.25,2.75
3.91796875,-3.760271636530099e-05,-3.858047008468757e-05,-3.418057834744793e-05,-2.539857221332113e-05,3.25,2.75
3.921875,-3.272283643854429e-05,-3.809159322499428e-05,-4.492698059052415e-05,-3.9069346944380866e-05,3.25,2.75
3.92578125,-3.711383950560769e-05,-2.9789575280384533e-05,-3.321171329823759e-05,-4.004710066376746e-05,3.25,2.75
3.9296875,-3.369170148775464e-05,-3.2233959578851e-05,-3.0278452140077823e-05,-3.66249626459144e-05,3.25,2.75
3.93359375,-3.076732899977112e-05,-2.881182156099794e-05,-3.369170148775464e-05,-3.321171329823759e-05,3.25,2.75
3.9375,-3.6136085786221105e-05,-3.0278452140077823e-05,-2.9789575280384533e-05,-4.10159657129778e-05,3.25,2.75
3.94140625,-3.4669455207141224e-05,-4.688248802929732e-05,-3.418057834744793e-05,-5.127349109636073e-05,3.25,2.75
3.9453125,-3.418057834744793e-05,-3.564720892652782e-05,-4.150484257267109e-05,-4.7371364888990616e-05,3.25,2.75
3.94921875,-3.760271636530099e-05,-3.4669455207141224e-05,-3.858047008468757e-05,-4.150484257267109e-05,3.25,2.75
3.953125,-4.10159657129778e-05,-5.127349109636073e-05,-2.685631412222477e-05,-5.0784614236667436e-05,3.25,2.75
3.95703125,-3.858047008468757e-05,-5.274012167544061e-05,-3.760271636530099e-05,-4.688248802929732e-05,3.25,2.75
3.9609375,-3.418057834744793e-05,-4.199371943236439e-05,-3.711383950560769e-05,-3.125620585946442e-05,3.25,2.75
3.96484375,-3.272283643854429e-05,-3.564720892652782e-05,-3.760271636530099e-05,-3.272283643854429e-05,3.25,2.75
3.96875,-3.66249626459144e-05,-3.125620585946442e-05,-2.2465311055161364e-05,-3.515833206683452e-05,3.25,2.75
3.97265625,-4.541585745021744e-05,-4.053597752346075e-05,-1.0261166903181504e-05,-3.711383950560769e-05,3.25,2.75
3.9765625,-4.6393611169604035e-05,-5.1762367956054016e-05,-2.930069842069124e-05,-3.955822380407417e-05,3.25,2.75
3.98046875,-4.004710066376746e-05,-4.2482596292057686e-05,-3.076732899977112e-05,-3.760271636530099e-05,3.25,2.75
3.984375,-2.7345190981918065e-05,-4.004710066376746e-05,-3.6136085786221105e-05,-3.6136085786221105e-05,3.25,2.75
3.98828125,-2.2465311055161364e-05,-2.539857221332113e-05,-3.418057834744793e-05,-3.4669455207141224e-05,3.25,2.75
3.9921875,-2.1976434195468074e-05,-1.416329311055162e-05,-1.5629923689631495e-05,-2.9789575280384533e-05,3.25,2.75
3.99609375,-3.515833206683452e-05,-2.2954187914854657e-05,-1.5141046829938203e-05,-2.5887449073014423e-05,3.25,2.75
4.0,-4.980686051728084e-05,-2.2465311055161364e-05,-4.10159657129778e-05,-3.9069346944380866e-05,3.25,2.75
4.00390625,-4.394922687113757e-05,-2.4420818493934545e-05,-6.153101647974365e-05,-4.9317983657587555e-05,3.25,2.75
4.0078125,-4.004710066376746e-05,-3.0278452140077823e-05,-5.127349109636073e-05,-4.7371364888990616e-05,3.25,2.75
4.01171875,-4.346035001144427e-05,-2.636743726253148e-05,-3.711383950560769e-05,-4.834022993820097e-05,3.25,2.75
4.015625,-4.2482596292057686e-05,-3.272283643854429e-05,-3.369170148775464e-05,-4.688248802929732e-05,3.25,2.75
4.01953125,-3.369170148775464e-05,-4.492698059052415e-05,-4.394922687113757e-05,-4.394922687113757e-05,3.25,2.75
4.0234375,-2.0509803616388196e-05,-4.2482596292057686e-05,-4.7371364888990616e-05,-3.760271636530099e-05,3.25,2.75
4.02734375,-1.5141046829938203e-05,-4.2482596292057686e-05,-3.1745082719157704e-05,-3.66249626459144e-05,3.25,2.75
4.03125,-2.5887449073014423e-05,-5.615337102311742e-05,-3.66249626459144e-05,-3.809159322499428e-05,3.25,2.75
4.03515625,-3.809159322499428e-05,-5.4206752254520485e-05,-4.443810373083086e-05,-3.2233959578851e-05,3.25,2.75
4.0390625,-3.66249626459144e-05,-4.443810373083086e-05,-4.004710066376746e-05,-3.4669455207141224e-05,3.25,2.75
4.04296875,-4.346035001144427e-05,-3.321171329823759e-05,-4.004710066376746e-05,-5.0784614236667436e-05,3.25,2.75
4.046875,-4.834022993820097e-05,-2.4420818493934545e-05,-5.274012167544061e-05,-4.7371364888990616e-05,3.25,2.75
4.05078125,-3.809159322499428e-05,-3.369170148775464e-05,-4.9317983657587555e-05,-4.10159657129778e-05,3.25,2.75
4.0546875,-4.882910679789426e-05,-2.9789575280384533e-05,-3.1745082719157704e-05,-4.882910679789426e-05,3.25,2.75
4.05859375,-4.7371364888990616e-05,-2.7834067841611355e-05,-2.685631412222477e-05,-4.150484257267109e-05,3.25,2.75
4.0625,-2.099868047608149e-05,-3.272283643854429e-05,-2.490969535362784e-05,-3.955822380407417e-05,3.25,2.75
4.06640625,-2.2465311055161364e-05,-3.272283643854429e-05,-2.0509803616388196e-05,-3.66249626459144e-05,3.25,2.75
4.0703125,-2.1976434195468074e-05,-4.199371943236439e-05,-2.148755733577478e-05,-3.858047008468757e-05,3.25,2.75
4.07421875,-1.660767740901808e-05,-4.786024174868391e-05,-2.5887449073014423e-05,-4.004710066376746e-05,3.25,2.75
4.078125,-2.9789575280384533e-05,-4.297147315175097e-05,-2.685631412222477e-05,-3.321171329823759e-05,3.25,2.75
4.08203125,-3.1745082719157704e-05,-4.834022993820097e-05,-5.225124481574731e-05,-4.150484257267109e-05,3.25,2.75
4.0859375,-2.5887449073014423e-05,-4.882910679789426e-05,-5.0295737376974136e-05,-4.5904734309910735e-05,3.25,2.75
4.08984375,-2.832294470130465e-05,-4.5904734309910735e-05,-4.394922687113757e-05,-3.515833206683452e-05,3.25,2.75
4.09375,-3.515833206683452e-05,-4.9317983657587555e-05,-4.688248802929732e-05,-3.760271636530099e-05,3.25,2.75
4.09765625,-3.321171329823759e-05,-3.711383950560769e-05,-4.394922687113757e-05,-4.492698059052415e-05,3.25,2.75
4.1015625,-3.0278452140077823e-05,-4.004710066376746e-05,-5.8597755321583885e-05,-4.199371943236439e-05,3.25,2.75
4.10546875,-3.369170148775464e-05,-4.5904734309910735e-05,-6.2499881528954e-05,-3.515833206683452e-05,3.25,2.75
4.109375,-3.66249626459144e-05,-4.199371943236439e-05,-7.86150405584802e-05,-3.66249626459144e-05,3.25,2.75
4.11328125,-2.636743726253148e-05,-2.7345190981918065e-05,-7.520179121080339e-05,-2.636743726253148e-05,3.25,2.75
4.1171875,-7.3279057450217515e-06,-3.076732899977112e-05,-6.494426582742047e-05,-2.3931941634241255e-05,3.25,2.75
4.12109375,-9.772290043488212e-06,-5.127349109636073e-05,-6.445538896772717e-05,-3.125620585946442e-05,3.25,2.75
4.125,-2.832294470130465e-05,-5.371787539482719e-05,-6.543314268711376e-05,-3.858047008468757e-05,3.25,2.75
4.12890625,-4.150484257267109e-05,-5.9086632181277186e-05,-6.396651210803388e-05,-3.125620585946442e-05,3.25,2.75
4.1328125,-4.10159657129778e-05,-6.543314268711376e-05,-8.740593536278325e-05,-2.636743726253148e-05,3.25,2.75
4.13671875,-3.321171329823759e-05,-5.957550904097048e-05,-8.545042792401007e-05,-1.075004376287481e-05,3.25,2.75
4.140625,-3.272283643854429e-05,-8.350380915541313e-05,-7.275740691233692e-05,1.0733872053101392e-05,3.25,2.75
4.14453125,-4.443810373083086e-05,-0.00010595659002059969,-8.057054799725338e-05,1.660039436942091e-05,3.25,2.75
4.1484375,-5.274012167544061e-05,-0.00011864961103227284,-8.301493229571985e-05,2.5871277363241004e-05,3.25,2.75
4.15234375,-5.810887846189059e-05,-0.00013329813948271917,-9.033919652094301e-05,4.100868267338063e-05,3.25,2.75
