timestamp,TP9,AF7,AF8,TP10,Valence,Arousal
0.0,-4.151001468680856e-05,-3.955697929198137e-05,-3.2721355410086195e-05,-2.832324081940946e-05,7.0,5.9333
0.00390625,-4.1017970885786206e-05,-4.1017970885786206e-05,-3.027627621423665e-05,-2.490921383077743e-05,7.0,5.9333
0.0078125,-4.1017970885786206e-05,-5.468921864957655e-05,-4.29710062806134e-05,-2.6862249225604626e-05,7.0,5.9333
0.01171875,-3.808841779354542e-05,-4.9806630162508564e-05,-6.054832483405812e-05,-3.125279391165025e-05,7.0,5.9333
0.015625,-4.443956777904935e-05,-3.955697929198137e-05,-4.8830112465094974e-05,-2.7346723121995865e-05,7.0,5.9333
0.01953125,-4.5416085476462944e-05,-3.9064935490959014e-05,-3.515886470130463e-05,-2.832324081940946e-05,7.0,5.9333
0.0234375,-3.5650908502326984e-05,-4.004145318837261e-05,-3.955697929198137e-05,-2.6862249225604626e-05,7.0,5.9333
0.02734375,-3.4182347003891034e-05,-3.320582930647744e-05,-3.4674390804913394e-05,-2.3440652332341484e-05,7.0,5.9333
0.03125,-4.053349698939497e-05,-3.955697929198137e-05,-2.3440652332341484e-05,-3.027627621423665e-05,7.0,5.9333
0.03515625,-4.346305008163575e-05,-4.932215626611733e-05,-2.9791802317845414e-05,-3.0768320015259e-05,7.0,5.9333
0.0390625,-4.053349698939497e-05,-4.6877077070267776e-05,-4.053349698939497e-05,-2.6370205424582265e-05,7.0,5.9333
0.04296875,-2.393269613336383e-05,-1.9050107646295854e-05,-2.832324081940946e-05,-1.2698957660791933e-05,7.0,5.9333
0.046875,-1.1237966066987098e-05,-7.324325372701594e-06,-1.758154614785991e-05,-1.2214483764400682e-05,7.0,5.9333
0.05078125,-2.148761693751429e-05,-2.6370205424582265e-05,-3.760394389715418e-05,-2.0026625343709454e-05,7.0,5.9333
0.0546875,-2.7346723121995865e-05,-4.6877077070267776e-05,-4.6877077070267776e-05,-1.758154614785991e-05,7.0,5.9333
0.05859375,-2.0026625343709454e-05,-6.152484253147172e-05,-5.3228227055771706e-05,-2.197966073853665e-05,7.0,5.9333
0.0625,-1.0745922265964735e-05,-5.664225404440374e-05,-4.7369120871290136e-05,-1.5144036856641477e-05,7.0,5.9333
0.06640625,-4.886816081483161e-06,-7.031350180819407e-05,-5.0298673963530924e-05,-7.324325372701594e-06,7.0,5.9333
0.0703125,-9.807452918287822e-07,-9.667947963836117e-05,-9.033589955748835e-05,-6.839851476310357e-06,7.0,5.9333
0.07421875,1.0252993180743132e-05,-0.00010644465661249712,-9.91169889295796e-05,-5.8633337788967595e-06,7.0,5.9333
0.078125,9.276475483329534e-06,-0.00011913938667887387,-9.91169889295796e-05,-1.1237966066987098e-05,7.0,5.9333
0.08203125,2.147916174868392e-05,-0.00014062277602197297,-0.00014110724991836423,-1.1722439963378335e-05,7.0,5.9333
0.0859375,4.833718337987335e-05,-0.00016796527154955366,-0.00018701115160143432,-1.02614483695735e-05,7.0,5.9333
0.08984375,6.103191344625011e-05,-0.0001806600016159304,-0.0001835895547081712,-4.887014908064202e-07,7.0,5.9333
0.09375,6.053986964522775e-05,-0.00019530776707713435,-0.00018749562549782558,7.807913984893588e-06,7.0,5.9333
0.09765625,7.030504661936371e-05,-0.00021288508563057905,-0.00021240061173418781,7.323440088502337e-06,7.0,5.9333
0.1015625,8.251530278934922e-05,-0.00022021275331349658,-0.0002397431072617685,2.9253254978255965e-06,7.0,5.9333
0.10546875,8.886645277485315e-05,-0.00022997793028763254,-0.0002460866873426413,-4.886816081483161e-06,7.0,5.9333
0.109375,8.691341738002594e-05,-0.0002265563333943694,-0.00023339195727626458,-4.227594415183944e-09,7.0,5.9333
0.11328125,9.618655055313957e-05,-0.00022997793028763254,-0.00023729802806591896,-3.418254583047215e-06,7.0,5.9333
0.1171875,0.00010204565673762113,-0.00023290748337987334,-0.00023388400107728693,-1.02614483695735e-05,7.0,5.9333
0.12109375,0.00010351421823605707,-0.0002211892710109102,-0.0002163066825238422,-1.4167519159227879e-05,7.0,5.9333
0.125,0.00011718546599984742,-0.0002163066825238422,-0.00021679115642023343,-1.7097072251468672e-05,7.0,5.9333
0.12890625,0.0001284116345677882,-0.00021190856793316547,-0.00022411882410315097,-2.148761693751429e-05,7.0,5.9333
0.1328125,0.00012255252838330665,-0.0001977528462729839,-0.00021581463872281985,-2.832324081940946e-05,7.0,5.9333
0.13671875,0.00010399869213244832,-0.00018310508081177993,-0.00019628428477454793,-2.9791802317845414e-05,7.0,5.9333
0.140625,9.813958594796676e-05,-0.00015820009457541772,-0.0001787069662211032,-3.5650908502326984e-05,7.0,5.9333
0.14453125,9.716306825055315e-05,-0.00014159929371938658,-0.0001508724268925002,-4.7369120871290136e-05,7.0,5.9333
0.1484375,7.763271430228124e-05,-0.00012792804595559623,-0.00012645948445716028,-5.6157780148012494e-05,7.0,5.9333
0.15234375,6.053986964522775e-05,-0.0001000935066269932,-0.00010937420970473792,-5.468921864957655e-05,7.0,5.9333
0.15625,5.3219771866941354e-05,-8.642982876783396e-05,-8.740634646524756e-05,-5.0298673963530924e-05,7.0,5.9333
0.16015625,4.1986033394369424e-05,-7.031350180819407e-05,-7.568813409628441e-05,-5.9571807136644524e-05,7.0,5.9333
0.1640625,2.4408714840924715e-05,-5.127519166094452e-05,-4.932215626611733e-05,-6.396992172732126e-05,7.0,5.9333
0.16796875,8.784431682307172e-06,-3.222931160906385e-05,-3.662742619974058e-05,-5.7134297845426097e-05,7.0,5.9333
0.171875,-7.324325372701594e-06,-2.197966073853665e-05,-4.19944885831998e-05,-5.7134297845426097e-05,7.0,5.9333
0.17578125,-1.8558063845273507e-05,-8.79288687113754e-06,-3.320582930647744e-05,-5.908733324025328e-05,7.0,5.9333
0.1796875,-2.832324081940946e-05,5.854878590066391e-06,-2.148761693751429e-05,-5.6157780148012494e-05,7.0,5.9333
0.18359375,-3.858046159456777e-05,9.276475483329534e-06,3.901843195239195e-06,-6.299340402990766e-05,7.0,5.9333
0.1875,-5.175966555733576e-05,1.6112099365224708e-05,1.1713984774547967e-05,-6.201688633249408e-05,7.0,5.9333
0.19140625,-6.250136022888531e-05,2.2947723247119867e-05,2.0018170154879086e-05,-5.566573634699014e-05,7.0,5.9333
0.1953125,-7.568813409628441e-05,2.2947723247119867e-05,2.7830311734187857e-05,-6.054832483405812e-05,7.0,5.9333
0.19921875,-8.300823187457082e-05,3.1736382523842235e-05,3.417389181506067e-05,-6.250136022888531e-05,7.0,5.9333
0.203125,-8.447679337300679e-05,3.710344490730145e-05,5.0774692671091795e-05,-6.0063850937666885e-05,7.0,5.9333
0.20703125,-8.886733805905239e-05,3.612692720988787e-05,6.786753732814528e-05,-6.201688633249408e-05,7.0,5.9333
0.2109375,-8.300823187457082e-05,4.4915586486610205e-05,6.591450193331809e-05,-5.859528943923093e-05,7.0,5.9333
0.21484375,-8.69143026642252e-05,5.419628956435494e-05,6.00553957488365e-05,-5.2251709358358116e-05,7.0,5.9333
0.21875,-9.277340884870678e-05,5.175121036850538e-05,6.103191344625011e-05,-5.0783147859922167e-05,7.0,5.9333
0.22265625,-8.740634646524756e-05,4.979817497367821e-05,6.346942273746854e-05,-5.127519166094452e-05,7.0,5.9333
0.2265625,-8.740634646524756e-05,4.979817497367821e-05,5.3219771866941354e-05,-4.9806630162508564e-05,7.0,5.9333
0.23046875,-8.78908203616388e-05,4.833718337987335e-05,4.052504180056459e-05,-5.127519166094452e-05,7.0,5.9333
0.234375,-8.252375797817958e-05,4.638414798504618e-05,4.7360665682459765e-05,-4.785359476768138e-05,7.0,5.9333
0.23828125,-8.350027567559319e-05,4.589210418402382e-05,6.103191344625011e-05,-4.5900559372854186e-05,7.0,5.9333
0.2421875,-8.642982876783396e-05,4.003299799954223e-05,6.200843114366369e-05,-4.7369120871290136e-05,7.0,5.9333
0.24609375,-8.252375797817958e-05,3.661897101091023e-05,5.858683425040056e-05,-4.5416085476462944e-05,7.0,5.9333
0.25,-8.057072258335239e-05,3.807996260471506e-05,5.858683425040056e-05,-4.29710062806134e-05,7.0,5.9333
0.25390625,-8.300823187457082e-05,3.759548870832381e-05,4.9313701077286963e-05,-3.662742619974058e-05,7.0,5.9333
0.2578125,-8.593778496681162e-05,3.5150409512474265e-05,3.075986482642864e-05,-3.955697929198137e-05,7.0,5.9333
0.26171875,-8.545331107042037e-05,3.319737411764707e-05,2.978334712901504e-05,-4.004145318837261e-05,7.0,5.9333
0.265625,-8.203171417715722e-05,3.807996260471506e-05,3.4665935616083016e-05,-3.9064935490959014e-05,7.0,5.9333
0.26953125,-7.519609029526205e-05,4.003299799954223e-05,4.247807719539179e-05,-4.1017970885786206e-05,7.0,5.9333
0.2734375,-6.836046641336689e-05,3.661897101091023e-05,4.247807719539179e-05,-4.1017970885786206e-05,7.0,5.9333
0.27734375,-6.836046641336689e-05,4.1986033394369424e-05,4.833718337987335e-05,-3.955697929198137e-05,7.0,5.9333
0.28125,-6.494643942473486e-05,3.905648030212865e-05,5.5657281158159775e-05,-3.5650908502326984e-05,7.0,5.9333
0.28515625,-6.299340402990766e-05,2.7830311734187857e-05,4.3454594892805374e-05,-3.369787310749979e-05,7.0,5.9333
0.2890625,-6.689947481956206e-05,3.3689417918669434e-05,2.9291303327992692e-05,-3.027627621423665e-05,7.0,5.9333
0.29296875,-6.445439562371252e-05,3.661897101091023e-05,3.1736382523842235e-05,-3.369787310749979e-05,7.0,5.9333
0.296875,-6.250136022888531e-05,3.612692720988787e-05,3.4665935616083016e-05,-3.4674390804913394e-05,7.0,5.9333
0.30078125,-6.54309133211261e-05,2.5385232538338298e-05,3.1244338722819874e-05,-3.320582930647744e-05,7.0,5.9333
0.3046875,-6.54309133211261e-05,1.4643537866788746e-05,3.271290022125584e-05,-3.711190009613182e-05,7.0,5.9333
0.30859375,-5.9571807136644524e-05,1.854960865644314e-05,3.4665935616083016e-05,-4.004145318837261e-05,7.0,5.9333
0.3125,-5.3228227055771706e-05,2.8806829431601443e-05,3.4665935616083016e-05,-3.5650908502326984e-05,7.0,5.9333
0.31640625,-5.175966555733576e-05,2.6361750235751897e-05,3.3689417918669434e-05,-3.711190009613182e-05,7.0,5.9333
0.3203125,-5.664225404440374e-05,4.393886996261556e-06,2.0994687852292685e-05,-3.955697929198137e-05,7.0,5.9333
0.32421875,-5.908733324025328e-05,-1.9572629892423804e-06,1.0252993180743132e-05,-4.004145318837261e-05,7.0,5.9333
0.328125,-5.761877174181733e-05,2.4408516014343605e-06,8.784431682307172e-06,-4.5416085476462944e-05,7.0,5.9333
0.33203125,-5.7134297845426097e-05,9.722901029984143e-07,-4.394772280460813e-06,-4.1017970885786206e-05,7.0,5.9333
0.3359375,-6.299340402990766e-05,-1.1237966066987098e-05,-7.324325372701594e-06,-3.4182347003891034e-05,7.0,5.9333
0.33984375,-5.6157780148012494e-05,-1.4651993055619115e-05,-9.27736076752879e-06,-3.955697929198137e-05,7.0,5.9333
0.34375,-4.492404167544059e-05,-4.887014908064202e-07,-1.02614483695735e-05,-4.053349698939497e-05,7.0,5.9333
0.34765625,-5.175966555733576e-05,-4.887014908064202e-07,-1.4167519159227879e-05,-3.369787310749979e-05,7.0,5.9333
0.3515625,-5.468921864957655e-05,-1.2214483764400682e-05,-3.6135382398718226e-05,-3.760394389715418e-05,7.0,5.9333
0.35546875,-5.468921864957655e-05,-1.9534581542687107e-05,-3.027627621423665e-05,-3.9064935490959014e-05,7.0,5.9333
0.359375,-5.6157780148012494e-05,-2.4417170029755083e-05,-3.910298384069562e-06,-3.027627621423665e-05,7.0,5.9333
0.36328125,-5.2251709358358116e-05,-3.2721355410086195e-05,-1.2214483764400682e-05,-2.6862249225604626e-05,7.0,5.9333
0.3671875,-5.175966555733576e-05,-1.9534581542687107e-05,-1.6605028450446312e-05,-2.5393687727168666e-05,7.0,5.9333
0.37109375,-4.785359476768138e-05,-1.4651993055619115e-05,-1.7097072251468672e-05,-2.8815284620431818e-05,7.0,5.9333
0.375,-4.3947523978026994e-05,-1.5628510753032712e-05,-2.393269613336383e-05,-3.0768320015259e-05,7.0,5.9333
0.37890625,-4.785359476768138e-05,-1.8073589948882258e-05,-1.6120554554055076e-05,-3.222931160906385e-05,7.0,5.9333
0.3828125,-4.932215626611733e-05,-3.222931160906385e-05,-1.4167519159227879e-05,-3.2721355410086195e-05,7.0,5.9333
0.38671875,-4.5416085476462944e-05,-1.5144036856641477e-05,-1.9534581542687107e-05,-3.0768320015259e-05,7.0,5.9333
0.390625,-4.7369120871290136e-05,-1.1237966066987098e-05,-2.393269613336383e-05,-3.515886470130463e-05,7.0,5.9333
0.39453125,-5.3228227055771706e-05,-2.929975851682306e-05,-2.8815284620431818e-05,-3.808841779354542e-05,7.0,5.9333
0.3984375,-4.7369120871290136e-05,-3.662742619974058e-05,-2.588573152819103e-05,-3.808841779354542e-05,7.0,5.9333
0.40234375,-4.346305008163575e-05,-3.222931160906385e-05,-7.816369173723956e-06,-3.711190009613182e-05,7.0,5.9333
0.40625,-4.932215626611733e-05,-2.6862249225604626e-05,4.393886996261556e-06,-2.7346723121995865e-05,7.0,5.9333
0.41015625,-4.5900559372854186e-05,-2.4417170029755083e-05,-1.6120554554055076e-05,-2.6370205424582265e-05,7.0,5.9333
0.4140625,-4.443956777904935e-05,-1.8073589948882258e-05,-2.490921383077743e-05,-2.8815284620431818e-05,7.0,5.9333
0.41796875,-4.1017970885786206e-05,-2.051109924010069e-05,-2.051109924010069e-05,-2.7346723121995865e-05,7.0,5.9333
0.421875,-3.6135382398718226e-05,-2.832324081940946e-05,-3.4182347003891034e-05,-2.7838766923018225e-05,7.0,5.9333
0.42578125,-3.955697929198137e-05,-2.7346723121995865e-05,-2.6370205424582265e-05,-3.0768320015259e-05,7.0,5.9333
0.4296875,-4.004145318837261e-05,-2.6370205424582265e-05,-2.1003143041123053e-05,-3.760394389715418e-05,7.0,5.9333
0.43359375,-3.760394389715418e-05,-1.6605028450446312e-05,-2.588573152819103e-05,-3.858046159456777e-05,7.0,5.9333
0.4375,-3.711190009613182e-05,-1.6120554554055076e-05,-8.79288687113754e-06,-3.4182347003891034e-05,7.0,5.9333
0.44140625,-3.955697929198137e-05,-2.7838766923018225e-05,-1.6120554554055076e-05,-3.027627621423665e-05,7.0,5.9333
0.4453125,-4.2486532384222156e-05,-1.8073589948882258e-05,-2.832324081940946e-05,-3.2721355410086195e-05,7.0,5.9333
0.44921875,-4.3947523978026994e-05,-2.9791802317845414e-05,-2.7346723121995865e-05,-3.0768320015259e-05,7.0,5.9333
0.453125,-4.834563856870373e-05,-5.273618325474935e-05,-4.443956777904935e-05,-3.0768320015259e-05,7.0,5.9333
0.45703125,-5.127519166094452e-05,-5.175966555733576e-05,-5.3228227055771706e-05,-3.320582930647744e-05,7.0,5.9333
0.4609375,-4.639260317387654e-05,-4.6877077070267776e-05,-5.0783147859922167e-05,-2.9791802317845414e-05,7.0,5.9333
0.46484375,-4.785359476768138e-05,-4.639260317387654e-05,-4.7369120871290136e-05,-3.320582930647744e-05,7.0,5.9333
0.46875,-4.6877077070267776e-05,-3.955697929198137e-05,-3.2721355410086195e-05,-3.369787310749979e-05,7.0,5.9333
0.47265625,-4.443956777904935e-05,-3.6135382398718226e-05,-3.369787310749979e-05,-2.832324081940946e-05,7.0,5.9333
0.4765625,-4.932215626611733e-05,-3.369787310749979e-05,-2.588573152819103e-05,-2.8815284620431818e-05,7.0,5.9333
0.48046875,-4.6877077070267776e-05,-3.369787310749979e-05,-2.929975851682306e-05,-3.125279391165025e-05,7.0,5.9333
0.484375,-4.492404167544059e-05,-4.639260317387654e-05,-3.4182347003891034e-05,-2.929975851682306e-05,7.0,5.9333
0.48828125,-4.7369120871290136e-05,-5.2251709358358116e-05,-4.443956777904935e-05,-3.125279391165025e-05,7.0,5.9333
0.4921875,-4.151001468680856e-05,-3.711190009613182e-05,-4.443956777904935e-05,-3.4182347003891034e-05,7.0,5.9333
0.49609375,-3.662742619974058e-05,-4.004145318837261e-05,-2.490921383077743e-05,-3.2721355410086195e-05,7.0,5.9333
0.5,-3.515886470130463e-05,-4.932215626611733e-05,-3.760394389715418e-05,-2.929975851682306e-05,7.0,5.9333
0.50390625,-3.0768320015259e-05,-3.0768320015259e-05,-4.2486532384222156e-05,-3.125279391165025e-05,7.0,5.9333
0.5078125,-3.5650908502326984e-05,-1.5628510753032712e-05,-2.3440652332341484e-05,-3.1744837712672606e-05,7.0,5.9333
0.51171875,-4.3947523978026994e-05,-3.711190009613182e-05,-3.320582930647744e-05,-1.9534581542687107e-05,7.0,5.9333
0.515625,-4.492404167544059e-05,-7.178206330663004e-05,-5.468921864957655e-05,-1.4651993055619115e-05,7.0,5.9333
0.51953125,-4.5900559372854186e-05,-6.787599251697565e-05,-3.5650908502326984e-05,-1.6605028450446312e-05,7.0,5.9333
0.5234375,-4.6877077070267776e-05,-3.808841779354542e-05,-9.27736076752879e-06,-2.051109924010069e-05,7.0,5.9333
0.52734375,-5.2251709358358116e-05,-5.273618325474935e-05,-3.320582930647744e-05,-1.758154614785991e-05,7.0,5.9333
0.53125,-5.908733324025328e-05,-6.738394871595329e-05,-5.51812624505989e-05,-1.4167519159227879e-05,7.0,5.9333
0.53515625,-5.859528943923093e-05,-5.9571807136644524e-05,-5.468921864957655e-05,-2.8815284620431818e-05,7.0,5.9333
0.5390625,-5.664225404440374e-05,-4.1017970885786206e-05,-4.3947523978026994e-05,-2.6862249225604626e-05,7.0,5.9333
0.54296875,-5.468921864957655e-05,-4.492404167544059e-05,-2.7346723121995865e-05,-2.393269613336383e-05,7.0,5.9333
0.546875,-5.51812624505989e-05,-3.760394389715418e-05,-2.8815284620431818e-05,-2.588573152819103e-05,7.0,5.9333
0.55078125,-5.859528943923093e-05,-3.4182347003891034e-05,-3.027627621423665e-05,-2.832324081940946e-05,7.0,5.9333
0.5546875,-5.566573634699014e-05,-3.858046159456777e-05,-2.8815284620431818e-05,-3.0768320015259e-05,7.0,5.9333
0.55859375,-5.0783147859922167e-05,-3.955697929198137e-05,-4.1017970885786206e-05,-3.0768320015259e-05,7.0,5.9333
0.5625,-5.468921864957655e-05,-4.004145318837261e-05,-3.4674390804913394e-05,-3.320582930647744e-05,7.0,5.9333
0.56640625,-5.6157780148012494e-05,-3.1744837712672606e-05,-1.9050107646295854e-05,-2.929975851682306e-05,7.0,5.9333
0.5703125,-4.8830112465094974e-05,-3.515886470130463e-05,-2.4417170029755083e-05,-3.125279391165025e-05,7.0,5.9333
0.57421875,-4.492404167544059e-05,-3.858046159456777e-05,-3.320582930647744e-05,-2.393269613336383e-05,7.0,5.9333
0.578125,-4.443956777904935e-05,-3.2721355410086195e-05,-4.639260317387654e-05,-1.8073589948882258e-05,7.0,5.9333
0.58203125,-4.3947523978026994e-05,-2.7346723121995865e-05,-5.0298673963530924e-05,-3.4182347003891034e-05,7.0,5.9333
0.5859375,-4.8830112465094974e-05,-4.29710062806134e-05,-4.443956777904935e-05,-3.858046159456777e-05,7.0,5.9333
0.58984375,-5.175966555733576e-05,-4.5900559372854186e-05,-4.29710062806134e-05,-3.320582930647744e-05,7.0,5.9333
0.59375,-4.639260317387654e-05,-2.0026625343709454e-05,-2.6370205424582265e-05,-2.5393687727168666e-05,7.0,5.9333
0.59765625,-4.3947523978026994e-05,-1.6605028450446312e-05,-1.4651993055619115e-05,-2.3440652332341484e-05,7.0,5.9333
0.6015625,-4.29710062806134e-05,-2.490921383077743e-05,-2.2956178435950235e-05,-2.8815284620431818e-05,7.0,5.9333
0.60546875,-4.29710062806134e-05,-3.9064935490959014e-05,-4.2486532384222156e-05,-2.6370205424582265e-05,7.0,5.9333
0.609375,-4.7369120871290136e-05,-4.6877077070267776e-05,-4.346305008163575e-05,-2.8815284620431818e-05,7.0,5.9333
0.61328125,-4.639260317387654e-05,-3.858046159456777e-05,-2.929975851682306e-05,-2.8815284620431818e-05,7.0,5.9333
0.6171875,-4.29710062806134e-05,-3.808841779354542e-05,-2.051109924010069e-05,-2.5393687727168666e-05,7.0,5.9333
0.62109375,-3.9064935490959014e-05,-3.662742619974058e-05,-2.4417170029755083e-05,-3.369787310749979e-05,7.0,5.9333
0.625,-3.515886470130463e-05,-2.7838766923018225e-05,-2.7838766923018225e-05,-3.662742619974058e-05,7.0,5.9333
0.62890625,-3.955697929198137e-05,-3.1744837712672606e-05,-1.9534581542687107e-05,-3.4674390804913394e-05,7.0,5.9333
0.6328125,-4.151001468680856e-05,-3.4674390804913394e-05,-3.711190009613182e-05,-3.711190009613182e-05,7.0,5.9333
0.63671875,-4.1017970885786206e-05,-3.5650908502326984e-05,-4.932215626611733e-05,-3.5650908502326984e-05,7.0,5.9333
0.640625,-4.053349698939497e-05,-4.29710062806134e-05,-3.662742619974058e-05,-3.369787310749979e-05,7.0,5.9333
0.64453125,-4.151001468680856e-05,-4.639260317387654e-05,-4.2486532384222156e-05,-3.662742619974058e-05,7.0,5.9333
0.6484375,-4.346305008163575e-05,-4.443956777904935e-05,-3.808841779354542e-05,-4.2486532384222156e-05,7.0,5.9333
0.65234375,-4.151001468680856e-05,-3.320582930647744e-05,-3.662742619974058e-05,-3.711190009613182e-05,7.0,5.9333
0.65625,-4.053349698939497e-05,-2.8815284620431818e-05,-3.662742619974058e-05,-3.760394389715418e-05,7.0,5.9333
0.66015625,-4.1017970885786206e-05,-2.490921383077743e-05,-2.490921383077743e-05,-4.004145318837261e-05,7.0,5.9333
0.6640625,-3.955697929198137e-05,-2.490921383077743e-05,-2.6370205424582265e-05,-3.320582930647744e-05,7.0,5.9333
0.66796875,-3.9064935490959014e-05,-1.9534581542687107e-05,-2.051109924010069e-05,-2.832324081940946e-05,7.0,5.9333
0.671875,-3.9064935490959014e-05,-1.4167519159227879e-05,-1.4167519159227879e-05,-2.8815284620431818e-05,7.0,5.9333
0.67578125,-4.1017970885786206e-05,-2.148761693751429e-05,-1.9534581542687107e-05,-2.9791802317845414e-05,7.0,5.9333
0.6796875,-4.004145318837261e-05,-4.151001468680856e-05,-2.6370205424582265e-05,-3.0768320015259e-05,7.0,5.9333
0.68359375,-3.6135382398718226e-05,-3.808841779354542e-05,-2.588573152819103e-05,-2.929975851682306e-05,7.0,5.9333
0.6875,-3.320582930647744e-05,-3.0768320015259e-05,-1.6605028450446312e-05,-2.588573152819103e-05,7.0,5.9333
0.69140625,-3.6135382398718226e-05,-3.4674390804913394e-05,-1.1722439963378335e-05,-2.9791802317845414e-05,7.0,5.9333
0.6953125,-4.004145318837261e-05,-3.320582930647744e-05,-2.2464134634927888e-05,-3.711190009613182e-05,7.0,5.9333
0.69921875,-3.662742619974058e-05,-2.929975851682306e-05,-2.4417170029755083e-05,-3.515886470130463e-05,7.0,5.9333
0.703125,-3.2721355410086195e-05,-2.6862249225604626e-05,-3.027627621423665e-05,-2.929975851682306e-05,7.0,5.9333
0.70703125,-3.4182347003891034e-05,-2.4417170029755083e-05,-2.7838766923018225e-05,-2.148761693751429e-05,7.0,5.9333
0.7109375,-2.832324081940946e-05,-2.5393687727168666e-05,-1.1237966066987098e-05,-2.148761693751429e-05,7.0,5.9333
0.71484375,-3.125279391165025e-05,-3.0768320015259e-05,-2.148761693751429e-05,-2.4417170029755083e-05,7.0,5.9333
0.71875,-3.662742619974058e-05,-3.222931160906385e-05,-2.6370205424582265e-05,-2.4417170029755083e-05,7.0,5.9333
0.72265625,-3.4182347003891034e-05,-2.8815284620431818e-05,-1.02614483695735e-05,-2.393269613336383e-05,7.0,5.9333
0.7265625,-3.711190009613182e-05,-3.4182347003891034e-05,-1.758154614785991e-05,-2.6862249225604626e-05,7.0,5.9333
0.73046875,-3.4674390804913394e-05,-3.369787310749979e-05,-2.197966073853665e-05,-2.5393687727168666e-05,7.0,5.9333
0.734375,-3.0768320015259e-05,-4.053349698939497e-05,-1.3191001461814281e-05,-2.2464134634927888e-05,7.0,5.9333
0.73828125,-2.929975851682306e-05,-6.104036863508048e-05,-2.0026625343709454e-05,-2.6370205424582265e-05,7.0,5.9333
0.7421875,-3.369787310749979e-05,-4.639260317387654e-05,-3.760394389715418e-05,-2.7838766923018225e-05,7.0,5.9333
0.74609375,-3.515886470130463e-05,-2.6862249225604626e-05,-4.785359476768138e-05,-2.393269613336383e-05,7.0,5.9333
0.75,-3.369787310749979e-05,-3.222931160906385e-05,-3.808841779354542e-05,-2.393269613336383e-05,7.0,5.9333
0.75390625,-3.4674390804913394e-05,-3.662742619974058e-05,-3.760394389715418e-05,-2.6862249225604626e-05,7.0,5.9333
0.7578125,-3.1744837712672606e-05,-4.443956777904935e-05,-2.6862249225604626e-05,-2.3440652332341484e-05,7.0,5.9333
0.76171875,-3.5650908502326984e-05,-3.662742619974058e-05,-1.6605028450446312e-05,-2.6862249225604626e-05,7.0,5.9333
0.765625,-4.004145318837261e-05,-2.4417170029755083e-05,-3.9064935490959014e-05,-3.5650908502326984e-05,7.0,5.9333
0.76953125,-3.4182347003891034e-05,-3.808841779354542e-05,-3.955697929198137e-05,-3.125279391165025e-05,7.0,5.9333
0.7734375,-3.4674390804913394e-05,-3.5650908502326984e-05,-4.3947523978026994e-05,-3.515886470130463e-05,7.0,5.9333
0.77734375,-3.515886470130463e-05,-3.9064935490959014e-05,-4.19944885831998e-05,-4.3947523978026994e-05,7.0,5.9333
0.78125,-3.222931160906385e-05,-5.0298673963530924e-05,-2.6370205424582265e-05,-3.955697929198137e-05,7.0,5.9333
0.78515625,-3.125279391165025e-05,-3.662742619974058e-05,-3.5650908502326984e-05,-3.662742619974058e-05,7.0,5.9333
0.7890625,-3.125279391165025e-05,-3.515886470130463e-05,-4.004145318837261e-05,-4.6877077070267776e-05,7.0,5.9333
0.79296875,-3.5650908502326984e-05,-3.9064935490959014e-05,-3.125279391165025e-05,-4.1017970885786206e-05,7.0,5.9333
0.796875,-3.858046159456777e-05,-3.4674390804913394e-05,-3.369787310749979e-05,-3.4674390804913394e-05,7.0,5.9333
0.80078125,-3.4182347003891034e-05,-3.2721355410086195e-05,-3.6135382398718226e-05,-3.662742619974058e-05,7.0,5.9333
0.8046875,-3.5650908502326984e-05,-4.1017970885786206e-05,-4.834563856870373e-05,-3.6135382398718226e-05,7.0,5.9333
0.80859375,-3.6135382398718226e-05,-5.0298673963530924e-05,-4.7369120871290136e-05,-3.662742619974058e-05,7.0,5.9333
0.8125,-3.6135382398718226e-05,-7.080554560921644e-05,-5.175966555733576e-05,-3.662742619974058e-05,7.0,5.9333
0.81640625,-3.955697929198137e-05,-8.78908203616388e-05,-8.203171417715722e-05,-3.320582930647744e-05,7.0,5.9333
0.8203125,-3.4674390804913394e-05,-8.545331107042037e-05,-8.69143026642252e-05,-3.1744837712672606e-05,7.0,5.9333
0.82421875,-3.320582930647744e-05,-6.64074310185397e-05,-6.64074310185397e-05,-4.151001468680856e-05,7.0,5.9333
0.828125,-3.222931160906385e-05,-2.9791802317845414e-05,-5.175966555733576e-05,-4.29710062806134e-05,7.0,5.9333
0.83203125,-3.027627621423665e-05,-3.320582930647744e-05,-3.369787310749979e-05,-3.4182347003891034e-05,7.0,5.9333
0.8359375,-3.5650908502326984e-05,-6.689947481956206e-05,-5.3712700952162955e-05,-3.222931160906385e-05,7.0,5.9333
0.83984375,-4.1017970885786206e-05,-6.787599251697565e-05,-4.834563856870373e-05,-4.2486532384222156e-05,7.0,5.9333
0.84375,-4.443956777904935e-05,-5.0783147859922167e-05,-2.9791802317845414e-05,-3.760394389715418e-05,7.0,5.9333
0.84765625,-3.369787310749979e-05,-3.9064935490959014e-05,-3.222931160906385e-05,-2.832324081940946e-05,7.0,5.9333
0.8515625,-2.5393687727168666e-05,-3.6135382398718226e-05,-4.443956777904935e-05,-3.662742619974058e-05,7.0,5.9333
0.85546875,-3.125279391165025e-05,-5.127519166094452e-05,-3.222931160906385e-05,-3.808841779354542e-05,7.0,5.9333
0.859375,-3.808841779354542e-05,-3.125279391165025e-05,-4.887014908064202e-07,-2.7838766923018225e-05,7.0,5.9333
0.86328125,-4.004145318837261e-05,-1.1237966066987098e-05,-9.769404568551138e-06,-2.9791802317845414e-05,7.0,5.9333
0.8671875,-4.053349698939497e-05,-2.393269613336383e-05,-9.27736076752879e-06,-3.9064935490959014e-05,7.0,5.9333
0.87109375,-4.004145318837261e-05,-4.346305008163575e-05,-5.8633337788967595e-06,-3.808841779354542e-05,7.0,5.9333
0.875,-3.5650908502326984e-05,-5.566573634699014e-05,-6.592295712214846e-05,-4.19944885831998e-05,7.0,5.9333
0.87890625,-3.4182347003891034e-05,-5.0298673963530924e-05,-7.617260799267566e-05,-3.955697929198137e-05,7.0,5.9333
0.8828125,-3.515886470130463e-05,-4.834563856870373e-05,-4.9806630162508564e-05,-3.6135382398718226e-05,7.0,5.9333
0.88671875,-3.808841779354542e-05,-2.0026625343709454e-05,-4.1017970885786206e-05,-3.6135382398718226e-05,7.0,5.9333
0.890625,-4.053349698939497e-05,-1.2698957660791933e-05,-3.125279391165025e-05,-2.588573152819103e-05,7.0,5.9333
0.89453125,-3.808841779354542e-05,-3.515886470130463e-05,-2.3440652332341484e-05,-2.588573152819103e-05,7.0,5.9333
0.8984375,-3.9064935490959014e-05,-2.051109924010069e-05,-1.9050107646295854e-05,-2.6370205424582265e-05,7.0,5.9333
0.90234375,-4.5416085476462944e-05,-1.8073589948882258e-05,-3.0768320015259e-05,-2.588573152819103e-05,7.0,5.9333
0.90625,-4.151001468680856e-05,-3.2721355410086195e-05,-2.393269613336383e-05,-2.7838766923018225e-05,7.0,5.9333
0.91015625,-3.711190009613182e-05,-1.8073589948882258e-05,-2.8815284620431818e-05,-3.027627621423665e-05,7.0,5.9333
0.9140625,-3.760394389715418e-05,-1.4651993055619115e-05,-2.490921383077743e-05,-3.1744837712672606e-05,7.0,5.9333
0.91796875,-3.5650908502326984e-05,-3.515886470130463e-05,-2.8815284620431818e-05,-3.0768320015259e-05,7.0,5.9333
0.921875,-3.369787310749979e-05,-2.929975851682306e-05,-3.515886470130463e-05,-3.0768320015259e-05,7.0,5.9333
0.92578125,-2.6370205424582265e-05,-2.929975851682306e-05,-4.1017970885786206e-05,-2.7346723121995865e-05,7.0,5.9333
0.9296875,-2.7838766923018225e-05,-5.3228227055771706e-05,-3.711190009613182e-05,-3.5650908502326984e-05,7.0,5.9333
0.93359375,-4.19944885831998e-05,-5.468921864957655e-05,-3.9064935490959014e-05,-3.711190009613182e-05,7.0,5.9333
0.9375,-4.2486532384222156e-05,-4.8830112465094974e-05,-6.347787792629891e-05,-3.808841779354542e-05,7.0,5.9333
0.94140625,-4.151001468680856e-05,-1.6120554554055076e-05,-3.760394389715418e-05,-4.346305008163575e-05,7.0,5.9333
0.9453125,-4.443956777904935e-05,1.6112099365224708e-05,-2.1003143041123053e-05,-3.9064935490959014e-05,7.0,5.9333
0.94921875,-3.9064935490959014e-05,-1.367547535820553e-05,-3.9064935490959014e-05,-4.004145318837261e-05,7.0,5.9333
0.953125,-3.4182347003891034e-05,-4.29710062806134e-05,-4.492404167544059e-05,-4.346305008163575e-05,7.0,5.9333
0.95703125,-3.4674390804913394e-05,-4.19944885831998e-05,-3.858046159456777e-05,-4.151001468680856e-05,7.0,5.9333
0.9609375,-3.320582930647744e-05,-7.324325372701594e-06,-1.2214483764400682e-05,-3.662742619974058e-05,7.0,5.9333
0.96484375,-3.6135382398718226e-05,-1.5144036856641477e-05,-2.4417368856336168e-06,-3.4674390804913394e-05,7.0,5.9333
0.96875,-3.369787310749979e-05,-5.127519166094452e-05,-3.1744837712672606e-05,-3.5650908502326984e-05,7.0,5.9333
0.97265625,-4.29710062806134e-05,-5.127519166094452e-05,-5.0783147859922167e-05,-3.027627621423665e-05,7.0,5.9333
0.9765625,-3.955697929198137e-05,-1.8558063845273507e-05,-3.027627621423665e-05,-3.4674390804913394e-05,7.0,5.9333
0.98046875,-3.2721355410086195e-05,-1.758154614785991e-05,-1.4651993055619115e-05,-3.9064935490959014e-05,7.0,5.9333
0.984375,-3.760394389715418e-05,-2.832324081940946e-05,-2.9791802317845414e-05,-3.808841779354542e-05,7.0,5.9333
0.98828125,-3.858046159456777e-05,-2.3440652332341484e-05,-4.004145318837261e-05,-4.004145318837261e-05,7.0,5.9333
0.9921875,-3.955697929198137e-05,-1.758154614785991e-05,-2.832324081940946e-05,-3.369787310749979e-05,7.0,5.9333
0.99609375,-3.9064935490959014e-05,-2.393269613336383e-05,-3.955697929198137e-05,-3.4182347003891034e-05,7.0,5.9333
1.0,-3.760394389715418e-05,-3.4182347003891034e-05,-4.19944885831998e-05,-3.4182347003891034e-05,7.0,5.9333
1.00390625,-3.320582930647744e-05,-2.393269613336383e-05,-3.662742619974058e-05,-3.2721355410086195e-05,7.0,5.9333
1.0078125,-2.5393687727168666e-05,-2.148761693751429e-05,-3.2721355410086195e-05,-3.369787310749979e-05,7.0,5.9333
1.01171875,-2.6862249225604626e-05,-4.5900559372854186e-05,-3.5650908502326984e-05,-2.832324081940946e-05,7.0,5.9333
1.015625,-2.9791802317845414e-05,-5.3228227055771706e-05,-3.1744837712672606e-05,-1.9534581542687107e-05,7.0,5.9333
1.01953125,-1.7097072251468672e-05,-4.19944885831998e-05,-4.2486532384222156e-05,-2.2956178435950235e-05,7.0,5.9333
1.0234375,-2.1003143041123053e-05,-5.127519166094452e-05,-5.420474475318531e-05,-2.1003143041123053e-05,7.0,5.9333
1.02734375,-7.324325372701594e-06,-5.51812624505989e-05,-5.3712700952162955e-05,-1.5628510753032712e-05,7.0,5.9333
1.03125,-9.807452918287822e-07,-6.54309133211261e-05,-7.129001950560768e-05,-1.4651993055619115e-05,7.0,5.9333
1.03515625,-7.324325372701594e-06,-9.765599733577477e-05,-8.838286416266116e-05,-1.1237966066987098e-05,7.0,5.9333
1.0390625,1.9488078004120127e-06,-0.00010937420970473792,-0.00010546813891508352,-9.769404568551138e-06,7.0,5.9333
1.04296875,1.4159063970397511e-05,-0.00010985868360112916,-0.00011864734287785151,-9.27736076752879e-06,7.0,5.9333
1.046875,1.2690502471961565e-05,-0.00011620983358663308,-0.00012206893977111466,9.722901029984143e-07,7.0,5.9333
1.05078125,1.1713984774547967e-05,-0.00013817769682612346,-0.0001552705414831769,7.807913984893588e-06,7.0,5.9333
1.0546875,2.7338267933165497e-05,-0.00017235581623559928,-0.00018798766929884793,8.784431682307172e-06,7.0,5.9333
1.05859375,3.417389181506067e-05,-0.00018994070469367512,-0.0001948232931807431,1.0737467077134369e-05,7.0,5.9333
1.0625,3.222085642023347e-05,-0.0002040964263538567,-0.00019726080247196154,1.6112099365224708e-05,7.0,5.9333
1.06640625,3.954852410315101e-05,-0.0002031199086564431,-0.00019237821398489355,2.0018170154879086e-05,7.0,5.9333
1.0703125,4.6868621881437404e-05,-0.0002031199086564431,-0.00020995553253833827,2.4900758641947062e-05,7.0,5.9333
1.07421875,4.1986033394369424e-05,-0.00021435364712901503,-0.00021825971791866942,2.7338267933165497e-05,7.0,5.9333
1.078125,4.7360665682459765e-05,-0.0002040964263538567,-0.0002080024971435111,2.3924240944533466e-05,7.0,5.9333
1.08203125,5.175121036850538e-05,-0.00019628428477454793,-0.00021142409403677423,2.197120554970628e-05,7.0,5.9333
1.0859375,5.175121036850538e-05,-0.00021044757633936062,-0.00021142409403677423,2.4408714840924715e-05,7.0,5.9333
1.08984375,5.419628956435494e-05,-0.00019970588166781105,-0.00019970588166781105,2.245567944609752e-05,7.0,5.9333
1.09375,5.761031655298697e-05,-0.0001860346339040207,-0.00019726080247196154,1.952612635385674e-05,7.0,5.9333
1.09765625,5.663379885557336e-05,-0.0002040964263538567,-0.00018798766929884793,1.3182546272983913e-05,7.0,5.9333
1.1015625,4.393906878919662e-05,-0.00020263543476005185,-0.00019237821398489355,5.370404693675155e-06,7.0,5.9333
1.10546875,4.393906878919662e-05,-0.0001928702577859159,-0.00018847214319523916,9.276475483329534e-06,7.0,5.9333
1.109375,5.0774692671091795e-05,-0.0001948232931807431,-0.00019140169628747996,1.1713984774547967e-05,7.0,5.9333
1.11328125,5.5657281158159775e-05,-0.00018896418699626154,-0.0001855425901029984,1.122951087815673e-05,7.0,5.9333
1.1171875,5.419628956435494e-05,-0.00016063760386663613,-0.00016698875385214005,1.0737467077134369e-05,7.0,5.9333
1.12109375,4.15015594979782e-05,-0.00013329510833905544,-0.00016308268306248566,6.831396287479989e-06,7.0,5.9333
1.125,3.807996260471506e-05,-0.0001215768959700923,-0.00012890456365300982,2.4408516014343605e-06,7.0,5.9333
1.12890625,2.6361750235751897e-05,-0.00013231859064164185,-0.00011571778978561073,-1.9572629892423804e-06,7.0,5.9333
1.1328125,1.4643537866788746e-05,-0.0001215768959700923,-0.00010692913050888836,-8.300843070115191e-06,7.0,5.9333
1.13671875,1.5620055564202344e-05,-8.398474957198443e-05,-8.886733805905239e-05,-1.6605028450446312e-05,7.0,5.9333
1.140625,1.0737467077134369e-05,-6.347787792629891e-05,-6.982902791180283e-05,-1.8073589948882258e-05,7.0,5.9333
1.14453125,4.393886996261556e-06,-6.787599251697565e-05,-6.152484253147172e-05,-2.393269613336383e-05,7.0,5.9333
1.1484375,-1.2698957660791933e-05,-5.2251709358358116e-05,-4.5416085476462944e-05,-3.711190009613182e-05,7.0,5.9333
1.15234375,-2.588573152819103e-05,-3.125279391165025e-05,-3.808841779354542e-05,-3.955697929198137e-05,7.0,5.9333
1.15625,-3.125279391165025e-05,-3.222931160906385e-05,-2.197966073853665e-05,-4.1017970885786206e-05,7.0,5.9333
1.16015625,-4.29710062806134e-05,-3.4182347003891034e-05,-1.2214483764400682e-05,-4.1017970885786206e-05,7.0,5.9333
1.1640625,-5.273618325474935e-05,-2.6370205424582265e-05,-3.027627621423665e-05,-4.5416085476462944e-05,7.0,5.9333
1.16796875,-5.2251709358358116e-05,-6.347807675287995e-06,-4.887014908064202e-07,-5.2251709358358116e-05,7.0,5.9333
1.171875,-5.8110815542839686e-05,7.807913984893588e-06,2.147916174868392e-05,-3.858046159456777e-05,7.0,5.9333
1.17578125,-6.738394871595329e-05,9.722901029984143e-07,2.0018170154879086e-05,-4.346305008163575e-05,7.0,5.9333
1.1796875,-7.324305490043487e-05,1.3182546272983913e-05,2.2947723247119867e-05,-4.5900559372854186e-05,7.0,5.9333
1.18359375,-7.129001950560768e-05,4.3454594892805374e-05,2.978334712901504e-05,-5.273618325474935e-05,7.0,5.9333
1.1875,-7.080554560921644e-05,4.393906878919662e-05,4.4915586486610205e-05,-5.664225404440374e-05,7.0,5.9333
1.19140625,-7.226653720302127e-05,3.3689417918669434e-05,5.663379885557336e-05,-5.273618325474935e-05,7.0,5.9333
1.1953125,-7.471161639887081e-05,3.1244338722819874e-05,6.103191344625011e-05,-5.273618325474935e-05,7.0,5.9333
1.19921875,-7.471161639887081e-05,4.979817497367821e-05,5.175121036850538e-05,-5.3712700952162955e-05,7.0,5.9333
1.203125,-8.203171417715722e-05,4.540763028763257e-05,3.661897101091023e-05,-5.9571807136644524e-05,7.0,5.9333
1.20703125,-7.910216108491645e-05,3.1244338722819874e-05,4.979817497367821e-05,-6.885251021438924e-05,7.0,5.9333
1.2109375,-8.350027567559319e-05,5.1266736472114156e-05,5.5172807261768526e-05,-6.299340402990766e-05,7.0,5.9333
1.21484375,-9.033589955748835e-05,5.712584265659572e-05,3.8572006405737393e-05,-6.494643942473486e-05,7.0,5.9333
1.21875,-8.350027567559319e-05,4.7845139578851014e-05,4.4915586486610205e-05,-6.152484253147172e-05,7.0,5.9333
1.22265625,-7.812564338750285e-05,3.8572006405737393e-05,5.5172807261768526e-05,-5.273618325474935e-05,7.0,5.9333
1.2265625,-7.812564338750285e-05,5.2727728065918994e-05,5.419628956435494e-05,-5.908733324025328e-05,7.0,5.9333
1.23046875,-7.910216108491645e-05,5.8102360354009335e-05,5.761031655298697e-05,-4.8830112465094974e-05,7.0,5.9333
1.234375,-6.933698411078048e-05,3.1736382523842235e-05,4.6868621881437404e-05,-5.6157780148012494e-05,7.0,5.9333
1.23828125,-7.421957259784846e-05,3.222085642023347e-05,5.175121036850538e-05,-5.468921864957655e-05,7.0,5.9333
1.2421875,-7.519609029526205e-05,4.3454594892805374e-05,5.175121036850538e-05,-5.3228227055771706e-05,7.0,5.9333
1.24609375,-7.129001950560768e-05,4.247807719539179e-05,4.247807719539179e-05,-6.689947481956206e-05,7.0,5.9333
1.25,-7.910216108491645e-05,3.5150409512474265e-05,4.247807719539179e-05,-6.494643942473486e-05,7.0,5.9333
1.25390625,-7.764116949111161e-05,2.9291303327992692e-05,3.1244338722819874e-05,-5.7134297845426097e-05,7.0,5.9333
1.2578125,-7.617260799267566e-05,2.8314785630579093e-05,3.5150409512474265e-05,-4.1017970885786206e-05,7.0,5.9333
1.26171875,-6.933698411078048e-05,2.245567944609752e-05,2.7830311734187857e-05,-4.151001468680856e-05,7.0,5.9333
1.265625,-5.761877174181733e-05,2.0018170154879086e-05,1.708861706263829e-05,-3.125279391165025e-05,7.0,5.9333
1.26953125,-5.908733324025328e-05,3.1736382523842235e-05,4.638414798504618e-05,-4.834563856870373e-05,7.0,5.9333
1.2734375,-5.664225404440374e-05,3.5150409512474265e-05,4.7360665682459765e-05,-6.152484253147172e-05,7.0,5.9333
1.27734375,-5.51812624505989e-05,4.88216572762646e-05,3.5150409512474265e-05,-5.664225404440374e-05,7.0,5.9333
1.28125,-6.0063850937666885e-05,5.419628956435494e-05,4.589210418402382e-05,-5.51812624505989e-05,7.0,5.9333
1.28515625,-5.566573634699014e-05,4.247807719539179e-05,5.0774692671091795e-05,-5.127519166094452e-05,7.0,5.9333
1.2890625,-5.127519166094452e-05,2.9291303327992692e-05,4.296255109178304e-05,-5.420474475318531e-05,7.0,5.9333
1.29296875,-5.6157780148012494e-05,2.5877276339360662e-05,3.759548870832381e-05,-5.175966555733576e-05,7.0,5.9333
1.296875,-5.8110815542839686e-05,2.4408714840924715e-05,3.075986482642864e-05,-4.8830112465094974e-05,7.0,5.9333
1.30078125,-5.7134297845426097e-05,1.6596573261615944e-05,2.3432197143511116e-05,-5.175966555733576e-05,7.0,5.9333
1.3046875,-5.566573634699014e-05,1.806513476005189e-05,2.9291303327992692e-05,-5.175966555733576e-05,7.0,5.9333
1.30859375,-6.250136022888531e-05,1.2690502471961565e-05,1.806513476005189e-05,-4.639260317387654e-05,7.0,5.9333
1.3125,-5.6157780148012494e-05,1.4159063970397511e-05,-5.371289977874397e-06,-5.0298673963530924e-05,7.0,5.9333
1.31640625,-5.3228227055771706e-05,1.9488078004120127e-06,1.708861706263829e-05,-4.492404167544059e-05,7.0,5.9333
1.3203125,-5.664225404440374e-05,-8.300843070115191e-06,2.245567944609752e-05,-4.29710062806134e-05,7.0,5.9333
1.32421875,-5.468921864957655e-05,4.878162066071638e-07,1.3667020169375162e-05,-4.6877077070267776e-05,7.0,5.9333
1.328125,-5.566573634699014e-05,-4.394772280460813e-06,1.6112099365224708e-05,-4.639260317387654e-05,7.0,5.9333
1.33203125,-5.420474475318531e-05,-8.300843070115191e-06,-1.367547535820553e-05,-4.443956777904935e-05,7.0,5.9333
1.3359375,-5.0783147859922167e-05,2.9253254978255965e-06,-1.4167519159227879e-05,-4.639260317387654e-05,7.0,5.9333
1.33984375,-4.7369120871290136e-05,-1.9572629892423804e-06,4.878162066071638e-07,-4.5900559372854186e-05,7.0,5.9333
1.34375,-4.932215626611733e-05,-1.02614483695735e-05,2.9253254978255965e-06,-3.955697929198137e-05,7.0,5.9333
1.34765625,-4.932215626611733e-05,-5.8633337788967595e-06,1.122951087815673e-05,-3.4182347003891034e-05,7.0,5.9333
1.3515625,-4.5900559372854186e-05,-1.2698957660791933e-05,7.807913984893588e-06,-3.369787310749979e-05,7.0,5.9333
1.35546875,-4.2486532384222156e-05,-8.79288687113754e-06,-2.4417368856336168e-06,-3.6135382398718226e-05,7.0,5.9333
1.359375,-3.760394389715418e-05,-1.4652191882200184e-06,-2.9337806866559646e-06,-4.2486532384222156e-05,7.0,5.9333
1.36328125,-3.955697929198137e-05,-6.839851476310357e-06,-8.300843070115191e-06,-4.29710062806134e-05,7.0,5.9333
1.3671875,-4.7369120871290136e-05,-1.758154614785991e-05,-6.347807675287995e-06,-3.9064935490959014e-05,7.0,5.9333
1.37109375,-5.2251709358358116e-05,-3.027627621423665e-05,1.2690502471961565e-05,-3.6135382398718226e-05,7.0,5.9333
1.375,-4.785359476768138e-05,-2.2464134634927888e-05,1.2206028575570314e-05,-3.1744837712672606e-05,7.0,5.9333
1.37890625,-3.6135382398718226e-05,-3.910298384069562e-06,-1.9572629892423804e-06,-3.4182347003891034e-05,7.0,5.9333
1.3828125,-3.662742619974058e-05,-1.02614483695735e-05,8.784431682307172e-06,-3.0768320015259e-05,7.0,5.9333
1.38671875,-4.004145318837261e-05,-1.367547535820553e-05,1.3667020169375162e-05,-2.832324081940946e-05,7.0,5.9333
1.390625,-4.346305008163575e-05,-1.6605028450446312e-05,-7.324325372701594e-06,-3.808841779354542e-05,7.0,5.9333
1.39453125,-4.2486532384222156e-05,-2.832324081940946e-05,-1.5144036856641477e-05,-4.053349698939497e-05,7.0,5.9333
1.3984375,-3.9064935490959014e-05,-2.9791802317845414e-05,-2.9337806866559646e-06,-4.1017970885786206e-05,7.0,5.9333
1.40234375,-3.222931160906385e-05,-1.8073589948882258e-05,-4.887014908064202e-07,-3.760394389715418e-05,7.0,5.9333
1.40625,-2.7838766923018225e-05,-2.2464134634927888e-05,-1.5144036856641477e-05,-3.1744837712672606e-05,7.0,5.9333
1.41015625,-3.4182347003891034e-05,-7.816369173723956e-06,-9.27736076752879e-06,-3.369787310749979e-05,7.0,5.9333
1.4140625,-3.711190009613182e-05,-4.886816081483161e-06,-8.79288687113754e-06,-3.0768320015259e-05,7.0,5.9333
1.41796875,-4.004145318837261e-05,-3.125279391165025e-05,-2.2956178435950235e-05,-2.7838766923018225e-05,7.0,5.9333
1.421875,-3.858046159456777e-05,-1.8558063845273507e-05,-2.393269613336383e-05,-3.125279391165025e-05,7.0,5.9333
1.42578125,-3.760394389715418e-05,-2.3440652332341484e-05,-2.5393687727168666e-05,-3.760394389715418e-05,7.0,5.9333
1.4296875,-3.662742619974058e-05,-2.929975851682306e-05,-2.7346723121995865e-05,-4.19944885831998e-05,7.0,5.9333
1.43359375,-3.662742619974058e-05,-1.1722439963378335e-05,-2.8815284620431818e-05,-3.6135382398718226e-05,7.0,5.9333
1.4375,-3.955697929198137e-05,-1.1237966066987098e-05,-1.6120554554055076e-05,-3.027627621423665e-05,7.0,5.9333
1.44140625,-3.858046159456777e-05,-1.7097072251468672e-05,-4.886816081483161e-06,-3.1744837712672606e-05,7.0,5.9333
1.4453125,-3.5650908502326984e-05,-3.515886470130463e-05,-2.051109924010069e-05,-4.1017970885786206e-05,7.0,5.9333
1.44921875,-3.711190009613182e-05,-3.6135382398718226e-05,-2.148761693751429e-05,-4.5900559372854186e-05,7.0,5.9333
1.453125,-3.858046159456777e-05,-2.0026625343709454e-05,-1.9050107646295854e-05,-4.053349698939497e-05,7.0,5.9333
1.45703125,-3.515886470130463e-05,-2.6370205424582265e-05,-2.588573152819103e-05,-3.0768320015259e-05,7.0,5.9333
1.4609375,-3.662742619974058e-05,-2.6862249225604626e-05,-2.4417170029755083e-05,-2.832324081940946e-05,7.0,5.9333
1.46484375,-3.760394389715418e-05,-2.7838766923018225e-05,-1.4651993055619115e-05,-3.027627621423665e-05,7.0,5.9333
1.46875,-3.4674390804913394e-05,-3.2721355410086195e-05,-2.5393687727168666e-05,-3.320582930647744e-05,7.0,5.9333
1.47265625,-3.369787310749979e-05,-2.051109924010069e-05,-3.760394389715418e-05,-3.760394389715418e-05,7.0,5.9333
1.4765625,-3.222931160906385e-05,-1.1237966066987098e-05,-2.588573152819103e-05,-3.6135382398718226e-05,7.0,5.9333
1.48046875,-3.1744837712672606e-05,-2.393269613336383e-05,-2.490921383077743e-05,-3.1744837712672606e-05,7.0,5.9333
1.484375,-3.2721355410086195e-05,-2.393269613336383e-05,-1.6605028450446312e-05,-3.4182347003891034e-05,7.0,5.9333
1.48828125,-3.5650908502326984e-05,-1.758154614785991e-05,-2.8815284620431818e-05,-3.320582930647744e-05,7.0,5.9333
1.4921875,-3.027627621423665e-05,-4.004145318837261e-05,-3.9064935490959014e-05,-2.9791802317845414e-05,7.0,5.9333
1.49609375,-2.929975851682306e-05,-5.7134297845426097e-05,-2.832324081940946e-05,-3.125279391165025e-05,7.0,5.9333
1.5,-2.9791802317845414e-05,-4.7369120871290136e-05,-2.588573152819103e-05,-2.9791802317845414e-05,7.0,5.9333
1.50390625,-2.6862249225604626e-05,-3.5650908502326984e-05,-3.369787310749979e-05,-3.515886470130463e-05,7.0,5.9333
1.5078125,-2.9791802317845414e-05,-4.151001468680856e-05,-5.127519166094452e-05,-4.346305008163575e-05,7.0,5.9333
1.51171875,-3.515886470130463e-05,-4.5416085476462944e-05,-4.5900559372854186e-05,-4.3947523978026994e-05,7.0,5.9333
1.515625,-2.8815284620431818e-05,-3.6135382398718226e-05,-3.858046159456777e-05,-4.004145318837261e-05,7.0,5.9333
1.51953125,-2.1003143041123053e-05,-2.393269613336383e-05,-4.19944885831998e-05,-4.151001468680856e-05,7.0,5.9333
1.5234375,-2.0026625343709454e-05,-2.929975851682306e-05,-4.7369120871290136e-05,-4.2486532384222156e-05,7.0,5.9333
1.52734375,-2.6370205424582265e-05,-3.662742619974058e-05,-4.492404167544059e-05,-3.662742619974058e-05,7.0,5.9333
1.53125,-2.6862249225604626e-05,-3.320582930647744e-05,-3.9064935490959014e-05,-3.808841779354542e-05,7.0,5.9333
1.53515625,-2.2956178435950235e-05,-3.955697929198137e-05,-3.808841779354542e-05,-3.9064935490959014e-05,7.0,5.9333
1.5390625,-2.2464134634927888e-05,-3.0768320015259e-05,-2.393269613336383e-05,-3.369787310749979e-05,7.0,5.9333
1.54296875,-2.4417170029755083e-05,-2.490921383077743e-05,-3.027627621423665e-05,-3.2721355410086195e-05,7.0,5.9333
1.546875,-2.490921383077743e-05,-2.9791802317845414e-05,-3.0768320015259e-05,-3.369787310749979e-05,7.0,5.9333
1.55078125,-2.393269613336383e-05,-3.4182347003891034e-05,-3.808841779354542e-05,-3.125279391165025e-05,7.0,5.9333
1.5546875,-2.3440652332341484e-05,-4.6877077070267776e-05,-5.908733324025328e-05,-3.760394389715418e-05,7.0,5.9333
1.55859375,-2.6862249225604626e-05,-4.7369120871290136e-05,-5.175966555733576e-05,-4.346305008163575e-05,7.0,5.9333
1.5625,-2.7838766923018225e-05,-4.639260317387654e-05,-4.443956777904935e-05,-3.808841779354542e-05,7.0,5.9333
1.56640625,-2.588573152819103e-05,-4.151001468680856e-05,-4.639260317387654e-05,-3.2721355410086195e-05,7.0,5.9333
1.5703125,-2.6862249225604626e-05,-4.2486532384222156e-05,-4.151001468680856e-05,-3.4674390804913394e-05,7.0,5.9333
1.57421875,-3.5650908502326984e-05,-2.9791802317845414e-05,-2.9791802317845414e-05,-3.515886470130463e-05,7.0,5.9333
1.578125,-4.346305008163575e-05,-2.490921383077743e-05,-2.588573152819103e-05,-3.808841779354542e-05,7.0,5.9333
1.58203125,-2.929975851682306e-05,-3.5650908502326984e-05,-3.1744837712672606e-05,-4.6877077070267776e-05,7.0,5.9333
1.5859375,-1.8073589948882258e-05,-5.0783147859922167e-05,-4.3947523978026994e-05,-4.5900559372854186e-05,7.0,5.9333
1.58984375,-2.832324081940946e-05,-4.6877077070267776e-05,-4.5900559372854186e-05,-3.711190009613182e-05,7.0,5.9333
1.59375,-3.222931160906385e-05,-2.197966073853665e-05,-2.148761693751429e-05,-3.4674390804913394e-05,7.0,5.9333
1.59765625,-2.7838766923018225e-05,-2.197966073853665e-05,-2.490921383077743e-05,-3.711190009613182e-05,7.0,5.9333
1.6015625,-3.125279391165025e-05,-1.7097072251468672e-05,-2.197966073853665e-05,-3.955697929198137e-05,7.0,5.9333
1.60546875,-3.6135382398718226e-05,-9.807452918287822e-07,-6.839851476310357e-06,-4.004145318837261e-05,7.0,5.9333
1.609375,-3.369787310749979e-05,-4.886816081483161e-06,-9.769404568551138e-06,-4.004145318837261e-05,7.0,5.9333
1.61328125,-3.1744837712672606e-05,-2.4417368856336168e-06,-1.4651993055619115e-05,-4.19944885831998e-05,7.0,5.9333
1.6171875,-3.662742619974058e-05,8.784431682307172e-06,-1.9572629892423804e-06,-4.053349698939497e-05,7.0,5.9333
1.62109375,-4.004145318837261e-05,8.299957785915936e-06,-9.807452918287822e-07,-3.2721355410086195e-05,7.0,5.9333
1.625,-3.711190009613182e-05,1.854960865644314e-05,-6.839851476310357e-06,-4.29710062806134e-05,7.0,5.9333
1.62890625,-3.2721355410086195e-05,4.878360892652793e-06,2.9253254978255965e-06,-4.29710062806134e-05,7.0,5.9333
1.6328125,-3.4674390804913394e-05,-5.8633337788967595e-06,2.0018170154879086e-05,-2.9791802317845414e-05,7.0,5.9333
1.63671875,-3.4182347003891034e-05,-9.807452918287822e-07,1.3667020169375162e-05,-3.027627621423665e-05,7.0,5.9333
1.640625,-2.6862249225604626e-05,-8.79288687113754e-06,9.722901029984143e-07,-3.4182347003891034e-05,7.0,5.9333
1.64453125,-2.8815284620431818e-05,-1.1237966066987098e-05,4.393886996261556e-06,-3.2721355410086195e-05,7.0,5.9333
1.6484375,-2.929975851682306e-05,-6.347807675287995e-06,-1.1237966066987098e-05,-3.125279391165025e-05,7.0,5.9333
1.65234375,-2.6370205424582265e-05,-4.886816081483161e-06,-2.2956178435950235e-05,-3.320582930647744e-05,7.0,5.9333
1.65625,-2.929975851682306e-05,-1.9572629892423804e-06,-2.490921383077743e-05,-3.4674390804913394e-05,7.0,5.9333
1.66015625,-3.2721355410086195e-05,-1.9572629892423804e-06,-2.0026625343709454e-05,-3.711190009613182e-05,7.0,5.9333
1.6640625,-3.369787310749979e-05,-3.910298384069562e-06,-1.758154614785991e-05,-3.808841779354542e-05,7.0,5.9333
1.66796875,-3.4182347003891034e-05,-6.347807675287995e-06,-1.9050107646295854e-05,-3.6135382398718226e-05,7.0,5.9333
1.671875,-2.7346723121995865e-05,-1.8558063845273507e-05,-1.8073589948882258e-05,-3.662742619974058e-05,7.0,5.9333
1.67578125,-2.3440652332341484e-05,-2.588573152819103e-05,-2.051109924010069e-05,-3.4674390804913394e-05,7.0,5.9333
1.6796875,-2.929975851682306e-05,-2.5393687727168666e-05,-1.8558063845273507e-05,-3.4674390804913394e-05,7.0,5.9333
1.68359375,-2.8815284620431818e-05,-3.125279391165025e-05,-7.816369173723956e-06,-3.662742619974058e-05,7.0,5.9333
1.6875,-3.320582930647744e-05,-2.7838766923018225e-05,-2.3440652332341484e-05,-3.320582930647744e-05,7.0,5.9333
1.69140625,-3.711190009613182e-05,-3.027627621423665e-05,-3.955697929198137e-05,-3.6135382398718226e-05,7.0,5.9333
1.6953125,-3.662742619974058e-05,-3.2721355410086195e-05,-3.369787310749979e-05,-3.222931160906385e-05,7.0,5.9333
1.69921875,-3.6135382398718226e-05,-2.197966073853665e-05,-2.3440652332341484e-05,-2.6862249225604626e-05,7.0,5.9333
1.703125,-3.222931160906385e-05,-1.367547535820553e-05,-3.1744837712672606e-05,-3.027627621423665e-05,7.0,5.9333
1.70703125,-2.7838766923018225e-05,-1.4167519159227879e-05,-3.4182347003891034e-05,-3.0768320015259e-05,7.0,5.9333
1.7109375,-2.7346723121995865e-05,-1.1237966066987098e-05,-1.8073589948882258e-05,-3.027627621423665e-05,7.0,5.9333
1.71484375,-3.662742619974058e-05,-2.490921383077743e-05,-3.125279391165025e-05,-2.7838766923018225e-05,7.0,5.9333
1.71875,-3.808841779354542e-05,-2.9791802317845414e-05,-3.808841779354542e-05,-2.929975851682306e-05,7.0,5.9333
1.72265625,-3.125279391165025e-05,-2.6862249225604626e-05,-2.2464134634927888e-05,-2.2464134634927888e-05,7.0,5.9333
1.7265625,-2.490921383077743e-05,-2.7838766923018225e-05,-2.3440652332341484e-05,-2.051109924010069e-05,7.0,5.9333
1.73046875,-2.6862249225604626e-05,-2.6370205424582265e-05,-3.2721355410086195e-05,-2.3440652332341484e-05,7.0,5.9333
1.734375,-3.320582930647744e-05,-2.6862249225604626e-05,-2.832324081940946e-05,-2.197966073853665e-05,7.0,5.9333
1.73828125,-3.125279391165025e-05,-2.148761693751429e-05,-2.1003143041123053e-05,-2.588573152819103e-05,7.0,5.9333
1.7421875,-3.1744837712672606e-05,-2.832324081940946e-05,-2.148761693751429e-05,-2.6862249225604626e-05,7.0,5.9333
1.74609375,-3.320582930647744e-05,-3.1744837712672606e-05,-1.9534581542687107e-05,-2.197966073853665e-05,7.0,5.9333
1.75,-2.832324081940946e-05,-2.0026625343709454e-05,-2.4417170029755083e-05,-2.5393687727168666e-05,7.0,5.9333
1.75390625,-3.027627621423665e-05,-2.5393687727168666e-05,-3.760394389715418e-05,-2.490921383077743e-05,7.0,5.9333
1.7578125,-3.515886470130463e-05,-4.5416085476462944e-05,-3.662742619974058e-05,-2.0026625343709454e-05,7.0,5.9333
1.76171875,-3.858046159456777e-05,-4.9806630162508564e-05,-4.19944885831998e-05,-2.1003143041123053e-05,7.0,5.9333
1.765625,-3.760394389715418e-05,-4.346305008163575e-05,-3.808841779354542e-05,-2.4417170029755083e-05,7.0,5.9333
1.76953125,-3.2721355410086195e-05,-4.053349698939497e-05,-2.0026625343709454e-05,-2.5393687727168666e-05,7.0,5.9333
1.7734375,-3.320582930647744e-05,-3.9064935490959014e-05,-1.8558063845273507e-05,-2.588573152819103e-05,7.0,5.9333
1.77734375,-3.6135382398718226e-05,-3.1744837712672606e-05,-2.6370205424582265e-05,-2.5393687727168666e-05,7.0,5.9333
1.78125,-3.5650908502326984e-05,-2.6370205424582265e-05,-3.222931160906385e-05,-2.6370205424582265e-05,7.0,5.9333
1.78515625,-3.6135382398718226e-05,-2.832324081940946e-05,-3.027627621423665e-05,-3.2721355410086195e-05,7.0,5.9333
1.7890625,-3.662742619974058e-05,-3.320582930647744e-05,-3.222931160906385e-05,-3.320582930647744e-05,7.0,5.9333
1.79296875,-3.027627621423665e-05,-4.29710062806134e-05,-4.443956777904935e-05,-2.7838766923018225e-05,7.0,5.9333
1.796875,-3.515886470130463e-05,-5.420474475318531e-05,-4.834563856870373e-05,-2.929975851682306e-05,7.0,5.9333
1.80078125,-3.9064935490959014e-05,-4.785359476768138e-05,-4.151001468680856e-05,-3.369787310749979e-05,7.0,5.9333
1.8046875,-3.1744837712672606e-05,-3.222931160906385e-05,-4.7369120871290136e-05,-2.929975851682306e-05,7.0,5.9333
1.80859375,-3.0768320015259e-05,-3.369787310749979e-05,-4.785359476768138e-05,-2.197966073853665e-05,7.0,5.9333
1.8125,-3.222931160906385e-05,-3.5650908502326984e-05,-4.19944885831998e-05,-2.9791802317845414e-05,7.0,5.9333
1.81640625,-3.6135382398718226e-05,-4.9806630162508564e-05,-4.1017970885786206e-05,-4.053349698939497e-05,7.0,5.9333
1.8203125,-3.6135382398718226e-05,-5.127519166094452e-05,-3.955697929198137e-05,-3.662742619974058e-05,7.0,5.9333
1.82421875,-3.1744837712672606e-05,-4.19944885831998e-05,-3.6135382398718226e-05,-3.4182347003891034e-05,7.0,5.9333
1.828125,-3.6135382398718226e-05,-3.955697929198137e-05,-3.955697929198137e-05,-3.2721355410086195e-05,7.0,5.9333
1.83203125,-3.9064935490959014e-05,-3.9064935490959014e-05,-4.004145318837261e-05,-3.027627621423665e-05,7.0,5.9333
1.8359375,-3.4182347003891034e-05,-4.2486532384222156e-05,-3.5650908502326984e-05,-3.222931160906385e-05,7.0,5.9333
1.83984375,-3.125279391165025e-05,-4.29710062806134e-05,-3.9064935490959014e-05,-2.832324081940946e-05,7.0,5.9333
1.84375,-3.125279391165025e-05,-4.5900559372854186e-05,-4.346305008163575e-05,-2.832324081940946e-05,7.0,5.9333
1.84765625,-3.955697929198137e-05,-4.19944885831998e-05,-4.6877077070267776e-05,-3.760394389715418e-05,7.0,5.9333
1.8515625,-4.29710062806134e-05,-4.3947523978026994e-05,-4.8830112465094974e-05,-3.5650908502326984e-05,7.0,5.9333
1.85546875,-3.9064935490959014e-05,-5.0298673963530924e-05,-4.6877077070267776e-05,-3.6135382398718226e-05,7.0,5.9333
1.859375,-3.858046159456777e-05,-4.29710062806134e-05,-4.19944885831998e-05,-4.639260317387654e-05,7.0,5.9333
1.86328125,-3.955697929198137e-05,-4.2486532384222156e-05,-5.420474475318531e-05,-4.346305008163575e-05,7.0,5.9333
1.8671875,-3.955697929198137e-05,-3.858046159456777e-05,-4.932215626611733e-05,-4.151001468680856e-05,7.0,5.9333
1.87109375,-3.760394389715418e-05,-2.5393687727168666e-05,-3.5650908502326984e-05,-3.9064935490959014e-05,7.0,5.9333
1.875,-4.053349698939497e-05,-3.4674390804913394e-05,-4.3947523978026994e-05,-3.320582930647744e-05,7.0,5.9333
1.87890625,-4.443956777904935e-05,-4.2486532384222156e-05,-5.3712700952162955e-05,-3.369787310749979e-05,7.0,5.9333
1.8828125,-3.9064935490959014e-05,-4.19944885831998e-05,-4.5416085476462944e-05,-3.1744837712672606e-05,7.0,5.9333
1.88671875,-3.760394389715418e-05,-4.29710062806134e-05,-3.662742619974058e-05,-2.929975851682306e-05,7.0,5.9333
1.890625,-4.346305008163575e-05,-4.151001468680856e-05,-3.515886470130463e-05,-3.662742619974058e-05,7.0,5.9333
1.89453125,-3.858046159456777e-05,-4.053349698939497e-05,-2.393269613336383e-05,-3.4182347003891034e-05,7.0,5.9333
1.8984375,-3.369787310749979e-05,-4.004145318837261e-05,-1.9050107646295854e-05,-3.027627621423665e-05,7.0,5.9333
1.90234375,-3.662742619974058e-05,-2.7346723121995865e-05,-2.3440652332341484e-05,-3.4674390804913394e-05,7.0,5.9333
1.90625,-3.515886470130463e-05,-2.051109924010069e-05,-1.8558063845273507e-05,-3.369787310749979e-05,7.0,5.9333
1.91015625,-3.2721355410086195e-05,-2.148761693751429e-05,-2.6862249225604626e-05,-3.222931160906385e-05,7.0,5.9333
1.9140625,-3.027627621423665e-05,-3.0768320015259e-05,-2.832324081940946e-05,-3.027627621423665e-05,7.0,5.9333
1.91796875,-3.125279391165025e-05,-3.6135382398718226e-05,-1.6120554554055076e-05,-2.8815284620431818e-05,7.0,5.9333
1.921875,-3.2721355410086195e-05,-2.5393687727168666e-05,-1.9534581542687107e-05,-2.8815284620431818e-05,7.0,5.9333
1.92578125,-3.369787310749979e-05,-2.393269613336383e-05,-3.027627621423665e-05,-2.7838766923018225e-05,7.0,5.9333
1.9296875,-3.320582930647744e-05,-3.515886470130463e-05,-3.711190009613182e-05,-3.0768320015259e-05,7.0,5.9333
1.93359375,-3.125279391165025e-05,-4.151001468680856e-05,-4.053349698939497e-05,-3.369787310749979e-05,7.0,5.9333
1.9375,-3.2721355410086195e-05,-3.369787310749979e-05,-3.5650908502326984e-05,-3.027627621423665e-05,7.0,5.9333
1.94140625,-3.320582930647744e-05,-3.711190009613182e-05,-3.1744837712672606e-05,-2.8815284620431818e-05,7.0,5.9333
1.9453125,-3.320582930647744e-05,-4.3947523978026994e-05,-3.5650908502326984e-05,-2.929975851682306e-05,7.0,5.9333
1.94921875,-3.320582930647744e-05,-3.222931160906385e-05,-2.2956178435950235e-05,-2.2464134634927888e-05,7.0,5.9333
1.953125,-2.490921383077743e-05,-2.929975851682306e-05,-2.3440652332341484e-05,-2.197966073853665e-05,7.0,5.9333
1.95703125,-2.148761693751429e-05,-4.004145318837261e-05,-3.2721355410086195e-05,-2.6862249225604626e-05,7.0,5.9333
1.9609375,-2.5393687727168666e-05,-3.369787310749979e-05,-3.027627621423665e-05,-2.6862249225604626e-05,7.0,5.9333
1.96484375,-2.8815284620431818e-05,-2.832324081940946e-05,-4.151001468680856e-05,-3.027627621423665e-05,7.0,5.9333
1.96875,-2.929975851682306e-05,-3.2721355410086195e-05,-3.808841779354542e-05,-3.369787310749979e-05,7.0,5.9333
1.97265625,-2.588573152819103e-05,-4.004145318837261e-05,-3.2721355410086195e-05,-3.222931160906385e-05,7.0,5.9333
1.9765625,-2.5393687727168666e-05,-4.2486532384222156e-05,-3.515886470130463e-05,-2.8815284620431818e-05,7.0,5.9333
1.98046875,-2.5393687727168666e-05,-3.9064935490959014e-05,-3.0768320015259e-05,-2.2464134634927888e-05,7.0,5.9333
1.984375,-2.393269613336383e-05,-2.6370205424582265e-05,-2.832324081940946e-05,-1.9534581542687107e-05,7.0,5.9333
1.98828125,-2.8815284620431818e-05,-2.5393687727168666e-05,-3.125279391165025e-05,-2.0026625343709454e-05,7.0,5.9333
1.9921875,-3.222931160906385e-05,-3.0768320015259e-05,-3.125279391165025e-05,-1.8558063845273507e-05,7.0,5.9333
1.99609375,-3.320582930647744e-05,-3.027627621423665e-05,-2.832324081940946e-05,-2.1003143041123053e-05,7.0,5.9333
2.0,-2.929975851682306e-05,-2.2956178435950235e-05,-3.320582930647744e-05,-1.8558063845273507e-05,7.0,5.9333
2.00390625,-3.027627621423665e-05,-3.0768320015259e-05,-3.955697929198137e-05,-1.8558063845273507e-05,7.0,5.9333
2.0078125,-2.832324081940946e-05,-3.662742619974058e-05,-3.515886470130463e-05,-2.1003143041123053e-05,7.0,5.9333
2.01171875,-2.832324081940946e-05,-3.2721355410086195e-05,-3.662742619974058e-05,-2.5393687727168666e-05,7.0,5.9333
2.015625,-3.369787310749979e-05,-3.760394389715418e-05,-5.51812624505989e-05,-3.222931160906385e-05,7.0,5.9333
2.01953125,-3.369787310749979e-05,-2.832324081940946e-05,-4.834563856870373e-05,-3.0768320015259e-05,7.0,5.9333
2.0234375,-3.369787310749979e-05,-2.832324081940946e-05,-4.785359476768138e-05,-2.9791802317845414e-05,7.0,5.9333
2.02734375,-3.369787310749979e-05,-3.369787310749979e-05,-4.5900559372854186e-05,-3.125279391165025e-05,7.0,5.9333
2.03125,-3.662742619974058e-05,-3.369787310749979e-05,-3.9064935490959014e-05,-2.6370205424582265e-05,7.0,5.9333
2.03515625,-3.320582930647744e-05,-3.858046159456777e-05,-4.053349698939497e-05,-2.929975851682306e-05,7.0,5.9333
2.0390625,-3.369787310749979e-05,-4.1017970885786206e-05,-2.197966073853665e-05,-3.320582930647744e-05,7.0,5.9333
2.04296875,-3.222931160906385e-05,-3.760394389715418e-05,-2.393269613336383e-05,-3.2721355410086195e-05,7.0,5.9333
2.046875,-3.4674390804913394e-05,-2.7838766923018225e-05,-5.664225404440374e-05,-3.369787310749979e-05,7.0,5.9333
2.05078125,-4.053349698939497e-05,-2.8815284620431818e-05,-5.761877174181733e-05,-3.027627621423665e-05,7.0,5.9333
2.0546875,-3.4674390804913394e-05,-4.19944885831998e-05,-5.0783147859922167e-05,-3.320582930647744e-05,7.0,5.9333
2.05859375,-3.662742619974058e-05,-3.515886470130463e-05,-4.29710062806134e-05,-4.053349698939497e-05,7.0,5.9333
2.0625,-4.639260317387654e-05,-3.6135382398718226e-05,-4.053349698939497e-05,-3.760394389715418e-05,7.0,5.9333
2.06640625,-4.151001468680856e-05,-3.4674390804913394e-05,-2.6862249225604626e-05,-3.4674390804913394e-05,7.0,5.9333
2.0703125,-3.4674390804913394e-05,-3.125279391165025e-05,-2.2956178435950235e-05,-3.0768320015259e-05,7.0,5.9333
2.07421875,-3.320582930647744e-05,-3.760394389715418e-05,-3.662742619974058e-05,-3.0768320015259e-05,7.0,5.9333
2.078125,-3.1744837712672606e-05,-3.6135382398718226e-05,-3.858046159456777e-05,-3.2721355410086195e-05,7.0,5.9333
2.08203125,-3.222931160906385e-05,-3.662742619974058e-05,-3.858046159456777e-05,-3.369787310749979e-05,7.0,5.9333
2.0859375,-3.4674390804913394e-05,-4.004145318837261e-05,-3.369787310749979e-05,-3.760394389715418e-05,7.0,5.9333
2.08984375,-2.929975851682306e-05,-3.711190009613182e-05,-4.053349698939497e-05,-2.9791802317845414e-05,7.0,5.9333
2.09375,-2.490921383077743e-05,-2.4417170029755083e-05,-4.1017970885786206e-05,-2.7346723121995865e-05,7.0,5.9333
2.09765625,-2.490921383077743e-05,-1.2698957660791933e-05,-2.1003143041123053e-05,-2.929975851682306e-05,7.0,5.9333
2.1015625,-2.6862249225604626e-05,-3.4182347003891034e-05,-1.6605028450446312e-05,-2.929975851682306e-05,7.0,5.9333
2.10546875,-3.0768320015259e-05,-3.9064935490959014e-05,-1.9050107646295854e-05,-2.588573152819103e-05,7.0,5.9333
2.109375,-2.490921383077743e-05,-2.2956178435950235e-05,-1.1722439963378335e-05,-2.9791802317845414e-05,7.0,5.9333
2.11328125,-3.0768320015259e-05,-2.8815284620431818e-05,-2.6862249225604626e-05,-3.515886470130463e-05,7.0,5.9333
2.1171875,-3.4182347003891034e-05,-4.151001468680856e-05,-3.369787310749979e-05,-2.9791802317845414e-05,7.0,5.9333
2.12109375,-2.7346723121995865e-05,-3.4182347003891034e-05,-2.6370205424582265e-05,-2.588573152819103e-05,7.0,5.9333
2.125,-2.929975851682306e-05,-2.490921383077743e-05,-2.9791802317845414e-05,-2.7838766923018225e-05,7.0,5.9333
2.12890625,-3.4182347003891034e-05,-2.197966073853665e-05,-3.4182347003891034e-05,-3.1744837712672606e-05,7.0,5.9333
2.1328125,-3.955697929198137e-05,-1.758154614785991e-05,-2.197966073853665e-05,-3.6135382398718226e-05,7.0,5.9333
2.13671875,-3.515886470130463e-05,-1.4167519159227879e-05,-2.2956178435950235e-05,-2.832324081940946e-05,7.0,5.9333
2.140625,-2.5393687727168666e-05,-5.7134297845426097e-05,-6.104036863508048e-05,-1.9050107646295854e-05,7.0,5.9333
2.14453125,-3.222931160906385e-05,-8.350027567559319e-05,-6.885251021438924e-05,-2.3440652332341484e-05,7.0,5.9333
2.1484375,-3.2721355410086195e-05,-8.593778496681162e-05,-7.812564338750285e-05,-3.2721355410086195e-05,7.0,5.9333
2.15234375,-3.4182347003891034e-05,-0.00011328028049439229,-0.00010156206812542914,-3.4674390804913394e-05,7.0,5.9333
2.15625,-3.369787310749979e-05,-0.00014159929371938658,-0.00012304545746852824,-2.9791802317845414e-05,7.0,5.9333
2.16015625,-2.7838766923018225e-05,-0.00014843491760128174,-0.00013866974062714578,-2.8815284620431818e-05,7.0,5.9333
2.1640625,-3.4182347003891034e-05,-0.00015477849768215458,-0.00015234098839093612,-3.0768320015259e-05,7.0,5.9333
2.16796875,-3.6135382398718226e-05,-0.00015234098839093612,-0.0001508724268925002,-3.515886470130463e-05,7.0,5.9333
2.171875,-4.004145318837261e-05,-0.0001274360021545739,-0.00013134207294422827,-3.5650908502326984e-05,7.0,5.9333
2.17578125,-4.1017970885786206e-05,-0.0001113272450995651,-0.00011474127208819712,-3.808841779354542e-05,7.0,5.9333
2.1796875,-4.1017970885786206e-05,-9.765599733577477e-05,-9.08203734538796e-05,-4.151001468680856e-05,7.0,5.9333
2.18359375,-4.5900559372854186e-05,-9.716395353475241e-05,-7.812564338750285e-05,-4.29710062806134e-05,7.0,5.9333
2.1875,-4.834563856870373e-05,-8.398474957198443e-05,-7.910216108491645e-05,-4.443956777904935e-05,7.0,5.9333
2.19140625,-4.639260317387654e-05,-7.714912569008924e-05,-6.885251021438924e-05,-4.8830112465094974e-05,7.0,5.9333
2.1953125,-4.932215626611733e-05,-7.714912569008924e-05,-6.152484253147172e-05,-4.053349698939497e-05,7.0,5.9333
2.19921875,-4.9806630162508564e-05,-6.64074310185397e-05,-5.3228227055771706e-05,-3.6135382398718226e-05,7.0,5.9333
2.203125,-4.7369120871290136e-05,-5.761877174181733e-05,-4.492404167544059e-05,-4.151001468680856e-05,7.0,5.9333
2.20703125,-4.8830112465094974e-05,-4.834563856870373e-05,-5.468921864957655e-05,-4.346305008163575e-05,7.0,5.9333
2.2109375,-5.273618325474935e-05,-4.346305008163575e-05,-5.6157780148012494e-05,-4.151001468680856e-05,7.0,5.9333
2.21484375,-5.127519166094452e-05,-4.004145318837261e-05,-4.9806630162508564e-05,-3.9064935490959014e-05,7.0,5.9333
2.21875,-4.492404167544059e-05,-4.3947523978026994e-05,-4.151001468680856e-05,-3.711190009613182e-05,7.0,5.9333
2.22265625,-4.004145318837261e-05,-3.808841779354542e-05,-4.2486532384222156e-05,-3.4182347003891034e-05,7.0,5.9333
2.2265625,-4.346305008163575e-05,-3.4182347003891034e-05,-3.711190009613182e-05,-3.711190009613182e-05,7.0,5.9333
2.23046875,-4.492404167544059e-05,-3.858046159456777e-05,-4.346305008163575e-05,-3.760394389715418e-05,7.0,5.9333
2.234375,-4.151001468680856e-05,-3.1744837712672606e-05,-4.19944885831998e-05,-3.222931160906385e-05,7.0,5.9333
2.23828125,-4.443956777904935e-05,-2.588573152819103e-05,-3.808841779354542e-05,-2.8815284620431818e-05,7.0,5.9333
2.2421875,-4.151001468680856e-05,-2.4417170029755083e-05,-3.4674390804913394e-05,-3.4182347003891034e-05,7.0,5.9333
2.24609375,-3.858046159456777e-05,-2.588573152819103e-05,-1.2698957660791933e-05,-3.320582930647744e-05,7.0,5.9333
2.25,-4.19944885831998e-05,-3.4674390804913394e-05,-2.7838766923018225e-05,-2.832324081940946e-05,7.0,5.9333
2.25390625,-3.6135382398718226e-05,-3.4674390804913394e-05,-3.808841779354542e-05,-3.2721355410086195e-05,7.0,5.9333
2.2578125,-3.320582930647744e-05,-3.369787310749979e-05,-3.369787310749979e-05,-3.4182347003891034e-05,7.0,5.9333
2.26171875,-3.9064935490959014e-05,-3.955697929198137e-05,-3.808841779354542e-05,-2.6370205424582265e-05,7.0,5.9333
2.265625,-4.492404167544059e-05,-3.808841779354542e-05,-3.4182347003891034e-05,-2.588573152819103e-05,7.0,5.9333
2.26953125,-4.7369120871290136e-05,-3.9064935490959014e-05,-3.5650908502326984e-05,-3.2721355410086195e-05,7.0,5.9333
2.2734375,-4.2486532384222156e-05,-3.808841779354542e-05,-3.2721355410086195e-05,-3.4674390804913394e-05,7.0,5.9333
2.27734375,-3.6135382398718226e-05,-3.0768320015259e-05,-2.5393687727168666e-05,-2.8815284620431818e-05,7.0,5.9333
2.28125,-3.4674390804913394e-05,-3.1744837712672606e-05,-2.5393687727168666e-05,-2.0026625343709454e-05,7.0,5.9333
2.28515625,-3.808841779354542e-05,-4.004145318837261e-05,-1.6605028450446312e-05,-2.2956178435950235e-05,7.0,5.9333
2.2890625,-4.29710062806134e-05,-3.662742619974058e-05,-1.5144036856641477e-05,-2.5393687727168666e-05,7.0,5.9333
2.29296875,-4.19944885831998e-05,-2.7346723121995865e-05,-3.808841779354542e-05,-2.6370205424582265e-05,7.0,5.9333
2.296875,-3.858046159456777e-05,-3.369787310749979e-05,-3.858046159456777e-05,-3.4182347003891034e-05,7.0,5.9333
2.30078125,-4.053349698939497e-05,-4.785359476768138e-05,-3.4674390804913394e-05,-3.0768320015259e-05,7.0,5.9333
2.3046875,-3.5650908502326984e-05,-4.004145318837261e-05,-3.222931160906385e-05,-2.9791802317845414e-05,7.0,5.9333
2.30859375,-3.5650908502326984e-05,-3.515886470130463e-05,-2.5393687727168666e-05,-2.9791802317845414e-05,7.0,5.9333
2.3125,-4.2486532384222156e-05,-3.320582930647744e-05,-3.027627621423665e-05,-2.7838766923018225e-05,7.0,5.9333
2.31640625,-3.711190009613182e-05,-2.929975851682306e-05,-3.955697929198137e-05,-2.929975851682306e-05,7.0,5.9333
2.3203125,-3.4182347003891034e-05,-3.2721355410086195e-05,-2.929975851682306e-05,-2.588573152819103e-05,7.0,5.9333
2.32421875,-3.760394389715418e-05,-3.0768320015259e-05,-2.3440652332341484e-05,-2.197966073853665e-05,7.0,5.9333
2.328125,-2.6862249225604626e-05,-2.7838766923018225e-05,-2.4417170029755083e-05,-2.0026625343709454e-05,7.0,5.9333
2.33203125,-2.051109924010069e-05,-4.346305008163575e-05,-2.6370205424582265e-05,-1.758154614785991e-05,7.0,5.9333
2.3359375,-2.197966073853665e-05,-5.761877174181733e-05,-4.639260317387654e-05,-1.758154614785991e-05,7.0,5.9333
2.33984375,-1.5144036856641477e-05,-6.054832483405812e-05,-6.738394871595329e-05,-1.758154614785991e-05,7.0,5.9333
2.34375,-1.2214483764400682e-05,-7.421957259784846e-05,-7.226653720302127e-05,-1.6120554554055076e-05,7.0,5.9333
2.34765625,-8.300843070115191e-06,-9.423440044251162e-05,-8.252375797817958e-05,-1.758154614785991e-05,7.0,5.9333
2.3515625,1.4643339040207621e-06,-0.00010839769200732431,-9.91169889295796e-05,-1.0745922265964735e-05,7.0,5.9333
2.35546875,1.122951087815673e-05,-0.00012645948445716028,-0.00010888216590371555,-3.418254583047215e-06,7.0,5.9333
2.359375,2.0994687852292685e-05,-0.00014013073222095062,-0.00012841251985198747,-3.418254583047215e-06,7.0,5.9333
2.36328125,2.3432197143511116e-05,-0.00014452884681162738,-0.00013720117912870982,-4.227594415183944e-09,7.0,5.9333
2.3671875,1.9041652457465486e-05,-0.0001508724268925002,-0.00014696635610284578,-1.9572629892423804e-06,7.0,5.9333
2.37109375,3.271290022125584e-05,-0.0001674732277485313,-0.000176753930826276,2.4408516014343605e-06,7.0,5.9333
2.375,4.393906878919662e-05,-0.00018749562549782558,-0.00018896418699626154,1.5620055564202344e-05,7.0,5.9333
2.37890625,4.393906878919662e-05,-0.0001992138378667887,-0.00019335473168230713,1.3182546272983913e-05,7.0,5.9333
2.3828125,4.88216572762646e-05,-0.00020458847015487907,-0.00019677632857557028,1.0252993180743132e-05,7.0,5.9333
2.38671875,5.663379885557336e-05,-0.00020604946174868386,-0.00019970588166781105,1.5135581667811109e-05,7.0,5.9333
2.390625,5.907887805142292e-05,-0.00021288508563057905,-0.00020116687326161592,1.3182546272983913e-05,7.0,5.9333
2.39453125,6.346942273746854e-05,-0.00022900141259021896,-0.0002031199086564431,2.9253254978255965e-06,7.0,5.9333
2.3984375,6.786753732814528e-05,-0.00022411882410315097,-0.0002133771294316014,-4.227594415183944e-09,7.0,5.9333
2.40234375,7.22580820141909e-05,-0.0002172832002212558,-0.00021923623561608297,-4.227594415183944e-09,7.0,5.9333
2.40625,7.958574969710843e-05,-0.0002163066825238422,-0.00020995553253833827,-3.910298384069562e-06,7.0,5.9333
2.41015625,7.617172270847641e-05,-0.00021142409403677423,-0.00021142409403677423,-4.886816081483161e-06,7.0,5.9333
2.4140625,6.542245813229573e-05,-0.0002040964263538567,-0.00021776767411764704,-4.886816081483161e-06,7.0,5.9333
2.41796875,6.591450193331809e-05,-0.00018798766929884793,-0.0002021433909590295,-7.324325372701594e-06,7.0,5.9333
2.421875,6.493798423590448e-05,-0.00017284786003662162,-0.00016356715695887693,-6.347807675287995e-06,7.0,5.9333
2.42578125,5.5657281158159775e-05,-0.00017089482464179446,-0.00014745839990386815,-9.769404568551138e-06,7.0,5.9333
2.4296875,5.0774692671091795e-05,-0.00016063760386663613,-0.00015624705918059048,-2.148761693751429e-05,7.0,5.9333
2.43359375,3.807996260471506e-05,-0.00013134207294422827,-0.00015380197998474097,-2.5393687727168666e-05,7.0,5.9333
2.4375,2.245567944609752e-05,-0.0001103507274021515,-0.00013134207294422827,-2.3440652332341484e-05,7.0,5.9333
2.44140625,8.299957785915936e-06,-0.00010937420970473792,-0.00011474127208819712,-2.490921383077743e-05,7.0,5.9333
2.4453125,-6.347807675287995e-06,-0.00010302305971923399,-0.0001000935066269932,-2.832324081940946e-05,7.0,5.9333
2.44921875,-1.5144036856641477e-05,-8.886733805905239e-05,-7.959420488593879e-05,-3.6135382398718226e-05,7.0,5.9333
2.453125,-2.2464134634927888e-05,-7.080554560921644e-05,-7.031350180819407e-05,-3.760394389715418e-05,7.0,5.9333
2.45703125,-3.1744837712672606e-05,-5.420474475318531e-05,-6.104036863508048e-05,-4.1017970885786206e-05,7.0,5.9333
2.4609375,-4.19944885831998e-05,-5.761877174181733e-05,-6.64074310185397e-05,-5.468921864957655e-05,7.0,5.9333
2.46484375,-5.2251709358358116e-05,-4.639260317387654e-05,-4.834563856870373e-05,-5.273618325474935e-05,7.0,5.9333
2.46875,-6.054832483405812e-05,-3.320582930647744e-05,-2.9791802317845414e-05,-5.0783147859922167e-05,7.0,5.9333
2.47265625,-6.738394871595329e-05,-3.027627621423665e-05,-4.151001468680856e-05,-6.104036863508048e-05,7.0,5.9333
2.4765625,-6.885251021438924e-05,-1.8073589948882258e-05,-2.2464134634927888e-05,-6.0063850937666885e-05,7.0,5.9333
2.48046875,-7.178206330663004e-05,-1.4651993055619115e-05,-1.4652191882200184e-06,-5.566573634699014e-05,7.0,5.9333
2.484375,-7.812564338750285e-05,3.901843195239195e-06,8.299957785915936e-06,-5.3228227055771706e-05,7.0,5.9333
2.48828125,-7.959420488593879e-05,9.76094937972077e-06,1.3667020169375162e-05,-5.2251709358358116e-05,7.0,5.9333
2.4921875,-8.105519647974364e-05,-5.8633337788967595e-06,5.854878590066391e-06,-5.468921864957655e-05,7.0,5.9333
2.49609375,-8.300823187457082e-05,7.807913984893588e-06,1.4159063970397511e-05,-5.566573634699014e-05,7.0,5.9333
2.5,-7.959420488593879e-05,1.7573090959029543e-05,2.6361750235751897e-05,-5.273618325474935e-05,7.0,5.9333
2.50390625,-7.6664651793698e-05,1.122951087815673e-05,3.1244338722819874e-05,-5.468921864957655e-05,7.0,5.9333
2.5078125,-8.007867878233004e-05,2.978334712901504e-05,3.5150409512474265e-05,-5.7134297845426097e-05,7.0,5.9333
2.51171875,-8.545331107042037e-05,3.271290022125584e-05,3.612692720988787e-05,-6.250136022888531e-05,7.0,5.9333
2.515625,-8.398474957198443e-05,2.8314785630579093e-05,2.5385232538338298e-05,-6.104036863508048e-05,7.0,5.9333
2.51953125,-8.350027567559319e-05,2.5877276339360662e-05,2.050264405127032e-05,-5.3228227055771706e-05,7.0,5.9333
2.5234375,-8.740634646524756e-05,2.3924240944533466e-05,2.3432197143511116e-05,-5.420474475318531e-05,7.0,5.9333
2.52734375,-8.886733805905239e-05,2.3924240944533466e-05,2.3924240944533466e-05,-5.566573634699014e-05,7.0,5.9333
2.53125,-8.398474957198443e-05,2.147916174868392e-05,2.0994687852292685e-05,-5.566573634699014e-05,7.0,5.9333
2.53515625,-8.740634646524756e-05,1.6112099365224708e-05,2.197120554970628e-05,-5.664225404440374e-05,7.0,5.9333
2.5390625,-8.886733805905239e-05,1.708861706263829e-05,2.4900758641947062e-05,-5.761877174181733e-05,7.0,5.9333
2.54296875,-8.105519647974364e-05,1.6596573261615944e-05,3.759548870832381e-05,-5.3712700952162955e-05,7.0,5.9333
2.546875,-7.959420488593879e-05,9.276475483329534e-06,4.9313701077286963e-05,-5.3228227055771706e-05,7.0,5.9333
2.55078125,-8.252375797817958e-05,1.6596573261615944e-05,3.4665935616083016e-05,-5.420474475318531e-05,7.0,5.9333
2.5546875,-8.057072258335239e-05,2.8314785630579093e-05,3.3689417918669434e-05,-5.175966555733576e-05,7.0,5.9333
2.55859375,-8.203171417715722e-05,2.5877276339360662e-05,4.100951569695584e-05,-5.3712700952162955e-05,7.0,5.9333
2.5625,-7.812564338750285e-05,2.3432197143511116e-05,2.6361750235751897e-05,-4.9806630162508564e-05,7.0,5.9333
2.56640625,-7.178206330663004e-05,3.026782102540629e-05,2.0994687852292685e-05,-4.5416085476462944e-05,7.0,5.9333
2.5703125,-7.324305490043487e-05,2.7338267933165497e-05,2.2947723247119867e-05,-4.492404167544059e-05,7.0,5.9333
2.57421875,-7.031350180819407e-05,2.4900758641947062e-05,2.0994687852292685e-05,-4.004145318837261e-05,7.0,5.9333
2.578125,-6.64074310185397e-05,2.8314785630579093e-05,1.1713984774547967e-05,-3.858046159456777e-05,7.0,5.9333
2.58203125,-7.226653720302127e-05,1.952612635385674e-05,1.6112099365224708e-05,-4.346305008163575e-05,7.0,5.9333
2.5859375,-7.178206330663004e-05,2.4408516014343605e-06,3.075986482642864e-05,-4.29710062806134e-05,7.0,5.9333
2.58984375,-6.738394871595329e-05,1.4643537866788746e-05,2.6361750235751897e-05,-4.19944885831998e-05,7.0,5.9333
2.59375,-7.129001950560768e-05,2.4900758641947062e-05,1.952612635385674e-05,-4.639260317387654e-05,7.0,5.9333
2.59765625,-6.982902791180283e-05,2.978334712901504e-05,2.3924240944533466e-05,-4.5416085476462944e-05,7.0,5.9333
2.6015625,-6.494643942473486e-05,2.6361750235751897e-05,3.4665935616083016e-05,-4.29710062806134e-05,7.0,5.9333
2.60546875,-6.64074310185397e-05,1.4159063970397511e-05,2.7338267933165497e-05,-5.0298673963530924e-05,7.0,5.9333
2.609375,-6.54309133211261e-05,2.0018170154879086e-05,1.854960865644314e-05,-5.0298673963530924e-05,7.0,5.9333
2.61328125,-6.152484253147172e-05,1.4643537866788746e-05,1.854960865644314e-05,-4.492404167544059e-05,7.0,5.9333
2.6171875,-5.664225404440374e-05,7.807913984893588e-06,9.76094937972077e-06,-3.858046159456777e-05,7.0,5.9333
2.62109375,-5.9571807136644524e-05,-4.227594415183944e-09,-4.887014908064202e-07,-3.6135382398718226e-05,7.0,5.9333
2.625,-6.299340402990766e-05,-9.769404568551138e-06,9.722901029984143e-07,-3.2721355410086195e-05,7.0,5.9333
2.62890625,-5.6157780148012494e-05,-4.886816081483161e-06,9.722901029984143e-07,-3.1744837712672606e-05,7.0,5.9333
2.6328125,-5.51812624505989e-05,-2.4417368856336168e-06,-2.9337806866559646e-06,-3.760394389715418e-05,7.0,5.9333
2.63671875,-5.664225404440374e-05,7.807913984893588e-06,1.4643339040207621e-06,-3.6135382398718226e-05,7.0,5.9333
2.640625,-5.0783147859922167e-05,1.2206028575570314e-05,-4.227594415183944e-09,-4.053349698939497e-05,7.0,5.9333
2.64453125,-4.932215626611733e-05,-4.887014908064202e-07,-9.27736076752879e-06,-4.29710062806134e-05,7.0,5.9333
2.6484375,-4.785359476768138e-05,2.9253254978255965e-06,3.4173692988479587e-06,-3.4674390804913394e-05,7.0,5.9333
2.65234375,-5.127519166094452e-05,1.0252993180743132e-05,1.4159063970397511e-05,-3.027627621423665e-05,7.0,5.9333
2.65625,-5.7134297845426097e-05,2.9253254978255965e-06,-5.8633337788967595e-06,-3.515886470130463e-05,7.0,5.9333
2.66015625,-5.127519166094452e-05,-1.5144036856641477e-05,-8.79288687113754e-06,-3.711190009613182e-05,7.0,5.9333
2.6640625,-4.8830112465094974e-05,-2.5393687727168666e-05,9.276475483329534e-06,-3.4182347003891034e-05,7.0,5.9333
2.66796875,-4.8830112465094974e-05,-1.4167519159227879e-05,-9.807452918287822e-07,-3.808841779354542e-05,7.0,5.9333
2.671875,-4.492404167544059e-05,-1.2214483764400682e-05,-1.9050107646295854e-05,-3.858046159456777e-05,7.0,5.9333
2.67578125,-4.29710062806134e-05,-1.9534581542687107e-05,-1.758154614785991e-05,-2.929975851682306e-05,7.0,5.9333
2.6796875,-4.639260317387654e-05,-1.6120554554055076e-05,-1.9050107646295854e-05,-3.125279391165025e-05,7.0,5.9333
2.68359375,-4.6877077070267776e-05,-2.197966073853665e-05,-3.027627621423665e-05,-3.662742619974058e-05,7.0,5.9333
2.6875,-4.5900559372854186e-05,-2.051109924010069e-05,-2.490921383077743e-05,-3.9064935490959014e-05,7.0,5.9333
2.69140625,-5.0298673963530924e-05,-9.769404568551138e-06,-9.769404568551138e-06,-4.1017970885786206e-05,7.0,5.9333
2.6953125,-5.273618325474935e-05,-1.2698957660791933e-05,-1.9534581542687107e-05,-4.5416085476462944e-05,7.0,5.9333
2.69921875,-5.175966555733576e-05,-1.7097072251468672e-05,-2.588573152819103e-05,-4.2486532384222156e-05,7.0,5.9333
2.703125,-5.273618325474935e-05,-1.758154614785991e-05,-2.0026625343709454e-05,-3.5650908502326984e-05,7.0,5.9333
2.70703125,-5.0783147859922167e-05,-2.4417170029755083e-05,-8.300843070115191e-06,-3.515886470130463e-05,7.0,5.9333
2.7109375,-4.5900559372854186e-05,-2.6862249225604626e-05,-1.02614483695735e-05,-4.004145318837261e-05,7.0,5.9333
2.71484375,-4.6877077070267776e-05,-2.490921383077743e-05,-2.4417170029755083e-05,-4.29710062806134e-05,7.0,5.9333
2.71875,-5.0298673963530924e-05,-2.6862249225604626e-05,-3.6135382398718226e-05,-4.2486532384222156e-05,7.0,5.9333
2.72265625,-4.5900559372854186e-05,-2.8815284620431818e-05,-3.711190009613182e-05,-3.955697929198137e-05,7.0,5.9333
2.7265625,-4.492404167544059e-05,-3.125279391165025e-05,-2.148761693751429e-05,-3.808841779354542e-05,7.0,5.9333
2.73046875,-4.5416085476462944e-05,-3.369787310749979e-05,-1.9050107646295854e-05,-4.053349698939497e-05,7.0,5.9333
2.734375,-3.858046159456777e-05,-1.8558063845273507e-05,-1.5144036856641477e-05,-4.492404167544059e-05,7.0,5.9333
2.73828125,-3.320582930647744e-05,-5.371289977874397e-06,-1.4167519159227879e-05,-4.3947523978026994e-05,7.0,5.9333
2.7421875,-4.1017970885786206e-05,-2.5393687727168666e-05,-2.8815284620431818e-05,-4.1017970885786206e-05,7.0,5.9333
2.74609375,-4.834563856870373e-05,-2.5393687727168666e-05,-3.711190009613182e-05,-3.955697929198137e-05,7.0,5.9333
2.75,-4.785359476768138e-05,-2.3440652332341484e-05,-3.2721355410086195e-05,-3.808841779354542e-05,7.0,5.9333
2.75390625,-4.9806630162508564e-05,-2.3440652332341484e-05,-2.9791802317845414e-05,-3.515886470130463e-05,7.0,5.9333
2.7578125,-5.0298673963530924e-05,-2.6862249225604626e-05,-3.6135382398718226e-05,-3.125279391165025e-05,7.0,5.9333
2.76171875,-4.639260317387654e-05,-3.369787310749979e-05,-2.7346723121995865e-05,-2.3440652332341484e-05,7.0,5.9333
2.765625,-4.5900559372854186e-05,-2.929975851682306e-05,-1.9534581542687107e-05,-2.6370205424582265e-05,7.0,5.9333
2.76953125,-4.346305008163575e-05,-2.490921383077743e-05,-2.6370205424582265e-05,-3.0768320015259e-05,7.0,5.9333
2.7734375,-4.1017970885786206e-05,-1.8558063845273507e-05,-3.858046159456777e-05,-2.5393687727168666e-05,7.0,5.9333
2.77734375,-4.346305008163575e-05,-2.1003143041123053e-05,-3.222931160906385e-05,-2.6862249225604626e-05,7.0,5.9333
2.78125,-4.3947523978026994e-05,-3.222931160906385e-05,-1.4167519159227879e-05,-3.662742619974058e-05,7.0,5.9333
2.78515625,-4.346305008163575e-05,-4.151001468680856e-05,-9.769404568551138e-06,-4.004145318837261e-05,7.0,5.9333
2.7890625,-4.004145318837261e-05,-3.5650908502326984e-05,-1.4651993055619115e-05,-3.222931160906385e-05,7.0,5.9333
2.79296875,-3.4674390804913394e-05,-2.7346723121995865e-05,-1.758154614785991e-05,-3.320582930647744e-05,7.0,5.9333
2.796875,-3.760394389715418e-05,-3.369787310749979e-05,-1.2698957660791933e-05,-3.222931160906385e-05,7.0,5.9333
2.80078125,-3.711190009613182e-05,-3.808841779354542e-05,-2.4417170029755083e-05,-2.6370205424582265e-05,7.0,5.9333
2.8046875,-3.222931160906385e-05,-2.5393687727168666e-05,-4.29710062806134e-05,-2.6862249225604626e-05,7.0,5.9333
2.80859375,-3.6135382398718226e-05,-2.2464134634927888e-05,-4.151001468680856e-05,-3.320582930647744e-05,7.0,5.9333
2.8125,-3.6135382398718226e-05,-2.2956178435950235e-05,-3.955697929198137e-05,-3.5650908502326984e-05,7.0,5.9333
2.81640625,-4.004145318837261e-05,-2.197966073853665e-05,-3.4674390804913394e-05,-3.222931160906385e-05,7.0,5.9333
2.8203125,-4.346305008163575e-05,-2.929975851682306e-05,-2.148761693751429e-05,-2.6862249225604626e-05,7.0,5.9333
2.82421875,-3.4182347003891034e-05,-3.125279391165025e-05,-3.369787310749979e-05,-3.0768320015259e-05,7.0,5.9333
2.828125,-3.222931160906385e-05,-3.1744837712672606e-05,-3.760394389715418e-05,-3.808841779354542e-05,7.0,5.9333
2.83203125,-3.027627621423665e-05,-3.222931160906385e-05,-3.1744837712672606e-05,-3.4182347003891034e-05,7.0,5.9333
2.8359375,-2.929975851682306e-05,-4.004145318837261e-05,-4.19944885831998e-05,-3.4182347003891034e-05,7.0,5.9333
2.83984375,-3.222931160906385e-05,-3.711190009613182e-05,-2.5393687727168666e-05,-3.125279391165025e-05,7.0,5.9333
2.84375,-3.858046159456777e-05,-2.929975851682306e-05,-7.816369173723956e-06,-2.1003143041123053e-05,7.0,5.9333
2.84765625,-4.2486532384222156e-05,-4.9806630162508564e-05,-2.393269613336383e-05,-2.6370205424582265e-05,7.0,5.9333
2.8515625,-3.955697929198137e-05,-4.443956777904935e-05,-3.027627621423665e-05,-2.8815284620431818e-05,7.0,5.9333
2.85546875,-3.955697929198137e-05,-2.4417170029755083e-05,-3.2721355410086195e-05,-2.6862249225604626e-05,7.0,5.9333
2.859375,-3.9064935490959014e-05,-2.832324081940946e-05,-3.6135382398718226e-05,-2.6370205424582265e-05,7.0,5.9333
2.86328125,-3.515886470130463e-05,-4.1017970885786206e-05,-3.125279391165025e-05,-2.197966073853665e-05,7.0,5.9333
2.8671875,-3.5650908502326984e-05,-4.3947523978026994e-05,-2.929975851682306e-05,-2.490921383077743e-05,7.0,5.9333
2.87109375,-3.2721355410086195e-05,-3.808841779354542e-05,-3.1744837712672606e-05,-3.125279391165025e-05,7.0,5.9333
2.875,-3.1744837712672606e-05,-2.832324081940946e-05,-2.3440652332341484e-05,-3.515886470130463e-05,7.0,5.9333
2.87890625,-3.4182347003891034e-05,-3.369787310749979e-05,-2.7346723121995865e-05,-2.9791802317845414e-05,7.0,5.9333
2.8828125,-3.4182347003891034e-05,-4.932215626611733e-05,-2.2956178435950235e-05,-3.125279391165025e-05,7.0,5.9333
2.88671875,-3.808841779354542e-05,-4.492404167544059e-05,-1.367547535820553e-05,-3.515886470130463e-05,7.0,5.9333
2.890625,-4.346305008163575e-05,-4.004145318837261e-05,-3.125279391165025e-05,-3.515886470130463e-05,7.0,5.9333
2.89453125,-4.151001468680856e-05,-3.955697929198137e-05,-4.004145318837261e-05,-3.9064935490959014e-05,7.0,5.9333
2.8984375,-4.053349698939497e-05,-3.808841779354542e-05,-3.711190009613182e-05,-3.858046159456777e-05,7.0,5.9333
2.90234375,-4.2486532384222156e-05,-3.515886470130463e-05,-3.320582930647744e-05,-3.662742619974058e-05,7.0,5.9333
2.90625,-4.639260317387654e-05,-2.8815284620431818e-05,-2.393269613336383e-05,-3.320582930647744e-05,7.0,5.9333
2.91015625,-4.2486532384222156e-05,-3.760394389715418e-05,-2.832324081940946e-05,-3.369787310749979e-05,7.0,5.9333
2.9140625,-3.711190009613182e-05,-3.955697929198137e-05,-3.858046159456777e-05,-3.5650908502326984e-05,7.0,5.9333
2.91796875,-3.4182347003891034e-05,-4.004145318837261e-05,-4.639260317387654e-05,-3.858046159456777e-05,7.0,5.9333
2.921875,-2.929975851682306e-05,-4.1017970885786206e-05,-4.004145318837261e-05,-3.5650908502326984e-05,7.0,5.9333
2.92578125,-3.125279391165025e-05,-3.760394389715418e-05,-3.222931160906385e-05,-3.4182347003891034e-05,7.0,5.9333
2.9296875,-3.1744837712672606e-05,-3.760394389715418e-05,-3.808841779354542e-05,-3.4182347003891034e-05,7.0,5.9333
2.93359375,-3.0768320015259e-05,-4.151001468680856e-05,-3.4674390804913394e-05,-2.6370205424582265e-05,7.0,5.9333
2.9375,-3.4182347003891034e-05,-3.515886470130463e-05,-3.808841779354542e-05,-3.2721355410086195e-05,7.0,5.9333
2.94140625,-3.320582930647744e-05,-3.515886470130463e-05,-3.662742619974058e-05,-4.19944885831998e-05,7.0,5.9333
2.9453125,-3.4182347003891034e-05,-3.6135382398718226e-05,-4.3947523978026994e-05,-4.443956777904935e-05,7.0,5.9333
2.94921875,-3.858046159456777e-05,-3.4182347003891034e-05,-4.6877077070267776e-05,-4.2486532384222156e-05,7.0,5.9333
2.953125,-3.4182347003891034e-05,-3.808841779354542e-05,-3.2721355410086195e-05,-3.2721355410086195e-05,7.0,5.9333
2.95703125,-3.027627621423665e-05,-3.222931160906385e-05,-2.148761693751429e-05,-2.6370205424582265e-05,7.0,5.9333
2.9609375,-3.4674390804913394e-05,-2.6862249225604626e-05,-2.6370205424582265e-05,-2.4417170029755083e-05,7.0,5.9333
2.96484375,-3.5650908502326984e-05,-2.393269613336383e-05,-3.0768320015259e-05,-2.7346723121995865e-05,7.0,5.9333
2.96875,-3.2721355410086195e-05,-3.5650908502326984e-05,-3.1744837712672606e-05,-2.7346723121995865e-05,7.0,5.9333
2.97265625,-3.4674390804913394e-05,-4.492404167544059e-05,-3.9064935490959014e-05,-2.2464134634927888e-05,7.0,5.9333
2.9765625,-3.222931160906385e-05,-4.151001468680856e-05,-3.858046159456777e-05,-2.5393687727168666e-05,7.0,5.9333
2.98046875,-2.9791802317845414e-05,-3.5650908502326984e-05,-4.6877077070267776e-05,-2.6370205424582265e-05,7.0,5.9333
2.984375,-2.832324081940946e-05,-2.8815284620431818e-05,-3.5650908502326984e-05,-2.8815284620431818e-05,7.0,5.9333
2.98828125,-2.7346723121995865e-05,-3.1744837712672606e-05,-2.8815284620431818e-05,-3.760394389715418e-05,7.0,5.9333
2.9921875,-2.7346723121995865e-05,-3.662742619974058e-05,-3.858046159456777e-05,-3.320582930647744e-05,7.0,5.9333
2.99609375,-2.7346723121995865e-05,-2.6862249225604626e-05,-3.515886470130463e-05,-2.929975851682306e-05,7.0,5.9333
3.0,-2.4417170029755083e-05,-1.4651993055619115e-05,-3.858046159456777e-05,-3.320582930647744e-05,7.0,5.9333
3.00390625,-2.148761693751429e-05,-2.0026625343709454e-05,-3.858046159456777e-05,-3.4182347003891034e-05,7.0,5.9333
3.0078125,-3.0768320015259e-05,-3.1744837712672606e-05,-3.2721355410086195e-05,-3.2721355410086195e-05,7.0,5.9333
3.01171875,-3.5650908502326984e-05,-4.932215626611733e-05,-3.125279391165025e-05,-3.027627621423665e-05,7.0,5.9333
3.015625,-3.5650908502326984e-05,-5.0298673963530924e-05,-3.125279391165025e-05,-3.515886470130463e-05,7.0,5.9333
3.01953125,-3.662742619974058e-05,-3.222931160906385e-05,-2.6370205424582265e-05,-4.19944885831998e-05,7.0,5.9333
3.0234375,-3.6135382398718226e-05,-3.662742619974058e-05,-3.125279391165025e-05,-4.1017970885786206e-05,7.0,5.9333
3.02734375,-3.1744837712672606e-05,-4.004145318837261e-05,-3.4182347003891034e-05,-3.6135382398718226e-05,7.0,5.9333
3.03125,-2.7838766923018225e-05,-3.369787310749979e-05,-3.027627621423665e-05,-3.662742619974058e-05,7.0,5.9333
3.03515625,-2.929975851682306e-05,-4.151001468680856e-05,-3.027627621423665e-05,-3.6135382398718226e-05,7.0,5.9333
3.0390625,-2.9791802317845414e-05,-3.4182347003891034e-05,-3.2721355410086195e-05,-3.808841779354542e-05,7.0,5.9333
3.04296875,-2.7838766923018225e-05,-2.5393687727168666e-05,-4.5900559372854186e-05,-4.443956777904935e-05,7.0,5.9333
3.046875,-2.9791802317845414e-05,-3.2721355410086195e-05,-4.5416085476462944e-05,-3.9064935490959014e-05,7.0,5.9333
3.05078125,-3.4182347003891034e-05,-3.711190009613182e-05,-4.19944885831998e-05,-3.5650908502326984e-05,7.0,5.9333
3.0546875,-3.4674390804913394e-05,-4.2486532384222156e-05,-3.711190009613182e-05,-3.5650908502326984e-05,7.0,5.9333
3.05859375,-3.711190009613182e-05,-5.0298673963530924e-05,-4.443956777904935e-05,-3.955697929198137e-05,7.0,5.9333
3.0625,-4.004145318837261e-05,-4.29710062806134e-05,-4.834563856870373e-05,-4.834563856870373e-05,7.0,5.9333
3.06640625,-3.9064935490959014e-05,-4.6877077070267776e-05,-4.004145318837261e-05,-4.29710062806134e-05,7.0,5.9333
3.0703125,-3.4674390804913394e-05,-4.443956777904935e-05,-3.369787310749979e-05,-3.858046159456777e-05,7.0,5.9333
3.07421875,-3.369787310749979e-05,-3.955697929198137e-05,-4.29710062806134e-05,-3.9064935490959014e-05,7.0,5.9333
3.078125,-3.125279391165025e-05,-4.004145318837261e-05,-4.1017970885786206e-05,-4.053349698939497e-05,7.0,5.9333
3.08203125,-2.8815284620431818e-05,-4.004145318837261e-05,-2.7346723121995865e-05,-3.858046159456777e-05,7.0,5.9333
3.0859375,-3.515886470130463e-05,-5.9571807136644524e-05,-2.832324081940946e-05,-3.4182347003891034e-05,7.0,5.9333
3.08984375,-3.6135382398718226e-05,-5.2251709358358116e-05,-2.6370205424582265e-05,-3.0768320015259e-05,7.0,5.9333
3.09375,-3.4182347003891034e-05,-3.662742619974058e-05,-3.1744837712672606e-05,-3.1744837712672606e-05,7.0,5.9333
3.09765625,-4.29710062806134e-05,-3.369787310749979e-05,-2.832324081940946e-05,-3.955697929198137e-05,7.0,5.9333
3.1015625,-5.2251709358358116e-05,-3.808841779354542e-05,-2.3440652332341484e-05,-4.7369120871290136e-05,7.0,5.9333
3.10546875,-6.104036863508048e-05,-6.104036863508048e-05,-4.3947523978026994e-05,-4.2486532384222156e-05,7.0,5.9333
3.109375,-5.2251709358358116e-05,-6.201688633249408e-05,-4.6877077070267776e-05,-3.760394389715418e-05,7.0,5.9333
3.11328125,-3.9064935490959014e-05,-3.808841779354542e-05,-3.515886470130463e-05,-3.6135382398718226e-05,7.0,5.9333
3.1171875,-4.1017970885786206e-05,-3.027627621423665e-05,-2.7346723121995865e-05,-3.858046159456777e-05,7.0,5.9333
3.12109375,-4.5416085476462944e-05,-3.0768320015259e-05,-2.197966073853665e-05,-3.515886470130463e-05,7.0,5.9333
3.125,-5.0298673963530924e-05,-3.4674390804913394e-05,-8.300843070115191e-06,-2.6370205424582265e-05,7.0,5.9333
3.12890625,-5.3228227055771706e-05,-2.7838766923018225e-05,-1.4652191882200184e-06,-2.393269613336383e-05,7.0,5.9333
3.1328125,-4.5900559372854186e-05,-1.2214483764400682e-05,-2.4417368856336168e-06,-3.2721355410086195e-05,7.0,5.9333
3.13671875,-4.492404167544059e-05,-1.3191001461814281e-05,7.807913984893588e-06,-3.125279391165025e-05,7.0,5.9333
3.140625,-4.6877077070267776e-05,-1.6120554554055076e-05,6.831396287479989e-06,-3.027627621423665e-05,7.0,5.9333
3.14453125,-4.639260317387654e-05,-2.0026625343709454e-05,4.878162066071638e-07,-3.662742619974058e-05,7.0,5.9333
3.1484375,-4.9806630162508564e-05,-2.929975851682306e-05,1.4643339040207621e-06,-3.369787310749979e-05,7.0,5.9333
3.15234375,-4.639260317387654e-05,-2.051109924010069e-05,-5.8633337788967595e-06,-3.222931160906385e-05,7.0,5.9333
3.15625,-4.151001468680856e-05,-7.816369173723956e-06,-1.4651993055619115e-05,-2.9791802317845414e-05,7.0,5.9333
3.16015625,-4.346305008163575e-05,-1.367547535820553e-05,-1.6605028450446312e-05,-2.6370205424582265e-05,7.0,5.9333
3.1640625,-4.6877077070267776e-05,-2.6862249225604626e-05,-2.393269613336383e-05,-3.2721355410086195e-05,7.0,5.9333
3.16796875,-4.639260317387654e-05,-2.197966073853665e-05,-2.7838766923018225e-05,-3.808841779354542e-05,7.0,5.9333
3.171875,-4.29710062806134e-05,-7.816369173723956e-06,4.393886996261556e-06,-3.125279391165025e-05,7.0,5.9333
3.17578125,-4.834563856870373e-05,-2.2464134634927888e-05,1.2206028575570314e-05,-2.4417170029755083e-05,7.0,5.9333
3.1796875,-4.785359476768138e-05,-2.832324081940946e-05,-9.769404568551138e-06,-2.9791802317845414e-05,7.0,5.9333
3.18359375,-4.492404167544059e-05,-5.371289977874397e-06,-2.1003143041123053e-05,-3.2721355410086195e-05,7.0,5.9333
3.1875,-4.6877077070267776e-05,-1.367547535820553e-05,-2.588573152819103e-05,-3.125279391165025e-05,7.0,5.9333
3.19140625,-4.7369120871290136e-05,-3.125279391165025e-05,-1.9050107646295854e-05,-3.0768320015259e-05,7.0,5.9333
3.1953125,-4.004145318837261e-05,-3.027627621423665e-05,-1.9050107646295854e-05,-3.0768320015259e-05,7.0,5.9333
3.19921875,-4.3947523978026994e-05,-2.5393687727168666e-05,-1.6605028450446312e-05,-2.6370205424582265e-05,7.0,5.9333
3.203125,-4.639260317387654e-05,-2.1003143041123053e-05,-1.1237966066987098e-05,-2.7346723121995865e-05,7.0,5.9333
3.20703125,-4.1017970885786206e-05,-2.197966073853665e-05,-1.4651993055619115e-05,-2.9791802317845414e-05,7.0,5.9333
3.2109375,-3.858046159456777e-05,-2.1003143041123053e-05,-2.1003143041123053e-05,-2.6370205424582265e-05,7.0,5.9333
3.21484375,-3.662742619974058e-05,-1.5628510753032712e-05,-3.369787310749979e-05,-2.5393687727168666e-05,7.0,5.9333
3.21875,-3.6135382398718226e-05,-2.6862249225604626e-05,-1.7097072251468672e-05,-3.4182347003891034e-05,7.0,5.9333
3.22265625,-3.5650908502326984e-05,-3.4182347003891034e-05,-1.4651993055619115e-05,-3.711190009613182e-05,7.0,5.9333
3.2265625,-3.808841779354542e-05,-3.125279391165025e-05,-1.7097072251468672e-05,-3.369787310749979e-05,7.0,5.9333
3.23046875,-3.2721355410086195e-05,-2.5393687727168666e-05,-8.79288687113754e-06,-3.369787310749979e-05,7.0,5.9333
3.234375,-2.832324081940946e-05,-2.5393687727168666e-05,-1.7097072251468672e-05,-3.515886470130463e-05,7.0,5.9333
3.23828125,-3.369787310749979e-05,-2.4417170029755083e-05,-2.490921383077743e-05,-3.2721355410086195e-05,7.0,5.9333
3.2421875,-3.369787310749979e-05,-3.0768320015259e-05,-2.4417170029755083e-05,-2.8815284620431818e-05,7.0,5.9333
3.24609375,-3.4674390804913394e-05,-3.808841779354542e-05,-2.3440652332341484e-05,-3.369787310749979e-05,7.0,5.9333
3.25,-3.808841779354542e-05,-3.1744837712672606e-05,-3.027627621423665e-05,-3.369787310749979e-05,7.0,5.9333
3.25390625,-3.662742619974058e-05,-3.0768320015259e-05,-3.369787310749979e-05,-3.1744837712672606e-05,7.0,5.9333
3.2578125,-3.808841779354542e-05,-2.4417170029755083e-05,-3.320582930647744e-05,-3.711190009613182e-05,7.0,5.9333
3.26171875,-3.858046159456777e-05,-1.8073589948882258e-05,-2.1003143041123053e-05,-3.1744837712672606e-05,7.0,5.9333
3.265625,-4.151001468680856e-05,-2.490921383077743e-05,-2.1003143041123053e-05,-3.320582930647744e-05,7.0,5.9333
3.26953125,-4.2486532384222156e-05,-3.4182347003891034e-05,-3.4182347003891034e-05,-3.6135382398718226e-05,7.0,5.9333
3.2734375,-4.443956777904935e-05,-3.320582930647744e-05,-2.588573152819103e-05,-3.369787310749979e-05,7.0,5.9333
3.27734375,-4.3947523978026994e-05,-2.8815284620431818e-05,-3.027627621423665e-05,-3.6135382398718226e-05,7.0,5.9333
3.28125,-3.515886470130463e-05,-4.151001468680856e-05,-4.004145318837261e-05,-3.858046159456777e-05,7.0,5.9333
3.28515625,-3.711190009613182e-05,-4.7369120871290136e-05,-3.0768320015259e-05,-3.5650908502326984e-05,7.0,5.9333
3.2890625,-3.5650908502326984e-05,-4.6877077070267776e-05,-3.5650908502326984e-05,-3.125279391165025e-05,7.0,5.9333
3.29296875,-3.6135382398718226e-05,-3.9064935490959014e-05,-4.8830112465094974e-05,-3.222931160906385e-05,7.0,5.9333
3.296875,-3.711190009613182e-05,-2.929975851682306e-05,-5.175966555733576e-05,-3.222931160906385e-05,7.0,5.9333
3.30078125,-3.0768320015259e-05,-3.4182347003891034e-05,-5.273618325474935e-05,-3.6135382398718226e-05,7.0,5.9333
3.3046875,-2.6370205424582265e-05,-3.2721355410086195e-05,-4.29710062806134e-05,-3.369787310749979e-05,7.0,5.9333
3.30859375,-2.1003143041123053e-05,-3.4674390804913394e-05,-3.0768320015259e-05,-2.9791802317845414e-05,7.0,5.9333
3.3125,-2.490921383077743e-05,-4.053349698939497e-05,-3.320582930647744e-05,-2.7346723121995865e-05,7.0,5.9333
3.31640625,-2.8815284620431818e-05,-2.2956178435950235e-05,-3.125279391165025e-05,-2.7838766923018225e-05,7.0,5.9333
3.3203125,-3.6135382398718226e-05,-1.8558063845273507e-05,-2.393269613336383e-05,-2.9791802317845414e-05,7.0,5.9333
3.32421875,-4.29710062806134e-05,-3.858046159456777e-05,-4.1017970885786206e-05,-2.832324081940946e-05,7.0,5.9333
3.328125,-4.19944885831998e-05,-4.8830112465094974e-05,-5.420474475318531e-05,-2.832324081940946e-05,7.0,5.9333
3.33203125,-4.5900559372854186e-05,-4.053349698939497e-05,-4.492404167544059e-05,-2.490921383077743e-05,7.0,5.9333
3.3359375,-4.9806630162508564e-05,-4.5900559372854186e-05,-4.2486532384222156e-05,-2.051109924010069e-05,7.0,5.9333
3.33984375,-4.9806630162508564e-05,-5.0783147859922167e-05,-4.19944885831998e-05,-1.3191001461814281e-05,7.0,5.9333
3.34375,-6.299340402990766e-05,-4.053349698939497e-05,-2.197966073853665e-05,-1.2698957660791933e-05,7.0,5.9333
3.34765625,-6.64074310185397e-05,-2.8815284620431818e-05,-6.347807675287995e-06,-1.4651993055619115e-05,7.0,5.9333
3.3515625,-6.787599251697565e-05,-3.0768320015259e-05,-4.886816081483161e-06,-7.324325372701594e-06,7.0,5.9333
3.35546875,-7.275858100404363e-05,-4.19944885831998e-05,-8.79288687113754e-06,-9.807452918287822e-07,7.0,5.9333
3.359375,-7.86176871885252e-05,-4.004145318837261e-05,-4.394772280460813e-06,2.4408516014343605e-06,7.0,5.9333
3.36328125,-8.252375797817958e-05,-2.6370205424582265e-05,4.878162066071638e-07,5.370404693675155e-06,7.0,5.9333
3.3671875,-7.421957259784846e-05,-2.1003143041123053e-05,4.393886996261556e-06,5.854878590066391e-06,7.0,5.9333
3.37109375,-7.080554560921644e-05,-2.197966073853665e-05,1.2690502471961565e-05,3.901843195239195e-06,7.0,5.9333
3.375,-7.275858100404363e-05,-1.5144036856641477e-05,1.5135581667811109e-05,9.722901029984143e-07,7.0,5.9333
3.37890625,-6.885251021438924e-05,-2.8815284620431818e-05,-2.9337806866559646e-06,-4.394772280460813e-06,7.0,5.9333
3.3828125,-6.738394871595329e-05,-3.222931160906385e-05,-3.418254583047215e-06,-4.394772280460813e-06,7.0,5.9333
3.38671875,-6.347787792629891e-05,-2.1003143041123053e-05,-4.887014908064202e-07,4.878162066071638e-07,7.0,5.9333
3.390625,-5.8110815542839686e-05,-1.6605028450446312e-05,-8.300843070115191e-06,9.722901029984143e-07,7.0,5.9333
3.39453125,-6.152484253147172e-05,-3.418254583047215e-06,-4.227594415183944e-09,1.4643339040207621e-06,7.0,5.9333
3.3984375,-6.54309133211261e-05,-1.1237966066987098e-05,5.854878590066391e-06,-6.347807675287995e-06,7.0,5.9333
3.40234375,-6.250136022888531e-05,-2.588573152819103e-05,-1.7097072251468672e-05,-1.4167519159227879e-05,7.0,5.9333
3.40625,-6.0063850937666885e-05,-2.1003143041123053e-05,-2.051109924010069e-05,-1.02614483695735e-05,7.0,5.9333
3.41015625,-5.468921864957655e-05,-1.6120554554055076e-05,-4.886816081483161e-06,-6.347807675287995e-06,7.0,5.9333
3.4140625,-5.0783147859922167e-05,-2.7346723121995865e-05,-5.371289977874397e-06,-8.79288687113754e-06,7.0,5.9333
3.41796875,-5.0783147859922167e-05,-3.2721355410086195e-05,-8.79288687113754e-06,-1.4167519159227879e-05,7.0,5.9333
3.421875,-4.7369120871290136e-05,-2.7838766923018225e-05,-7.324325372701594e-06,-1.0745922265964735e-05,7.0,5.9333
3.42578125,-4.834563856870373e-05,-2.197966073853665e-05,-9.769404568551138e-06,-1.2698957660791933e-05,7.0,5.9333
3.4296875,-4.639260317387654e-05,-1.2214483764400682e-05,-1.2698957660791933e-05,-1.5144036856641477e-05,7.0,5.9333
3.43359375,-4.19944885831998e-05,-1.8558063845273507e-05,-3.418254583047215e-06,-1.2214483764400682e-05,7.0,5.9333
3.4375,-4.443956777904935e-05,-3.0768320015259e-05,-2.9337806866559646e-06,-1.1237966066987098e-05,7.0,5.9333
3.44140625,-4.053349698939497e-05,-3.369787310749979e-05,4.878162066071638e-07,-1.2214483764400682e-05,7.0,5.9333
3.4453125,-4.2486532384222156e-05,-4.5416085476462944e-05,-3.910298384069562e-06,-1.02614483695735e-05,7.0,5.9333
3.44921875,-4.492404167544059e-05,-3.1744837712672606e-05,-1.7097072251468672e-05,-1.02614483695735e-05,7.0,5.9333
3.453125,-4.2486532384222156e-05,-2.6370205424582265e-05,-1.2214483764400682e-05,-1.4167519159227879e-05,7.0,5.9333
3.45703125,-4.7369120871290136e-05,-3.1744837712672606e-05,-5.371289977874397e-06,-1.367547535820553e-05,7.0,5.9333
3.4609375,-4.6877077070267776e-05,-1.9050107646295854e-05,-1.9050107646295854e-05,-2.197966073853665e-05,7.0,5.9333
3.46484375,-4.785359476768138e-05,-1.1237966066987098e-05,-2.051109924010069e-05,-2.6370205424582265e-05,7.0,5.9333
3.46875,-4.3947523978026994e-05,-1.3191001461814281e-05,-8.79288687113754e-06,-2.2464134634927888e-05,7.0,5.9333
3.47265625,-4.19944885831998e-05,-2.1003143041123053e-05,-1.8558063845273507e-05,-2.3440652332341484e-05,7.0,5.9333
3.4765625,-3.9064935490959014e-05,-2.9791802317845414e-05,-2.832324081940946e-05,-2.0026625343709454e-05,7.0,5.9333
3.48046875,-3.027627621423665e-05,-4.29710062806134e-05,-2.6862249225604626e-05,-2.1003143041123053e-05,7.0,5.9333
3.484375,-3.0768320015259e-05,-4.3947523978026994e-05,-2.588573152819103e-05,-2.051109924010069e-05,7.0,5.9333
3.48828125,-3.320582930647744e-05,-3.760394389715418e-05,-2.7838766923018225e-05,-2.148761693751429e-05,7.0,5.9333
3.4921875,-3.222931160906385e-05,-3.515886470130463e-05,-2.2956178435950235e-05,-2.3440652332341484e-05,7.0,5.9333
3.49609375,-3.515886470130463e-05,-2.8815284620431818e-05,-1.9534581542687107e-05,-2.4417170029755083e-05,7.0,5.9333
3.5,-4.004145318837261e-05,-2.832324081940946e-05,-1.758154614785991e-05,-2.8815284620431818e-05,7.0,5.9333
3.50390625,-3.858046159456777e-05,-3.2721355410086195e-05,-2.7346723121995865e-05,-2.2464134634927888e-05,7.0,5.9333
3.5078125,-3.5650908502326984e-05,-2.4417170029755083e-05,-3.711190009613182e-05,-2.1003143041123053e-05,7.0,5.9333
3.51171875,-3.2721355410086195e-05,-2.393269613336383e-05,-3.4182347003891034e-05,-2.588573152819103e-05,7.0,5.9333
3.515625,-2.9791802317845414e-05,-2.2956178435950235e-05,-4.1017970885786206e-05,-2.7838766923018225e-05,7.0,5.9333
3.51953125,-3.320582930647744e-05,-2.832324081940946e-05,-4.6877077070267776e-05,-3.1744837712672606e-05,7.0,5.9333
3.5234375,-3.5650908502326984e-05,-3.858046159456777e-05,-3.760394389715418e-05,-3.1744837712672606e-05,7.0,5.9333
3.52734375,-2.9791802317845414e-05,-3.125279391165025e-05,-3.222931160906385e-05,-3.027627621423665e-05,7.0,5.9333
3.53125,-2.6862249225604626e-05,-2.832324081940946e-05,-3.1744837712672606e-05,-2.929975851682306e-05,7.0,5.9333
3.53515625,-3.222931160906385e-05,-1.8558063845273507e-05,-2.3440652332341484e-05,-2.8815284620431818e-05,7.0,5.9333
3.5390625,-4.053349698939497e-05,-1.2214483764400682e-05,-3.0768320015259e-05,-2.490921383077743e-05,7.0,5.9333
3.54296875,-4.2486532384222156e-05,-4.492404167544059e-05,-3.808841779354542e-05,-1.8073589948882258e-05,7.0,5.9333
3.546875,-4.1017970885786206e-05,-5.859528943923093e-05,-2.2956178435950235e-05,-1.8558063845273507e-05,7.0,5.9333
3.55078125,-4.5416085476462944e-05,-4.19944885831998e-05,-2.393269613336383e-05,-1.9050107646295854e-05,7.0,5.9333
3.5546875,-4.785359476768138e-05,-4.2486532384222156e-05,-4.5900559372854186e-05,-1.9534581542687107e-05,7.0,5.9333
3.55859375,-5.51812624505989e-05,-3.662742619974058e-05,-4.5416085476462944e-05,-1.9050107646295854e-05,7.0,5.9333
3.5625,-5.7134297845426097e-05,-3.4182347003891034e-05,-3.711190009613182e-05,-1.5628510753032712e-05,7.0,5.9333
3.56640625,-5.0298673963530924e-05,-3.369787310749979e-05,-4.443956777904935e-05,-1.367547535820553e-05,7.0,5.9333
3.5703125,-4.932215626611733e-05,-4.19944885831998e-05,-4.6877077070267776e-05,-1.758154614785991e-05,7.0,5.9333
3.57421875,-4.785359476768138e-05,-4.834563856870373e-05,-3.2721355410086195e-05,-2.5393687727168666e-05,7.0,5.9333
3.578125,-4.5416085476462944e-05,-3.858046159456777e-05,-2.588573152819103e-05,-2.6370205424582265e-05,7.0,5.9333
3.58203125,-4.19944885831998e-05,-2.832324081940946e-05,-1.9534581542687107e-05,-2.197966073853665e-05,7.0,5.9333
3.5859375,-4.004145318837261e-05,-4.053349698939497e-05,-3.0768320015259e-05,-2.7838766923018225e-05,7.0,5.9333
3.58984375,-3.711190009613182e-05,-4.8830112465094974e-05,-4.053349698939497e-05,-3.4182347003891034e-05,7.0,5.9333
3.59375,-3.808841779354542e-05,-4.7369120871290136e-05,-2.6862249225604626e-05,-3.222931160906385e-05,7.0,5.9333
3.59765625,-4.2486532384222156e-05,-4.8830112465094974e-05,-3.4182347003891034e-05,-3.369787310749979e-05,7.0,5.9333
3.6015625,-3.9064935490959014e-05,-3.760394389715418e-05,-3.369787310749979e-05,-3.662742619974058e-05,7.0,5.9333
3.60546875,-4.004145318837261e-05,-3.125279391165025e-05,-3.369787310749979e-05,-3.5650908502326984e-05,7.0,5.9333
3.609375,-4.004145318837261e-05,-3.515886470130463e-05,-3.125279391165025e-05,-3.5650908502326984e-05,7.0,5.9333
3.61328125,-3.515886470130463e-05,-3.9064935490959014e-05,-2.490921383077743e-05,-2.832324081940946e-05,7.0,5.9333
3.6171875,-3.4182347003891034e-05,-3.858046159456777e-05,-2.051109924010069e-05,-2.9791802317845414e-05,7.0,5.9333
3.62109375,-3.2721355410086195e-05,-3.320582930647744e-05,-2.832324081940946e-05,-3.662742619974058e-05,7.0,5.9333
3.625,-3.5650908502326984e-05,-3.369787310749979e-05,-4.1017970885786206e-05,-3.2721355410086195e-05,7.0,5.9333
3.62890625,-3.711190009613182e-05,-3.955697929198137e-05,-4.5416085476462944e-05,-3.4182347003891034e-05,7.0,5.9333
3.6328125,-3.5650908502326984e-05,-3.5650908502326984e-05,-3.4674390804913394e-05,-3.2721355410086195e-05,7.0,5.9333
3.63671875,-3.6135382398718226e-05,-2.7346723121995865e-05,-1.4167519159227879e-05,-3.222931160906385e-05,7.0,5.9333
3.640625,-3.125279391165025e-05,-2.6370205424582265e-05,-1.8558063845273507e-05,-3.662742619974058e-05,7.0,5.9333
3.64453125,-2.8815284620431818e-05,-2.929975851682306e-05,-3.0768320015259e-05,-3.6135382398718226e-05,7.0,5.9333
3.6484375,-2.832324081940946e-05,-3.515886470130463e-05,-3.320582930647744e-05,-3.1744837712672606e-05,7.0,5.9333
3.65234375,-2.8815284620431818e-05,-3.9064935490959014e-05,-3.369787310749979e-05,-3.369787310749979e-05,7.0,5.9333
3.65625,-3.320582930647744e-05,-3.711190009613182e-05,-3.369787310749979e-05,-3.662742619974058e-05,7.0,5.9333
3.66015625,-3.4674390804913394e-05,-4.7369120871290136e-05,-3.6135382398718226e-05,-3.662742619974058e-05,7.0,5.9333
3.6640625,-3.320582930647744e-05,-5.0783147859922167e-05,-3.369787310749979e-05,-3.662742619974058e-05,7.0,5.9333
3.66796875,-3.369787310749979e-05,-4.1017970885786206e-05,-2.9791802317845414e-05,-3.1744837712672606e-05,7.0,5.9333
3.671875,-3.1744837712672606e-05,-3.858046159456777e-05,-4.004145318837261e-05,-2.832324081940946e-05,7.0,5.9333
3.67578125,-3.2721355410086195e-05,-2.929975851682306e-05,-3.9064935490959014e-05,-2.7346723121995865e-05,7.0,5.9333
3.6796875,-3.4182347003891034e-05,-2.2956178435950235e-05,-4.2486532384222156e-05,-3.320582930647744e-05,7.0,5.9333
3.68359375,-3.711190009613182e-05,-3.760394389715418e-05,-3.711190009613182e-05,-3.662742619974058e-05,7.0,5.9333
3.6875,-4.3947523978026994e-05,-4.7369120871290136e-05,-2.7838766923018225e-05,-3.2721355410086195e-05,7.0,5.9333
3.69140625,-3.760394389715418e-05,-3.320582930647744e-05,-3.4674390804913394e-05,-3.125279391165025e-05,7.0,5.9333
3.6953125,-3.222931160906385e-05,-3.0768320015259e-05,-2.832324081940946e-05,-3.222931160906385e-05,7.0,5.9333
3.69921875,-3.5650908502326984e-05,-4.8830112465094974e-05,-2.3440652332341484e-05,-3.2721355410086195e-05,7.0,5.9333
3.703125,-3.955697929198137e-05,-4.932215626611733e-05,-3.662742619974058e-05,-3.4182347003891034e-05,7.0,5.9333
3.70703125,-3.6135382398718226e-05,-4.19944885831998e-05,-4.834563856870373e-05,-3.662742619974058e-05,7.0,5.9333
3.7109375,-3.9064935490959014e-05,-4.7369120871290136e-05,-5.420474475318531e-05,-3.711190009613182e-05,7.0,5.9333
3.71484375,-4.639260317387654e-05,-4.346305008163575e-05,-4.932215626611733e-05,-3.760394389715418e-05,7.0,5.9333
3.71875,-4.639260317387654e-05,-4.004145318837261e-05,-5.566573634699014e-05,-4.053349698939497e-05,7.0,5.9333
3.72265625,-4.346305008163575e-05,-3.125279391165025e-05,-4.053349698939497e-05,-3.955697929198137e-05,7.0,5.9333
3.7265625,-4.5416085476462944e-05,-3.760394389715418e-05,-1.02614483695735e-05,-3.955697929198137e-05,7.0,5.9333
3.73046875,-4.492404167544059e-05,-5.7134297845426097e-05,-2.2956178435950235e-05,-4.053349698939497e-05,7.0,5.9333
3.734375,-4.053349698939497e-05,-5.664225404440374e-05,-4.9806630162508564e-05,-4.29710062806134e-05,7.0,5.9333
3.73828125,-3.711190009613182e-05,-4.639260317387654e-05,-4.5900559372854186e-05,-4.346305008163575e-05,7.0,5.9333
3.7421875,-2.9791802317845414e-05,-4.29710062806134e-05,-3.760394389715418e-05,-4.19944885831998e-05,7.0,5.9333
3.74609375,-3.0768320015259e-05,-4.004145318837261e-05,-3.955697929198137e-05,-4.346305008163575e-05,7.0,5.9333
3.75,-3.5650908502326984e-05,-3.1744837712672606e-05,-4.834563856870373e-05,-4.1017970885786206e-05,7.0,5.9333
3.75390625,-3.320582930647744e-05,-3.2721355410086195e-05,-5.3712700952162955e-05,-3.6135382398718226e-05,7.0,5.9333
3.7578125,-3.0768320015259e-05,-3.515886470130463e-05,-4.834563856870373e-05,-3.4674390804913394e-05,7.0,5.9333
3.76171875,-3.4674390804913394e-05,-5.0298673963530924e-05,-3.662742619974058e-05,-3.4674390804913394e-05,7.0,5.9333
3.765625,-2.929975851682306e-05,-5.2251709358358116e-05,-2.3440652332341484e-05,-3.369787310749979e-05,7.0,5.9333
3.76953125,-2.197966073853665e-05,-4.004145318837261e-05,-2.6862249225604626e-05,-3.125279391165025e-05,7.0,5.9333
3.7734375,-2.6862249225604626e-05,-3.369787310749979e-05,-2.4417170029755083e-05,-2.9791802317845414e-05,7.0,5.9333
3.77734375,-2.5393687727168666e-05,-3.320582930647744e-05,-3.320582930647744e-05,-3.2721355410086195e-05,7.0,5.9333
3.78125,-2.1003143041123053e-05,-3.4674390804913394e-05,-3.955697929198137e-05,-3.955697929198137e-05,7.0,5.9333
3.78515625,-2.6862249225604626e-05,-3.9064935490959014e-05,-4.1017970885786206e-05,-4.053349698939497e-05,7.0,5.9333
3.7890625,-3.515886470130463e-05,-4.7369120871290136e-05,-4.3947523978026994e-05,-3.4674390804913394e-05,7.0,5.9333
3.79296875,-3.4674390804913394e-05,-4.6877077070267776e-05,-4.5416085476462944e-05,-3.369787310749979e-05,7.0,5.9333
3.796875,-3.1744837712672606e-05,-4.3947523978026994e-05,-5.0783147859922167e-05,-3.320582930647744e-05,7.0,5.9333
3.80078125,-3.4182347003891034e-05,-4.3947523978026994e-05,-4.5416085476462944e-05,-3.2721355410086195e-05,7.0,5.9333
3.8046875,-3.4674390804913394e-05,-3.4674390804913394e-05,-3.662742619974058e-05,-3.4674390804913394e-05,7.0,5.9333
3.80859375,-3.711190009613182e-05,-2.3440652332341484e-05,-4.053349698939497e-05,-3.222931160906385e-05,7.0,5.9333
3.8125,-3.222931160906385e-05,-2.393269613336383e-05,-5.0783147859922167e-05,-3.320582930647744e-05,7.0,5.9333
3.81640625,-3.0768320015259e-05,-3.9064935490959014e-05,-3.858046159456777e-05,-3.222931160906385e-05,7.0,5.9333
3.8203125,-2.9791802317845414e-05,-4.5900559372854186e-05,-3.5650908502326984e-05,-2.9791802317845414e-05,7.0,5.9333
3.82421875,-2.5393687727168666e-05,-2.7346723121995865e-05,-3.369787310749979e-05,-2.2464134634927888e-05,7.0,5.9333
3.828125,-2.6862249225604626e-05,-2.7346723121995865e-05,-2.6370205424582265e-05,-1.9534581542687107e-05,7.0,5.9333
3.83203125,-2.393269613336383e-05,-4.19944885831998e-05,-1.758154614785991e-05,-2.2464134634927888e-05,7.0,5.9333
3.8359375,-2.1003143041123053e-05,-4.5416085476462944e-05,-1.758154614785991e-05,-1.8073589948882258e-05,7.0,5.9333
3.83984375,-1.9050107646295854e-05,-5.2251709358358116e-05,-3.9064935490959014e-05,-1.8073589948882258e-05,7.0,5.9333
3.84375,-1.6605028450446312e-05,-6.982902791180283e-05,-7.714912569008924e-05,-1.5628510753032712e-05,7.0,5.9333
3.84765625,-1.9050107646295854e-05,-8.593778496681162e-05,-9.667947963836117e-05,-1.0745922265964735e-05,7.0,5.9333
3.8515625,-1.758154614785991e-05,-8.886733805905239e-05,-8.252375797817958e-05,-4.394772280460813e-06,7.0,5.9333
3.85546875,-3.910298384069562e-06,-9.423440044251162e-05,-8.203171417715722e-05,-1.9572629892423804e-06,7.0,5.9333
3.859375,2.3924240944533466e-05,-0.00012645948445716028,-0.00012695152825818262,-3.418254583047215e-06,7.0,5.9333
3.86328125,3.759548870832381e-05,-0.00016796527154955366,-0.00017480089543144884,-4.886816081483161e-06,7.0,5.9333
3.8671875,4.7360665682459765e-05,-0.00018847214319523916,-0.0001928702577859159,-4.887014908064202e-07,7.0,5.9333
3.87109375,6.83520112245365e-05,-0.00019872936397039747,-0.00021581463872281985,4.393886996261556e-06,7.0,5.9333
3.875,8.886645277485315e-05,-0.00021044757633936062,-0.00023534499267109177,9.722901029984143e-07,7.0,5.9333
3.87890625,0.00010058466514381628,-0.00023193096568245973,-0.0002460866873426413,-3.418254583047215e-06,7.0,5.9333
3.8828125,0.0001049752098298619,-0.00024853176653849085,-0.0002631795319996948,-8.300843070115191e-06,7.0,5.9333
3.88671875,0.00011034984211795224,-0.0002641560496971084,-0.0002875924744350347,-2.0026625343709454e-05,7.0,5.9333
3.890625,0.00012548208147554742,-0.00027734282356450747,-0.00032372362923933776,-3.0768320015259e-05,7.0,5.9333
3.89453125,0.00012890367836881057,-0.0002939436244205386,-0.000338863438501564,-3.711190009613182e-05,7.0,5.9333
3.8984375,0.00013671581994811934,-0.000292967106723125,-0.0003354418416083009,-4.053349698939497e-05,7.0,5.9333
3.90234375,0.0001498950239108873,-0.0002919905890257114,-0.000340332,-3.9064935490959014e-05,7.0,5.9333
3.90625,0.00015576170000000002,-0.00030028720450141146,-0.00032470014693675137,-4.443956777904935e-05,7.0,5.9333
3.91015625,0.0001538010947005417,-0.00028954550982986186,-0.0003100523814755474,-5.566573634699014e-05,7.0,5.9333
3.9140625,0.00013573930225070573,-0.0002734367527748531,-0.00030566183678950177,-5.7134297845426097e-05,7.0,5.9333
3.91796875,0.00012988019606622415,-0.00025878898731364916,-0.00028270988594796676,-6.054832483405812e-05,7.0,5.9333
3.921875,0.00013720029384451057,-0.0002416961426565957,-0.0002690386381841764,-7.324305490043487e-05,7.0,5.9333
3.92578125,0.00012695064297398338,-0.0002133771294316014,-0.00026367157580071715,-7.86176871885252e-05,7.0,5.9333
3.9296875,0.00012255252838330665,-0.00020068239936522466,-0.00022802489489280535,-7.129001950560768e-05,7.0,5.9333
3.93359375,0.00010790476292210272,-0.0001928702577859159,-0.00020654150554970624,-7.568813409628441e-05,7.0,5.9333
3.9375,8.203082889295797e-05,-0.0001552705414831769,-0.00019237821398489355,-8.642982876783396e-05,7.0,5.9333
3.94140625,7.372664351262684e-05,-0.00012938903754940108,-0.0001713792985381857,-8.935938186007475e-05,7.0,5.9333
3.9453125,5.663379885557336e-05,-0.00012841251985198747,-0.0001591766122728313,-9.131241725490194e-05,7.0,5.9333
3.94921875,3.417389181506067e-05,-0.0001206003782726787,-0.0001337871521400778,-9.033589955748835e-05,7.0,5.9333
3.953125,2.0994687852292685e-05,-9.131241725490194e-05,-0.00010692913050888836,-9.033589955748835e-05,7.0,5.9333
3.95703125,8.299957785915936e-06,-7.178206330663004e-05,-0.00010253858582284274,-8.69143026642252e-05,7.0,5.9333
3.9609375,-4.227594415183944e-09,-5.859528943923093e-05,-7.617260799267566e-05,-8.545331107042037e-05,7.0,5.9333
3.96484375,-1.6605028450446312e-05,-3.662742619974058e-05,-4.5900559372854186e-05,-8.593778496681162e-05,7.0,5.9333
3.96875,-2.588573152819103e-05,-2.393269613336383e-05,-3.4182347003891034e-05,-8.593778496681162e-05,7.0,5.9333
3.97265625,-3.125279391165025e-05,-1.758154614785991e-05,-4.492404167544059e-05,-8.78908203616388e-05,7.0,5.9333
3.9765625,-4.443956777904935e-05,-7.324325372701594e-06,-4.443956777904935e-05,-8.593778496681162e-05,7.0,5.9333
3.98046875,-5.3712700952162955e-05,9.276475483329534e-06,-3.0768320015259e-05,-8.642982876783396e-05,7.0,5.9333
3.984375,-6.054832483405812e-05,2.050264405127032e-05,-1.9050107646295854e-05,-8.496126726939802e-05,7.0,5.9333
3.98828125,-6.689947481956206e-05,1.2690502471961565e-05,1.4643339040207621e-06,-8.057072258335239e-05,7.0,5.9333
3.9921875,-7.568813409628441e-05,1.4159063970397511e-05,1.0737467077134369e-05,-8.007867878233004e-05,7.0,5.9333
3.99609375,-7.959420488593879e-05,3.319737411764707e-05,7.323440088502337e-06,-7.910216108491645e-05,7.0,5.9333
4.0,-7.714912569008924e-05,4.1986033394369424e-05,1.0737467077134369e-05,-7.031350180819407e-05,7.0,5.9333
4.00390625,-7.812564338750285e-05,4.15015594979782e-05,9.276475483329534e-06,-6.201688633249408e-05,7.0,5.9333
4.0078125,-8.154724028076598e-05,5.0774692671091795e-05,2.0018170154879086e-05,-6.104036863508048e-05,7.0,5.9333
4.01171875,-8.105519647974364e-05,5.712584265659572e-05,5.468076346074619e-05,-6.201688633249408e-05,7.0,5.9333
4.015625,-8.057072258335239e-05,4.88216572762646e-05,5.2727728065918994e-05,-6.250136022888531e-05,7.0,5.9333
4.01953125,-8.007867878233004e-05,5.907887805142292e-05,2.9291303327992692e-05,-5.9571807136644524e-05,7.0,5.9333
4.0234375,-7.764116949111161e-05,7.128156431677732e-05,2.3924240944533466e-05,-5.7134297845426097e-05,7.0,5.9333
4.02734375,-8.300823187457082e-05,6.39614665384909e-05,3.661897101091023e-05,-5.7134297845426097e-05,7.0,5.9333
4.03125,-8.496126726939802e-05,6.346942273746854e-05,4.1986033394369424e-05,-5.664225404440374e-05,7.0,5.9333
4.03515625,-8.300823187457082e-05,4.638414798504618e-05,3.271290022125584e-05,-5.7134297845426097e-05,7.0,5.9333
4.0390625,-8.593778496681162e-05,3.564245331349661e-05,2.9291303327992692e-05,-6.104036863508048e-05,7.0,5.9333
4.04296875,-8.105519647974364e-05,4.003299799954223e-05,3.759548870832381e-05,-5.908733324025328e-05,7.0,5.9333
4.046875,-7.812564338750285e-05,4.003299799954223e-05,3.807996260471506e-05,-5.420474475318531e-05,7.0,5.9333
4.05078125,-8.007867878233004e-05,3.807996260471506e-05,2.3924240944533466e-05,-5.2251709358358116e-05,7.0,5.9333
4.0546875,-7.519609029526205e-05,3.661897101091023e-05,3.564245331349661e-05,-5.664225404440374e-05,7.0,5.9333
4.05859375,-7.812564338750285e-05,2.6853794036774258e-05,5.5657281158159775e-05,-5.6157780148012494e-05,7.0,5.9333
4.0625,-8.007867878233004e-05,4.100951569695584e-05,3.1736382523842235e-05,-5.175966555733576e-05,7.0,5.9333
4.06640625,-7.373509870145722e-05,5.1266736472114156e-05,2.050264405127032e-05,-5.3712700952162955e-05,7.0,5.9333
4.0703125,-7.080554560921644e-05,2.7338267933165497e-05,4.003299799954223e-05,-5.6157780148012494e-05,7.0,5.9333
4.07421875,-7.471161639887081e-05,3.417389181506067e-05,3.612692720988787e-05,-5.859528943923093e-05,7.0,5.9333
4.078125,-7.568813409628441e-05,4.247807719539179e-05,2.3432197143511116e-05,-5.468921864957655e-05,7.0,5.9333
4.08203125,-7.519609029526205e-05,2.197120554970628e-05,2.3432197143511116e-05,-5.3712700952162955e-05,7.0,5.9333
4.0859375,-7.714912569008924e-05,1.2690502471961565e-05,1.9041652457465486e-05,-5.566573634699014e-05,7.0,5.9333
4.08984375,-7.324305490043487e-05,2.2947723247119867e-05,1.6112099365224708e-05,-5.273618325474935e-05,7.0,5.9333
4.09375,-6.738394871595329e-05,2.5877276339360662e-05,2.9291303327992692e-05,-5.0783147859922167e-05,7.0,5.9333
4.09765625,-6.396992172732126e-05,2.7830311734187857e-05,2.978334712901504e-05,-4.785359476768138e-05,7.0,5.9333
4.1015625,-5.9571807136644524e-05,1.9041652457465486e-05,2.4408714840924715e-05,-4.9806630162508564e-05,7.0,5.9333
