timestamp,TP9,AF7,AF8,TP10,Valence,Arousal
0.0,5.368277866788815e-06,-0.00015428781636530093,-0.00013134211090409697,1.8064072442206536e-05,5.9286,3.3571
0.00390625,1.2685201107805071e-05,-0.0001332905267246509,-0.0001586821158754863,1.6105292707713515e-05,5.9286,3.3571
0.0078125,1.757696848706806e-05,-0.00020165090306706334,-0.00020165090306706334,1.3182668976882652e-05,5.9286,3.3571
0.01171875,2.3919683817807354e-05,-0.0002353439872831311,-0.0002373027670176241,5.368277866788815e-06,5.9286,3.3571
0.015625,2.5878463552300388e-05,-0.00021142407391165022,-0.00025536706901350416,-6.353308798351946e-06,5.9286,3.3571
0.01953125,3.0272763062485778e-05,-0.0002304625838178072,-0.00027489268287479967,-1.6116115728999703e-05,5.9286,3.3571
0.0234375,2.8313983327992757e-05,-0.00024609136603799493,-0.00026464277198901345,-2.1982091018539633e-05,5.9286,3.3571
0.02734375,3.222117888303967e-05,-0.00026073557643396653,-0.0002866142695399404,-3.857471723506516e-05,5.9286,3.3571
0.03125,4.637828532387283e-05,-0.0002338826754177157,-0.00026073557643396653,-4.834788807965202e-05,5.9286,3.3571
0.03515625,4.345566159304198e-05,-0.00022606828430762183,-0.0002480397818585488,-4.932209598992897e-05,5.9286,3.3571
0.0390625,4.589118136873435e-05,-0.00023631819519340805,-0.00026366856407873646,-6.738639798580903e-05,5.9286,3.3571
0.04296875,4.198398581368741e-05,-0.0002026354748912794,-0.00025878716061341267,-8.887079158159756e-05,5.9286,3.3571
0.046875,1.6592396662851982e-05,-0.00020555809862211026,-0.0002504856655481803,-0.00010156658615701527,5.9286,3.3571
0.05078125,2.7826879372854276e-05,-0.00018212528920576784,-0.000196282395646601,-0.0001069247296635385,5.9286,3.3571
0.0546875,4.736285714808889e-05,-0.00018358660107118326,-0.0002089781902220187,-0.00011718500446326385,5.9286,3.3571
0.05859375,4.394276554818043e-05,-0.00015575949214465546,-0.00019676949960173947,-0.0001264607074387731,5.9286,3.3571
0.0625,3.5641270482948125e-05,-0.00012109220001831075,-0.00016210220747539476,-0.00013134211090409697,5.9286,3.3571
0.06640625,3.0759867017624255e-05,-0.00011230360099793996,-0.0001332905267246509,-0.00013573641041428236,5.9286,3.3571
0.0703125,3.6128374438086606e-05,-6.005911083085367e-05,-9.571097478141444e-05,-0.00013818229410391387,5.9286,3.3571
0.07421875,3.173407492790119e-05,-9.619807873655293e-05,-0.00013036790299382004,-0.0001401307099244678,5.9286,3.3571
0.078125,2.73397754177158e-05,-8.252807625085824e-05,-9.717228664682987e-05,-0.00014257659361409928,5.9286,3.3571
0.08203125,2.1971267997253448e-05,-4.199480883497361e-05,-7.813377674067286e-05,-0.00014306369756923775,5.9286,3.3571
0.0859375,4.0522673948271996e-05,-5.127051181048288e-05,-9.961817033646137e-05,-0.00014501211338979167,5.9286,3.3571
0.08984375,3.8563894213778975e-05,-3.467788559395735e-05,-7.275490540627139e-05,-0.0001401307099244678,5.9286,3.3571
0.09375,7.31669368734272e-06,-3.418041772487976e-05,-4.590200439002053e-05,-0.00014306369756923775,5.9286,3.3571
0.09765625,6.3424857770657605e-06,-2.929901425955589e-05,-4.296901674525055e-05,-0.0001440379054795147,5.9286,3.3571
0.1015625,1.5131084797436557e-05,-6.840412753490426e-06,-4.150770487983513e-05,-0.00013036790299382004,5.9286,3.3571
0.10546875,2.922394177157315e-06,2.922394177157315e-06,-2.929901425955589e-05,-0.0001181592123735408,5.9286,3.3571
0.109375,-4.891996932936521e-06,-2.2955367353461042e-10,-9.84801377889596e-07,-0.00010888350939803152,5.9286,3.3571
0.11328125,-2.0023311284046612e-05,9.27547342183574e-06,8.788369466697262e-06,-0.00010888350939803152,5.9286,3.3571
0.1171875,-3.516498954909583e-05,1.9038280352483483e-05,1.4156876887159611e-05,-9.91310663813229e-05,5.9286,3.3571
0.12109375,-2.637639052872504e-05,1.4610823117418903e-06,1.1223889242389646e-05,-9.180377922636751e-05,5.9286,3.3571
0.125,-1.953620732890815e-05,2.4352902220188496e-06,8.788369466697262e-06,-9.277798713664446e-05,5.9286,3.3571
0.12890625,-1.7587791508354243e-05,-4.976974227511306e-07,-3.90742510872046e-06,-8.935789553673604e-05,5.9286,3.3571
0.1328125,-1.1234712263675831e-05,1.1223889242389646e-05,-8.799192487983447e-06,-8.740947971618213e-05,5.9286,3.3571
0.13671875,-1.7090323639276647e-05,2.245837195239193e-05,-1.2696024129091256e-05,-8.98449994918745e-05,5.9286,3.3571
0.140625,-2.7837702394140465e-05,2.4893891728084298e-05,-1.3193491998168838e-05,-9.522387082627596e-05,5.9286,3.3571
0.14453125,-3.56520935042343e-05,2.6365567507438838e-05,-7.327516708628906e-06,-9.375219504692142e-05,5.9286,3.3571
0.1484375,-2.881191030441741e-05,3.896602087434274e-06,2.0499592217898908e-05,-8.692237576104365e-05,5.9286,3.3571
0.15234375,-2.881191030441741e-05,-1.9590092881665555e-06,-3.90742510872046e-06,-7.71492049164568e-05,5.9286,3.3571
0.15625,-3.76005093247882e-05,1.94818626688037e-06,-4.053349696955818e-05,-7.617499700617984e-05,5.9286,3.3571
0.16015625,-4.248191279011208e-05,3.3682490748455105e-05,-2.6863494483863517e-05,-8.154350442664218e-05,5.9286,3.3571
0.1640625,-4.150770487983513e-05,4.1009777903410476e-05,-2.2469194973678114e-05,-7.71492049164568e-05,5.9286,3.3571
0.16796875,-3.418041772487976e-05,4.198398581368741e-05,4.003556999313352e-05,-6.787350194094751e-05,5.9286,3.3571
0.171875,-3.516498954909583e-05,4.442986950331891e-05,6.688847100938437e-05,-6.153078661020822e-05,5.9286,3.3571
0.17578125,-3.955928905928122e-05,8.788369466697262e-06,-2.5391818704508963e-05,-5.957200687571519e-05,5.9286,3.3571
0.1796875,-4.0046393014419703e-05,4.881173911650336e-06,-4.44406925246051e-05,-6.0556578699931265e-05,5.9286,3.3571
0.18359375,-3.613919745937278e-05,3.319538679331663e-05,-1.0747608308537352e-05,-6.445341034103908e-05,5.9286,3.3571
0.1875,-4.638910834515901e-05,1.2685201107805071e-05,-1.1721816218814296e-05,-5.2255083634698946e-05,5.9286,3.3571
0.19140625,-6.0556578699931265e-05,1.94818626688037e-06,-1.2696024129091256e-05,-5.32292915449759e-05,5.9286,3.3571
0.1953125,-4.150770487983513e-05,4.5404077413595866e-05,4.881173911650336e-06,-6.39663063859006e-05,5.9286,3.3571
0.19921875,-4.687621230029748e-05,1.3669772932021132e-05,-3.4203211535819803e-06,-6.0556578699931265e-05,5.9286,3.3571
0.203125,-4.834788807965202e-05,-9.84801377889596e-07,-1.9590092881665555e-06,-5.274218758983742e-05,5.9286,3.3571
0.20703125,-2.637639052872504e-05,3.80767902586405e-05,-1.5629011773861222e-05,-5.3716395500114374e-05,5.9286,3.3571
0.2109375,-4.44406925246051e-05,1.6592396662851982e-05,-1.5141907818722742e-05,-5.664938314488434e-05,5.9286,3.3571
0.21484375,-4.88349920347905e-05,1.952538430762196e-05,6.82958973220424e-06,-4.638910834515901e-05,5.9286,3.3571
0.21875,-2.881191030441741e-05,3.954846603799504e-05,-3.4203211535819803e-06,-3.76005093247882e-05,5.9286,3.3571
0.22265625,-3.0283586083771963e-05,1.8551176397345003e-05,1.3182668976882652e-05,-3.907218510414274e-05,5.9286,3.3571
0.2265625,-2.1982091018539633e-05,1.7079500617990462e-05,2.1971267997253448e-05,-3.662630141451126e-05,5.9286,3.3571
0.23046875,-2.1982091018539633e-05,2.3919683817807354e-05,2.001248826276044e-05,-3.174489794918739e-05,5.9286,3.3571
0.234375,-4.3953588569466626e-05,3.270828283817815e-05,2.3432579862668887e-05,-2.5391818704508963e-05,5.9286,3.3571
0.23828125,-3.808761327992668e-05,3.319538679331663e-05,1.2685201107805071e-05,-2.441761079423202e-05,5.9286,3.3571
0.2421875,-2.5878922659647444e-05,1.8064072442206536e-05,2.0986696173037385e-05,-2.8324806349278942e-05,5.9286,3.3571
0.24609375,-1.5629011773861222e-05,2.0986696173037385e-05,1.4156876887159611e-05,-2.5391818704508963e-05,5.9286,3.3571
0.25,-1.2208920173952777e-05,-9.773400398260393e-06,1.4643980842298092e-05,-2.148462314946205e-05,5.9286,3.3571
0.25390625,-3.369331376974129e-05,-1.5141907818722742e-05,-1.2696024129091256e-05,-3.613919745937278e-05,5.9286,3.3571
0.2578125,-4.44406925246051e-05,7.8037976424812e-06,-1.4167699908445798e-05,-4.053349696955818e-05,5.9286,3.3571
0.26171875,-4.638910834515901e-05,-1.4719053330280758e-06,8.290901597619666e-06,-2.8324806349278942e-05,5.9286,3.3571
0.265625,-4.248191279011208e-05,-1.1234712263675831e-05,-1.1234712263675831e-05,-2.929901425955589e-05,5.9286,3.3571
0.26953125,-2.2956298928816594e-05,-2.3443402883955058e-05,-2.0023311284046612e-05,-3.174489794918739e-05,5.9286,3.3571
0.2734375,-9.286296443121926e-06,-3.418041772487976e-05,1.5618188752575038e-05,-2.7837702394140465e-05,5.9286,3.3571
0.27734375,-1.7090323639276647e-05,-3.223200190432585e-05,-1.4654803863584277e-05,-2.881191030441741e-05,5.9286,3.3571
0.28125,-1.953620732890815e-05,-4.346648461432815e-05,-1.4167699908445798e-05,-2.2956298928816594e-05,5.9286,3.3571
0.28515625,-1.3193491998168838e-05,-1.6116115728999703e-05,3.3682490748455105e-05,-2.5391818704508963e-05,5.9286,3.3571
0.2890625,-1.3193491998168838e-05,-2.3443402883955058e-05,2.3919683817807354e-05,-3.223200190432585e-05,5.9286,3.3571
0.29296875,-1.4654803863584277e-05,-4.786078412451355e-05,1.4643980842298092e-05,-4.0046393014419703e-05,5.9286,3.3571
0.296875,-1.4167699908445798e-05,-1.7587791508354243e-05,1.6105292707713515e-05,-4.102060092469666e-05,5.9286,3.3571
0.30078125,-8.799192487983447e-06,-6.353308798351946e-06,2.245837195239193e-05,-3.125779399404891e-05,5.9286,3.3571
0.3046875,-1.2696024129091256e-05,2.922394177157315e-06,2.3919683817807354e-05,-2.5391818704508963e-05,5.9286,3.3571
0.30859375,-1.0260504353398871e-05,1.94818626688037e-06,2.2945475907530406e-05,-2.881191030441741e-05,5.9286,3.3571
0.3125,1.4610823117418903e-06,-1.4167699908445798e-05,1.8064072442206536e-05,-2.5391818704508963e-05,5.9286,3.3571
0.31640625,-1.9590092881665555e-06,1.6592396662851982e-05,3.4169594703593585e-05,-1.8561999418631187e-05,5.9286,3.3571
0.3203125,-1.5141907818722742e-05,9.762577376974206e-06,5.1757156658274284e-05,-2.2469194973678114e-05,5.9286,3.3571
0.32421875,-1.8074895463492724e-05,-1.4654803863584277e-05,8.788369466697262e-06,-2.6863494483863517e-05,5.9286,3.3571
0.328125,-1.9049103373769668e-05,-6.840412753490426e-06,-2.8324806349278942e-05,-2.6863494483863517e-05,5.9286,3.3571
0.33203125,-2.5391818704508963e-05,-1.8074895463492724e-05,-2.1982091018539633e-05,-1.7587791508354243e-05,5.9286,3.3571
0.3359375,-1.5629011773861222e-05,-3.174489794918739e-05,-1.0747608308537352e-05,-1.953620732890815e-05,5.9286,3.3571
0.33984375,-1.5141907818722742e-05,-2.4904714749370496e-05,1.4610823117418903e-06,-2.0510415239185093e-05,5.9286,3.3571
0.34375,-1.3680595953307317e-05,-9.773400398260393e-06,1.1710993197528111e-05,-2.441761079423202e-05,5.9286,3.3571
0.34765625,-2.4461132433050352e-06,-8.30172461890585e-06,6.3424857770657605e-06,-3.613919745937278e-05,5.9286,3.3571
0.3515625,-2.2955367353461042e-10,-1.1721816218814296e-05,1.5618188752575038e-05,-2.8324806349278942e-05,5.9286,3.3571
0.35546875,-5.866204843213481e-06,-2.9332171984435006e-06,1.3669772932021132e-05,-2.637639052872504e-05,5.9286,3.3571
0.359375,-2.2469194973678114e-05,-8.30172461890585e-06,9.27547342183574e-06,-3.271910585946433e-05,5.9286,3.3571
0.36328125,-3.662630141451126e-05,-3.711340536964974e-05,5.12596887891967e-05,-3.369331376974129e-05,5.9286,3.3571
0.3671875,-2.881191030441741e-05,-6.0556578699931265e-05,2.73397754177158e-05,-3.320620981460281e-05,5.9286,3.3571
0.37109375,-1.9049103373769668e-05,-5.664938314488434e-05,-3.271910585946433e-05,-4.199480883497361e-05,5.9286,3.3571
0.375,-1.6116115728999703e-05,-4.0046393014419703e-05,-2.441761079423202e-05,-4.786078412451355e-05,5.9286,3.3571
0.37890625,-4.976974227511306e-07,-2.7837702394140465e-05,-1.3680595953307317e-05,-4.3953588569466626e-05,5.9286,3.3571
0.3828125,1.3669772932021132e-05,-1.7090323639276647e-05,-7.327516708628906e-06,-4.199480883497361e-05,5.9286,3.3571
0.38671875,6.3424857770657605e-06,-3.613919745937278e-05,-2.2956298928816594e-05,-4.638910834515901e-05,5.9286,3.3571
0.390625,6.3424857770657605e-06,-1.3680595953307317e-05,-5.32292915449759e-05,-5.616227918974586e-05,5.9286,3.3571
0.39453125,1.757696848706806e-05,-3.4203211535819803e-06,-3.955928905928122e-05,-5.7623591055161297e-05,5.9286,3.3571
0.3984375,1.219809715266659e-05,-2.441761079423202e-05,-2.4904714749370496e-05,-5.420349945525285e-05,5.9286,3.3571
0.40234375,1.94818626688037e-06,-2.2955367353461042e-10,-7.814620663767372e-06,-5.664938314488434e-05,5.9286,3.3571
0.40625,-4.976974227511306e-07,-8.30172461890585e-06,2.922394177157315e-06,-5.32292915449759e-05,5.9286,3.3571
0.41015625,6.3424857770657605e-06,-2.5391818704508963e-05,-4.394529063858925e-06,-3.76005093247882e-05,5.9286,3.3571
0.4140625,-2.9332171984435006e-06,-1.2696024129091256e-05,2.4352902220188496e-06,-3.125779399404891e-05,5.9286,3.3571
0.41796875,-8.30172461890585e-06,-1.2208920173952777e-05,4.881173911650336e-06,-3.857471723506516e-05,5.9286,3.3571
0.421875,-5.866204843213481e-06,1.5131084797436557e-05,3.896602087434274e-06,-3.662630141451126e-05,5.9286,3.3571
0.42578125,9.739783566034106e-07,2.9288191238269718e-05,4.868744014649451e-07,-3.467788559395735e-05,5.9286,3.3571
0.4296875,6.82958973220424e-06,-8.799192487983447e-06,1.0736785287251166e-05,-3.56520935042343e-05,5.9286,3.3571
0.43359375,3.896602087434274e-06,-2.441761079423202e-05,9.739783566034106e-07,-3.271910585946433e-05,5.9286,3.3571
0.4375,-4.976974227511306e-07,1.1223889242389646e-05,-1.3193491998168838e-05,-3.077069003891043e-05,5.9286,3.3571
0.44140625,4.868744014649451e-07,1.952538430762196e-05,4.833706505836585e-05,-2.393050683909354e-05,5.9286,3.3571
0.4453125,2.922394177157315e-06,-6.353308798351946e-06,4.784996110322737e-05,-2.5878922659647444e-05,5.9286,3.3571
0.44921875,6.82958973220424e-06,-4.891996932936521e-06,-4.976974227511306e-07,-3.0283586083771963e-05,5.9286,3.3571
0.453125,2.4352902220188496e-06,1.1223889242389646e-05,2.6365567507438838e-05,-2.7350598439001984e-05,5.9286,3.3571
0.45703125,-1.9590092881665555e-06,2.440678777294583e-05,2.148416404211498e-05,-2.4904714749370496e-05,5.9286,3.3571
0.4609375,9.739783566034106e-07,2.245837195239193e-05,2.2945475907530406e-05,-1.7090323639276647e-05,5.9286,3.3571
0.46484375,-6.840412753490426e-06,1.1710993197528111e-05,4.833706505836585e-05,-2.0997519194323573e-05,5.9286,3.3571
0.46875,-5.866204843213481e-06,-1.3193491998168838e-05,2.2945475907530406e-05,-2.637639052872504e-05,5.9286,3.3571
0.47265625,4.868744014649451e-07,-1.2208920173952777e-05,7.31669368734272e-06,-2.4904714749370496e-05,5.9286,3.3571
0.4765625,-9.84801377889596e-07,1.7079500617990462e-05,4.88241690135043e-05,-1.5629011773861222e-05,5.9286,3.3571
0.48046875,-6.840412753490426e-06,2.8313983327992757e-05,4.491697345845739e-05,-7.814620663767372e-06,5.9286,3.3571
0.484375,-6.840412753490426e-06,1.9038280352483483e-05,1.8064072442206536e-05,-1.8074895463492724e-05,5.9286,3.3571
0.48828125,-8.30172461890585e-06,2.6365567507438838e-05,3.954846603799504e-05,-2.7837702394140465e-05,5.9286,3.3571
0.4921875,-3.4203211535819803e-06,1.3182668976882652e-05,2.685267146257732e-05,-3.907218510414274e-05,5.9286,3.3571
0.49609375,-6.840412753490426e-06,-1.7587791508354243e-05,8.788369466697262e-06,-3.662630141451126e-05,5.9286,3.3571
0.5,-4.394529063858925e-06,-1.8074895463492724e-05,2.8313983327992757e-05,-2.8324806349278942e-05,5.9286,3.3571
0.50390625,1.94818626688037e-06,-2.881191030441741e-05,3.8563894213778975e-05,-1.4654803863584277e-05,5.9286,3.3571
0.5078125,-8.799192487983447e-06,-1.8074895463492724e-05,2.245837195239193e-05,-1.0747608308537352e-05,5.9286,3.3571
0.51171875,-1.2696024129091256e-05,-1.6116115728999703e-05,1.5618188752575038e-05,-1.2208920173952777e-05,5.9286,3.3571
0.515625,-7.814620663767372e-06,-1.5629011773861222e-05,2.3432579862668887e-05,-1.4654803863584277e-05,5.9286,3.3571
0.51953125,4.881173911650336e-06,-4.394529063858925e-06,1.219809715266659e-05,-1.953620732890815e-05,5.9286,3.3571
0.5234375,7.31669368734272e-06,-1.5141907818722742e-05,1.1223889242389646e-05,-1.6603219684138167e-05,5.9286,3.3571
0.52734375,-3.90742510872046e-06,-4.150770487983513e-05,1.8064072442206536e-05,-1.6603219684138167e-05,5.9286,3.3571
0.53125,-2.9332171984435006e-06,-5.420349945525285e-05,-1.2208920173952777e-05,-1.953620732890815e-05,5.9286,3.3571
0.53515625,2.4352902220188496e-06,-4.590200439002053e-05,-1.4167699908445798e-05,-2.1982091018539633e-05,5.9286,3.3571
0.5390625,-9.84801377889596e-07,-3.369331376974129e-05,3.270828283817815e-05,-2.0510415239185093e-05,5.9286,3.3571
0.54296875,-1.4654803863584277e-05,-3.418041772487976e-05,4.1009777903410476e-05,-1.5141907818722742e-05,5.9286,3.3571
0.546875,-1.5629011773861222e-05,-4.736331625543595e-05,1.7079500617990462e-05,-1.6603219684138167e-05,5.9286,3.3571
0.55078125,-1.1721816218814296e-05,-6.299209847562363e-05,-1.3193491998168838e-05,-1.8561999418631187e-05,5.9286,3.3571
0.5546875,-8.799192487983447e-06,-4.687621230029748e-05,-2.7350598439001984e-05,-2.441761079423202e-05,5.9286,3.3571
0.55859375,-7.327516708628906e-06,-3.369331376974129e-05,4.868744014649451e-07,-3.223200190432585e-05,5.9286,3.3571
0.5625,-2.7350598439001984e-05,-8.30172461890585e-06,6.82958973220424e-06,-2.9786118214694367e-05,5.9286,3.3571
0.56640625,-1.7090323639276647e-05,-3.369331376974129e-05,-5.379100888075001e-06,-2.1982091018539633e-05,5.9286,3.3571
0.5703125,-6.840412753490426e-06,-4.5414900434882054e-05,-1.1721816218814296e-05,-9.773400398260393e-06,5.9286,3.3571
0.57421875,-7.814620663767372e-06,-4.736331625543595e-05,-1.0260504353398871e-05,-4.394529063858925e-06,5.9286,3.3571
0.578125,-1.1234712263675831e-05,-6.20178905653467e-05,-2.2955367353461042e-10,-8.799192487983447e-06,5.9286,3.3571
0.58203125,-1.8074895463492724e-05,-2.5878922659647444e-05,1.4156876887159611e-05,-1.6116115728999703e-05,5.9286,3.3571
0.5859375,-1.5141907818722742e-05,-2.8324806349278942e-05,7.8037976424812e-06,-2.0997519194323573e-05,5.9286,3.3571
0.58984375,-1.6116115728999703e-05,-4.590200439002053e-05,1.6592396662851982e-05,-1.7090323639276647e-05,5.9286,3.3571
0.59375,-9.286296443121926e-06,-2.9332171984435006e-06,6.3424857770657605e-06,-1.6116115728999703e-05,5.9286,3.3571
0.59765625,-2.2955367353461042e-10,-1.4719053330280758e-06,-2.1982091018539633e-05,-1.7090323639276647e-05,5.9286,3.3571
0.6015625,-1.2696024129091256e-05,-3.174489794918739e-05,-3.711340536964974e-05,-1.5629011773861222e-05,5.9286,3.3571
0.60546875,-1.1721816218814296e-05,-4.44406925246051e-05,-3.369331376974129e-05,-1.3680595953307317e-05,5.9286,3.3571
0.609375,-7.814620663767372e-06,-4.296901674525055e-05,-1.4719053330280758e-06,-1.3680595953307317e-05,5.9286,3.3571
0.61328125,-1.9049103373769668e-05,-1.9049103373769668e-05,-1.9590092881665555e-06,-1.3193491998168838e-05,5.9286,3.3571
0.6171875,-9.286296443121926e-06,-1.8561999418631187e-05,-7.327516708628906e-06,-1.6116115728999703e-05,5.9286,3.3571
0.62109375,-2.9332171984435006e-06,-1.4654803863584277e-05,-7.327516708628906e-06,-2.3443402883955058e-05,5.9286,3.3571
0.625,-1.3193491998168838e-05,-2.881191030441741e-05,-3.077069003891043e-05,-2.0997519194323573e-05,5.9286,3.3571
0.62890625,-7.327516708628906e-06,-4.296901674525055e-05,-5.379100888075001e-06,-1.7090323639276647e-05,5.9286,3.3571
0.6328125,-2.4461132433050352e-06,-4.248191279011208e-05,1.5131084797436557e-05,-1.953620732890815e-05,5.9286,3.3571
0.63671875,-4.891996932936521e-06,-3.0283586083771963e-05,6.3424857770657605e-06,-1.3680595953307317e-05,5.9286,3.3571
0.640625,-5.866204843213481e-06,-5.07834078553444e-05,-5.7623591055161297e-05,-1.8074895463492724e-05,5.9286,3.3571
0.64453125,-1.4719053330280758e-06,-6.592508612039362e-05,-8.545069998168911e-05,-2.2956298928816594e-05,5.9286,3.3571
0.6484375,-4.976974227511306e-07,-4.346648461432815e-05,-3.223200190432585e-05,-1.4167699908445798e-05,5.9286,3.3571
0.65234375,-1.0747608308537352e-05,-5.664938314488434e-05,-3.808761327992668e-05,-1.6603219684138167e-05,5.9286,3.3571
0.65625,-6.353308798351946e-06,-6.64121900755321e-05,-7.0319385630579e-05,-2.0510415239185093e-05,5.9286,3.3571
0.66015625,-2.4461132433050352e-06,-9.033210344701297e-05,-8.78965836713206e-05,-3.174489794918739e-05,5.9286,3.3571
0.6640625,1.3182668976882652e-05,-9.571097478141444e-05,-0.00011034482126344694,-3.271910585946433e-05,5.9286,3.3571
0.66796875,2.538099568322278e-05,-7.71492049164568e-05,-0.00011180613312886238,-1.4654803863584277e-05,5.9286,3.3571
0.671875,2.001248826276044e-05,-0.00011180613312886238,-0.00010888350939803152,-1.7090323639276647e-05,5.9286,3.3571
0.67578125,1.6592396662851982e-05,-0.00012939369508354308,-9.814649455710682e-05,-1.5629011773861222e-05,5.9286,3.3571
0.6796875,3.466706257267117e-05,-0.00012010762819409469,-0.00010254079406729222,-1.9590092881665555e-06,5.9286,3.3571
0.68359375,3.954846603799504e-05,-0.00011522622472877083,-0.00013476220250400545,-8.799192487983447e-06,5.9286,3.3571
0.6875,5.0285480878919737e-05,-0.00011621079655298689,-0.0001611279995651178,-1.5141907818722742e-05,5.9286,3.3571
0.69140625,5.273136456855124e-05,-0.0001396436059693293,-0.00012109220001831075,-1.4654803863584277e-05,5.9286,3.3571
0.6953125,4.491697345845739e-05,-0.00014355080152437621,-8.935789553673604e-05,-9.286296443121926e-06,5.9286,3.3571
0.69921875,5.0285480878919737e-05,-0.00013134211090409697,-0.00012109220001831075,-3.4203211535819803e-06,5.9286,3.3571
0.703125,5.858697594415207e-05,-0.00012792201930418852,-0.00014501211338979167,-2.9332171984435006e-06,5.9286,3.3571
0.70703125,4.491697345845739e-05,-0.00014257659361409928,-0.00013036790299382004,-3.4203211535819803e-06,5.9286,3.3571
0.7109375,2.538099568322278e-05,-0.0001352493064591439,-0.00010400210593270765,-1.8074895463492724e-05,5.9286,3.3571
0.71484375,2.8313983327992757e-05,-7.422658118562593e-05,-7.764667278553438e-05,-3.955928905928122e-05,5.9286,3.3571
0.71875,2.9288191238269718e-05,-2.7837702394140465e-05,-4.248191279011208e-05,-4.102060092469666e-05,5.9286,3.3571
0.72265625,9.762577376974206e-06,-5.8597798965438244e-05,5.855381821927295e-06,-2.929901425955589e-05,5.9286,3.3571
0.7265625,5.855381821927295e-06,-7.764667278553438e-05,-2.637639052872504e-05,-2.441761079423202e-05,5.9286,3.3571
0.73046875,1.7079500617990462e-05,-3.808761327992668e-05,-4.980919994506745e-05,-3.320620981460281e-05,5.9286,3.3571
0.734375,9.27547342183574e-06,-1.6603219684138167e-05,4.881173911650336e-06,-3.907218510414274e-05,5.9286,3.3571
0.73828125,-5.866204843213481e-06,-1.9590092881665555e-06,3.6128374438086606e-05,-3.223200190432585e-05,5.9286,3.3571
0.7421875,-2.4461132433050352e-06,7.8037976424812e-06,2.8801087283131238e-05,-3.271910585946433e-05,5.9286,3.3571
0.74609375,3.896602087434274e-06,1.4643980842298092e-05,3.8563894213778975e-05,-3.418041772487976e-05,5.9286,3.3571
0.75,-1.9590092881665555e-06,3.758968630350202e-05,7.812295371938668e-05,-2.881191030441741e-05,5.9286,3.3571
0.75390625,-9.286296443121926e-06,2.440678777294583e-05,9.422847598077371e-05,-2.881191030441741e-05,5.9286,3.3571
0.7578125,-1.2696024129091256e-05,4.736285714808889e-05,9.618725571526673e-05,-2.4904714749370496e-05,5.9286,3.3571
0.76171875,-1.2696024129091256e-05,0.00012401436464179452,0.00012646024833142604,-3.125779399404891e-05,5.9286,3.3571
0.765625,-1.0747608308537352e-05,0.00011131857006637682,0.00013476174339665837,-3.271910585946433e-05,5.9286,3.3571
0.76953125,-1.5141907818722742e-05,7.665127794003211e-05,0.00014306323846189066,-3.174489794918739e-05,5.9286,3.3571
0.7734375,-2.5878922659647444e-05,7.861005767452513e-05,0.00016796772365758767,-3.223200190432585e-05,5.9286,3.3571
0.77734375,-2.5391818704508963e-05,9.618725571526673e-05,0.00013280296366216534,-2.393050683909354e-05,5.9286,3.3571
0.78125,-2.2469194973678114e-05,0.00010009445127031366,0.00012450146859693302,-1.7587791508354243e-05,5.9286,3.3571
0.78515625,-1.9049103373769668e-05,0.00011913296117647066,0.00015428735725795387,-1.5629011773861222e-05,5.9286,3.3571
0.7890625,-1.2696024129091256e-05,0.00015039052561684603,0.0001533131493476769,-1.8561999418631187e-05,5.9286,3.3571
0.79296875,-2.0023311284046612e-05,8.495277300526445e-05,0.0001342746394415199,-2.148462314946205e-05,5.9286,3.3571
0.796875,-2.5878922659647444e-05,0.00010888305029068445,0.00014452455032730612,-1.6116115728999703e-05,5.9286,3.3571
0.80078125,-1.953620732890815e-05,0.00017870473849851236,0.0001337875354863814,-9.286296443121926e-06,5.9286,3.3571
0.8046875,-9.286296443121926e-06,0.00013134165179674992,0.00016552183996795615,-3.4203211535819803e-06,5.9286,3.3571
0.80859375,-5.379100888075001e-06,0.00011034436215609988,0.00016064043650263225,4.39406995651187e-06,5.9286,3.3571
0.8125,-3.90742510872046e-06,0.00012499893646601064,0.00011621033744563982,-1.4719053330280758e-06,5.9286,3.3571
0.81640625,4.868744014649451e-07,0.00014159156268253614,0.00013524884735179686,-1.9590092881665555e-06,5.9286,3.3571
0.8203125,3.4094981322957946e-06,0.00015478482512703147,0.00019335931280842303,1.7079500617990462e-05,5.9286,3.3571
0.82421875,1.4610823117418903e-06,0.00012401436464179452,0.00020458343160448622,3.0272763062485778e-05,5.9286,3.3571
0.828125,6.82958973220424e-06,0.00011181603793545442,0.00019140053307393,2.3432579862668887e-05,5.9286,3.3571
0.83203125,1.0736785287251166e-05,0.00013622305526207377,0.0001967690404943924,2.1971267997253448e-05,5.9286,3.3571
0.8359375,1.1223889242389646e-05,0.00017236202316777303,0.00019237474098420697,3.1246970972762736e-05,5.9286,3.3571
0.83984375,1.6105292707713515e-05,0.00018554492169832923,0.00021337203062485706,3.515416652780965e-05,5.9286,3.3571
0.84375,1.0249681332112687e-05,0.00013476174339665837,0.00023046212471046016,3.8563894213778975e-05,5.9286,3.3571
0.84765625,7.31669368734272e-06,0.00010155576313572907,0.00020067623604943935,4.149688185854896e-05,5.9286,3.3571
0.8515625,1.3669772932021132e-05,0.00010790884238040749,0.00017431043898832695,3.710258234836354e-05,5.9286,3.3571
0.85546875,1.2685201107805071e-05,0.00013769473104142832,0.0001865191296086062,3.661547839322506e-05,5.9286,3.3571
0.859375,4.39406995651187e-06,0.00014306323846189066,0.00021874053804531938,4.491697345845739e-05,5.9286,3.3571
0.86328125,6.82958973220424e-06,0.00011913296117647066,0.00022264773360036632,4.88241690135043e-05,5.9286,3.3571
0.8671875,1.1710993197528111e-05,0.00012352726068665606,0.00020946483506981012,4.833706505836585e-05,5.9286,3.3571
0.87109375,3.4094981322957946e-06,0.0001098572582009614,0.00023632810000000012,5.321846852368972e-05,5.9286,3.3571
0.875,2.4352902220188496e-06,0.00010643716660105295,0.00023192343657587558,4.686538927901131e-05,5.9286,3.3571
0.87890625,1.1223889242389646e-05,0.00013182875575188838,0.00017675632267795844,4.589118136873435e-05,5.9286,3.3571
0.8828125,9.762577376974206e-06,0.0001298803399313345,0.00019335931280842303,5.0285480878919737e-05,5.9286,3.3571
0.88671875,7.8037976424812e-06,0.00011327734980086984,0.0001884675454291601,4.5404077413595866e-05,5.9286,3.3571
0.890625,1.7079500617990462e-05,7.518996607461671e-05,0.00015185183748226148,4.442986950331891e-05,5.9286,3.3571
0.89453125,1.5131084797436557e-05,4.149688185854896e-05,0.00016064043650263225,4.686538927901131e-05,5.9286,3.3571
0.8984375,4.881173911650336e-06,7.128277051956977e-05,0.00018895464938429858,4.5404077413595866e-05,5.9286,3.3571
0.90234375,6.82958973220424e-06,0.00010790884238040749,0.00019140053307393,4.247108976882589e-05,5.9286,3.3571
0.90625,7.31669368734272e-06,0.00012304015673151762,0.00016796772365758767,3.319538679331663e-05,5.9286,3.3571
0.91015625,3.896602087434274e-06,0.00011376445375600832,0.0001450116542824446,2.9775295193408168e-05,5.9286,3.3571
0.9140625,6.3424857770657605e-06,0.00010742173842526904,0.00016845482761272614,3.5641270482948125e-05,5.9286,3.3571
0.91796875,8.788369466697262e-06,8.153268140535601e-05,0.00018163772614328229,3.173407492790119e-05,5.9286,3.3571
0.921875,5.368277866788815e-06,7.225697842984673e-05,0.00015087762957198452,2.7826879372854276e-05,5.9286,3.3571
0.92578125,3.4094981322957946e-06,9.374137202563526e-05,0.00015673324094758533,3.5641270482948125e-05,5.9286,3.3571
0.9296875,4.868744014649451e-07,8.203014927443359e-05,0.0001450116542824446,3.515416652780965e-05,5.9286,3.3571
0.93359375,-4.976974227511306e-07,8.788576065003442e-05,0.00013622305526207377,3.466706257267117e-05,5.9286,3.3571
0.9375,3.896602087434274e-06,0.00011473866166628528,0.00014208903055161373,3.222117888303967e-05,5.9286,3.3571
0.94140625,-4.976974227511306e-07,6.884725074387739e-05,0.00013671015921721226,2.440678777294583e-05,5.9286,3.3571
0.9453125,-4.394529063858925e-06,4.784996110322737e-05,0.00013915604290684375,2.440678777294583e-05,5.9286,3.3571
0.94921875,-1.9590092881665555e-06,6.4452951233692e-05,0.0001342746394415199,2.440678777294583e-05,5.9286,3.3571
0.953125,-1.8074895463492724e-05,4.784996110322737e-05,0.00012010716908674762,2.3919683817807354e-05,5.9286,3.3571
0.95703125,-2.2956298928816594e-05,6.054575567864509e-05,0.00011181603793545442,2.1971267997253448e-05,5.9286,3.3571
0.9609375,-1.2696024129091256e-05,6.395548336461441e-05,0.00012060463695582521,1.8064072442206536e-05,5.9286,3.3571
0.96484375,-1.5141907818722742e-05,3.661547839322506e-05,0.00013085454784161142,1.952538430762196e-05,5.9286,3.3571
0.96875,-1.3193491998168838e-05,3.661547839322506e-05,0.00011131857006637682,2.0986696173037385e-05,5.9286,3.3571
0.97265625,-1.0260504353398871e-05,3.906136208285656e-05,0.00011181603793545442,1.3669772932021132e-05,5.9286,3.3571
0.9765625,-1.4167699908445798e-05,7.421575816433975e-05,0.00012010716908674762,1.1710993197528111e-05,5.9286,3.3571
0.98046875,-1.2696024129091256e-05,0.00010252997104600604,0.00012840866415197996,1.952538430762196e-05,5.9286,3.3571
0.984375,-1.2696024129091256e-05,8.691155273975747e-05,0.00013036744388647296,2.0499592217898908e-05,5.9286,3.3571
0.98828125,-1.3680595953307317e-05,5.37055724788282e-05,0.00010497585473563754,1.8551176397345003e-05,5.9286,3.3571
0.9921875,-1.3193491998168838e-05,6.0048287809567484e-05,5.419267643396665e-05,1.7079500617990462e-05,5.9286,3.3571
0.99609375,-1.4167699908445798e-05,9.960734731517518e-05,7.567707002975519e-05,1.6105292707713515e-05,5.9286,3.3571
1.0,-2.0997519194323573e-05,9.179295620508133e-05,0.00010839594633554597,1.9038280352483483e-05,5.9286,3.3571
1.00390625,-2.5391818704508963e-05,8.642444878461899e-05,0.00011473866166628528,2.0986696173037385e-05,5.9286,3.3571
1.0078125,-2.3443402883955058e-05,0.00011327734980086984,0.000127434456241703,2.5878463552300388e-05,5.9286,3.3571
1.01171875,-2.929901425955589e-05,0.0001059500626459145,0.00010155576313572907,2.5878463552300388e-05,5.9286,3.3571
1.015625,-3.125779399404891e-05,0.00011621033744563982,9.374137202563526e-05,2.148416404211498e-05,5.9286,3.3571
1.01953125,-2.7837702394140465e-05,0.0001357359513069353,9.472594384985132e-05,1.9038280352483483e-05,5.9286,3.3571
1.0234375,-3.271910585946433e-05,0.00010497585473563754,9.52130478049898e-05,2.148416404211498e-05,5.9286,3.3571
1.02734375,-3.857471723506516e-05,9.862277549095912e-05,9.764856758068216e-05,2.1971267997253448e-05,5.9286,3.3571
1.03125,-3.76005093247882e-05,0.00011279024584573138,9.374137202563526e-05,8.290901597619666e-06,5.9286,3.3571
1.03515625,-3.516498954909583e-05,9.960734731517518e-05,7.958426558480209e-05,1.0249681332112687e-05,5.9286,3.3571
1.0390625,-3.907218510414274e-05,7.909716162966361e-05,8.739865669489595e-05,9.762577376974206e-06,5.9286,3.3571
1.04296875,-2.881191030441741e-05,6.395548336461441e-05,0.00010692427055619143,3.4094981322957946e-06,5.9286,3.3571
1.046875,-1.8074895463492724e-05,7.470286211947823e-05,8.495277300526445e-05,8.788369466697262e-06,5.9286,3.3571
1.05078125,-2.8324806349278942e-05,9.716146362554369e-05,8.691155273975747e-05,8.788369466697262e-06,5.9286,3.3571
1.0546875,-3.467788559395735e-05,8.885996856031135e-05,0.00010155576313572907,5.368277866788815e-06,5.9286,3.3571
1.05859375,-2.393050683909354e-05,9.618725571526673e-05,0.00010546295869077602,7.31669368734272e-06,5.9286,3.3571
1.0625,-2.441761079423202e-05,7.713838189517059e-05,9.667435967040521e-05,9.27547342183574e-06,5.9286,3.3571
1.06640625,-2.441761079423202e-05,5.6638560123598154e-05,9.374137202563526e-05,9.762577376974206e-06,5.9286,3.3571
1.0703125,-2.441761079423202e-05,6.1032859633783544e-05,8.934707251544983e-05,1.5131084797436557e-05,5.9286,3.3571
1.07421875,-3.467788559395735e-05,6.494005518883049e-05,6.1032859633783544e-05,8.290901597619666e-06,5.9286,3.3571
1.078125,-3.467788559395735e-05,8.300435718471055e-05,5.224426061341276e-05,3.896602087434274e-06,5.9286,3.3571
1.08203125,-3.76005093247882e-05,5.712566407873663e-05,7.225697842984673e-05,4.881173911650336e-06,5.9286,3.3571
1.0859375,-3.857471723506516e-05,3.906136208285656e-05,6.834978287479981e-05,1.4610823117418903e-06,5.9286,3.3571
1.08984375,-3.223200190432585e-05,5.12596887891967e-05,7.763584976424821e-05,8.290901597619666e-06,5.9286,3.3571
1.09375,-3.369331376974129e-05,7.176987447470825e-05,8.300435718471055e-05,1.1710993197528111e-05,5.9286,3.3571
1.09765625,-3.857471723506516e-05,8.055847349507905e-05,7.128277051956977e-05,1.1710993197528111e-05,5.9286,3.3571
1.1015625,-3.955928905928122e-05,6.786267891966133e-05,6.591426309910743e-05,5.855381821927295e-06,5.9286,3.3571
1.10546875,-3.76005093247882e-05,3.954846603799504e-05,3.8563894213778975e-05,-2.2955367353461042e-10,5.9286,3.3571
1.109375,-3.0283586083771963e-05,3.222117888303967e-05,3.8563894213778975e-05,-3.4203211535819803e-06,5.9286,3.3571
1.11328125,-2.7837702394140465e-05,4.784996110322737e-05,5.858697594415207e-05,-5.379100888075001e-06,5.9286,3.3571
1.1171875,-2.9786118214694367e-05,5.321846852368972e-05,7.372865420920127e-05,-1.9590092881665555e-06,5.9286,3.3571
1.12109375,-3.369331376974129e-05,6.054575567864509e-05,4.784996110322737e-05,-1.9590092881665555e-06,5.9286,3.3571
1.125,-3.808761327992668e-05,4.491697345845739e-05,5.0285480878919737e-05,-3.90742510872046e-06,5.9286,3.3571
1.12890625,-3.857471723506516e-05,1.952538430762196e-05,4.784996110322737e-05,-7.814620663767372e-06,5.9286,3.3571
1.1328125,-4.248191279011208e-05,3.896602087434274e-06,1.7079500617990462e-05,-1.4654803863584277e-05,5.9286,3.3571
1.13671875,-4.5414900434882054e-05,1.219809715266659e-05,1.219809715266659e-05,-9.773400398260393e-06,5.9286,3.3571
1.140625,-3.857471723506516e-05,3.80767902586405e-05,3.6128374438086606e-05,-1.4719053330280758e-06,5.9286,3.3571
1.14453125,-4.3953588569466626e-05,4.88241690135043e-05,4.833706505836585e-05,-5.379100888075001e-06,5.9286,3.3571
1.1484375,-4.786078412451355e-05,3.710258234836354e-05,2.2945475907530406e-05,-9.773400398260393e-06,5.9286,3.3571
1.15234375,-3.662630141451126e-05,1.952538430762196e-05,9.27547342183574e-06,-1.4654803863584277e-05,5.9286,3.3571
1.15625,-3.76005093247882e-05,-4.976974227511306e-07,2.440678777294583e-05,-1.9049103373769668e-05,5.9286,3.3571
1.16015625,-4.102060092469666e-05,1.1710993197528111e-05,5.907407989929055e-05,-2.2469194973678114e-05,5.9286,3.3571
1.1640625,-4.4927796479743574e-05,1.5131084797436557e-05,5.1757156658274284e-05,-2.5878922659647444e-05,5.9286,3.3571
1.16796875,-4.44406925246051e-05,-7.814620663767372e-06,8.788369466697262e-06,-2.2469194973678114e-05,5.9286,3.3571
1.171875,-4.4927796479743574e-05,2.4352902220188496e-06,9.739783566034106e-07,-2.3443402883955058e-05,5.9286,3.3571
1.17578125,-4.786078412451355e-05,9.762577376974206e-06,2.7826879372854276e-05,-2.929901425955589e-05,5.9286,3.3571
1.1796875,-4.199480883497361e-05,2.538099568322278e-05,4.29685576379035e-05,-2.6863494483863517e-05,5.9286,3.3571
1.18359375,-4.296901674525055e-05,3.8563894213778975e-05,5.0285480878919737e-05,-2.0997519194323573e-05,5.9286,3.3571
1.1875,-5.469060341039132e-05,2.1971267997253448e-05,3.3682490748455105e-05,-1.4167699908445798e-05,5.9286,3.3571
1.19140625,-5.7136487100022816e-05,-4.976974227511306e-07,2.0499592217898908e-05,-1.3680595953307317e-05,5.9286,3.3571
1.1953125,-5.274218758983742e-05,-5.866204843213481e-06,4.198398581368741e-05,-2.5391818704508963e-05,5.9286,3.3571
1.19921875,-4.4927796479743574e-05,1.3182668976882652e-05,5.077258483405822e-05,-2.8324806349278942e-05,5.9286,3.3571
1.203125,-4.590200439002053e-05,4.442986950331891e-05,4.29685576379035e-05,-2.881191030441741e-05,5.9286,3.3571
1.20703125,-4.3953588569466626e-05,3.319538679331663e-05,-9.84801377889596e-07,-3.516498954909583e-05,5.9286,3.3571
1.2109375,-3.662630141451126e-05,2.922394177157315e-06,2.148416404211498e-05,-3.320620981460281e-05,5.9286,3.3571
1.21484375,-4.150770487983513e-05,-1.4167699908445798e-05,5.077258483405822e-05,-2.5878922659647444e-05,5.9286,3.3571
1.21875,-5.3716395500114374e-05,-1.9049103373769668e-05,1.7079500617990462e-05,-2.8324806349278942e-05,5.9286,3.3571
1.22265625,-4.932209598992897e-05,5.368277866788815e-06,-5.866204843213481e-06,-2.9786118214694367e-05,5.9286,3.3571
1.2265625,-3.662630141451126e-05,-1.7587791508354243e-05,-3.4203211535819803e-06,-2.7837702394140465e-05,5.9286,3.3571
1.23046875,-3.613919745937278e-05,-3.711340536964974e-05,1.6592396662851982e-05,-3.320620981460281e-05,5.9286,3.3571
1.234375,-3.711340536964974e-05,-3.369331376974129e-05,-1.0747608308537352e-05,-3.907218510414274e-05,5.9286,3.3571
1.23828125,-3.467788559395735e-05,-4.296901674525055e-05,-2.393050683909354e-05,-4.638910834515901e-05,5.9286,3.3571
1.2421875,-3.369331376974129e-05,-2.6863494483863517e-05,-1.953620732890815e-05,-4.590200439002053e-05,5.9286,3.3571
1.24609375,-4.150770487983513e-05,-4.199480883497361e-05,-3.808761327992668e-05,-4.786078412451355e-05,5.9286,3.3571
1.25,-5.127051181048288e-05,-0.00010351500197756916,-2.7350598439001984e-05,-4.88349920347905e-05,5.9286,3.3571
1.25390625,-5.0296303900205925e-05,-0.0001069247296635385,-5.616227918974586e-05,-4.053349696955818e-05,5.9286,3.3571
1.2578125,-5.07834078553444e-05,-0.00010351500197756916,-8.252807625085824e-05,-3.76005093247882e-05,5.9286,3.3571
1.26171875,-5.32292915449759e-05,-7.71492049164568e-05,-5.420349945525285e-05,-4.3953588569466626e-05,5.9286,3.3571
1.265625,-5.5664811320668276e-05,-7.666210096131832e-05,-6.934517772030205e-05,-4.687621230029748e-05,5.9286,3.3571
1.26953125,-4.88349920347905e-05,-9.326509109178294e-05,-8.056929651636522e-05,-4.786078412451355e-05,5.9286,3.3571
1.2734375,-4.786078412451355e-05,-7.862088069581134e-05,-4.980919994506745e-05,-5.420349945525285e-05,5.9286,3.3571
1.27734375,-4.199480883497361e-05,-4.102060092469666e-05,-5.1767979679560465e-05,-5.127051181048288e-05,5.9286,3.3571
1.28125,-4.248191279011208e-05,-5.274218758983742e-05,-6.0556578699931265e-05,-3.857471723506516e-05,5.9286,3.3571
1.28515625,-4.834788807965202e-05,-9.668518269169139e-05,-8.204097229571977e-05,-3.467788559395735e-05,5.9286,3.3571
1.2890625,-5.1767979679560465e-05,-8.78965836713206e-05,-5.8597798965438244e-05,-3.125779399404891e-05,5.9286,3.3571
1.29296875,-5.32292915449759e-05,-8.496359602655063e-05,-6.689929403067058e-05,-2.7350598439001984e-05,5.9286,3.3571
1.296875,-5.0296303900205925e-05,-5.420349945525285e-05,-9.180377922636751e-05,-4.346648461432815e-05,5.9286,3.3571
1.30078125,-4.980919994506745e-05,-4.248191279011208e-05,-4.44406925246051e-05,-4.786078412451355e-05,5.9286,3.3571
1.3046875,-6.39663063859006e-05,-4.44406925246051e-05,-4.5414900434882054e-05,-3.077069003891043e-05,5.9286,3.3571
1.30859375,-6.005911083085367e-05,-7.275490540627139e-05,-0.00011522622472877083,-3.613919745937278e-05,5.9286,3.3571
1.3125,-6.153078661020822e-05,-0.0001572208040100709,-0.00016894239067521166,-5.616227918974586e-05,5.9286,3.3571
1.31640625,-7.422658118562593e-05,-0.0001572208040100709,-0.0001684552867200732,-4.687621230029748e-05,5.9286,3.3571
1.3203125,-7.373947723048746e-05,-0.00018456080898146023,-0.00020800398231174175,-3.56520935042343e-05,5.9286,3.3571
1.32421875,-7.520078909590289e-05,-0.0002558541729686427,-0.0002548799650583657,-4.150770487983513e-05,5.9286,3.3571
1.328125,-7.422658118562593e-05,-0.0002846658537193865,-0.0002495114576379033,-2.9786118214694367e-05,5.9286,3.3571
1.33203125,-6.934517772030205e-05,-0.00032518875722133204,-0.00027148295518883035,-2.5391818704508963e-05,5.9286,3.3571
1.3359375,-6.983228167544053e-05,-0.0003373974478416113,-0.0003432530592172121,-2.5878922659647444e-05,5.9286,3.3571
1.33984375,-7.764667278553438e-05,-0.00038182754689860377,-0.0003564359577477683,-1.6116115728999703e-05,5.9286,3.3571
1.34375,-7.666210096131832e-05,-0.00042724221777981224,-0.000353026230061799,-1.5141907818722742e-05,5.9286,3.3571
1.34765625,-5.908490292057672e-05,-0.00042088913853513386,-0.0003964821212085145,-1.2208920173952777e-05,5.9286,3.3571
1.3515625,-5.420349945525285e-05,-0.00040624492813916226,-0.0004247963340901808,-8.799192487983447e-06,5.9286,3.3571
1.35546875,-5.908490292057672e-05,-0.00041845361875944147,-0.0004003893167635614,-3.90742510872046e-06,5.9286,3.3571
1.359375,-5.7623591055161297e-05,-0.00044287099999999995,-0.0003989176409842069,-8.30172461890585e-06,5.9286,3.3571
1.36328125,-4.3953588569466626e-05,-0.00039208782169832906,-0.00036864464836804757,-1.2696024129091256e-05,5.9286,3.3571
1.3671875,-4.932209598992897e-05,-0.0004199149306248569,-0.00036132772512703133,-1.1721816218814296e-05,5.9286,3.3571
1.37109375,-5.5177707365529795e-05,-0.0004418864281757839,-0.0003872064182330052,-1.4654803863584277e-05,5.9286,3.3571
1.375,-5.3716395500114374e-05,-0.0003803662350331883,-0.0003456989429068436,-6.353308798351946e-06,5.9286,3.3571
1.37890625,-6.0556578699931265e-05,-0.00037597193552300293,-0.0003373974478416113,-1.4167699908445798e-05,5.9286,3.3571
1.3828125,-5.908490292057672e-05,-0.00032518875722133204,-0.00029003436113984887,-2.7837702394140465e-05,5.9286,3.3571
1.38671875,-6.104368265506974e-05,-0.00030566314336003653,-0.0002958899725154497,-1.8561999418631187e-05,5.9286,3.3571
1.390625,-6.543798216525514e-05,-0.00033251604437628746,-0.0003159130542458228,-2.5878922659647444e-05,5.9286,3.3571
1.39453125,-6.884770985122446e-05,-0.00028027155420920117,-0.00025145987345845725,-3.467788559395735e-05,5.9286,3.3571
1.3984375,-6.787350194094751e-05,-0.00024999856159304185,-0.00023192389568322267,-4.150770487983513e-05,5.9286,3.3571
1.40234375,-7.0319385630579e-05,-0.00023876407888303954,-0.00018895510849164564,-3.516498954909583e-05,5.9286,3.3571
1.40625,-8.056929651636522e-05,-0.00022997547986266875,-0.00015966668769970237,-2.5391818704508963e-05,5.9286,3.3571
1.41015625,-7.617499700617984e-05,-0.00024315837839322495,-0.00018651958871595325,-4.0046393014419703e-05,5.9286,3.3571
1.4140625,-8.056929651636522e-05,-0.00019921538329137098,-0.00016747071489585713,-3.857471723506516e-05,5.9286,3.3571
1.41796875,-9.473676687113748e-05,-0.00013671061832455932,-6.64121900755321e-05,-2.7837702394140465e-05,5.9286,3.3571
1.421875,-7.471368514076441e-05,-0.0001332905267246509,-5.811069501029977e-05,-3.613919745937278e-05,5.9286,3.3571
1.42578125,-6.445341034103908e-05,-0.00011376491286335539,-0.0001010794822018768,-4.053349696955818e-05,5.9286,3.3571
1.4296875,-6.787350194094751e-05,-9.42392990020599e-05,-8.496359602655063e-05,-3.955928905928122e-05,5.9286,3.3571
1.43359375,-6.884770985122446e-05,-8.008219256122675e-05,-5.127051181048288e-05,-4.248191279011208e-05,5.9286,3.3571
1.4375,-6.787350194094751e-05,-4.3953588569466626e-05,-2.3443402883955058e-05,-4.0046393014419703e-05,5.9286,3.3571
1.44140625,-5.957200687571519e-05,-3.56520935042343e-05,-1.6603219684138167e-05,-3.76005093247882e-05,5.9286,3.3571
1.4453125,-6.005911083085367e-05,-3.613919745937278e-05,-1.0260504353398871e-05,-3.857471723506516e-05,5.9286,3.3571
1.44921875,-6.787350194094751e-05,-3.613919745937278e-05,-3.077069003891043e-05,-4.4927796479743574e-05,5.9286,3.3571
1.453125,-6.543798216525514e-05,-3.857471723506516e-05,-4.736331625543595e-05,-4.736331625543595e-05,5.9286,3.3571
1.45703125,-6.39663063859006e-05,-2.5878922659647444e-05,-1.4719053330280758e-06,-4.4927796479743574e-05,5.9286,3.3571
1.4609375,-6.39663063859006e-05,-2.9332171984435006e-06,9.27547342183574e-06,-4.0046393014419703e-05,5.9286,3.3571
1.46484375,-6.153078661020822e-05,3.4094981322957946e-06,-1.0747608308537352e-05,-3.271910585946433e-05,5.9286,3.3571
1.46875,-6.347920243076211e-05,-8.30172461890585e-06,-2.2955367353461042e-10,-2.637639052872504e-05,5.9286,3.3571
1.47265625,-6.738639798580903e-05,-2.0510415239185093e-05,2.4893891728084298e-05,-2.8324806349278942e-05,5.9286,3.3571
1.4765625,-5.908490292057672e-05,-1.1234712263675831e-05,3.319538679331663e-05,-3.955928905928122e-05,5.9286,3.3571
1.48046875,-5.32292915449759e-05,3.80767902586405e-05,2.245837195239193e-05,-4.4927796479743574e-05,5.9286,3.3571
1.484375,-5.616227918974586e-05,2.538099568322278e-05,9.27547342183574e-06,-4.346648461432815e-05,5.9286,3.3571
1.48828125,-5.811069501029977e-05,-2.9332171984435006e-06,2.538099568322278e-05,-4.199480883497361e-05,5.9286,3.3571
1.4921875,-4.687621230029748e-05,-2.2955367353461042e-10,4.247108976882589e-05,-4.053349696955818e-05,5.9286,3.3571
1.49609375,-3.56520935042343e-05,2.001248826276044e-05,2.3919683817807354e-05,-3.857471723506516e-05,5.9286,3.3571
1.5,-4.3953588569466626e-05,7.31669368734272e-06,-0.00010351500197756916,-4.102060092469666e-05,5.9286,3.3571
1.50390625,-5.07834078553444e-05,-1.6116115728999703e-05,-0.00020067669515678638,-3.907218510414274e-05,5.9286,3.3571
1.5078125,-3.857471723506516e-05,2.4352902220188496e-06,-0.0001616151035202563,-3.808761327992668e-05,5.9286,3.3571
1.51171875,-3.955928905928122e-05,1.94818626688037e-06,-0.0001069247296635385,-4.296901674525055e-05,5.9286,3.3571
1.515625,-5.2255083634698946e-05,1.4643980842298092e-05,-8.887079158159756e-05,-4.248191279011208e-05,5.9286,3.3571
1.51953125,-5.7623591055161297e-05,3.4169594703593585e-05,-5.127051181048288e-05,-3.907218510414274e-05,5.9286,3.3571
1.5234375,-4.980919994506745e-05,1.9038280352483483e-05,-1.953620732890815e-05,-3.516498954909583e-05,5.9286,3.3571
1.52734375,-2.9786118214694367e-05,1.5131084797436557e-05,-4.786078412451355e-05,-3.516498954909583e-05,5.9286,3.3571
1.53125,-2.929901425955589e-05,2.4893891728084298e-05,-2.8324806349278942e-05,-3.077069003891043e-05,5.9286,3.3571
1.53515625,-3.174489794918739e-05,1.8064072442206536e-05,1.1223889242389646e-05,-2.4904714749370496e-05,5.9286,3.3571
1.5390625,-3.56520935042343e-05,1.4156876887159611e-05,1.2685201107805071e-05,-2.6863494483863517e-05,5.9286,3.3571
1.54296875,-4.590200439002053e-05,1.0249681332112687e-05,1.0736785287251166e-05,-3.320620981460281e-05,5.9286,3.3571
1.546875,-5.0296303900205925e-05,1.757696848706806e-05,-2.9332171984435006e-06,-3.907218510414274e-05,5.9286,3.3571
1.55078125,-5.0296303900205925e-05,-1.4719053330280758e-06,-1.7090323639276647e-05,-3.613919745937278e-05,5.9286,3.3571
1.5546875,-4.4927796479743574e-05,-9.84801377889596e-07,-1.953620732890815e-05,-3.662630141451126e-05,5.9286,3.3571
1.55859375,-4.053349696955818e-05,6.3424857770657605e-06,-8.799192487983447e-06,-3.418041772487976e-05,5.9286,3.3571
1.5625,-3.711340536964974e-05,-3.90742510872046e-06,9.739783566034106e-07,-2.929901425955589e-05,5.9286,3.3571
1.56640625,-4.638910834515901e-05,-3.90742510872046e-06,-1.1234712263675831e-05,-3.125779399404891e-05,5.9286,3.3571
1.5703125,-4.590200439002053e-05,-1.4719053330280758e-06,-1.7587791508354243e-05,-2.5878922659647444e-05,5.9286,3.3571
1.57421875,-3.76005093247882e-05,-1.6603219684138167e-05,-1.5629011773861222e-05,-3.271910585946433e-05,5.9286,3.3571
1.578125,-3.857471723506516e-05,-4.053349696955818e-05,3.4094981322957946e-06,-5.127051181048288e-05,5.9286,3.3571
1.58203125,-3.955928905928122e-05,-3.418041772487976e-05,6.82958973220424e-06,-5.5177707365529795e-05,5.9286,3.3571
1.5859375,-3.711340536964974e-05,-1.8074895463492724e-05,-1.1234712263675831e-05,-4.736331625543595e-05,5.9286,3.3571
1.58984375,-4.4927796479743574e-05,-1.6603219684138167e-05,-2.9786118214694367e-05,-4.199480883497361e-05,5.9286,3.3571
1.59375,-4.786078412451355e-05,-1.2208920173952777e-05,-3.320620981460281e-05,-4.150770487983513e-05,5.9286,3.3571
1.59765625,-4.102060092469666e-05,-2.148462314946205e-05,-9.286296443121926e-06,-4.102060092469666e-05,5.9286,3.3571
1.6015625,-4.88349920347905e-05,-4.199480883497361e-05,-3.4203211535819803e-06,-3.711340536964974e-05,5.9286,3.3571
1.60546875,-5.7136487100022816e-05,-3.56520935042343e-05,-1.1234712263675831e-05,-3.0283586083771963e-05,5.9286,3.3571
1.609375,-3.369331376974129e-05,-2.7350598439001984e-05,-4.891996932936521e-06,-3.418041772487976e-05,5.9286,3.3571
1.61328125,-2.4904714749370496e-05,-2.5878922659647444e-05,-2.2955367353461042e-10,-4.834788807965202e-05,5.9286,3.3571
1.6171875,-4.638910834515901e-05,-1.7587791508354243e-05,-4.976974227511306e-07,-4.590200439002053e-05,5.9286,3.3571
1.62109375,-3.955928905928122e-05,-9.84801377889596e-07,-8.30172461890585e-06,-3.76005093247882e-05,5.9286,3.3571
1.625,-4.102060092469666e-05,-4.394529063858925e-06,-1.3680595953307317e-05,-4.687621230029748e-05,5.9286,3.3571
1.62890625,-5.664938314488434e-05,-2.2956298928816594e-05,-2.6863494483863517e-05,-4.687621230029748e-05,5.9286,3.3571
1.6328125,-5.664938314488434e-05,-2.0997519194323573e-05,-2.7350598439001984e-05,-3.662630141451126e-05,5.9286,3.3571
1.63671875,-5.616227918974586e-05,-4.976974227511306e-07,-5.379100888075001e-06,-3.955928905928122e-05,5.9286,3.3571
1.640625,-5.664938314488434e-05,-2.9332171984435006e-06,9.762577376974206e-06,-3.613919745937278e-05,5.9286,3.3571
1.64453125,-5.07834078553444e-05,-2.148462314946205e-05,1.9038280352483483e-05,-3.125779399404891e-05,5.9286,3.3571
1.6484375,-5.5177707365529795e-05,-1.0260504353398871e-05,-3.125779399404891e-05,-4.4927796479743574e-05,5.9286,3.3571
1.65234375,-4.932209598992897e-05,1.6105292707713515e-05,-4.0046393014419703e-05,-4.736331625543595e-05,5.9286,3.3571
1.65625,-4.932209598992897e-05,1.0249681332112687e-05,-7.327516708628906e-06,-3.711340536964974e-05,5.9286,3.3571
1.66015625,-4.834788807965202e-05,1.952538430762196e-05,-2.9332171984435006e-06,-3.467788559395735e-05,5.9286,3.3571
1.6640625,-4.199480883497361e-05,2.9775295193408168e-05,1.1223889242389646e-05,-4.4927796479743574e-05,5.9286,3.3571
1.66796875,-4.590200439002053e-05,4.39406995651187e-06,3.270828283817815e-05,-4.296901674525055e-05,5.9286,3.3571
1.671875,-4.44406925246051e-05,-8.799192487983447e-06,7.31669368734272e-06,-3.0283586083771963e-05,5.9286,3.3571
1.67578125,-2.6863494483863517e-05,8.788369466697262e-06,-1.7090323639276647e-05,-2.881191030441741e-05,5.9286,3.3571
1.6796875,-2.2469194973678114e-05,3.466706257267117e-05,1.7079500617990462e-05,-4.150770487983513e-05,5.9286,3.3571
1.68359375,-2.4904714749370496e-05,3.80767902586405e-05,1.219809715266659e-05,-4.053349696955818e-05,5.9286,3.3571
1.6875,-3.711340536964974e-05,3.222117888303967e-05,-2.2955367353461042e-10,-2.2469194973678114e-05,5.9286,3.3571
1.69140625,-5.07834078553444e-05,2.0986696173037385e-05,4.833706505836585e-05,-1.8561999418631187e-05,5.9286,3.3571
1.6953125,-4.199480883497361e-05,-2.2955367353461042e-10,4.637828532387283e-05,-2.393050683909354e-05,5.9286,3.3571
1.69921875,-4.0046393014419703e-05,2.148416404211498e-05,1.6105292707713515e-05,-3.223200190432585e-05,5.9286,3.3571
1.703125,-4.4927796479743574e-05,2.8313983327992757e-05,3.4169594703593585e-05,-3.320620981460281e-05,5.9286,3.3571
1.70703125,-3.76005093247882e-05,-3.4203211535819803e-06,6.298127545433747e-05,-2.1982091018539633e-05,5.9286,3.3571
1.7109375,-3.077069003891043e-05,-4.891996932936521e-06,4.394276554818043e-05,-2.637639052872504e-05,5.9286,3.3571
1.71484375,-2.5391818704508963e-05,1.1223889242389646e-05,2.148416404211498e-05,-3.516498954909583e-05,5.9286,3.3571
1.71875,-1.953620732890815e-05,-2.4461132433050352e-06,3.710258234836354e-05,-3.125779399404891e-05,5.9286,3.3571
1.72265625,-2.441761079423202e-05,-1.8074895463492724e-05,4.5404077413595866e-05,-3.125779399404891e-05,5.9286,3.3571
1.7265625,-3.0283586083771963e-05,-1.7587791508354243e-05,4.736285714808889e-05,-3.0283586083771963e-05,5.9286,3.3571
1.73046875,-3.56520935042343e-05,-3.711340536964974e-05,3.515416652780965e-05,-2.2956298928816594e-05,5.9286,3.3571
1.734375,-4.150770487983513e-05,-1.1234712263675831e-05,3.4169594703593585e-05,-2.0510415239185093e-05,5.9286,3.3571
1.73828125,-3.857471723506516e-05,6.151996358892202e-05,5.565398829938209e-05,-2.3443402883955058e-05,5.9286,3.3571
1.7421875,-4.248191279011208e-05,2.8313983327992757e-05,6.834978287479981e-05,-2.5391818704508963e-05,5.9286,3.3571
1.74609375,-3.613919745937278e-05,-2.3443402883955058e-05,6.20070675440605e-05,-2.929901425955589e-05,5.9286,3.3571
1.75,-1.953620732890815e-05,-2.0023311284046612e-05,4.784996110322737e-05,-2.5391818704508963e-05,5.9286,3.3571
1.75390625,-2.0997519194323573e-05,1.4610823117418903e-06,6.542715914396897e-05,-2.3443402883955058e-05,5.9286,3.3571
1.7578125,-2.9786118214694367e-05,1.6105292707713515e-05,0.00010546295869077602,-1.953620732890815e-05,5.9286,3.3571
1.76171875,-2.4904714749370496e-05,2.6365567507438838e-05,9.52130478049898e-05,-2.3443402883955058e-05,5.9286,3.3571
1.765625,-1.8561999418631187e-05,1.1710993197528111e-05,7.763584976424821e-05,-2.881191030441741e-05,5.9286,3.3571
1.76953125,-2.7837702394140465e-05,-1.9590092881665555e-06,8.055847349507905e-05,-2.5878922659647444e-05,5.9286,3.3571
1.7734375,-2.6863494483863517e-05,6.3424857770657605e-06,5.1757156658274284e-05,-3.223200190432585e-05,5.9286,3.3571
1.77734375,-1.4654803863584277e-05,2.3919683817807354e-05,4.637828532387283e-05,-3.662630141451126e-05,5.9286,3.3571
1.78125,-2.441761079423202e-05,2.0986696173037385e-05,6.640136705424589e-05,-3.613919745937278e-05,5.9286,3.3571
1.78515625,-4.0046393014419703e-05,-1.8074895463492724e-05,6.494005518883049e-05,-3.0283586083771963e-05,5.9286,3.3571
1.7890625,-4.199480883497361e-05,-2.7837702394140465e-05,2.8313983327992757e-05,-2.929901425955589e-05,5.9286,3.3571
1.79296875,-4.834788807965202e-05,-1.4654803863584277e-05,9.739783566034106e-07,-3.56520935042343e-05,5.9286,3.3571
1.796875,-4.44406925246051e-05,1.4610823117418903e-06,5.9561183854429004e-05,-3.613919745937278e-05,5.9286,3.3571
1.80078125,-3.467788559395735e-05,2.685267146257732e-05,7.665127794003211e-05,-3.223200190432585e-05,5.9286,3.3571
1.8046875,-4.88349920347905e-05,-1.5141907818722742e-05,3.5641270482948125e-05,-3.223200190432585e-05,5.9286,3.3571
1.80859375,-5.07834078553444e-05,-2.881191030441741e-05,2.3919683817807354e-05,-3.907218510414274e-05,5.9286,3.3571
1.8125,-2.3443402883955058e-05,7.31669368734272e-06,2.3432579862668887e-05,-4.199480883497361e-05,5.9286,3.3571
1.81640625,-3.56520935042343e-05,-4.891996932936521e-06,4.979837692378126e-05,-3.0283586083771963e-05,5.9286,3.3571
1.8203125,-4.102060092469666e-05,-2.9332171984435006e-06,5.1757156658274284e-05,-2.9786118214694367e-05,5.9286,3.3571
1.82421875,-2.441761079423202e-05,-1.7090323639276647e-05,3.661547839322506e-05,-4.346648461432815e-05,5.9286,3.3571
1.828125,-3.662630141451126e-05,-3.467788559395735e-05,3.173407492790119e-05,-4.102060092469666e-05,5.9286,3.3571
1.83203125,-4.0046393014419703e-05,-1.953620732890815e-05,3.173407492790119e-05,-3.418041772487976e-05,5.9286,3.3571
1.8359375,-3.174489794918739e-05,1.1710993197528111e-05,3.80767902586405e-05,-3.271910585946433e-05,5.9286,3.3571
1.83984375,-3.0283586083771963e-05,2.3919683817807354e-05,3.6128374438086606e-05,-3.369331376974129e-05,5.9286,3.3571
1.84375,-2.637639052872504e-05,-2.0997519194323573e-05,3.1246970972762736e-05,-3.418041772487976e-05,5.9286,3.3571
1.84765625,-2.637639052872504e-05,-3.418041772487976e-05,2.440678777294583e-05,-3.613919745937278e-05,5.9286,3.3571
1.8515625,-2.6863494483863517e-05,-1.953620732890815e-05,1.757696848706806e-05,-3.662630141451126e-05,5.9286,3.3571
1.85546875,-2.2469194973678114e-05,-2.9786118214694367e-05,1.5618188752575038e-05,-2.929901425955589e-05,5.9286,3.3571
1.859375,-2.881191030441741e-05,-1.0260504353398871e-05,3.466706257267117e-05,-2.0510415239185093e-05,5.9286,3.3571
1.86328125,-3.320620981460281e-05,-9.84801377889596e-07,7.518996607461671e-05,-2.0023311284046612e-05,5.9286,3.3571
1.8671875,-2.637639052872504e-05,-2.5878922659647444e-05,4.833706505836585e-05,-2.441761079423202e-05,5.9286,3.3571
1.87109375,-2.8324806349278942e-05,-3.320620981460281e-05,1.1223889242389646e-05,-1.953620732890815e-05,5.9286,3.3571
1.875,-2.929901425955589e-05,-2.7837702394140465e-05,1.4643980842298092e-05,-1.8561999418631187e-05,5.9286,3.3571
1.87890625,-2.2469194973678114e-05,-3.808761327992668e-05,1.757696848706806e-05,-2.1982091018539633e-05,5.9286,3.3571
1.8828125,-2.2469194973678114e-05,-3.271910585946433e-05,3.954846603799504e-05,-2.6863494483863517e-05,5.9286,3.3571
1.88671875,-4.3953588569466626e-05,-3.955928905928122e-05,1.7079500617990462e-05,-3.223200190432585e-05,5.9286,3.3571
1.890625,-4.834788807965202e-05,-3.662630141451126e-05,-1.1721816218814296e-05,-3.613919745937278e-05,5.9286,3.3571
1.89453125,-2.929901425955589e-05,-2.8324806349278942e-05,1.8064072442206536e-05,-3.467788559395735e-05,5.9286,3.3571
1.8984375,-2.6863494483863517e-05,-2.0023311284046612e-05,2.3432579862668887e-05,-2.9786118214694367e-05,5.9286,3.3571
1.90234375,-3.077069003891043e-05,-2.5391818704508963e-05,3.3682490748455105e-05,-2.7350598439001984e-05,5.9286,3.3571
1.90625,-3.711340536964974e-05,-3.857471723506516e-05,4.686538927901131e-05,-2.441761079423202e-05,5.9286,3.3571
1.91015625,-4.102060092469666e-05,-5.811069501029977e-05,1.219809715266659e-05,-2.4904714749370496e-05,5.9286,3.3571
1.9140625,-3.467788559395735e-05,-4.638910834515901e-05,-3.125779399404891e-05,-3.369331376974129e-05,5.9286,3.3571
1.91796875,-3.516498954909583e-05,2.4893891728084298e-05,4.686538927901131e-05,-2.637639052872504e-05,5.9286,3.3571
1.921875,-4.199480883497361e-05,1.0249681332112687e-05,8.300435718471055e-05,-2.0997519194323573e-05,5.9286,3.3571
1.92578125,-3.077069003891043e-05,-6.495087821011665e-05,-1.9590092881665555e-06,-3.955928905928122e-05,5.9286,3.3571
1.9296875,-3.0283586083771963e-05,-6.689929403067058e-05,-6.0556578699931265e-05,-4.687621230029748e-05,5.9286,3.3571
1.93359375,-3.955928905928122e-05,-2.9786118214694367e-05,-1.3193491998168838e-05,-3.0283586083771963e-05,5.9286,3.3571
1.9375,-4.590200439002053e-05,-4.891996932936521e-06,5.224426061341276e-05,-2.393050683909354e-05,5.9286,3.3571
1.94140625,-4.296901674525055e-05,1.5618188752575038e-05,1.5131084797436557e-05,-2.5391818704508963e-05,5.9286,3.3571
1.9453125,-4.199480883497361e-05,-7.814620663767372e-06,3.896602087434274e-06,-2.148462314946205e-05,5.9286,3.3571
1.94921875,-2.7350598439001984e-05,-6.353308798351946e-06,2.245837195239193e-05,-2.7350598439001984e-05,5.9286,3.3571
1.953125,-2.441761079423202e-05,2.0986696173037385e-05,-2.4461132433050352e-06,-3.56520935042343e-05,5.9286,3.3571
1.95703125,-2.7837702394140465e-05,3.906136208285656e-05,2.9288191238269718e-05,-3.418041772487976e-05,5.9286,3.3571
1.9609375,-1.3193491998168838e-05,2.7826879372854276e-05,6.298127545433747e-05,-3.516498954909583e-05,5.9286,3.3571
1.96484375,-8.30172461890585e-06,-3.90742510872046e-06,4.0522673948271996e-05,-3.125779399404891e-05,5.9286,3.3571
1.96875,-2.1982091018539633e-05,-3.4203211535819803e-06,2.6365567507438838e-05,-2.2469194973678114e-05,5.9286,3.3571
1.97265625,-2.5391818704508963e-05,1.5131084797436557e-05,2.001248826276044e-05,-1.3193491998168838e-05,5.9286,3.3571
1.9765625,-2.2956298928816594e-05,2.440678777294583e-05,3.319538679331663e-05,-7.327516708628906e-06,5.9286,3.3571
1.98046875,-2.5391818704508963e-05,2.2945475907530406e-05,4.686538927901131e-05,-5.866204843213481e-06,5.9286,3.3571
1.984375,-1.5629011773861222e-05,2.538099568322278e-05,5.565398829938209e-05,-1.2696024129091256e-05,5.9286,3.3571
1.98828125,-1.3193491998168838e-05,3.4169594703593585e-05,3.906136208285656e-05,-2.0510415239185093e-05,5.9286,3.3571
1.9921875,-2.148462314946205e-05,3.80767902586405e-05,9.27547342183574e-06,-1.5629011773861222e-05,5.9286,3.3571
1.99609375,-1.3680595953307317e-05,1.8064072442206536e-05,4.637828532387283e-05,-1.1721816218814296e-05,5.9286,3.3571
2.0,-6.353308798351946e-06,2.538099568322278e-05,9.912024336003671e-05,-1.5141907818722742e-05,5.9286,3.3571
2.00390625,-1.7587791508354243e-05,2.2945475907530406e-05,6.346837940947595e-05,-1.7090323639276647e-05,5.9286,3.3571
2.0078125,-9.773400398260393e-06,6.3424857770657605e-06,2.148416404211498e-05,-1.6116115728999703e-05,5.9286,3.3571
2.01171875,-9.773400398260393e-06,1.7079500617990462e-05,6.82958973220424e-06,-1.7587791508354243e-05,5.9286,3.3571
2.015625,-3.174489794918739e-05,-1.8074895463492724e-05,1.5131084797436557e-05,-7.327516708628906e-06,5.9286,3.3571
2.01953125,-2.2469194973678114e-05,-8.008219256122675e-05,2.9288191238269718e-05,-1.1234712263675831e-05,5.9286,3.3571
2.0234375,-9.286296443121926e-06,-6.20178905653467e-05,4.29685576379035e-05,-2.1982091018539633e-05,5.9286,3.3571
2.02734375,-6.840412753490426e-06,-8.35022841611352e-05,2.73397754177158e-05,-2.0510415239185093e-05,5.9286,3.3571
2.03125,-1.6603219684138167e-05,-0.00012988079903868157,1.1710993197528111e-05,-1.7587791508354243e-05,5.9286,3.3571
2.03515625,-9.286296443121926e-06,-0.00011669790050812537,-2.9332171984435006e-06,-1.6603219684138167e-05,5.9286,3.3571
2.0390625,-3.4203211535819803e-06,-0.00011962052423895621,7.8037976424812e-06,-1.4654803863584277e-05,5.9286,3.3571
2.04296875,-5.866204843213481e-06,-0.0001308550069489585,2.9775295193408168e-05,1.4610823117418903e-06,5.9286,3.3571
2.046875,-3.4203211535819803e-06,-0.00016600940303044168,-1.8074895463492724e-05,-4.976974227511306e-07,5.9286,3.3571
2.05078125,-8.799192487983447e-06,-0.00016210220747539476,-6.840412753490426e-06,-2.4461132433050352e-06,5.9286,3.3571
2.0546875,-7.327516708628906e-06,-0.00016747071489585713,2.0499592217898908e-05,-1.4719053330280758e-06,5.9286,3.3571
2.05859375,6.82958973220424e-06,-0.0002158183734218356,-4.053349696955818e-05,3.896602087434274e-06,5.9286,3.3571
2.0625,1.219809715266659e-05,-0.0002490139897688258,-6.738639798580903e-05,9.762577376974206e-06,5.9286,3.3571
2.06640625,9.27547342183574e-06,-0.0002548799650583657,-3.467788559395735e-05,1.4156876887159611e-05,5.9286,3.3571
2.0703125,7.31669368734272e-06,-0.00025390575714808876,-3.369331376974129e-05,1.3182668976882652e-05,5.9286,3.3571
2.07421875,2.440678777294583e-05,-0.0002661040838544289,-9.033210344701297e-05,9.27547342183574e-06,5.9286,3.3571
2.078125,2.9775295193408168e-05,-0.0002265553882627603,-0.00010643762570840003,1.6592396662851982e-05,5.9286,3.3571
2.08203125,8.290901597619666e-06,-0.00020507099466697177,-0.00011180613312886238,2.1971267997253448e-05,5.9286,3.3571
2.0859375,4.868744014649451e-07,-0.0002524340813687342,-8.78965836713206e-05,2.001248826276044e-05,5.9286,3.3571
2.08984375,2.148416404211498e-05,-0.0002880755814053559,-8.056929651636522e-05,1.7079500617990462e-05,5.9286,3.3571
2.09375,3.5641270482948125e-05,-0.00028075865816433964,-0.00011327780890821692,1.952538430762196e-05,5.9286,3.3571
2.09765625,4.345566159304198e-05,-0.00019482108378118555,-8.398938811627368e-05,2.0986696173037385e-05,5.9286,3.3571
2.1015625,4.247108976882589e-05,-0.00022167398479743645,-0.0001264607074387731,-2.2955367353461042e-10,5.9286,3.3571
2.10546875,3.906136208285656e-05,-0.0002758772546990158,-0.00011767210841840232,-1.1721816218814296e-05,5.9286,3.3571
2.109375,3.515416652780965e-05,-0.00022118688084229795,-7.813377674067286e-05,4.39406995651187e-06,5.9286,3.3571
2.11328125,1.1223889242389646e-05,-0.00018603248476081478,-0.00010937061335316999,3.896602087434274e-06,5.9286,3.3571
2.1171875,1.1223889242389646e-05,-0.00017236248227512008,-9.473676687113748e-05,-4.891996932936521e-06,5.9286,3.3571
2.12109375,1.2685201107805071e-05,-0.00012840912325932702,-4.687621230029748e-05,-6.353308798351946e-06,5.9286,3.3571
2.125,-8.799192487983447e-06,-9.033210344701297e-05,-2.441761079423202e-05,-1.3193491998168838e-05,5.9286,3.3571
2.12890625,-7.327516708628906e-06,-7.226780145113291e-05,-1.9049103373769668e-05,-1.953620732890815e-05,5.9286,3.3571
2.1328125,-5.866204843213481e-06,-6.104368265506974e-05,4.1009777903410476e-05,-2.148462314946205e-05,5.9286,3.3571
2.13671875,-1.1234712263675831e-05,-3.271910585946433e-05,3.0759867017624255e-05,-2.4904714749370496e-05,5.9286,3.3571
2.140625,-1.9049103373769668e-05,-1.5629011773861222e-05,9.739783566034106e-07,-3.174489794918739e-05,5.9286,3.3571
2.14453125,-7.814620663767372e-06,-2.5878922659647444e-05,2.9775295193408168e-05,-3.613919745937278e-05,5.9286,3.3571
2.1484375,-1.3680595953307317e-05,-3.4203211535819803e-06,5.712566407873663e-05,-3.174489794918739e-05,5.9286,3.3571
2.15234375,-2.3443402883955058e-05,2.1971267997253448e-05,8.251725322957207e-05,-2.637639052872504e-05,5.9286,3.3571
2.15625,-1.5629011773861222e-05,5.1757156658274284e-05,0.00010009445127031366,-2.4904714749370496e-05,5.9286,3.3571
2.16015625,-2.148462314946205e-05,4.345566159304198e-05,6.1032859633783544e-05,-2.2469194973678114e-05,5.9286,3.3571
2.1640625,-2.4904714749370496e-05,4.247108976882589e-05,6.884725074387739e-05,-1.5141907818722742e-05,5.9286,3.3571
2.16796875,-2.3443402883955058e-05,4.442986950331891e-05,0.00010790884238040749,-1.953620732890815e-05,5.9286,3.3571
2.171875,-2.5878922659647444e-05,2.440678777294583e-05,9.179295620508133e-05,-3.418041772487976e-05,5.9286,3.3571
2.17578125,-1.7090323639276647e-05,4.345566159304198e-05,9.374137202563526e-05,-4.88349920347905e-05,5.9286,3.3571
2.1796875,-2.0997519194323573e-05,7.861005767452513e-05,0.00011327734980086984,-4.786078412451355e-05,5.9286,3.3571
2.18359375,-3.174489794918739e-05,7.518996607461671e-05,8.543987696040293e-05,-3.516498954909583e-05,5.9286,3.3571
2.1875,-4.296901674525055e-05,7.225697842984673e-05,6.054575567864509e-05,-3.516498954909583e-05,5.9286,3.3571
2.19140625,-3.857471723506516e-05,7.421575816433975e-05,7.713838189517059e-05,-3.077069003891043e-05,5.9286,3.3571
2.1953125,-2.3443402883955058e-05,4.394276554818043e-05,6.640136705424589e-05,-3.0283586083771963e-05,5.9286,3.3571
2.19921875,-1.9049103373769668e-05,6.249417149919899e-05,8.446566905012597e-05,-3.711340536964974e-05,5.9286,3.3571
2.203125,-1.8074895463492724e-05,7.958426558480209e-05,7.128277051956977e-05,-3.76005093247882e-05,5.9286,3.3571
2.20703125,-2.1982091018539633e-05,4.198398581368741e-05,5.0285480878919737e-05,-3.857471723506516e-05,5.9286,3.3571
2.2109375,-2.0023311284046612e-05,5.1757156658274284e-05,6.737557496452285e-05,-3.76005093247882e-05,5.9286,3.3571
2.21484375,-2.1982091018539633e-05,7.567707002975519e-05,5.467978038910513e-05,-2.7837702394140465e-05,5.9286,3.3571
2.21875,-2.8324806349278942e-05,7.225697842984673e-05,3.954846603799504e-05,-3.125779399404891e-05,5.9286,3.3571
2.22265625,-2.7837702394140465e-05,7.324155025406279e-05,3.906136208285656e-05,-3.955928905928122e-05,5.9286,3.3571
2.2265625,-1.6603219684138167e-05,6.933435469901587e-05,4.736285714808889e-05,-4.44406925246051e-05,5.9286,3.3571
2.23046875,-1.7587791508354243e-05,6.151996358892202e-05,4.198398581368741e-05,-3.369331376974129e-05,5.9286,3.3571
2.234375,-1.7090323639276647e-05,8.83728646051729e-05,1.6592396662851982e-05,-2.7350598439001984e-05,5.9286,3.3571
2.23828125,-1.9049103373769668e-05,7.616417398489366e-05,3.5641270482948125e-05,-4.248191279011208e-05,5.9286,3.3571
2.2421875,-3.223200190432585e-05,6.640136705424589e-05,3.3682490748455105e-05,-4.590200439002053e-05,5.9286,3.3571
2.24609375,-1.5629011773861222e-05,7.176987447470825e-05,8.788369466697262e-06,-3.955928905928122e-05,5.9286,3.3571
2.25,-1.3680595953307317e-05,2.3432579862668887e-05,-2.4904714749370496e-05,-3.516498954909583e-05,5.9286,3.3571
2.25390625,-2.0997519194323573e-05,2.685267146257732e-05,-1.4654803863584277e-05,-3.613919745937278e-05,5.9286,3.3571
2.2578125,-1.4654803863584277e-05,3.5641270482948125e-05,-1.4719053330280758e-06,-4.053349696955818e-05,5.9286,3.3571
2.26171875,-1.7587791508354243e-05,3.3682490748455105e-05,-4.891996932936521e-06,-3.516498954909583e-05,5.9286,3.3571
2.265625,-1.7587791508354243e-05,4.5404077413595866e-05,9.27547342183574e-06,-2.9786118214694367e-05,5.9286,3.3571
2.26953125,-1.3680595953307317e-05,2.0986696173037385e-05,1.219809715266659e-05,-3.077069003891043e-05,5.9286,3.3571
2.2734375,-1.2208920173952777e-05,-9.773400398260393e-06,1.8551176397345003e-05,-3.0283586083771963e-05,5.9286,3.3571
2.27734375,-1.953620732890815e-05,5.368277866788815e-06,1.757696848706806e-05,-3.808761327992668e-05,5.9286,3.3571
2.28125,-1.7587791508354243e-05,3.4094981322957946e-06,2.8313983327992757e-05,-3.808761327992668e-05,5.9286,3.3571
2.28515625,-1.6603219684138167e-05,-2.4904714749370496e-05,-2.4461132433050352e-06,-3.467788559395735e-05,5.9286,3.3571
2.2890625,-2.2956298928816594e-05,-5.866204843213481e-06,-2.441761079423202e-05,-4.4927796479743574e-05,5.9286,3.3571
2.29296875,-1.6116115728999703e-05,1.4156876887159611e-05,-1.9590092881665555e-06,-5.1767979679560465e-05,5.9286,3.3571
2.296875,-2.1982091018539633e-05,-1.3680595953307317e-05,-1.0747608308537352e-05,-3.320620981460281e-05,5.9286,3.3571
2.30078125,-1.7587791508354243e-05,-9.773400398260393e-06,-8.799192487983447e-06,-2.441761079423202e-05,5.9286,3.3571
2.3046875,-9.84801377889596e-07,1.757696848706806e-05,6.82958973220424e-06,-3.56520935042343e-05,5.9286,3.3571
2.30859375,-6.840412753490426e-06,-1.7090323639276647e-05,-5.379100888075001e-06,-3.369331376974129e-05,5.9286,3.3571
2.3125,-1.8074895463492724e-05,-4.248191279011208e-05,-1.0747608308537352e-05,-3.125779399404891e-05,5.9286,3.3571
2.31640625,-1.6603219684138167e-05,-2.7837702394140465e-05,2.3919683817807354e-05,-3.320620981460281e-05,5.9286,3.3571
2.3203125,1.94818626688037e-06,1.4610823117418903e-06,1.4156876887159611e-05,-2.637639052872504e-05,5.9286,3.3571
2.32421875,-1.6603219684138167e-05,6.82958973220424e-06,-7.327516708628906e-06,-3.516498954909583e-05,5.9286,3.3571
2.328125,-2.4904714749370496e-05,-1.953620732890815e-05,-2.929901425955589e-05,-4.3953588569466626e-05,5.9286,3.3571
2.33203125,-1.5141907818722742e-05,-2.4904714749370496e-05,-3.613919745937278e-05,-4.0046393014419703e-05,5.9286,3.3571
2.3359375,-1.3193491998168838e-05,-6.353308798351946e-06,-1.953620732890815e-05,-3.174489794918739e-05,5.9286,3.3571
2.33984375,-2.9332171984435006e-06,2.922394177157315e-06,-1.9049103373769668e-05,-3.467788559395735e-05,5.9286,3.3571
2.34375,-2.4461132433050352e-06,1.1710993197528111e-05,-1.2208920173952777e-05,-3.711340536964974e-05,5.9286,3.3571
2.34765625,-2.393050683909354e-05,3.896602087434274e-06,-2.148462314946205e-05,-2.5878922659647444e-05,5.9286,3.3571
2.3515625,-2.5391818704508963e-05,1.1710993197528111e-05,-4.5414900434882054e-05,-3.077069003891043e-05,5.9286,3.3571
2.35546875,-1.3680595953307317e-05,4.686538927901131e-05,-4.102060092469666e-05,-4.44406925246051e-05,5.9286,3.3571
2.359375,-1.6116115728999703e-05,2.922394177157315e-06,-3.711340536964974e-05,-3.56520935042343e-05,5.9286,3.3571
2.36328125,-1.8074895463492724e-05,-3.711340536964974e-05,-3.467788559395735e-05,-2.8324806349278942e-05,5.9286,3.3571
2.3671875,-2.1982091018539633e-05,-7.814620663767372e-06,-1.2696024129091256e-05,-2.8324806349278942e-05,5.9286,3.3571
2.37109375,-1.5629011773861222e-05,1.6592396662851982e-05,-7.327516708628906e-06,-3.56520935042343e-05,5.9286,3.3571
2.375,-7.814620663767372e-06,3.758968630350202e-05,-1.0260504353398871e-05,-3.662630141451126e-05,5.9286,3.3571
2.37890625,-2.2956298928816594e-05,5.12596887891967e-05,-1.6603219684138167e-05,-2.929901425955589e-05,5.9286,3.3571
2.3828125,-2.6863494483863517e-05,5.419267643396665e-05,-2.929901425955589e-05,-3.320620981460281e-05,5.9286,3.3571
2.38671875,-1.953620732890815e-05,-1.4719053330280758e-06,-2.637639052872504e-05,-3.516498954909583e-05,5.9286,3.3571
2.390625,-1.7090323639276647e-05,-3.174489794918739e-05,-6.495087821011665e-05,-3.077069003891043e-05,5.9286,3.3571
2.39453125,-2.0997519194323573e-05,-9.84801377889596e-07,-8.98449994918745e-05,-3.56520935042343e-05,5.9286,3.3571
2.3984375,-1.1721816218814296e-05,2.9775295193408168e-05,-5.5664811320668276e-05,-3.711340536964974e-05,5.9286,3.3571
2.40234375,-1.2696024129091256e-05,3.8563894213778975e-05,-4.5414900434882054e-05,-2.5878922659647444e-05,5.9286,3.3571
2.40625,-2.2956298928816594e-05,3.173407492790119e-05,-5.07834078553444e-05,-2.441761079423202e-05,5.9286,3.3571
2.41015625,-1.3680595953307317e-05,6.1032859633783544e-05,-2.7350598439001984e-05,-3.271910585946433e-05,5.9286,3.3571
2.4140625,-2.881191030441741e-05,2.0499592217898908e-05,-4.687621230029748e-05,-3.516498954909583e-05,5.9286,3.3571
2.41796875,-4.4927796479743574e-05,-1.7587791508354243e-05,-7.910798465094982e-05,-3.56520935042343e-05,5.9286,3.3571
2.421875,-3.76005093247882e-05,-1.4719053330280758e-06,-5.2255083634698946e-05,-3.857471723506516e-05,5.9286,3.3571
2.42578125,-2.148462314946205e-05,1.4156876887159611e-05,-4.150770487983513e-05,-4.248191279011208e-05,5.9286,3.3571
2.4296875,-3.90742510872046e-06,2.245837195239193e-05,-4.590200439002053e-05,-4.3953588569466626e-05,5.9286,3.3571
2.43359375,-8.30172461890585e-06,1.4610823117418903e-06,-4.88349920347905e-05,-3.271910585946433e-05,5.9286,3.3571
2.4375,-2.881191030441741e-05,-1.953620732890815e-05,-5.1767979679560465e-05,-3.369331376974129e-05,5.9286,3.3571
2.44140625,-2.0510415239185093e-05,-9.286296443121926e-06,-4.053349696955818e-05,-4.053349696955818e-05,5.9286,3.3571
2.4453125,-1.3193491998168838e-05,9.27547342183574e-06,-5.1767979679560465e-05,-3.56520935042343e-05,5.9286,3.3571
2.44921875,-2.0510415239185093e-05,-1.5629011773861222e-05,-6.005911083085367e-05,-3.467788559395735e-05,5.9286,3.3571
2.453125,-3.955928905928122e-05,-3.808761327992668e-05,-4.199480883497361e-05,-3.857471723506516e-05,5.9286,3.3571
2.45703125,-3.857471723506516e-05,-1.6116115728999703e-05,-3.907218510414274e-05,-3.907218510414274e-05,5.9286,3.3571
2.4609375,-2.1982091018539633e-05,-1.1721816218814296e-05,-2.441761079423202e-05,-3.174489794918739e-05,5.9286,3.3571
2.46484375,-1.3680595953307317e-05,-6.840412753490426e-06,-4.4927796479743574e-05,-4.199480883497361e-05,5.9286,3.3571
2.46875,-3.4203211535819803e-06,1.4643980842298092e-05,-7.862088069581134e-05,-5.664938314488434e-05,5.9286,3.3571
2.47265625,-8.799192487983447e-06,-1.1721816218814296e-05,-4.638910834515901e-05,-3.857471723506516e-05,5.9286,3.3571
2.4765625,-2.2469194973678114e-05,-5.0296303900205925e-05,-3.76005093247882e-05,-3.418041772487976e-05,5.9286,3.3571
2.48046875,-4.44406925246051e-05,-7.080648958571748e-05,-4.150770487983513e-05,-3.077069003891043e-05,5.9286,3.3571
2.484375,-3.516498954909583e-05,-4.102060092469666e-05,-2.881191030441741e-05,-2.1982091018539633e-05,5.9286,3.3571
2.48828125,-1.3193491998168838e-05,-1.5629011773861222e-05,-6.64121900755321e-05,-3.418041772487976e-05,5.9286,3.3571
2.4921875,-1.3680595953307317e-05,-3.125779399404891e-05,-6.592508612039362e-05,-3.76005093247882e-05,5.9286,3.3571
2.49609375,-1.5629011773861222e-05,-4.296901674525055e-05,-1.5141907818722742e-05,-2.8324806349278942e-05,5.9286,3.3571
2.5,-1.2696024129091256e-05,-3.0283586083771963e-05,-1.7587791508354243e-05,-2.5878922659647444e-05,5.9286,3.3571
2.50390625,-2.2469194973678114e-05,-3.174489794918739e-05,-4.88349920347905e-05,-1.6116115728999703e-05,5.9286,3.3571
2.5078125,-2.1982091018539633e-05,-3.174489794918739e-05,-4.638910834515901e-05,-1.6116115728999703e-05,5.9286,3.3571
2.51171875,-6.353308798351946e-06,-1.9049103373769668e-05,-4.199480883497361e-05,-3.662630141451126e-05,5.9286,3.3571
2.515625,-1.0260504353398871e-05,-3.125779399404891e-05,-4.3953588569466626e-05,-4.296901674525055e-05,5.9286,3.3571
2.51953125,-1.8561999418631187e-05,-1.4167699908445798e-05,-6.353308798351946e-06,-3.613919745937278e-05,5.9286,3.3571
2.5234375,-1.6116115728999703e-05,3.1246970972762736e-05,2.8313983327992757e-05,-3.271910585946433e-05,5.9286,3.3571
2.52734375,-1.3680595953307317e-05,-1.0260504353398871e-05,-2.0023311284046612e-05,-2.9786118214694367e-05,5.9286,3.3571
2.53125,-6.840412753490426e-06,-2.637639052872504e-05,-4.199480883497361e-05,-2.929901425955589e-05,5.9286,3.3571
2.53515625,-1.8561999418631187e-05,-2.4461132433050352e-06,-3.125779399404891e-05,-2.393050683909354e-05,5.9286,3.3571
2.5390625,-2.393050683909354e-05,-6.840412753490426e-06,-1.4654803863584277e-05,-2.441761079423202e-05,5.9286,3.3571
2.54296875,-1.7587791508354243e-05,-8.30172461890585e-06,-4.394529063858925e-06,-3.516498954909583e-05,5.9286,3.3571
2.546875,-7.327516708628906e-06,-1.4719053330280758e-06,-1.3680595953307317e-05,-2.929901425955589e-05,5.9286,3.3571
2.55078125,-4.394529063858925e-06,-3.4203211535819803e-06,-1.6116115728999703e-05,-1.8074895463492724e-05,5.9286,3.3571
2.5546875,6.82958973220424e-06,-7.327516708628906e-06,2.922394177157315e-06,-1.4167699908445798e-05,5.9286,3.3571
2.55859375,8.788369466697262e-06,9.27547342183574e-06,7.8037976424812e-06,-1.4167699908445798e-05,5.9286,3.3571
2.5625,-3.90742510872046e-06,2.5878463552300388e-05,2.4352902220188496e-06,-1.5629011773861222e-05,5.9286,3.3571
2.56640625,-6.353308798351946e-06,7.31669368734272e-06,-4.394529063858925e-06,-1.4167699908445798e-05,5.9286,3.3571
2.5703125,4.868744014649451e-07,-3.857471723506516e-05,-4.891996932936521e-06,-1.3193491998168838e-05,5.9286,3.3571
2.57421875,3.4094981322957946e-06,-1.0260504353398871e-05,-3.90742510872046e-06,-2.441761079423202e-05,5.9286,3.3571
2.578125,-1.1234712263675831e-05,3.270828283817815e-05,1.7079500617990462e-05,-2.637639052872504e-05,5.9286,3.3571
2.58203125,-4.976974227511306e-07,1.9038280352483483e-05,6.151996358892202e-05,-1.7587791508354243e-05,5.9286,3.3571
2.5859375,7.31669368734272e-06,1.7079500617990462e-05,2.3919683817807354e-05,-1.0747608308537352e-05,5.9286,3.3571
2.58984375,-3.90742510872046e-06,-2.0023311284046612e-05,-3.369331376974129e-05,-5.379100888075001e-06,5.9286,3.3571
2.59375,7.31669368734272e-06,-4.891996932936521e-06,-9.286296443121926e-06,-1.2208920173952777e-05,5.9286,3.3571
2.59765625,1.5131084797436557e-05,3.0759867017624255e-05,5.9561183854429004e-05,-1.5141907818722742e-05,5.9286,3.3571
2.6015625,7.8037976424812e-06,2.9288191238269718e-05,4.979837692378126e-05,-6.840412753490426e-06,5.9286,3.3571
2.60546875,9.739783566034106e-07,1.4156876887159611e-05,5.855381821927295e-06,-8.30172461890585e-06,5.9286,3.3571
2.609375,9.739783566034106e-07,-6.353308798351946e-06,2.0499592217898908e-05,-4.891996932936521e-06,5.9286,3.3571
2.61328125,1.0736785287251166e-05,1.5131084797436557e-05,5.516688434424361e-05,-5.379100888075001e-06,5.9286,3.3571
2.6171875,-4.394529063858925e-06,3.0272763062485778e-05,5.809987198901359e-05,-1.3680595953307317e-05,5.9286,3.3571
2.62109375,-9.773400398260393e-06,2.9288191238269718e-05,4.5404077413595866e-05,-1.5141907818722742e-05,5.9286,3.3571
2.625,1.94818626688037e-06,1.952538430762196e-05,1.7079500617990462e-05,-1.7587791508354243e-05,5.9286,3.3571
2.62890625,-4.394529063858925e-06,-2.0997519194323573e-05,3.896602087434274e-06,-1.4654803863584277e-05,5.9286,3.3571
2.6328125,-4.891996932936521e-06,-1.7090323639276647e-05,1.6105292707713515e-05,-1.4167699908445798e-05,5.9286,3.3571
2.63671875,8.788369466697262e-06,2.3919683817807354e-05,3.0272763062485778e-05,-1.5141907818722742e-05,5.9286,3.3571
2.640625,9.739783566034106e-07,-9.84801377889596e-07,4.784996110322737e-05,-8.799192487983447e-06,5.9286,3.3571
2.64453125,-3.4203211535819803e-06,-3.613919745937278e-05,5.565398829938209e-05,-6.353308798351946e-06,5.9286,3.3571
2.6484375,-3.4203211535819803e-06,-3.418041772487976e-05,3.4169594703593585e-05,-1.1721816218814296e-05,5.9286,3.3571
2.65234375,-1.5141907818722742e-05,-2.0510415239185093e-05,3.4094981322957946e-06,-7.814620663767372e-06,5.9286,3.3571
2.65625,-1.8074895463492724e-05,1.4610823117418903e-06,-5.866204843213481e-06,-1.2208920173952777e-05,5.9286,3.3571
2.66015625,-1.0747608308537352e-05,2.1971267997253448e-05,2.538099568322278e-05,-1.7090323639276647e-05,5.9286,3.3571
2.6640625,-1.9590092881665555e-06,-1.4719053330280758e-06,2.9775295193408168e-05,-1.0747608308537352e-05,5.9286,3.3571
2.66796875,7.31669368734272e-06,-3.271910585946433e-05,-1.5629011773861222e-05,-2.2956298928816594e-05,5.9286,3.3571
2.671875,-9.84801377889596e-07,-3.223200190432585e-05,-2.4904714749370496e-05,-2.2469194973678114e-05,5.9286,3.3571
2.67578125,-2.0510415239185093e-05,-2.9786118214694367e-05,-2.4461132433050352e-06,-1.2696024129091256e-05,5.9286,3.3571
2.6796875,-1.5629011773861222e-05,-1.3193491998168838e-05,1.4156876887159611e-05,-1.7587791508354243e-05,5.9286,3.3571
2.68359375,-1.4167699908445798e-05,3.896602087434274e-06,3.80767902586405e-05,-2.0023311284046612e-05,5.9286,3.3571
2.6875,-1.1721816218814296e-05,-4.891996932936521e-06,3.3682490748455105e-05,-1.5141907818722742e-05,5.9286,3.3571
2.69140625,-6.840412753490426e-06,-2.393050683909354e-05,-4.394529063858925e-06,-2.0023311284046612e-05,5.9286,3.3571
2.6953125,-1.0260504353398871e-05,-2.2469194973678114e-05,-9.286296443121926e-06,-2.5391818704508963e-05,5.9286,3.3571
2.69921875,-3.4203211535819803e-06,-1.8561999418631187e-05,-1.9049103373769668e-05,-2.441761079423202e-05,5.9286,3.3571
2.703125,-5.866204843213481e-06,-2.0510415239185093e-05,-1.9049103373769668e-05,-2.1982091018539633e-05,5.9286,3.3571
2.70703125,-8.799192487983447e-06,-3.271910585946433e-05,1.5131084797436557e-05,-2.0510415239185093e-05,5.9286,3.3571
2.7109375,-4.394529063858925e-06,-1.1721816218814296e-05,6.82958973220424e-06,-1.9049103373769668e-05,5.9286,3.3571
2.71484375,1.94818626688037e-06,2.8801087283131238e-05,-1.953620732890815e-05,-1.8561999418631187e-05,5.9286,3.3571
2.71875,-6.353308798351946e-06,-8.30172461890585e-06,6.82958973220424e-06,-1.1234712263675831e-05,5.9286,3.3571
2.72265625,-3.90742510872046e-06,-3.369331376974129e-05,-2.4461132433050352e-06,-1.9049103373769668e-05,5.9286,3.3571
2.7265625,6.82958973220424e-06,-2.2956298928816594e-05,-2.0023311284046612e-05,-4.053349696955818e-05,5.9286,3.3571
2.73046875,-1.9590092881665555e-06,1.4156876887159611e-05,-1.5141907818722742e-05,-3.125779399404891e-05,5.9286,3.3571
2.734375,-1.8561999418631187e-05,-1.4167699908445798e-05,-3.418041772487976e-05,-1.7090323639276647e-05,5.9286,3.3571
2.73828125,-1.5141907818722742e-05,-8.30172461890585e-06,-1.4167699908445798e-05,-2.2469194973678114e-05,5.9286,3.3571
2.7421875,-3.90742510872046e-06,4.686538927901131e-05,-1.4167699908445798e-05,-2.0510415239185093e-05,5.9286,3.3571
2.74609375,-5.866204843213481e-06,1.6105292707713515e-05,-4.44406925246051e-05,-1.4654803863584277e-05,5.9286,3.3571
2.75,-1.1234712263675831e-05,-1.6116115728999703e-05,-4.44406925246051e-05,-1.5141907818722742e-05,5.9286,3.3571
2.75390625,-6.840412753490426e-06,-3.4203211535819803e-06,-2.0997519194323573e-05,-2.0997519194323573e-05,5.9286,3.3571
2.7578125,6.82958973220424e-06,1.757696848706806e-05,-8.30172461890585e-06,-2.393050683909354e-05,5.9286,3.3571
2.76171875,8.788369466697262e-06,2.7826879372854276e-05,-9.84801377889596e-07,-2.3443402883955058e-05,5.9286,3.3571
2.765625,1.4610823117418903e-06,3.1246970972762736e-05,-7.327516708628906e-06,-1.953620732890815e-05,5.9286,3.3571
2.76953125,-6.840412753490426e-06,2.0986696173037385e-05,-3.613919745937278e-05,-1.9049103373769668e-05,5.9286,3.3571
2.7734375,-1.6603219684138167e-05,1.0249681332112687e-05,-3.0283586083771963e-05,-2.0023311284046612e-05,5.9286,3.3571
2.77734375,-1.6116115728999703e-05,1.6592396662851982e-05,7.8037976424812e-06,-1.6603219684138167e-05,5.9286,3.3571
2.78125,-6.840412753490426e-06,1.2685201107805071e-05,-1.1234712263675831e-05,-1.1234712263675831e-05,5.9286,3.3571
2.78515625,-1.2696024129091256e-05,-1.0747608308537352e-05,-4.150770487983513e-05,-1.2208920173952777e-05,5.9286,3.3571
2.7890625,-1.6116115728999703e-05,-1.5141907818722742e-05,-3.125779399404891e-05,-2.148462314946205e-05,5.9286,3.3571
2.79296875,-7.814620663767372e-06,1.5618188752575038e-05,-1.9049103373769668e-05,-2.4904714749370496e-05,5.9286,3.3571
2.796875,-1.2208920173952777e-05,1.6105292707713515e-05,-2.9332171984435006e-06,-2.2469194973678114e-05,5.9286,3.3571
2.80078125,-1.7587791508354243e-05,-1.2696024129091256e-05,-3.4203211535819803e-06,-2.7837702394140465e-05,5.9286,3.3571
2.8046875,-1.5629011773861222e-05,-2.441761079423202e-05,-4.932209598992897e-05,-3.808761327992668e-05,5.9286,3.3571
2.80859375,-1.7090323639276647e-05,-2.637639052872504e-05,-6.39663063859006e-05,-4.150770487983513e-05,5.9286,3.3571
2.8125,-2.148462314946205e-05,-2.4904714749370496e-05,-4.102060092469666e-05,-4.346648461432815e-05,5.9286,3.3571
2.81640625,-2.5878922659647444e-05,-1.0260504353398871e-05,-2.393050683909354e-05,-4.590200439002053e-05,5.9286,3.3571
2.8203125,-1.9049103373769668e-05,8.290901597619666e-06,-3.662630141451126e-05,-3.76005093247882e-05,5.9286,3.3571
2.82421875,-1.9049103373769668e-05,-2.4461132433050352e-06,-4.638910834515901e-05,-3.223200190432585e-05,5.9286,3.3571
2.828125,-1.6603219684138167e-05,-1.8074895463492724e-05,-2.4904714749370496e-05,-3.418041772487976e-05,5.9286,3.3571
2.83203125,-1.7090323639276647e-05,-9.773400398260393e-06,-3.907218510414274e-05,-2.929901425955589e-05,5.9286,3.3571
2.8359375,-1.7090323639276647e-05,-3.174489794918739e-05,-4.5414900434882054e-05,-2.7350598439001984e-05,5.9286,3.3571
2.83984375,-8.799192487983447e-06,-2.9786118214694367e-05,-1.1721816218814296e-05,-2.6863494483863517e-05,5.9286,3.3571
2.84375,-7.327516708628906e-06,3.4094981322957946e-06,-1.3680595953307317e-05,-2.929901425955589e-05,5.9286,3.3571
2.84765625,-1.0260504353398871e-05,-5.866204843213481e-06,-2.393050683909354e-05,-3.0283586083771963e-05,5.9286,3.3571
2.8515625,-2.2956298928816594e-05,-3.418041772487976e-05,-1.2696024129091256e-05,-2.0510415239185093e-05,5.9286,3.3571
2.85546875,-4.102060092469666e-05,-3.56520935042343e-05,-3.174489794918739e-05,-2.5878922659647444e-05,5.9286,3.3571
2.859375,-2.9786118214694367e-05,-1.7090323639276647e-05,-5.2255083634698946e-05,-4.248191279011208e-05,5.9286,3.3571
2.86328125,-1.8561999418631187e-05,-4.150770487983513e-05,-3.077069003891043e-05,-3.516498954909583e-05,5.9286,3.3571
2.8671875,-1.2696024129091256e-05,-3.662630141451126e-05,-2.8324806349278942e-05,-3.56520935042343e-05,5.9286,3.3571
2.87109375,-1.9049103373769668e-05,-3.516498954909583e-05,-2.148462314946205e-05,-4.053349696955818e-05,5.9286,3.3571
2.875,-2.881191030441741e-05,-2.441761079423202e-05,4.868744014649451e-07,-2.9786118214694367e-05,5.9286,3.3571
2.87890625,-1.8561999418631187e-05,-2.148462314946205e-05,-2.637639052872504e-05,-2.5878922659647444e-05,5.9286,3.3571
2.8828125,-1.5141907818722742e-05,-4.199480883497361e-05,-3.907218510414274e-05,-2.8324806349278942e-05,5.9286,3.3571
2.88671875,-1.953620732890815e-05,-4.5414900434882054e-05,-4.248191279011208e-05,-3.223200190432585e-05,5.9286,3.3571
2.890625,-2.5391818704508963e-05,-1.1721816218814296e-05,-3.662630141451126e-05,-3.077069003891043e-05,5.9286,3.3571
2.89453125,-2.5391818704508963e-05,1.7079500617990462e-05,-6.840412753490426e-06,-3.320620981460281e-05,5.9286,3.3571
2.8984375,-2.929901425955589e-05,1.8064072442206536e-05,-3.077069003891043e-05,-3.369331376974129e-05,5.9286,3.3571
2.90234375,-2.637639052872504e-05,-6.353308798351946e-06,-3.271910585946433e-05,-3.613919745937278e-05,5.9286,3.3571
2.90625,-2.637639052872504e-05,-3.320620981460281e-05,-1.1234712263675831e-05,-3.56520935042343e-05,5.9286,3.3571
2.91015625,-3.077069003891043e-05,-2.7350598439001984e-05,-4.0046393014419703e-05,-3.174489794918739e-05,5.9286,3.3571
2.9140625,-1.7587791508354243e-05,-1.7587791508354243e-05,-6.39663063859006e-05,-3.369331376974129e-05,5.9286,3.3571
2.91796875,-2.1982091018539633e-05,3.4094981322957946e-06,-4.296901674525055e-05,-3.516498954909583e-05,5.9286,3.3571
2.921875,-2.1982091018539633e-05,1.9038280352483483e-05,-4.0046393014419703e-05,-3.0283586083771963e-05,5.9286,3.3571
2.92578125,-1.6603219684138167e-05,-1.7090323639276647e-05,-4.053349696955818e-05,-2.5391818704508963e-05,5.9286,3.3571
2.9296875,-2.441761079423202e-05,-3.711340536964974e-05,-4.932209598992897e-05,-3.56520935042343e-05,5.9286,3.3571
2.93359375,-2.0997519194323573e-05,-8.799192487983447e-06,-6.543798216525514e-05,-4.3953588569466626e-05,5.9286,3.3571
2.9375,-2.441761079423202e-05,-2.148462314946205e-05,-3.955928905928122e-05,-4.199480883497361e-05,5.9286,3.3571
2.94140625,-4.199480883497361e-05,-3.711340536964974e-05,-2.1982091018539633e-05,-4.150770487983513e-05,5.9286,3.3571
2.9453125,-3.662630141451126e-05,-1.2696024129091256e-05,-5.07834078553444e-05,-4.102060092469666e-05,5.9286,3.3571
2.94921875,-2.393050683909354e-05,-3.76005093247882e-05,-7.373947723048746e-05,-4.199480883497361e-05,5.9286,3.3571
2.953125,-2.2469194973678114e-05,-4.88349920347905e-05,-5.908490292057672e-05,-3.56520935042343e-05,5.9286,3.3571
2.95703125,-2.6863494483863517e-05,-1.7587791508354243e-05,-3.808761327992668e-05,-2.929901425955589e-05,5.9286,3.3571
2.9609375,-2.0023311284046612e-05,-2.2469194973678114e-05,-5.2255083634698946e-05,-3.418041772487976e-05,5.9286,3.3571
2.96484375,-1.3680595953307317e-05,-6.353308798351946e-06,-5.07834078553444e-05,-4.199480883497361e-05,5.9286,3.3571
2.96875,-1.8561999418631187e-05,-2.9332171984435006e-06,-3.369331376974129e-05,-3.516498954909583e-05,5.9286,3.3571
2.97265625,-2.5391818704508963e-05,-4.590200439002053e-05,-6.445341034103908e-05,-2.5391818704508963e-05,5.9286,3.3571
2.9765625,-2.2956298928816594e-05,-2.7350598439001984e-05,-7.422658118562593e-05,-3.662630141451126e-05,5.9286,3.3571
2.98046875,-1.9049103373769668e-05,-3.516498954909583e-05,-3.516498954909583e-05,-3.808761327992668e-05,5.9286,3.3571
2.984375,-1.6603219684138167e-05,-3.56520935042343e-05,-2.0023311284046612e-05,-3.125779399404891e-05,5.9286,3.3571
2.98828125,-2.3443402883955058e-05,-2.8324806349278942e-05,-2.2956298928816594e-05,-3.467788559395735e-05,5.9286,3.3571
2.9921875,-2.637639052872504e-05,-2.929901425955589e-05,-1.7587791508354243e-05,-4.346648461432815e-05,5.9286,3.3571
2.99609375,-2.1982091018539633e-05,-1.7587791508354243e-05,-2.2955367353461042e-10,-4.638910834515901e-05,5.9286,3.3571
3.0,-3.125779399404891e-05,-9.84801377889596e-07,-7.327516708628906e-06,-4.4927796479743574e-05,5.9286,3.3571
3.00390625,-3.76005093247882e-05,-5.866204843213481e-06,-1.4719053330280758e-06,-4.248191279011208e-05,5.9286,3.3571
3.0078125,-3.271910585946433e-05,-3.711340536964974e-05,1.6592396662851982e-05,-2.881191030441741e-05,5.9286,3.3571
3.01171875,-2.7837702394140465e-05,-3.369331376974129e-05,-2.393050683909354e-05,-3.125779399404891e-05,5.9286,3.3571
3.015625,-3.223200190432585e-05,-3.223200190432585e-05,-1.9049103373769668e-05,-3.369331376974129e-05,5.9286,3.3571
3.01953125,-3.174489794918739e-05,-3.76005093247882e-05,3.896602087434274e-06,-2.881191030441741e-05,5.9286,3.3571
3.0234375,-2.148462314946205e-05,-3.711340536964974e-05,-5.379100888075001e-06,-2.929901425955589e-05,5.9286,3.3571
3.02734375,-1.7090323639276647e-05,-3.271910585946433e-05,-5.866204843213481e-06,-2.441761079423202e-05,5.9286,3.3571
3.03125,-1.6603219684138167e-05,-1.2696024129091256e-05,-9.286296443121926e-06,-2.2956298928816594e-05,5.9286,3.3571
3.03515625,-1.7587791508354243e-05,-1.2696024129091256e-05,-1.1234712263675831e-05,-2.0510415239185093e-05,5.9286,3.3571
3.0390625,-2.1982091018539633e-05,-1.9590092881665555e-06,-1.8561999418631187e-05,-2.441761079423202e-05,5.9286,3.3571
3.04296875,-2.5391818704508963e-05,-4.891996932936521e-06,-4.394529063858925e-06,-2.881191030441741e-05,5.9286,3.3571
3.046875,-1.5629011773861222e-05,-5.32292915449759e-05,4.881173911650336e-06,-2.637639052872504e-05,5.9286,3.3571
3.05078125,-2.2469194973678114e-05,-6.689929403067058e-05,-2.7350598439001984e-05,-2.929901425955589e-05,5.9286,3.3571
3.0546875,-2.8324806349278942e-05,-2.441761079423202e-05,-4.980919994506745e-05,-2.9786118214694367e-05,5.9286,3.3571
3.05859375,-2.637639052872504e-05,-4.891996932936521e-06,-2.0023311284046612e-05,-3.077069003891043e-05,5.9286,3.3571
3.0625,-2.393050683909354e-05,-4.394529063858925e-06,-1.4654803863584277e-05,-3.174489794918739e-05,5.9286,3.3571
3.06640625,-2.1982091018539633e-05,-2.393050683909354e-05,-2.637639052872504e-05,-2.7837702394140465e-05,5.9286,3.3571
3.0703125,-2.1982091018539633e-05,-5.5177707365529795e-05,-3.613919745937278e-05,-3.0283586083771963e-05,5.9286,3.3571
3.07421875,-2.3443402883955058e-05,-3.76005093247882e-05,-1.1234712263675831e-05,-3.271910585946433e-05,5.9286,3.3571
3.078125,-2.881191030441741e-05,-2.1982091018539633e-05,1.0736785287251166e-05,-3.174489794918739e-05,5.9286,3.3571
3.08203125,-3.174489794918739e-05,-1.3680595953307317e-05,-1.8561999418631187e-05,-3.907218510414274e-05,5.9286,3.3571
3.0859375,-2.929901425955589e-05,4.868744014649451e-07,-4.687621230029748e-05,-3.857471723506516e-05,5.9286,3.3571
3.08984375,-2.5391818704508963e-05,-4.638910834515901e-05,-6.104368265506974e-05,-3.223200190432585e-05,5.9286,3.3571
3.09375,-2.2956298928816594e-05,-3.857471723506516e-05,-3.808761327992668e-05,-2.7837702394140465e-05,5.9286,3.3571
3.09765625,-3.0283586083771963e-05,-5.379100888075001e-06,-3.320620981460281e-05,-3.223200190432585e-05,5.9286,3.3571
3.1015625,-3.369331376974129e-05,-6.353308798351946e-06,-3.955928905928122e-05,-3.516498954909583e-05,5.9286,3.3571
3.10546875,-3.320620981460281e-05,3.4094981322957946e-06,-2.5878922659647444e-05,-2.929901425955589e-05,5.9286,3.3571
3.109375,-3.077069003891043e-05,6.82958973220424e-06,-5.1767979679560465e-05,-2.7350598439001984e-05,5.9286,3.3571
3.11328125,-2.881191030441741e-05,-1.9590092881665555e-06,-4.980919994506745e-05,-2.7350598439001984e-05,5.9286,3.3571
3.1171875,-2.7837702394140465e-05,1.4156876887159611e-05,-3.125779399404891e-05,-3.125779399404891e-05,5.9286,3.3571
3.12109375,-2.637639052872504e-05,1.7079500617990462e-05,-2.8324806349278942e-05,-3.223200190432585e-05,5.9286,3.3571
3.125,-3.0283586083771963e-05,2.4352902220188496e-06,-2.2956298928816594e-05,-2.8324806349278942e-05,5.9286,3.3571
3.12890625,-3.0283586083771963e-05,-2.3443402883955058e-05,-5.1767979679560465e-05,-3.174489794918739e-05,5.9286,3.3571
3.1328125,-1.8074895463492724e-05,-2.8324806349278942e-05,-5.616227918974586e-05,-2.9786118214694367e-05,5.9286,3.3571
3.13671875,-1.0260504353398871e-05,-1.6116115728999703e-05,-3.907218510414274e-05,-1.7090323639276647e-05,5.9286,3.3571
3.140625,-1.7587791508354243e-05,-9.84801377889596e-07,-6.353308798351946e-06,-1.2696024129091256e-05,5.9286,3.3571
3.14453125,-2.5878922659647444e-05,-9.84801377889596e-07,-2.1982091018539633e-05,-1.4654803863584277e-05,5.9286,3.3571
3.1484375,-2.3443402883955058e-05,-6.840412753490426e-06,-5.7623591055161297e-05,-1.0747608308537352e-05,5.9286,3.3571
3.15234375,-1.0747608308537352e-05,4.868744014649451e-07,-3.76005093247882e-05,-6.840412753490426e-06,5.9286,3.3571
3.15625,-1.8074895463492724e-05,-1.3680595953307317e-05,-3.76005093247882e-05,-4.976974227511306e-07,5.9286,3.3571
3.16015625,-2.441761079423202e-05,-2.7350598439001984e-05,-3.418041772487976e-05,3.896602087434274e-06,5.9286,3.3571
3.1640625,-1.5141907818722742e-05,-2.2956298928816594e-05,-3.0283586083771963e-05,-9.286296443121926e-06,5.9286,3.3571
3.16796875,-1.2208920173952777e-05,-1.6116115728999703e-05,-4.932209598992897e-05,-2.0997519194323573e-05,5.9286,3.3571
3.171875,-1.0747608308537352e-05,-4.248191279011208e-05,-3.516498954909583e-05,-1.4167699908445798e-05,5.9286,3.3571
3.17578125,-1.8074895463492724e-05,-5.3716395500114374e-05,-2.148462314946205e-05,-8.799192487983447e-06,5.9286,3.3571
3.1796875,-2.5391818704508963e-05,-3.467788559395735e-05,-4.0046393014419703e-05,-1.2696024129091256e-05,5.9286,3.3571
3.18359375,-1.8074895463492724e-05,-3.56520935042343e-05,-4.5414900434882054e-05,-1.7090323639276647e-05,5.9286,3.3571
3.1875,-1.953620732890815e-05,-2.2469194973678114e-05,-2.0023311284046612e-05,-1.7587791508354243e-05,5.9286,3.3571
3.19140625,-2.393050683909354e-05,-1.3680595953307317e-05,-1.3680595953307317e-05,-2.4904714749370496e-05,5.9286,3.3571
3.1953125,-1.0747608308537352e-05,-4.394529063858925e-06,-1.6116115728999703e-05,-2.929901425955589e-05,5.9286,3.3571
3.19921875,-1.6116115728999703e-05,-4.891996932936521e-06,-2.7837702394140465e-05,-2.0023311284046612e-05,5.9286,3.3571
3.203125,-4.0046393014419703e-05,-6.543798216525514e-05,-5.7136487100022816e-05,-1.6603219684138167e-05,5.9286,3.3571
3.20703125,-3.56520935042343e-05,-0.0001069247296635385,-7.080648958571748e-05,-2.393050683909354e-05,5.9286,3.3571
3.2109375,-3.418041772487976e-05,-9.765939060196835e-05,-7.129359354085596e-05,-2.6863494483863517e-05,5.9286,3.3571
3.21484375,-3.369331376974129e-05,-8.056929651636522e-05,-6.836060589608598e-05,-2.0997519194323573e-05,5.9286,3.3571
3.21875,-3.76005093247882e-05,-6.495087821011665e-05,-6.738639798580903e-05,-2.0997519194323573e-05,5.9286,3.3571
3.22265625,-4.248191279011208e-05,-7.568789305104136e-05,-6.299209847562363e-05,-3.516498954909583e-05,5.9286,3.3571
3.2265625,-3.955928905928122e-05,-8.593780393682758e-05,-5.0296303900205925e-05,-3.174489794918739e-05,5.9286,3.3571
3.23046875,-3.907218510414274e-05,-6.64121900755321e-05,-5.0296303900205925e-05,-2.5878922659647444e-05,5.9286,3.3571
3.234375,-3.56520935042343e-05,-7.959508860608827e-05,-6.250499452048517e-05,-3.56520935042343e-05,5.9286,3.3571
3.23828125,-4.053349696955818e-05,-6.592508612039362e-05,-7.617499700617984e-05,-2.881191030441741e-05,5.9286,3.3571
3.2421875,-3.808761327992668e-05,-4.44406925246051e-05,-6.738639798580903e-05,-3.077069003891043e-05,5.9286,3.3571
3.24609375,-3.271910585946433e-05,-6.153078661020822e-05,-6.445341034103908e-05,-4.0046393014419703e-05,5.9286,3.3571
3.25,-2.8324806349278942e-05,-5.420349945525285e-05,-5.8597798965438244e-05,-3.174489794918739e-05,5.9286,3.3571
3.25390625,-2.5878922659647444e-05,-3.418041772487976e-05,-5.7623591055161297e-05,-3.0283586083771963e-05,5.9286,3.3571
3.2578125,-3.711340536964974e-05,-2.393050683909354e-05,-6.738639798580903e-05,-3.76005093247882e-05,5.9286,3.3571
3.26171875,-4.4927796479743574e-05,-3.0283586083771963e-05,-5.957200687571519e-05,-3.711340536964974e-05,5.9286,3.3571
3.265625,-3.077069003891043e-05,-5.469060341039132e-05,-5.957200687571519e-05,-3.808761327992668e-05,5.9286,3.3571
3.26953125,-2.3443402883955058e-05,-4.5414900434882054e-05,-6.934517772030205e-05,-3.516498954909583e-05,5.9286,3.3571
3.2734375,-3.320620981460281e-05,-6.840412753490426e-06,-4.44406925246051e-05,-2.929901425955589e-05,5.9286,3.3571
3.27734375,-4.199480883497361e-05,-2.5878922659647444e-05,-3.56520935042343e-05,-3.711340536964974e-05,5.9286,3.3571
3.28125,-3.907218510414274e-05,-5.1767979679560465e-05,-5.7136487100022816e-05,-4.346648461432815e-05,5.9286,3.3571
3.28515625,-4.0046393014419703e-05,-4.150770487983513e-05,-6.738639798580903e-05,-4.053349696955818e-05,5.9286,3.3571
3.2890625,-3.808761327992668e-05,-4.88349920347905e-05,-6.347920243076211e-05,-3.808761327992668e-05,5.9286,3.3571
3.29296875,-3.613919745937278e-05,-6.005911083085367e-05,-7.178069749599444e-05,-3.467788559395735e-05,5.9286,3.3571
3.296875,-3.174489794918739e-05,-3.857471723506516e-05,-5.957200687571519e-05,-3.174489794918739e-05,5.9286,3.3571
3.30078125,-2.9786118214694367e-05,-2.4904714749370496e-05,-3.467788559395735e-05,-3.907218510414274e-05,5.9286,3.3571
3.3046875,-4.199480883497361e-05,-2.8324806349278942e-05,-2.393050683909354e-05,-3.76005093247882e-05,5.9286,3.3571
3.30859375,-4.687621230029748e-05,-3.223200190432585e-05,-3.077069003891043e-05,-2.7350598439001984e-05,5.9286,3.3571
3.3125,-2.881191030441741e-05,-2.0997519194323573e-05,-4.053349696955818e-05,-2.881191030441741e-05,5.9286,3.3571
3.31640625,-2.9786118214694367e-05,-2.3443402883955058e-05,-6.0556578699931265e-05,-2.881191030441741e-05,5.9286,3.3571
3.3203125,-4.4927796479743574e-05,-5.7623591055161297e-05,-5.5177707365529795e-05,-2.148462314946205e-05,5.9286,3.3571
3.32421875,-3.907218510414274e-05,-6.347920243076211e-05,-5.616227918974586e-05,-2.9786118214694367e-05,5.9286,3.3571
3.328125,-2.929901425955589e-05,-4.638910834515901e-05,-8.154350442664218e-05,-3.516498954909583e-05,5.9286,3.3571
3.33203125,-2.2956298928816594e-05,-5.811069501029977e-05,-8.935789553673604e-05,-2.0997519194323573e-05,5.9286,3.3571
3.3359375,-1.8074895463492724e-05,-6.495087821011665e-05,-9.277798713664446e-05,-2.0023311284046612e-05,5.9286,3.3571
3.33984375,-1.953620732890815e-05,-7.959508860608827e-05,-0.00010059237824673832,-1.7090323639276647e-05,5.9286,3.3571
3.34375,-2.3443402883955058e-05,-0.00011913342028381773,-0.00011718500446326385,-1.4167699908445798e-05,5.9286,3.3571
3.34765625,-2.0023311284046612e-05,-0.00012840912325932702,-0.00013134211090409697,-1.3193491998168838e-05,5.9286,3.3571
3.3515625,-7.327516708628906e-06,-0.00011522622472877083,-0.00014355080152437621,-1.3680595953307317e-05,5.9286,3.3571
3.35546875,2.922394177157315e-06,-0.00013231631881437393,-0.0001440379054795147,-3.90742510872046e-06,5.9286,3.3571
3.359375,3.4094981322957946e-06,-0.0001352493064591439,-0.00012792201930418852,4.881173911650336e-06,5.9286,3.3571
3.36328125,-1.3193491998168838e-05,-0.00015087808867933158,-0.00015087808867933158,5.368277866788815e-06,5.9286,3.3571
3.3671875,4.881173911650336e-06,-0.00017382379414053554,-0.0001694294946303501,1.1710993197528111e-05,5.9286,3.3571
3.37109375,1.952538430762196e-05,-0.0001957952916914625,-0.00021922810110780493,4.39406995651187e-06,5.9286,3.3571
3.375,6.3424857770657605e-06,-0.0002026354748912794,-0.0002451067942137788,-8.799192487983447e-06,5.9286,3.3571
3.37890625,5.855381821927295e-06,-0.00018554538080567629,-0.00021142407391165022,-2.9332171984435006e-06,5.9286,3.3571
3.3828125,6.82958973220424e-06,-0.0001987282793362325,-0.00020849108626688024,7.8037976424812e-06,5.9286,3.3571
3.38671875,1.6592396662851982e-05,-0.00022704249221789876,-0.00022606828430762183,4.881173911650336e-06,5.9286,3.3571
3.390625,2.0986696173037385e-05,-0.00021093696995651173,-0.00023242136355230023,-4.394529063858925e-06,5.9286,3.3571
3.39453125,7.31669368734272e-06,-0.00020214837093614096,-0.0002031225788464179,-3.90742510872046e-06,5.9286,3.3571
3.3984375,-3.4203211535819803e-06,-0.0002040967867566948,-0.00019482108378118555,-7.327516708628906e-06,5.9286,3.3571
3.40234375,-4.891996932936521e-06,-0.00020116379911192488,-0.0002031225788464179,-1.5141907818722742e-05,5.9286,3.3571
3.40625,-1.0260504353398871e-05,-0.0001699165985854886,-0.00016747071489585713,-7.814620663767372e-06,5.9286,3.3571
3.41015625,-1.6116115728999703e-05,-0.0001547749203204394,-0.00017333669018539704,-6.840412753490426e-06,5.9286,3.3571
3.4140625,-2.5391818704508963e-05,-0.0001811510812954909,-0.00019725660355687796,-1.4654803863584277e-05,5.9286,3.3571
3.41796875,-4.199480883497361e-05,-0.00015673370005493242,-0.0001830994971160448,-2.5391818704508963e-05,5.9286,3.3571
3.421875,-3.174489794918739e-05,-0.00010254079406729222,-0.00014306369756923775,-3.174489794918739e-05,5.9286,3.3571
3.42578125,-2.7350598439001984e-05,-0.00010546341779812307,-0.00010937061335316999,-3.271910585946433e-05,5.9286,3.3571
3.4296875,-3.907218510414274e-05,-0.00013280342276951243,-0.00011669790050812537,-3.662630141451126e-05,5.9286,3.3571
3.43359375,-4.736331625543595e-05,-0.00010156658615701527,-7.0319385630579e-05,-3.76005093247882e-05,5.9286,3.3571
3.4375,-5.0296303900205925e-05,-6.104368265506974e-05,-4.102060092469666e-05,-4.199480883497361e-05,5.9286,3.3571
3.44140625,-5.5177707365529795e-05,-5.0296303900205925e-05,-3.955928905928122e-05,-4.687621230029748e-05,5.9286,3.3571
3.4453125,-5.7623591055161297e-05,-3.418041772487976e-05,-3.467788559395735e-05,-5.1767979679560465e-05,5.9286,3.3571
3.44921875,-4.88349920347905e-05,-2.5878922659647444e-05,-3.223200190432585e-05,-4.834788807965202e-05,5.9286,3.3571
3.453125,-4.346648461432815e-05,-4.5414900434882054e-05,-4.394529063858925e-06,-4.3953588569466626e-05,5.9286,3.3571
3.45703125,-5.1767979679560465e-05,-4.3953588569466626e-05,1.219809715266659e-05,-4.980919994506745e-05,5.9286,3.3571
3.4609375,-7.471368514076441e-05,-2.637639052872504e-05,4.868744014649451e-07,-5.3716395500114374e-05,5.9286,3.3571
3.46484375,-7.862088069581134e-05,-2.9332171984435006e-06,2.8313983327992757e-05,-5.3716395500114374e-05,5.9286,3.3571
3.46875,-7.910798465094982e-05,9.739783566034106e-07,1.1710993197528111e-05,-5.811069501029977e-05,5.9286,3.3571
3.47265625,-7.862088069581134e-05,-1.4719053330280758e-06,-4.976974227511306e-07,-6.0556578699931265e-05,5.9286,3.3571
3.4765625,-8.056929651636522e-05,1.0249681332112687e-05,2.8313983327992757e-05,-6.104368265506974e-05,5.9286,3.3571
3.48046875,-8.838368762645908e-05,1.6592396662851982e-05,5.12596887891967e-05,-6.250499452048517e-05,5.9286,3.3571
3.484375,-7.373947723048746e-05,5.855381821927295e-06,2.3919683817807354e-05,-6.787350194094751e-05,5.9286,3.3571
3.48828125,-6.0556578699931265e-05,1.3669772932021132e-05,2.922394177157315e-06,-7.178069749599444e-05,5.9286,3.3571
3.4921875,-7.666210096131832e-05,4.5404077413595866e-05,4.394276554818043e-05,-6.64121900755321e-05,5.9286,3.3571
3.49609375,-6.787350194094751e-05,4.442986950331891e-05,3.954846603799504e-05,-5.908490292057672e-05,5.9286,3.3571
3.5,-6.005911083085367e-05,4.442986950331891e-05,1.219809715266659e-05,-6.592508612039362e-05,5.9286,3.3571
3.50390625,-6.787350194094751e-05,4.784996110322737e-05,1.5618188752575038e-05,-6.738639798580903e-05,5.9286,3.3571
3.5078125,-6.64121900755321e-05,2.73397754177158e-05,1.94818626688037e-06,-6.884770985122446e-05,5.9286,3.3571
3.51171875,-8.056929651636522e-05,-1.8561999418631187e-05,8.290901597619666e-06,-6.592508612039362e-05,5.9286,3.3571
3.515625,-8.447649207141215e-05,-5.866204843213481e-06,2.2945475907530406e-05,-6.005911083085367e-05,5.9286,3.3571
3.51953125,-7.373947723048746e-05,1.757696848706806e-05,6.82958973220424e-06,-6.787350194094751e-05,5.9286,3.3571
3.5234375,-7.275490540627139e-05,1.9038280352483483e-05,-5.866204843213481e-06,-6.543798216525514e-05,5.9286,3.3571
3.52734375,-7.0319385630579e-05,3.5641270482948125e-05,3.4094981322957946e-06,-6.104368265506974e-05,5.9286,3.3571
3.53125,-6.445341034103908e-05,1.952538430762196e-05,-6.840412753490426e-06,-6.689929403067058e-05,5.9286,3.3571
3.53515625,-8.008219256122675e-05,9.739783566034106e-07,-2.0510415239185093e-05,-6.983228167544053e-05,5.9286,3.3571
3.5390625,-9.082957131609058e-05,-7.814620663767372e-06,4.881173911650336e-06,-6.495087821011665e-05,5.9286,3.3571
3.54296875,-7.129359354085596e-05,9.762577376974206e-06,4.149688185854896e-05,-6.104368265506974e-05,5.9286,3.3571
3.546875,-6.39663063859006e-05,9.739783566034106e-07,5.855381821927295e-06,-6.884770985122446e-05,5.9286,3.3571
3.55078125,-6.836060589608598e-05,-1.2696024129091256e-05,4.881173911650336e-06,-7.178069749599444e-05,5.9286,3.3571
3.5546875,-7.666210096131832e-05,3.173407492790119e-05,2.8313983327992757e-05,-6.104368265506974e-05,5.9286,3.3571
3.55859375,-7.080648958571748e-05,4.0522673948271996e-05,2.6365567507438838e-05,-5.616227918974586e-05,5.9286,3.3571
3.5625,-5.957200687571519e-05,-4.394529063858925e-06,1.757696848706806e-05,-6.39663063859006e-05,5.9286,3.3571
3.56640625,-7.080648958571748e-05,-5.866204843213481e-06,5.855381821927295e-06,-8.056929651636522e-05,5.9286,3.3571
3.5703125,-7.71492049164568e-05,8.788369466697262e-06,7.31669368734272e-06,-7.910798465094982e-05,5.9286,3.3571
3.57421875,-8.301518020599672e-05,-3.4203211535819803e-06,-1.4654803863584277e-05,-7.129359354085596e-05,5.9286,3.3571
3.578125,-7.959508860608827e-05,-1.5629011773861222e-05,-1.7587791508354243e-05,-7.080648958571748e-05,5.9286,3.3571
3.58203125,-6.689929403067058e-05,4.868744014649451e-07,2.922394177157315e-06,-7.520078909590289e-05,5.9286,3.3571
3.5859375,-6.836060589608598e-05,2.001248826276044e-05,1.4643980842298092e-05,-7.520078909590289e-05,5.9286,3.3571
3.58984375,-7.275490540627139e-05,-4.394529063858925e-06,2.0986696173037385e-05,-6.64121900755321e-05,5.9286,3.3571
3.59375,-6.983228167544053e-05,-3.56520935042343e-05,-9.286296443121926e-06,-6.689929403067058e-05,5.9286,3.3571
3.59765625,-7.568789305104136e-05,-3.271910585946433e-05,-3.369331376974129e-05,-7.325237327534898e-05,5.9286,3.3571
3.6015625,-8.78965836713206e-05,-1.2696024129091256e-05,3.4094981322957946e-06,-6.495087821011665e-05,5.9286,3.3571
3.60546875,-6.934517772030205e-05,6.3424857770657605e-06,3.0272763062485778e-05,-6.20178905653467e-05,5.9286,3.3571
3.609375,-5.5177707365529795e-05,-1.0747608308537352e-05,-2.393050683909354e-05,-6.738639798580903e-05,5.9286,3.3571
3.61328125,-5.5664811320668276e-05,-4.786078412451355e-05,-3.613919745937278e-05,-6.983228167544053e-05,5.9286,3.3571
3.6171875,-5.0296303900205925e-05,-4.248191279011208e-05,-2.5391818704508963e-05,-7.226780145113291e-05,5.9286,3.3571
3.62109375,-5.0296303900205925e-05,-2.2469194973678114e-05,-5.07834078553444e-05,-6.64121900755321e-05,5.9286,3.3571
3.625,-4.932209598992897e-05,-3.76005093247882e-05,-4.4927796479743574e-05,-5.8597798965438244e-05,5.9286,3.3571
3.62890625,-3.955928905928122e-05,-6.153078661020822e-05,-1.5629011773861222e-05,-5.908490292057672e-05,5.9286,3.3571
3.6328125,-5.3716395500114374e-05,-2.929901425955589e-05,-1.1721816218814296e-05,-5.957200687571519e-05,5.9286,3.3571
3.63671875,-5.957200687571519e-05,-1.0747608308537352e-05,-3.125779399404891e-05,-6.39663063859006e-05,5.9286,3.3571
3.640625,-5.0296303900205925e-05,-1.8561999418631187e-05,-9.286296443121926e-06,-6.64121900755321e-05,5.9286,3.3571
3.64453125,-4.786078412451355e-05,-1.9049103373769668e-05,5.855381821927295e-06,-6.20178905653467e-05,5.9286,3.3571
3.6484375,-4.5414900434882054e-05,-4.394529063858925e-06,9.762577376974206e-06,-6.445341034103908e-05,5.9286,3.3571
3.65234375,-5.5664811320668276e-05,-2.0997519194323573e-05,1.5618188752575038e-05,-7.178069749599444e-05,5.9286,3.3571
3.65625,-6.104368265506974e-05,-3.271910585946433e-05,-9.286296443121926e-06,-7.178069749599444e-05,5.9286,3.3571
3.66015625,-4.786078412451355e-05,-2.8324806349278942e-05,-1.1234712263675831e-05,-6.445341034103908e-05,5.9286,3.3571
3.6640625,-4.199480883497361e-05,-2.2956298928816594e-05,-2.3443402883955058e-05,-6.836060589608598e-05,5.9286,3.3571
3.66796875,-3.808761327992668e-05,-4.891996932936521e-06,-4.638910834515901e-05,-7.422658118562593e-05,5.9286,3.3571
3.671875,-3.76005093247882e-05,-8.30172461890585e-06,-4.102060092469666e-05,-7.275490540627139e-05,5.9286,3.3571
3.67578125,-4.5414900434882054e-05,5.855381821927295e-06,-3.4203211535819803e-06,-6.299209847562363e-05,5.9286,3.3571
3.6796875,-5.127051181048288e-05,6.3424857770657605e-06,4.736285714808889e-05,-4.834788807965202e-05,5.9286,3.3571
3.68359375,-3.857471723506516e-05,-2.4461132433050352e-06,2.2945475907530406e-05,-4.786078412451355e-05,5.9286,3.3571
3.6875,-2.441761079423202e-05,2.922394177157315e-06,-1.7587791508354243e-05,-5.5664811320668276e-05,5.9286,3.3571
3.69140625,-3.56520935042343e-05,-1.0260504353398871e-05,2.922394177157315e-06,-5.616227918974586e-05,5.9286,3.3571
3.6953125,-4.199480883497361e-05,-1.4167699908445798e-05,-4.394529063858925e-06,-5.957200687571519e-05,5.9286,3.3571
3.69921875,-3.516498954909583e-05,9.762577376974206e-06,9.739783566034106e-07,-5.957200687571519e-05,5.9286,3.3571
3.703125,-3.418041772487976e-05,1.6592396662851982e-05,1.757696848706806e-05,-5.1767979679560465e-05,5.9286,3.3571
3.70703125,-2.8324806349278942e-05,7.8037976424812e-06,1.2685201107805071e-05,-5.3716395500114374e-05,5.9286,3.3571
3.7109375,-2.8324806349278942e-05,-4.976974227511306e-07,-1.1234712263675831e-05,-5.616227918974586e-05,5.9286,3.3571
3.71484375,-3.271910585946433e-05,-4.394529063858925e-06,-2.441761079423202e-05,-5.811069501029977e-05,5.9286,3.3571
3.71875,-3.418041772487976e-05,-4.150770487983513e-05,-2.2469194973678114e-05,-5.908490292057672e-05,5.9286,3.3571
3.72265625,-3.56520935042343e-05,-4.102060092469666e-05,-8.30172461890585e-06,-5.469060341039132e-05,5.9286,3.3571
3.7265625,-4.053349696955818e-05,-3.613919745937278e-05,-9.773400398260393e-06,-5.5664811320668276e-05,5.9286,3.3571
3.73046875,-3.077069003891043e-05,-2.637639052872504e-05,-4.891996932936521e-06,-5.664938314488434e-05,5.9286,3.3571
3.734375,-3.271910585946433e-05,-2.1982091018539633e-05,-9.84801377889596e-07,-4.932209598992897e-05,5.9286,3.3571
3.73828125,-4.4927796479743574e-05,-4.296901674525055e-05,1.8551176397345003e-05,-5.07834078553444e-05,5.9286,3.3571
3.7421875,-4.296901674525055e-05,-3.662630141451126e-05,1.4643980842298092e-05,-6.153078661020822e-05,5.9286,3.3571
3.74609375,-3.223200190432585e-05,-2.9786118214694367e-05,-3.125779399404891e-05,-6.738639798580903e-05,5.9286,3.3571
3.75,-2.3443402883955058e-05,-4.932209598992897e-05,-5.957200687571519e-05,-6.738639798580903e-05,5.9286,3.3571
3.75390625,-3.76005093247882e-05,-4.932209598992897e-05,-3.0283586083771963e-05,-6.347920243076211e-05,5.9286,3.3571
3.7578125,-4.199480883497361e-05,-2.881191030441741e-05,-2.9332171984435006e-06,-5.908490292057672e-05,5.9286,3.3571
3.76171875,-4.3953588569466626e-05,-2.929901425955589e-05,-9.286296443121926e-06,-6.20178905653467e-05,5.9286,3.3571
3.765625,-4.296901674525055e-05,-5.616227918974586e-05,-4.199480883497361e-05,-7.080648958571748e-05,5.9286,3.3571
3.76953125,-3.76005093247882e-05,-6.983228167544053e-05,-6.983228167544053e-05,-6.347920243076211e-05,5.9286,3.3571
3.7734375,-3.808761327992668e-05,-3.907218510414274e-05,-6.250499452048517e-05,-6.445341034103908e-05,5.9286,3.3571
3.77734375,-3.271910585946433e-05,-1.8074895463492724e-05,-2.929901425955589e-05,-6.347920243076211e-05,5.9286,3.3571
3.78125,-2.441761079423202e-05,8.290901597619666e-06,-7.327516708628906e-06,-6.543798216525514e-05,5.9286,3.3571
3.78515625,-2.8324806349278942e-05,-3.808761327992668e-05,-2.7350598439001984e-05,-6.347920243076211e-05,5.9286,3.3571
3.7890625,-3.613919745937278e-05,-4.590200439002053e-05,-2.0997519194323573e-05,-6.347920243076211e-05,5.9286,3.3571
3.79296875,-4.3953588569466626e-05,-2.1982091018539633e-05,9.762577376974206e-06,-6.104368265506974e-05,5.9286,3.3571
3.796875,-4.346648461432815e-05,-1.8561999418631187e-05,1.0736785287251166e-05,-4.980919994506745e-05,5.9286,3.3571
3.80078125,-4.102060092469666e-05,-3.320620981460281e-05,-3.808761327992668e-05,-5.664938314488434e-05,5.9286,3.3571
3.8046875,-4.053349696955818e-05,-4.736331625543595e-05,-2.6863494483863517e-05,-6.005911083085367e-05,5.9286,3.3571
3.80859375,-3.907218510414274e-05,-2.7350598439001984e-05,-3.320620981460281e-05,-6.347920243076211e-05,5.9286,3.3571
3.8125,-3.223200190432585e-05,-3.955928905928122e-05,-5.8597798965438244e-05,-6.592508612039362e-05,5.9286,3.3571
3.81640625,-3.0283586083771963e-05,-3.223200190432585e-05,-3.516498954909583e-05,-6.153078661020822e-05,5.9286,3.3571
3.8203125,-3.125779399404891e-05,-5.8597798965438244e-05,-5.7623591055161297e-05,-6.20178905653467e-05,5.9286,3.3571
3.82421875,-3.125779399404891e-05,-8.252807625085824e-05,-6.250499452048517e-05,-6.689929403067058e-05,5.9286,3.3571
3.828125,-3.613919745937278e-05,-3.76005093247882e-05,-2.0510415239185093e-05,-6.592508612039362e-05,5.9286,3.3571
3.83203125,-2.7837702394140465e-05,-1.4719053330280758e-06,-3.857471723506516e-05,-6.689929403067058e-05,5.9286,3.3571
3.8359375,-3.174489794918739e-05,-5.3716395500114374e-05,-7.178069749599444e-05,-6.836060589608598e-05,5.9286,3.3571
3.83984375,-5.07834078553444e-05,-8.008219256122675e-05,-4.0046393014419703e-05,-6.005911083085367e-05,5.9286,3.3571
3.84375,-4.053349696955818e-05,-6.495087821011665e-05,-2.637639052872504e-05,-6.005911083085367e-05,5.9286,3.3571
3.84765625,-2.8324806349278942e-05,-8.204097229571977e-05,-6.445341034103908e-05,-7.226780145113291e-05,5.9286,3.3571
3.8515625,-3.125779399404891e-05,-7.764667278553438e-05,-7.226780145113291e-05,-6.934517772030205e-05,5.9286,3.3571
3.85546875,-3.223200190432585e-05,-4.638910834515901e-05,-5.5177707365529795e-05,-5.664938314488434e-05,5.9286,3.3571
3.859375,-3.56520935042343e-05,-5.274218758983742e-05,-4.5414900434882054e-05,-6.0556578699931265e-05,5.9286,3.3571
3.86328125,-3.857471723506516e-05,-7.71492049164568e-05,-5.32292915449759e-05,-6.592508612039362e-05,5.9286,3.3571
3.8671875,-3.857471723506516e-05,-6.787350194094751e-05,-6.153078661020822e-05,-5.5664811320668276e-05,5.9286,3.3571
3.87109375,-3.808761327992668e-05,-5.1767979679560465e-05,-4.3953588569466626e-05,-5.5177707365529795e-05,5.9286,3.3571
3.875,-3.907218510414274e-05,-5.616227918974586e-05,-4.88349920347905e-05,-6.250499452048517e-05,5.9286,3.3571
3.87890625,-3.711340536964974e-05,-2.393050683909354e-05,-3.808761327992668e-05,-6.347920243076211e-05,5.9286,3.3571
3.8828125,-4.150770487983513e-05,-4.834788807965202e-05,-2.881191030441741e-05,-6.884770985122446e-05,5.9286,3.3571
3.88671875,-4.296901674525055e-05,-6.104368265506974e-05,-5.811069501029977e-05,-6.983228167544053e-05,5.9286,3.3571
3.890625,-3.516498954909583e-05,-6.0556578699931265e-05,-8.056929651636522e-05,-6.64121900755321e-05,5.9286,3.3571
3.89453125,-4.053349696955818e-05,-6.738639798580903e-05,-6.104368265506974e-05,-6.347920243076211e-05,5.9286,3.3571
3.8984375,-4.150770487983513e-05,-3.662630141451126e-05,-2.7350598439001984e-05,-5.957200687571519e-05,5.9286,3.3571
3.90234375,-4.3953588569466626e-05,-3.662630141451126e-05,-1.8074895463492724e-05,-6.104368265506974e-05,5.9286,3.3571
3.90625,-4.102060092469666e-05,-3.56520935042343e-05,-3.613919745937278e-05,-6.592508612039362e-05,5.9286,3.3571
3.91015625,-2.8324806349278942e-05,-2.8324806349278942e-05,-4.053349696955818e-05,-6.738639798580903e-05,5.9286,3.3571
3.9140625,-2.6863494483863517e-05,-2.8324806349278942e-05,-4.248191279011208e-05,-6.592508612039362e-05,5.9286,3.3571
3.91796875,-3.0283586083771963e-05,-2.9786118214694367e-05,-3.662630141451126e-05,-6.153078661020822e-05,5.9286,3.3571
3.921875,-3.907218510414274e-05,-3.271910585946433e-05,-2.637639052872504e-05,-6.20178905653467e-05,5.9286,3.3571
3.92578125,-4.4927796479743574e-05,-6.299209847562363e-05,-6.934517772030205e-05,-7.275490540627139e-05,5.9286,3.3571
3.9296875,-4.199480883497361e-05,-5.07834078553444e-05,-3.0283586083771963e-05,-6.983228167544053e-05,5.9286,3.3571
3.93359375,-4.102060092469666e-05,-2.0023311284046612e-05,-1.3680595953307317e-05,-6.347920243076211e-05,5.9286,3.3571
3.9375,-4.44406925246051e-05,-4.590200439002053e-05,-5.908490292057672e-05,-7.275490540627139e-05,5.9286,3.3571
3.94140625,-5.2255083634698946e-05,-4.638910834515901e-05,-4.88349920347905e-05,-7.71492049164568e-05,5.9286,3.3571
3.9453125,-5.957200687571519e-05,-4.3953588569466626e-05,-6.20178905653467e-05,-7.617499700617984e-05,5.9286,3.3571
3.94921875,-4.980919994506745e-05,-6.104368265506974e-05,-7.080648958571748e-05,-7.959508860608827e-05,5.9286,3.3571
3.953125,-4.0046393014419703e-05,-4.736331625543595e-05,-6.299209847562363e-05,-7.568789305104136e-05,5.9286,3.3571
3.95703125,-4.3953588569466626e-05,-1.7587791508354243e-05,-5.5177707365529795e-05,-7.373947723048746e-05,5.9286,3.3571
3.9609375,-5.2255083634698946e-05,-3.516498954909583e-05,-6.104368265506974e-05,-7.910798465094982e-05,5.9286,3.3571
3.96484375,-5.3716395500114374e-05,-4.834788807965202e-05,-4.44406925246051e-05,-8.692237576104365e-05,5.9286,3.3571
3.96875,-6.005911083085367e-05,-6.153078661020822e-05,-4.346648461432815e-05,-9.082957131609058e-05,5.9286,3.3571
3.97265625,-6.445341034103908e-05,-5.420349945525285e-05,-4.5414900434882054e-05,-8.008219256122675e-05,5.9286,3.3571
3.9765625,-6.39663063859006e-05,-2.2956298928816594e-05,-2.148462314946205e-05,-7.959508860608827e-05,5.9286,3.3571
3.98046875,-5.616227918974586e-05,-2.8324806349278942e-05,-2.0997519194323573e-05,-9.277798713664446e-05,5.9286,3.3571
3.984375,-6.104368265506974e-05,-7.226780145113291e-05,-7.327516708628906e-06,-9.033210344701297e-05,5.9286,3.3571
3.98828125,-6.787350194094751e-05,-7.910798465094982e-05,-3.467788559395735e-05,-7.471368514076441e-05,5.9286,3.3571
3.9921875,-6.592508612039362e-05,-3.369331376974129e-05,-6.543798216525514e-05,-7.910798465094982e-05,5.9286,3.3571
3.99609375,-6.153078661020822e-05,6.3424857770657605e-06,-4.053349696955818e-05,-8.10564004715037e-05,5.9286,3.3571
4.0,-5.274218758983742e-05,-1.3680595953307317e-05,-3.711340536964974e-05,-8.008219256122675e-05,5.9286,3.3571
4.00390625,-5.32292915449759e-05,-5.5664811320668276e-05,-5.07834078553444e-05,-8.35022841611352e-05,5.9286,3.3571
4.0078125,-5.469060341039132e-05,-4.834788807965202e-05,-4.150770487983513e-05,-7.959508860608827e-05,5.9286,3.3571
4.01171875,-5.3716395500114374e-05,-3.271910585946433e-05,-3.467788559395735e-05,-8.204097229571977e-05,5.9286,3.3571
4.015625,-5.07834078553444e-05,-4.5414900434882054e-05,-6.0556578699931265e-05,-8.447649207141215e-05,5.9286,3.3571
4.01953125,-4.590200439002053e-05,-2.3443402883955058e-05,-2.8324806349278942e-05,-7.959508860608827e-05,5.9286,3.3571
