timestamp,TP9,AF7,AF8,TP10,Valence,Arousal
0.0,-3.319449534447234e-05,4.443731729915321e-05,6.932924890211347e-05,3.516543622186626e-05,6.8571,5.8571
0.00390625,-2.733091898374907e-05,5.713365619592592e-05,5.5179130742351497e-05,3.468084313420317e-05,6.8571,5.8571
0.0078125,-2.440720735484848e-05,7.616201143816288e-05,6.785931653620212e-05,3.174097840238048e-05,6.8571,5.8571
0.01171875,-4.1497190246433135e-05,7.908572306706348e-05,6.739087655146113e-05,8.803572252994655e-06,6.8571,5.8571
0.015625,-4.1497190246433135e-05,7.567741835049982e-05,7.519282526283673e-05,-4.8781059220263216e-06,6.8571,5.8571
0.01953125,-1.6104512452887704e-05,6.690628346379805e-05,8.251018088654925e-05,5.379114433508888e-06,6.8571,5.8571
0.0234375,-9.756343004501346e-06,6.981384198977653e-05,7.519282526283673e-05,1.612092787670718e-05,6.8571,5.8571
0.02734375,-2.9235804684519024e-06,0.00011082657030899529,8.34955201647975e-05,2.1984504237430457e-05,6.8571,5.8571
0.03125,2.4554028046082974e-06,0.0001308564179324026,9.42373336079958e-05,2.4908215866331045e-05,6.8571,5.8571
0.03515625,-1.5135326277561531e-05,0.0001181600790356299,0.00011132731649958046,2.7848080598153736e-05,6.8571,5.8571
0.0390625,-4.002725788052179e-05,0.00010691751940184641,0.00010691751940184641,2.8332673685816814e-05,6.8571,5.8571
0.04296875,-4.5406241153581986e-05,0.00010447840086060892,7.664660452582597e-05,1.5636334789044097e-05,6.8571,5.8571
0.046875,-5.223900368963143e-05,8.88583503349356e-05,6.201189327840093e-05,7.333639887083315e-06,6.8571,5.8571
0.05078125,-7.12835120347905e-05,7.616201143816288e-05,6.739087655146113e-05,1.465099551079583e-05,6.8571,5.8571
0.0546875,-7.029817275654224e-05,7.811653689173732e-05,9.569111287098505e-05,3.272631768062874e-05,6.8571,5.8571
0.05859375,-7.860086765850303e-05,6.348182564431228e-05,0.00010643292631418334,3.907448712901511e-05,6.8571,5.8571
0.0625,-8.202532547798879e-05,7.811653689173732e-05,0.0001025238754070345,4.052826639200435e-05,6.8571,5.8571
0.06640625,-7.763168148317686e-05,0.00010107009614404525,0.00011620555358205547,5.616447002059976e-05,6.8571,5.8571
0.0703125,-8.055539311207744e-05,0.00011425102812848104,0.0001284172993911651,6.152730019073785e-05,6.8571,5.8571
0.07421875,-7.275344440070185e-05,0.00012547743465934243,0.00016600556989089806,7.128377435568788e-05,6.8571,5.8571
0.078125,-6.640527495231548e-05,0.00010790285868009469,0.00016356645134966058,7.908572306706348e-05,6.8571,5.8571
0.08203125,-8.202532547798879e-05,7.323829980926232e-05,0.0001127810957625697,5.469453765468842e-05,6.8571,5.8571
0.0859375,-9.325173200885017e-05,5.469453765468842e-05,8.104024852063792e-05,2.9786452948806055e-05,6.8571,5.8571
0.08984375,-8.397985093156321e-05,7.07991812680248e-05,9.325199432974755e-05,2.6862741319905467e-05,6.8571,5.8571
0.09375,-7.95862069367513e-05,8.93429434225987e-05,0.0001181600790356299,2.8332673685816814e-05,6.8571,5.8571
0.09765625,-7.176810512245358e-05,7.519282526283673e-05,9.96001637781339e-05,2.442362277866796e-05,6.8571,5.8571
0.1015625,-5.0769071323720084e-05,5.5679876932936674e-05,7.176836744335097e-05,1.4166402423132752e-05,6.8571,5.8571
0.10546875,-6.005710550392913e-05,3.760455476310376e-05,6.348182564431228e-05,2.4554028046082974e-06,6.8571,5.8571
0.109375,-7.567715602960242e-05,4.542265657740147e-05,6.592094418554978e-05,-5.847292097352493e-06,6.8571,5.8571
0.11328125,-4.49216480659189e-05,6.834390962386518e-05,9.032828270084695e-05,4.894521345845802e-06,6.8571,5.8571
0.1171875,-2.8800851349660418e-05,6.446716492256054e-05,9.276740124208447e-05,1.2696470057221403e-05,6.8571,5.8571
0.12109375,-3.5149020798046775e-05,5.664906310826284e-05,6.834390962386518e-05,-1.453648102540555e-06,6.8571,5.8571
0.125,-3.319449534447234e-05,3.468084313420317e-05,5.420994456702533e-05,-9.27174991683826e-06,6.8571,5.8571
0.12890625,-2.636173280842291e-05,5.3224605288777065e-05,6.690628346379805e-05,2.9399958922713836e-06,6.8571,5.8571
0.1328125,-1.5619919365224616e-05,9.228280815442139e-05,8.34955201647975e-05,1.4166402423132752e-05,6.8571,5.8571
0.13671875,-1.7574444818799038e-05,8.007106234531175e-05,8.007106234531175e-05,1.5636334789044097e-05,6.8571,5.8571
0.140625,-2.0982749535362714e-05,5.616447002059976e-05,5.616447002059976e-05,1.2696470057221403e-05,6.8571,5.8571
0.14453125,-2.6846325896085986e-05,4.102901258258953e-05,2.9301859861142977e-05,1.5636334789044097e-05,6.8571,5.8571
0.1484375,-3.8072732426947363e-05,5.22554191134509e-05,5.664906310826284e-05,2.8817266773479892e-05,6.8571,5.8571
0.15234375,-3.563361388570986e-05,6.932924890211347e-05,0.0001074182655924316,3.516543622186626e-05,6.8571,5.8571
0.15625,-4.4420901875333724e-05,7.323829980926232e-05,0.00012206912994277876,4.102901258258953e-05,6.8571,5.8571
0.16015625,-3.172456297856101e-05,7.664660452582597e-05,0.00010399380777294584,5.713365619592592e-05,6.8571,5.8571
0.1640625,-1.7574444818799038e-05,7.860112997940041e-05,7.811653689173732e-05,5.860358856183727e-05,6.8571,5.8571
0.16796875,-2.392261426718541e-05,7.323829980926232e-05,6.884465581445037e-05,4.102901258258953e-05,6.8571,5.8571
0.171875,-2.1968088813610973e-05,5.127007983520264e-05,8.641923179369811e-05,3.468084313420317e-05,6.8571,5.8571
0.17578125,-3.172456297856101e-05,3.272631768062874e-05,8.007106234531175e-05,2.4908215866331045e-05,6.8571,5.8571
0.1796875,-2.8316258261997333e-05,4.883096129396513e-05,3.565002930952934e-05,1.612092787670718e-05,6.8571,5.8571
0.18359375,3.424588979934462e-06,8.738841796902427e-05,4.248279184557877e-05,3.028719913939124e-05,6.8571,5.8571
0.1875,2.0999164959182195e-05,0.00011376643504081798,8.104024852063792e-05,4.443731729915321e-05,6.8571,5.8571
0.19140625,1.709011405203334e-05,0.0001386583666437782,0.00011376643504081798,4.98163005722134e-05,6.8571,5.8571
0.1953125,6.348300608835046e-06,0.00011572096049439239,0.00010008475686579699,3.077179222705432e-05,6.8571,5.8571
0.19921875,-1.6589105540550776e-05,5.664906310826284e-05,7.714735071641115e-05,9.288165340657742e-06,6.8571,5.8571
0.203125,-2.636173280842291e-05,4.6391842752727626e-05,5.420994456702533e-05,6.849046799420229e-06,6.8571,5.8571
0.20703125,-4.736076660715642e-05,4.687643584039071e-05,4.6391842752727626e-05,6.348300608835046e-06,6.8571,5.8571
0.2109375,-5.4678122230868934e-05,4.834636820630206e-05,6.981384198977653e-05,1.7590860242618525e-05,6.8571,5.8571
0.21484375,-3.222530916914619e-05,7.664660452582597e-05,8.446470634012368e-05,3.12563853147174e-05,6.8571,5.8571
0.21875,-3.466442771038369e-05,5.860358856183727e-05,7.029843507743962e-05,3.2241724592965664e-05,6.8571,5.8571
0.22265625,-4.198178333409622e-05,3.6635368587777606e-05,4.542265657740147e-05,3.369550385595491e-05,6.8571,5.8571
0.2265625,-3.1239969890897925e-05,6.251263946898612e-05,6.543635109788671e-05,3.955908021667819e-05,6.8571,5.8571
0.23046875,-2.0498156447699626e-05,7.469207907225154e-05,9.863097760280774e-05,3.468084313420317e-05,6.8571,5.8571
0.234375,-4.637542732890814e-05,5.8118995474174184e-05,9.617570595864813e-05,2.442362277866796e-05,6.8571,5.8571
0.23828125,-6.688986803997858e-05,4.786177511863897e-05,8.15409947112231e-05,1.709011405203334e-05,6.8571,5.8571
0.2421875,-5.320818986495759e-05,5.8118995474174184e-05,7.323829980926232e-05,1.7590860242618525e-05,6.8571,5.8571
0.24609375,-4.101259715877005e-05,6.739087655146113e-05,8.202558779888617e-05,3.174097840238048e-05,6.8571,5.8571
0.25,-4.1497190246433135e-05,7.07991812680248e-05,0.00010107009614404525,3.711996167544068e-05,6.8571,5.8571
0.25390625,-5.5663461509117196e-05,8.15409947112231e-05,0.00011864467212329299,3.516543622186626e-05,6.8571,5.8571
0.2578125,-6.541993567406723e-05,7.176836744335097e-05,0.00010937279104600602,1.954538569619295e-05,6.8571,5.8571
0.26171875,-6.102629167925531e-05,5.420994456702533e-05,6.981384198977653e-05,5.008773510338784e-07,6.8571,5.8571
0.265625,-5.5663461509117196e-05,2.5893555144579307e-05,5.8118995474174184e-05,-5.362699009689407e-06,6.8571,5.8571
0.26953125,-4.637542732890814e-05,1.1727283881895247e-05,0.00010546374013885719,-1.5135326277561531e-05,6.8571,5.8571
0.2734375,-3.758813933928428e-05,4.883096129396513e-05,0.00012499284157167935,-1.1710868458075764e-05,6.8571,5.8571
0.27734375,-3.270990225680927e-05,6.29972325566492e-05,9.472192669565889e-05,1.470063526360036e-06,6.8571,5.8571
0.28125,-2.733091898374907e-05,4.98163005722134e-05,7.519282526283673e-05,2.9399958922713836e-06,6.8571,5.8571
0.28515625,-4.1497190246433135e-05,5.078548674753956e-05,7.616201143816288e-05,4.409928258182723e-06,6.8571,5.8571
0.2890625,-6.05416985915922e-05,4.883096129396513e-05,8.690382488136118e-05,5.008773510338784e-07,6.8571,5.8571
0.29296875,-6.395000330815588e-05,6.592094418554978e-05,0.00011767548594796682,6.348300608835046e-06,6.8571,5.8571
0.296875,-5.516271531853202e-05,8.202558779888617e-05,0.00013768918046845206,1.4166402423132752e-05,6.8571,5.8571
0.30078125,-4.5406241153581986e-05,6.592094418554978e-05,9.813023141222257e-05,1.8075453330281604e-05,6.8571,5.8571
0.3046875,-5.711724077210644e-05,4.3952724211490116e-05,8.34955201647975e-05,1.2696470057221403e-05,6.8571,5.8571
0.30859375,-6.298081713282971e-05,5.127007983520264e-05,8.837375724727253e-05,-8.286410638589999e-06,6.8571,5.8571
0.3125,-5.27235967772945e-05,8.690382488136118e-05,8.788916415960945e-05,2.9399958922713836e-06,6.8571,5.8571
0.31640625,-4.8814545870145645e-05,0.00010546374013885719,9.569111287098505e-05,2.7347334407568552e-05,6.8571,5.8571
0.3203125,-6.395000330815588e-05,9.569111287098505e-05,6.104270710307477e-05,3.028719913939124e-05,6.8571,5.8571
0.32421875,-7.372263057602802e-05,8.39801132524606e-05,3.2241724592965664e-05,2.3939029691004882e-05,6.8571,5.8571
0.328125,-7.275344440070185e-05,0.00010008475686579699,4.443731729915321e-05,1.8075453330281604e-05,6.8571,5.8571
0.33203125,-6.884439349355299e-05,0.00011132731649958046,7.860112997940041e-05,2.0999164959182195e-05,6.8571,5.8571
0.3359375,-6.493534258640414e-05,0.00010447840086060892,0.00010155468923170832,2.5893555144579307e-05,6.8571,5.8571
0.33984375,-7.275344440070185e-05,9.66764521492333e-05,6.739087655146113e-05,3.272631768062874e-05,6.8571,5.8571
0.34375,-6.102629167925531e-05,8.299477397421233e-05,3.321091076829183e-05,3.907448712901511e-05,6.8571,5.8571
0.34765625,-5.125366441138317e-05,9.373658741741062e-05,4.98163005722134e-05,4.199819875791569e-05,6.8571,5.8571
0.3515625,-8.055539311207744e-05,0.00011082657030899529,7.616201143816288e-05,3.6635368587777606e-05,6.8571,5.8571
0.35546875,-7.029817275654224e-05,0.00010107009614404525,8.39801132524606e-05,3.12563853147174e-05,6.8571,5.8571
0.359375,-5.223900368963143e-05,9.863097760280774e-05,6.642169037613497e-05,4.346813112382704e-05,6.8571,5.8571
0.36328125,-7.079891894712741e-05,9.764563832455947e-05,3.808914785076684e-05,3.808914785076684e-05,6.8571,5.8571
0.3671875,-7.519256294193937e-05,0.00010350921468528275,3.418009694361799e-05,3.418009694361799e-05,6.8571,5.8571
0.37109375,-7.763168148317686e-05,0.00011425102812848104,4.3952724211490116e-05,4.052826639200435e-05,6.8571,5.8571
0.375,-8.250991856565187e-05,0.00011181190958724354,5.860358856183727e-05,4.0043673304341266e-05,6.8571,5.8571
0.37890625,-7.763168148317686e-05,7.664660452582597e-05,3.321091076829183e-05,2.5392808953994127e-05,6.8571,5.8571
0.3828125,-7.029817275654224e-05,9.325199432974755e-05,1.4166402423132752e-05,1.2696470057221403e-05,6.8571,5.8571
0.38671875,-5.223900368963143e-05,0.00012499284157167935,3.907448712901511e-05,1.612092787670718e-05,6.8571,5.8571
0.390625,-4.296712261234448e-05,0.00012206912994277876,5.274001220111398e-05,1.470063526360036e-06,6.8571,5.8571
0.39453125,-5.1754410601968346e-05,0.00013281094338597705,7.567741835049982e-05,-5.847292097352493e-06,6.8571,5.8571
0.3984375,-4.637542732890814e-05,0.00010937279104600602,4.883096129396513e-05,4.894521345845802e-06,6.8571,5.8571
0.40234375,-4.393630878767064e-05,9.911557069047083e-05,2.0514571871519107e-05,5.379114433508888e-06,6.8571,5.8571
0.40625,-4.1497190246433135e-05,0.00012059919757686741,3.369550385595491e-05,2.4554028046082974e-06,6.8571,5.8571
0.41015625,-4.589083424124507e-05,0.00013720458738078898,4.248279184557877e-05,-1.5619919365224616e-05,6.8571,5.8571
0.4140625,-9.178179964293883e-05,0.0001259620277470055,3.12563853147174e-05,-4.1497190246433135e-05,6.8571,5.8571
0.41796875,-0.00011864440980239562,8.055565543297483e-05,-2.440720735484848e-05,-5.0284478236057e-05,6.8571,5.8571
0.421875,-0.00010887178253452348,7.567741835049982e-05,-4.8329952782482574e-05,-4.589083424124507e-05,6.8571,5.8571
0.42578125,-0.00010302435927672229,9.71610452368964e-05,-3.857347861753254e-05,-3.319449534447234e-05,6.8571,5.8571
0.4296875,-9.178179964293883e-05,0.00011473562121614412,-1.122627537041268e-05,-2.5877139720759827e-05,6.8571,5.8571
0.43359375,-8.593437638513765e-05,0.00012694736702525375,2.34382835004197e-05,-1.8059037906462123e-05,6.8571,5.8571
0.4375,-0.00010302435927672229,0.0001098573841336691,2.9399958922713836e-06,-2.0498156447699626e-05,6.8571,5.8571
0.44140625,-0.00011181164726634617,9.764563832455947e-05,-1.2680054633401922e-05,-1.902822408178828e-05,6.8571,5.8571
0.4453125,-9.959990145723654e-05,0.00011961385829861914,8.302826062409473e-06,5.379114433508888e-06,6.8571,5.8571
0.44921875,-9.325173200885017e-05,0.00012255372303044182,2.5392808953994127e-05,1.2696470057221403e-05,6.8571,5.8571
0.453125,-7.95862069367513e-05,0.00011912926521095605,5.420994456702533e-05,2.0514571871519107e-05,6.8571,5.8571
0.45703125,-7.275344440070185e-05,0.0001098573841336691,4.492191038681628e-05,2.5893555144579307e-05,6.8571,5.8571
0.4609375,-7.275344440070185e-05,8.055565543297483e-05,2.6862741319905467e-05,1.0758097706569082e-05,6.8571,5.8571
0.46484375,-7.275344440070185e-05,9.617570595864813e-05,2.0999164959182195e-05,-3.89276664377806e-06,6.8571,5.8571
0.46875,-8.007080002441438e-05,0.0001279165532005799,3.909182067597541e-06,-6.331885185015565e-06,6.8571,5.8571
0.47265625,-8.641896947280074e-05,0.0001308564179324026,2.34382835004197e-05,-8.286410638589999e-06,6.8571,5.8571
0.4765625,-8.055539311207744e-05,0.00011132731649958046,4.102901258258953e-05,-1.6589105540550776e-05,6.8571,5.8571
0.48046875,-6.151088476691837e-05,0.0001074182655924316,5.0300893659876476e-05,-1.9382411902036407e-06,6.8571,5.8571
0.484375,-4.101259715877005e-05,0.00011181190958724354,5.078548674753956e-05,1.7590860242618525e-05,6.8571,5.8571
0.48828125,-3.8072732426947363e-05,0.0001127810957625697,4.346813112382704e-05,3.468084313420317e-05,6.8571,5.8571
0.4921875,-3.5149020798046775e-05,0.0001230383161181049,4.883096129396513e-05,4.786177511863897e-05,6.8571,5.8571
0.49609375,-2.392261426718541e-05,0.00012108379066453048,6.543635109788671e-05,4.199819875791569e-05,6.8571,5.8571
0.5,-3.319449534447234e-05,9.911557069047083e-05,4.687643584039071e-05,2.6862741319905467e-05,6.8571,5.8571
0.50390625,-4.345171570000757e-05,8.007106234531175e-05,2.0514571871519107e-05,1.6605520964370257e-05,6.8571,5.8571
0.5078125,-5.955635931334394e-05,7.811653689173732e-05,3.516543622186626e-05,6.849046799420229e-06,6.8571,5.8571
0.51171875,-6.932898658121607e-05,8.494929942778677e-05,5.8118995474174184e-05,-4.844619272143973e-07,6.8571,5.8571
0.515625,-6.932898658121607e-05,8.055565543297483e-05,4.786177511863897e-05,4.894521345845802e-06,6.8571,5.8571
0.51953125,-5.0769071323720084e-05,7.372289289692538e-05,1.8075453330281604e-05,4.894521345845802e-06,6.8571,5.8571
0.5234375,-2.1968088813610973e-05,8.34955201647975e-05,2.4554028046082974e-06,1.0257351515983898e-05,6.8571,5.8571
0.52734375,-1.5135326277561531e-05,8.788916415960945e-05,1.7590860242618525e-05,2.7347334407568552e-05,6.8571,5.8571
0.53125,-9.756343004501346e-06,0.00010058550305638218,6.884465581445037e-05,2.8332673685816814e-05,6.8571,5.8571
0.53515625,1.470063526360036e-06,9.325199432974755e-05,8.543389251544983e-05,9.77275842832082e-06,6.8571,5.8571
0.5390625,1.1242690794232167e-05,7.908572306706348e-05,4.883096129396513e-05,-9.756343004501346e-06,6.8571,5.8571
0.54296875,6.849046799420229e-06,6.690628346379805e-05,2.002997878385603e-05,-1.0240936092164417e-05,6.8571,5.8571
0.546875,9.854704386969502e-07,6.446716492256054e-05,4.298353803616396e-05,2.4554028046082974e-06,6.8571,5.8571
0.55078125,-1.0240936092164417e-05,7.860112997940041e-05,7.128377435568788e-05,1.470063526360036e-06,6.8571,5.8571
0.5546875,-2.8316258261997333e-05,7.714735071641115e-05,6.055811401541169e-05,-6.832631375600755e-06,6.8571,5.8571
0.55859375,-3.661895316395812e-05,7.275370672159922e-05,4.3952724211490116e-05,-2.9235804684519024e-06,6.8571,5.8571
0.5625,-3.5149020798046775e-05,8.104024852063792e-05,3.6134622397192416e-05,4.409928258182723e-06,6.8571,5.8571
0.56640625,-3.8072732426947363e-05,8.543389251544983e-05,4.492191038681628e-05,1.4166402423132752e-05,6.8571,5.8571
0.5703125,-3.416368151979851e-05,8.738841796902427e-05,7.128377435568788e-05,2.7347334407568552e-05,6.8571,5.8571
0.57421875,-3.172456297856101e-05,9.081287578851004e-05,8.446470634012368e-05,2.295369041275662e-05,6.8571,5.8571
0.578125,-4.1497190246433135e-05,7.225296053101403e-05,8.93429434225987e-05,9.77275842832082e-06,6.8571,5.8571
0.58203125,-4.736076660715642e-05,6.739087655146113e-05,5.3224605288777065e-05,5.863707521171967e-06,6.8571,5.8571
0.5859375,-6.005710550392913e-05,7.519282526283673e-05,4.248279184557877e-05,5.863707521171967e-06,6.8571,5.8571
0.58984375,-6.201163095750357e-05,7.714735071641115e-05,4.834636820630206e-05,7.333639887083315e-06,6.8571,5.8571
0.59375,-5.0769071323720084e-05,7.616201143816288e-05,7.225296053101403e-05,2.34382835004197e-05,6.8571,5.8571
0.59765625,-4.637542732890814e-05,6.739087655146113e-05,0.00010399380777294584,4.151360567025261e-05,6.8571,5.8571
0.6015625,-5.125366441138317e-05,4.102901258258953e-05,4.98163005722134e-05,3.12563853147174e-05,6.8571,5.8571
0.60546875,-6.298081713282971e-05,1.8075453330281604e-05,1.7590860242618525e-05,2.1499911149767376e-05,6.8571,5.8571
0.609375,-7.275344440070185e-05,2.8817266773479892e-05,3.516543622186626e-05,1.8075453330281604e-05,6.8571,5.8571
0.61328125,-7.275344440070185e-05,6.932924890211347e-05,4.3952724211490116e-05,1.8560046417944682e-05,6.8571,5.8571
0.6171875,-8.44644440192263e-05,7.323829980926232e-05,5.372535147936225e-05,2.8332673685816814e-05,6.8571,5.8571
0.62109375,-8.44644440192263e-05,4.590724966506455e-05,6.446716492256054e-05,2.7347334407568552e-05,6.8571,5.8571
0.625,-7.029817275654224e-05,3.369550385595491e-05,4.933170748455032e-05,1.709011405203334e-05,6.8571,5.8571
0.62890625,-7.908546074616612e-05,2.0514571871519107e-05,4.248279184557877e-05,6.348300608835046e-06,6.8571,5.8571
0.6328125,-6.541993567406723e-05,3.6635368587777606e-05,4.98163005722134e-05,-6.331885185015565e-06,6.8571,5.8571
0.63671875,-4.784535969481949e-05,3.418009694361799e-05,5.372535147936225e-05,-9.69055014877469e-07,6.8571,5.8571
0.640625,-6.688986803997858e-05,1.470063526360036e-06,3.077179222705432e-05,2.3939029691004882e-05,6.8571,5.8571
0.64453125,-6.005710550392913e-05,1.8075453330281604e-05,1.465099551079583e-05,3.760455476310376e-05,6.8571,5.8571
0.6484375,-5.27235967772945e-05,5.863707521171967e-06,2.5392808953994127e-05,2.9301859861142977e-05,6.8571,5.8571
0.65234375,-5.0769071323720084e-05,6.348300608835046e-06,3.760455476310376e-05,2.0514571871519107e-05,6.8571,5.8571
0.65625,-5.711724077210644e-05,3.028719913939124e-05,4.834636820630206e-05,2.0514571871519107e-05,6.8571,5.8571
0.66015625,-7.176810512245358e-05,3.565002930952934e-05,4.298353803616396e-05,8.302826062409473e-06,6.8571,5.8571
0.6640625,-7.275344440070185e-05,2.1984504237430457e-05,2.2469097325093535e-05,1.3116044868866083e-10,6.8571,5.8571
0.66796875,-7.12835120347905e-05,2.3939029691004882e-05,2.295369041275662e-05,-1.453648102540555e-06,6.8571,5.8571
0.671875,-7.763168148317686e-05,5.860358856183727e-05,3.907448712901511e-05,-2.438987380788816e-06,6.8571,5.8571
0.67578125,-7.323803748836493e-05,6.543635109788671e-05,3.565002930952934e-05,6.849046799420229e-06,6.8571,5.8571
0.6796875,-5.370893605554278e-05,6.251263946898612e-05,3.077179222705432e-05,1.8560046417944682e-05,6.8571,5.8571
0.68359375,-5.663264768444335e-05,5.9572774737163425e-05,1.4166402423132752e-05,1.465099551079583e-05,6.8571,5.8571
0.6875,-8.055539311207744e-05,6.152730019073785e-05,1.0257351515983898e-05,6.849046799420229e-06,6.8571,5.8571
0.69140625,-8.934268110170131e-05,7.763194380407423e-05,2.4908215866331045e-05,-6.331885185015565e-06,6.8571,5.8571
0.6953125,-8.397985093156321e-05,6.834390962386518e-05,2.3939029691004882e-05,-1.8543630994125208e-05,6.8571,5.8571
0.69921875,-8.007080002441438e-05,4.492191038681628e-05,1.1242690794232167e-05,-2.438987380788816e-06,6.8571,5.8571
0.703125,-7.616174911726551e-05,4.933170748455032e-05,4.409928258182723e-06,1.6605520964370257e-05,6.8571,5.8571
0.70703125,-5.81025800503547e-05,6.348182564431228e-05,2.0514571871519107e-05,1.612092787670718e-05,6.8571,5.8571
0.7109375,-3.8072732426947363e-05,8.446470634012368e-05,4.883096129396513e-05,6.849046799420229e-06,6.8571,5.8571
0.71484375,-2.245268190127406e-05,8.39801132524606e-05,5.5179130742351497e-05,4.894521345845802e-06,6.8571,5.8571
0.71875,-1.5619919365224616e-05,7.469207907225154e-05,4.590724966506455e-05,1.465099551079583e-05,6.8571,5.8571
0.72265625,-2.2937274988937133e-05,4.98163005722134e-05,3.369550385595491e-05,1.8560046417944682e-05,6.8571,5.8571
0.7265625,-3.172456297856101e-05,4.492191038681628e-05,2.3939029691004882e-05,-4.844619272143973e-07,6.8571,5.8571
0.73046875,-2.636173280842291e-05,7.763194380407423e-05,4.933170748455032e-05,-1.414998699931327e-05,6.8571,5.8571
0.734375,-1.6589105540550776e-05,9.617570595864813e-05,8.543389251544983e-05,1.470063526360036e-06,6.8571,5.8571
0.73828125,-1.2680054633401922e-05,8.984368961318389e-05,7.029843507743962e-05,2.4554028046082974e-06,6.8571,5.8571
0.7421875,-1.5135326277561531e-05,8.34955201647975e-05,2.9301859861142977e-05,-8.787156829175174e-06,6.8571,5.8571
0.74609375,-1.3180800823987113e-05,6.543635109788671e-05,8.302826062409473e-06,9.854704386969502e-07,6.8571,5.8571
0.75,-1.0741682282749608e-05,6.690628346379805e-05,3.369550385595491e-05,5.379114433508888e-06,6.8571,5.8571
0.75390625,-1.5619919365224616e-05,6.446716492256054e-05,5.616447002059976e-05,3.909182067597541e-06,6.8571,5.8571
0.7578125,-1.902822408178828e-05,5.616447002059976e-05,5.420994456702533e-05,1.1727283881895247e-05,6.8571,5.8571
0.76171875,-1.5135326277561531e-05,5.078548674753956e-05,2.0999164959182195e-05,2.1984504237430457e-05,6.8571,5.8571
0.765625,-9.756343004501346e-06,5.469453765468842e-05,1.6605520964370257e-05,2.6378148232242386e-05,6.8571,5.8571
0.76953125,-1.707369862821386e-05,7.811653689173732e-05,5.9572774737163425e-05,2.442362277866796e-05,6.8571,5.8571
0.7734375,-2.733091898374907e-05,6.592094418554978e-05,6.785931653620212e-05,2.0514571871519107e-05,6.8571,5.8571
0.77734375,-2.392261426718541e-05,4.883096129396513e-05,7.469207907225154e-05,1.9044639505607767e-05,6.8571,5.8571
0.78125,-1.4634580086976356e-05,5.127007983520264e-05,5.908818164950035e-05,1.8075453330281604e-05,6.8571,5.8571
0.78515625,-1.2680054633401922e-05,5.22554191134509e-05,3.907448712901511e-05,1.3197216247806587e-05,6.8571,5.8571
0.7890625,-5.362699009689407e-06,9.96001637781339e-05,5.713365619592592e-05,6.849046799420229e-06,6.8571,5.8571
0.79296875,8.302826062409473e-06,0.00012938648556649126,6.739087655146113e-05,2.5893555144579307e-05,6.8571,5.8571
0.796875,1.1727283881895247e-05,9.66764521492333e-05,4.052826639200435e-05,4.199819875791569e-05,6.8571,5.8571
0.80078125,6.348300608835046e-06,6.592094418554978e-05,1.3197216247806587e-05,4.590724966506455e-05,6.8571,5.8571
0.8046875,5.008773510338784e-07,6.739087655146113e-05,1.9044639505607767e-05,5.274001220111398e-05,6.8571,5.8571
0.80859375,1.1727283881895247e-05,9.96001637781339e-05,4.883096129396513e-05,6.007352092774861e-05,6.8571,5.8571
0.8125,1.8075453330281604e-05,8.984368961318389e-05,5.3224605288777065e-05,5.0300893659876476e-05,6.8571,5.8571
0.81640625,5.379114433508888e-06,4.492191038681628e-05,4.933170748455032e-05,3.907448712901511e-05,6.8571,5.8571
0.8203125,1.3116044868866083e-10,4.98163005722134e-05,3.6635368587777606e-05,4.786177511863897e-05,6.8571,5.8571
0.82421875,1.0758097706569082e-05,8.641923179369811e-05,3.760455476310376e-05,5.22554191134509e-05,6.8571,5.8571
0.828125,7.818232974746393e-06,8.007106234531175e-05,6.055811401541169e-05,5.372535147936225e-05,6.8571,5.8571
0.83203125,-6.832631375600755e-06,5.5679876932936674e-05,7.519282526283673e-05,5.9572774737163425e-05,6.8571,5.8571
0.8359375,-5.362699009689407e-06,2.7347334407568552e-05,7.763194380407423e-05,4.98163005722134e-05,6.8571,5.8571
0.83984375,-6.832631375600755e-06,2.1984504237430457e-05,5.372535147936225e-05,3.468084313420317e-05,6.8571,5.8571
0.84375,-2.1483495725947888e-05,4.542265657740147e-05,3.468084313420317e-05,2.9301859861142977e-05,6.8571,5.8571
0.84765625,-4.589083424124507e-05,3.468084313420317e-05,3.077179222705432e-05,3.369550385595491e-05,6.8571,5.8571
0.8515625,-5.8587173138017784e-05,2.9786452948806055e-05,4.786177511863897e-05,4.0043673304341266e-05,6.8571,5.8571
0.85546875,-5.0769071323720084e-05,4.786177511863897e-05,5.664906310826284e-05,3.711996167544068e-05,6.8571,5.8571
0.859375,-5.125366441138317e-05,4.298353803616396e-05,4.3952724211490116e-05,3.6635368587777606e-05,6.8571,5.8571
0.86328125,-5.125366441138317e-05,5.0300893659876476e-05,3.760455476310376e-05,3.760455476310376e-05,6.8571,5.8571
0.8671875,-6.298081713282971e-05,5.5679876932936674e-05,4.542265657740147e-05,2.442362277866796e-05,6.8571,5.8571
0.87109375,-8.494903710688938e-05,6.884465581445037e-05,4.933170748455032e-05,1.9044639505607767e-05,6.8571,5.8571
0.875,-7.860086765850303e-05,7.469207907225154e-05,7.029843507743962e-05,2.4908215866331045e-05,6.8571,5.8571
0.87890625,-8.934268110170131e-05,5.616447002059976e-05,7.128377435568788e-05,1.8560046417944682e-05,6.8571,5.8571
0.8828125,-0.0001059480709056229,4.443731729915321e-05,3.6134622397192416e-05,1.2696470057221403e-05,6.8571,5.8571
0.88671875,-0.0001210835283436331,2.002997878385603e-05,1.709011405203334e-05,5.863707521171967e-06,6.8571,5.8571
0.890625,-0.0001376889181475547,2.1499911149767376e-05,4.248279184557877e-05,-4.8781059220263216e-06,6.8571,5.8571
0.89453125,-0.00014647620613717855,3.907448712901511e-05,7.469207907225154e-05,-6.832631375600755e-06,6.8571,5.8571
0.8984375,-0.00015624883340505067,8.302826062409473e-06,4.409928258182723e-06,-1.2195461545738851e-05,6.8571,5.8571
0.90234375,-0.00016209625666285186,-2.438987380788816e-06,-6.05416985915922e-05,-2.0498156447699626e-05,6.8571,5.8571
0.90625,-0.00015965713812161436,1.954656614023108e-06,-1.3180800823987113e-05,-4.8781059220263216e-06,6.8571,5.8571
0.91015625,-0.00015917254503395128,1.4166402423132752e-05,2.442362277866796e-05,-1.1710868458075764e-05,6.8571,5.8571
0.9140625,-0.00015574808721446548,4.298353803616396e-05,2.5392808953994127e-05,-3.075537680323484e-05,6.8571,5.8571
0.91796875,-0.0001376889181475547,3.760455476310376e-05,-4.393512834363249e-06,-8.787156829175174e-06,6.8571,5.8571
0.921875,-0.0001210835283436331,4.0043673304341266e-05,1.3116044868866083e-10,2.442362277866796e-05,6.8571,5.8571
0.92578125,-0.00012499257925078196,4.786177511863897e-05,2.002997878385603e-05,4.052826639200435e-05,6.8571,5.8571
0.9296875,-0.0001376889181475547,5.1770826025787823e-05,3.12563853147174e-05,3.028719913939124e-05,6.8571,5.8571
0.93359375,-0.00013964344360112911,5.372535147936225e-05,4.3952724211490116e-05,2.0999164959182195e-05,6.8571,5.8571
0.9375,-0.00014061262977645527,2.6862741319905467e-05,4.052826639200435e-05,2.295369041275662e-05,6.8571,5.8571
0.94140625,-0.00014061262977645527,1.7590860242618525e-05,5.8118995474174184e-05,2.9786452948806055e-05,6.8571,5.8571
0.9453125,-0.00012791629087968254,2.34382835004197e-05,6.932924890211347e-05,3.6134622397192416e-05,6.8571,5.8571
0.94921875,-0.00011864440980239562,2.7848080598153736e-05,0.0001025238754070345,4.298353803616396e-05,6.8571,5.8571
0.953125,-0.00011864440980239562,5.469453765468842e-05,0.00013182560410772879,5.078548674753956e-05,6.8571,5.8571
0.95703125,-0.00012206886762188136,2.9786452948806055e-05,0.00012059919757686741,4.590724966506455e-05,6.8571,5.8571
0.9609375,-0.0001425671552300297,-3.5149020798046775e-05,8.202558779888617e-05,3.6134622397192416e-05,6.8571,5.8571
0.96484375,-0.00014843073159075297,-1.122627537041268e-05,5.713365619592592e-05,3.028719913939124e-05,6.8571,5.8571
0.96875,-0.00013035540942092007,4.6391842752727626e-05,9.373658741741062e-05,2.9786452948806055e-05,6.8571,5.8571
0.97265625,-0.00013035540942092007,4.834636820630206e-05,8.788916415960945e-05,1.3681809335469672e-05,6.8571,5.8571
0.9765625,-0.0001450062737712672,-4.844619272143973e-07,7.225296053101403e-05,-9.27174991683826e-06,6.8571,5.8571
0.98046875,-0.00016259700285343703,-4.246637642175929e-05,4.6391842752727626e-05,-3.0270783715571765e-05,6.8571,5.8571
0.984375,-0.00015770261266803993,-1.8059037906462123e-05,2.4908215866331045e-05,-4.589083424124507e-05,6.8571,5.8571
0.98828125,-0.00013573439269398024,2.9786452948806055e-05,3.907448712901511e-05,-4.296712261234448e-05,6.8571,5.8571
0.9921875,-0.00013964344360112911,5.127007983520264e-05,4.687643584039071e-05,-3.661895316395812e-05,6.8571,5.8571
0.99609375,-0.00014599161304951547,3.321091076829183e-05,8.690382488136118e-05,-7.3172244632638265e-06,6.8571,5.8571
1.0,-0.00013573439269398024,-6.832631375600755e-06,6.201189327840093e-05,9.77275842832082e-06,6.8571,5.8571
1.00390625,-0.00010741800327153424,1.709011405203334e-05,4.102901258258953e-05,1.2211876969558325e-05,6.8571,5.8571
1.0078125,-9.667618982833593e-05,7.616201143816288e-05,7.420748598458847e-05,3.077179222705432e-05,6.8571,5.8571
1.01171875,-0.00010693341018387115,9.032828270084695e-05,6.446716492256054e-05,2.4908215866331045e-05,6.8571,5.8571
1.015625,-0.00012059893525597004,7.275370672159922e-05,8.738841796902427e-05,1.0758097706569082e-05,6.8571,5.8571
1.01953125,-0.00013329527415274276,4.199819875791569e-05,5.0300893659876476e-05,1.465099551079583e-05,6.8571,5.8571
1.0234375,-0.00015135444321965358,3.760455476310376e-05,-2.9235804684519024e-06,1.2696470057221403e-05,6.8571,5.8571
1.02734375,-0.00016112707048752568,6.981384198977653e-05,4.883096129396513e-05,7.333639887083315e-06,6.8571,5.8571
1.03125,-0.00015868795194628818,7.176836744335097e-05,8.543389251544983e-05,1.470063526360036e-06,6.8571,5.8571
1.03515625,-0.00016259700285343703,3.174097840238048e-05,9.081287578851004e-05,5.379114433508888e-06,6.8571,5.8571
1.0390625,-0.0001630815959411001,2.1499911149767376e-05,7.664660452582597e-05,1.954538569619295e-05,6.8571,5.8571
1.04296875,-0.00012743169779201946,3.2241724592965664e-05,4.248279184557877e-05,2.7848080598153736e-05,6.8571,5.8571
1.046875,-0.00011181164726634617,4.151360567025261e-05,4.687643584039071e-05,2.4908215866331045e-05,6.8571,5.8571
1.05078125,-0.00011181164726634617,4.199819875791569e-05,9.569111287098505e-05,3.321091076829183e-05,6.8571,5.8571
1.0546875,-8.397985093156321e-05,6.543635109788671e-05,0.0001450065360921646,5.8118995474174184e-05,6.8571,5.8571
1.05859375,-8.885808801403823e-05,3.8589894041352025e-05,7.908572306706348e-05,4.298353803616396e-05,6.8571,5.8571
1.0625,-0.00011229624035400925,-1.3665393911650198e-05,2.295369041275662e-05,1.2696470057221403e-05,6.8571,5.8571
1.06640625,-0.00011473535889524674,8.302826062409473e-06,4.052826639200435e-05,1.1242690794232167e-05,6.8571,5.8571
1.0703125,-0.0001005852407354848,2.442362277866796e-05,4.492191038681628e-05,2.6378148232242386e-05,6.8571,5.8571
1.07421875,-9.2282545833524e-05,-5.362699009689407e-06,2.4908215866331045e-05,5.3224605288777065e-05,6.8571,5.8571
1.078125,-7.66463422049286e-05,-8.202532547798879e-05,-4.393630878767064e-05,3.955908021667819e-05,6.8571,5.8571
1.08203125,-5.419352914320585e-05,-0.0001240233930754558,-9.129720655527575e-05,4.542265657740147e-05,6.8571,5.8571
1.0859375,-8.349525784390013e-05,-0.00015477890103913932,-0.00011815981671473252,7.176836744335097e-05,6.8571,5.8571
1.08984375,-0.00010008449454489959,-0.00018408062973983362,-0.00012743169779201946,8.593463870603502e-05,6.8571,5.8571
1.09375,-9.76453760036621e-05,-0.0002241080187808041,-0.00015185518941023874,9.472192669565889e-05,6.8571,5.8571
1.09765625,-0.00011278083344167234,-0.0002597579169298847,-0.00021044249370870521,0.00010447840086060892,6.8571,5.8571
1.1015625,-0.0001269471047043564,-0.0002875897132646677,-0.00022069971406424042,0.0001103419772213322,6.8571,5.8571
1.10546875,-0.0001289016301579308,-0.0002621970354711222,-0.00018748893445639728,0.00010838745176775776,6.8571,5.8571
1.109375,-0.0001415979690547035,-0.00020310898498207056,-0.00016991435847714956,0.0001103419772213322,6.8571,5.8571
1.11328125,-0.00016552071448233763,-0.00017039895156481264,-0.00014990066395666432,9.863097760280774e-05,6.8571,5.8571
1.1171875,-0.0001796869857450217,-0.00016503612139467456,-0.0001235226468848706,9.17820619638362e-05,6.8571,5.8571
1.12109375,-0.00017577793483787284,-0.00015868795194628818,-0.00010399354545204846,0.00010107009614404525,6.8571,5.8571
1.125,-0.00016503612139467456,-8.202532547798879e-05,-8.934268110170131e-05,0.00010838745176775776,6.8571,5.8571
1.12890625,-0.00014843073159075297,-3.416368151979851e-05,-6.346541022049279e-05,0.0001049791470511941,6.8571,5.8571
1.1328125,-0.00013964344360112911,-3.075537680323484e-05,-4.345171570000757e-05,8.39801132524606e-05,6.8571,5.8571
1.13671875,-0.0001337798672404058,-3.408173556114974e-06,-2.438987380788816e-06,8.007106234531175e-05,6.8571,5.8571
1.140625,-0.00012255346070954445,2.0999164959182195e-05,1.465099551079583e-05,8.251018088654925e-05,6.8571,5.8571
1.14453125,-0.00013281068106507968,4.590724966506455e-05,2.5893555144579307e-05,7.714735071641115e-05,6.8571,5.8571
1.1484375,-0.00014355249450827796,4.834636820630206e-05,4.151360567025261e-05,5.078548674753956e-05,6.8571,5.8571
1.15234375,-0.0001415979690547035,7.275370672159922e-05,4.542265657740147e-05,4.298353803616396e-05,6.8571,5.8571
1.15625,-0.0001269471047043564,9.764563832455947e-05,0.00010546374013885719,5.616447002059976e-05,6.8571,5.8571
1.16015625,-0.00010790259635919729,0.00010302462159761967,0.00016209651898374923,7.07991812680248e-05,6.8571,5.8571
1.1640625,-0.00011473535889524674,0.0001103419772213322,0.00013720458738078898,6.884465581445037e-05,6.8571,5.8571
1.16796875,-0.00013281068106507968,9.373658741741062e-05,0.00014891558699931342,5.3224605288777065e-05,6.8571,5.8571
1.171875,-0.000129870816333257,0.00011229650267490663,0.00018748919677729467,4.0043673304341266e-05,6.8571,5.8571
1.17578125,-0.0001264625116166933,0.00013281094338597705,0.0001997009425864043,2.9301859861142977e-05,6.8571,5.8571
1.1796875,-0.00012255346070954445,0.00013182560410772879,0.00017138455316395828,2.5392808953994127e-05,6.8571,5.8571
1.18359375,-0.00011326542652933539,0.00012255372303044182,0.00017773272261234463,2.6378148232242386e-05,6.8571,5.8571
1.1875,-0.0001347652065186541,0.00011912926521095605,0.00015917280735484865,1.0257351515983898e-05,6.8571,5.8571
1.19140625,-0.000158187205755703,0.00010546374013885719,0.00016649016297856116,1.3116044868866083e-10,6.8571,5.8571
1.1953125,-0.00015429430795147627,0.0001103419772213322,0.0002070182982101168,1.6605520964370257e-05,6.8571,5.8571
1.19921875,-0.00014843073159075297,0.0001284172993911651,0.00017723197642175944,2.3939029691004882e-05,6.8571,5.8571
1.203125,-0.0001425671552300297,0.00011961385829861914,0.00016943002771038386,3.028719913939124e-05,6.8571,5.8571
1.20703125,-0.00013035540942092007,0.00014159823137560088,0.00018553467132372025,3.272631768062874e-05,6.8571,5.8571
1.2109375,-0.00011278083344167234,0.00018017184115358214,0.00021679092547798897,2.9301859861142977e-05,6.8571,5.8571
1.21484375,-9.959990145723654e-05,0.0001870046036896316,0.00024315278944686056,2.6862741319905467e-05,6.8571,5.8571
1.21875,-9.520625746242459e-05,0.0001645356375249867,0.00023192638291599918,1.9044639505607767e-05,6.8571,5.8571
1.22265625,-9.472166437476152e-05,0.00011961385829861914,0.00019530729859159237,1.7590860242618525e-05,6.8571,5.8571
1.2265625,-9.27671389211871e-05,0.00015868821426718557,0.00017577819715877024,7.333639887083315e-06,6.8571,5.8571
1.23046875,-8.885808801403823e-05,0.00021191268839551393,0.00020897282366369124,1.3116044868866083e-10,6.8571,5.8571
1.234375,-9.032802037994958e-05,0.00019383736622568103,0.0002338809083695736,1.1242690794232167e-05,6.8571,5.8571
1.23828125,-0.00010447813853971155,0.00017723197642175944,0.00020751904440070203,1.4166402423132752e-05,6.8571,5.8571
1.2421875,-0.00011473535889524674,0.00015330923099412535,0.00014012829900968954,1.1727283881895247e-05,6.8571,5.8571
1.24609375,-0.00011425076580758366,0.00012255372303044182,0.00014109748518501572,1.3116044868866083e-10,6.8571,5.8571
1.25,-8.837349492637514e-05,0.00015234004481879922,0.00019042906150911734,-5.362699009689407e-06,6.8571,5.8571
1.25390625,-6.932898658121607e-05,0.00015818746807660038,0.0001674755022568094,-5.362699009689407e-06,6.8571,5.8571
1.2578125,-7.567715602960242e-05,0.00017039921388571,0.00013964370592202646,-1.453648102540555e-06,6.8571,5.8571
1.26171875,-8.593437638513765e-05,0.00019286818005035484,0.00015526375644769977,1.9044639505607767e-05,6.8571,5.8571
1.265625,-0.00011521995198290983,0.00016892928151979866,0.00016112733280842308,1.5151741701381012e-05,6.8571,5.8571
1.26953125,-0.00013817351123521777,0.00016014199353017484,0.00015282463790646227,-9.756343004501346e-06,6.8571,5.8571
1.2734375,-0.0001337798672404058,0.00012890189247882818,0.00014256741755092707,-1.414998699931327e-05,6.8571,5.8571
1.27734375,-0.0001269471047043564,0.00012255372303044182,0.000142082824463264,-4.8781059220263216e-06,6.8571,5.8571
1.28125,-0.00012303805379720753,9.863097760280774e-05,9.373658741741062e-05,-4.844619272143973e-07,6.8571,5.8571
1.28515625,-0.00010008449454489959,6.592094418554978e-05,7.469207907225154e-05,3.424588979934462e-06,6.8571,5.8571
1.2890625,-7.275344440070185e-05,0.00011376643504081798,0.00013964370592202646,1.4166402423132752e-05,6.8571,5.8571
1.29296875,-5.81025800503547e-05,0.0001337801295613032,0.00015868821426718557,7.333639887083315e-06,6.8571,5.8571
1.296875,-5.370893605554278e-05,0.00014744565463340207,0.00015721828190127423,-9.27174991683826e-06,6.8571,5.8571
1.30078125,-6.05416985915922e-05,0.00015721828190127423,0.00015721828190127423,-7.801817550926912e-06,6.8571,5.8571
1.3046875,-6.05416985915922e-05,0.0001337801295613032,0.00013231019719539186,1.0758097706569082e-05,6.8571,5.8571
1.30859375,-5.663264768444335e-05,0.00013573465501487764,0.00017186914625162136,2.7848080598153736e-05,6.8571,5.8571
1.3125,-6.346541022049279e-05,0.00015526375644769977,0.00022509362037994974,3.565002930952934e-05,6.8571,5.8571
1.31640625,-7.519256294193937e-05,0.00014843099391165037,0.0001845654851483941,3.468084313420317e-05,6.8571,5.8571
1.3203125,-8.494903710688938e-05,0.000123522909205768,0.00013768918046845206,2.6378148232242386e-05,6.8571,5.8571
1.32421875,-9.520625746242459e-05,0.00010058550305638218,0.0001479464008239873,2.8817266773479892e-05,6.8571,5.8571
1.328125,-9.27671389211871e-05,0.00010302462159761967,0.0001743082647928589,3.12563853147174e-05,6.8571,5.8571
1.33203125,-8.738815564812689e-05,0.00015282463790646227,0.00018847453605554294,4.3952724211490116e-05,6.8571,5.8571
1.3359375,-8.055539311207744e-05,0.00014061289209735264,0.00016600556989089806,4.834636820630206e-05,6.8571,5.8571
1.33984375,-8.494903710688938e-05,0.00010155468923170832,0.00016064273972076,4.199819875791569e-05,6.8571,5.8571
1.34375,-8.494903710688938e-05,0.0001103419772213322,0.00015429457027237362,4.3952724211490116e-05,6.8571,5.8571
1.34765625,-6.151088476691837e-05,0.0001313410110200657,0.0001313410110200657,4.199819875791569e-05,6.8571,5.8571
1.3515625,-4.9315292060730836e-05,0.00014012829900968954,0.00016991462079804693,4.492191038681628e-05,6.8571,5.8571
1.35546875,-3.954266479285872e-05,0.0001337801295613032,0.00019383736622568103,4.834636820630206e-05,6.8571,5.8571
1.359375,-3.5149020798046775e-05,0.00011326568885023278,0.00016209651898374923,4.687643584039071e-05,6.8571,5.8571
1.36328125,-4.101259715877005e-05,0.00011767548594796682,7.908572306706348e-05,3.6134622397192416e-05,6.8571,5.8571
1.3671875,-4.8814545870145645e-05,0.00013426472264896632,2.4554028046082974e-06,3.12563853147174e-05,6.8571,5.8571
1.37109375,-3.857347861753254e-05,9.863097760280774e-05,3.909182067597541e-06,5.5179130742351497e-05,6.8571,5.8571
1.375,-2.1483495725947888e-05,0.00010350921468528275,1.5636334789044097e-05,6.348182564431228e-05,6.8571,5.8571
1.37890625,-3.466442771038369e-05,0.00012059919757686741,-6.832631375600755e-06,4.933170748455032e-05,6.8571,5.8571
1.3828125,-4.5406241153581986e-05,0.00010302462159761967,-9.178179964293883e-05,2.0999164959182195e-05,6.8571,5.8571
1.38671875,-4.8814545870145645e-05,0.00012255372303044182,-0.00011326542652933539,1.3197216247806587e-05,6.8571,5.8571
1.390625,-5.516271531853202e-05,0.00014696106154573902,-7.66463422049286e-05,2.5893555144579307e-05,6.8571,5.8571
1.39453125,-5.955635931334394e-05,0.0001152202143038072,-8.299451165331496e-05,1.9044639505607767e-05,6.8571,5.8571
1.3984375,-7.469181675135416e-05,7.469207907225154e-05,-0.00011668988434882118,3.909182067597541e-06,6.8571,5.8571
1.40234375,-8.494903710688938e-05,7.860112997940041e-05,-0.000158187205755703,1.954656614023108e-06,6.8571,5.8571
1.40625,-7.372263057602802e-05,9.569111287098505e-05,-0.00017283807010605014,1.3197216247806587e-05,6.8571,5.8571
1.41015625,-5.223900368963143e-05,0.00012400750229343109,-9.911530836957345e-05,3.174097840238048e-05,6.8571,5.8571
1.4140625,-5.955635931334394e-05,0.00011767548594796682,-6.981357966887916e-05,3.955908021667819e-05,6.8571,5.8571
1.41796875,-7.275344440070185e-05,0.0001181600790356299,-0.00010203901999847403,3.808914785076684e-05,6.8571,5.8571
1.421875,-7.616174911726551e-05,0.00012011460448920433,-0.00011425076580758366,3.955908021667819e-05,6.8571,5.8571
1.42578125,-9.27671389211871e-05,9.66764521492333e-05,-0.00010887178253452348,4.786177511863897e-05,6.8571,5.8571
1.4296875,-9.472166437476152e-05,0.00012206912994277876,-6.541993567406723e-05,5.5679876932936674e-05,6.8571,5.8571
1.43359375,-7.860086765850303e-05,0.00014256741755092707,-3.172456297856101e-05,6.104270710307477e-05,6.8571,5.8571
1.4375,-8.349525784390013e-05,0.00012255372303044182,-6.932898658121607e-05,5.5179130742351497e-05,6.8571,5.8571
1.44140625,-8.349525784390013e-05,5.7618249283589e-05,-0.00010985712181277173,2.8817266773479892e-05,6.8571,5.8571
1.4453125,-8.055539311207744e-05,5.274001220111398e-05,-0.00010399354545204846,2.442362277866796e-05,6.8571,5.8571
1.44921875,-7.176810512245358e-05,0.00010887204485542085,-7.275344440070185e-05,4.443731729915321e-05,6.8571,5.8571
1.453125,-5.125366441138317e-05,0.0001284172993911651,-1.122627537041268e-05,5.7618249283589e-05,6.8571,5.8571
1.45703125,-4.736076660715642e-05,0.0001152202143038072,-9.69055014877469e-07,6.348182564431228e-05,6.8571,5.8571
1.4609375,-6.005710550392913e-05,0.00010350921468528275,-3.954266479285872e-05,6.201189327840093e-05,6.8571,5.8571
1.46484375,-6.884439349355299e-05,8.641923179369811e-05,-7.908546074616612e-05,5.0300893659876476e-05,6.8571,5.8571
1.46875,-9.325173200885017e-05,8.251018088654925e-05,-6.834364730296781e-05,5.274001220111398e-05,6.8571,5.8571
1.47265625,-0.0001235226468848706,8.641923179369811e-05,-5.27235967772945e-05,6.251263946898612e-05,6.8571,5.8571
1.4765625,-0.00011473535889524674,9.472192669565889e-05,-1.5619919365224616e-05,5.127007983520264e-05,6.8571,5.8571
1.48046875,-0.00011521995198290983,0.00013281094338597705,-3.172456297856101e-05,4.151360567025261e-05,6.8571,5.8571
1.484375,-0.0001376889181475547,0.00013964370592202646,-4.49216480659189e-05,4.786177511863897e-05,6.8571,5.8571
1.48828125,-0.00014061262977645527,0.00013281094338597705,-3.661895316395812e-05,4.7377182030975895e-05,6.8571,5.8571
1.4921875,-0.0001259617654261081,9.617570595864813e-05,-4.8814545870145645e-05,3.321091076829183e-05,6.8571,5.8571
1.49609375,-0.00011425076580758366,7.811653689173732e-05,-6.445074949874106e-05,4.0043673304341266e-05,6.8571,5.8571
1.5,-0.00010790259635919729,0.00014305201063859015,-5.27235967772945e-05,4.98163005722134e-05,6.8571,5.8571
1.50390625,-0.00010106983382314789,0.00015526375644769977,-2.0982749535362714e-05,4.052826639200435e-05,6.8571,5.8571
1.5078125,-9.129720655527575e-05,0.00010447840086060892,-3.954266479285872e-05,1.7590860242618525e-05,6.8571,5.8571
1.51171875,-8.984342729228649e-05,7.519282526283673e-05,-2.8800851349660418e-05,1.7590860242618525e-05,6.8571,5.8571
1.515625,-8.934268110170131e-05,9.032828270084695e-05,-1.2195461545738851e-05,2.1984504237430457e-05,6.8571,5.8571
1.51953125,-9.472166437476152e-05,7.420748598458847e-05,-5.0769071323720084e-05,2.295369041275662e-05,6.8571,5.8571
1.5234375,-0.0001137661727199206,3.468084313420317e-05,-9.423707128709844e-05,3.174097840238048e-05,6.8571,5.8571
1.52734375,-0.0001210835283436331,5.420994456702533e-05,-3.563361388570986e-05,3.174097840238048e-05,6.8571,5.8571
1.53125,-0.0001108263079880979,6.446716492256054e-05,1.470063526360036e-06,3.6134622397192416e-05,6.8571,5.8571
1.53515625,-0.00011425076580758366,7.029843507743962e-05,-3.89276664377806e-06,4.542265657740147e-05,6.8571,5.8571
1.5390625,-0.0001059480709056229,8.494929942778677e-05,-1.902822408178828e-05,4.248279184557877e-05,6.8571,5.8571
1.54296875,-8.788890183871209e-05,8.543389251544983e-05,-3.270990225680927e-05,5.3224605288777065e-05,6.8571,5.8571
1.546875,-9.423707128709844e-05,9.569111287098505e-05,3.424588979934462e-06,5.7618249283589e-05,6.8571,5.8571
1.55078125,-8.885808801403823e-05,9.373658741741062e-05,3.272631768062874e-05,4.7377182030975895e-05,6.8571,5.8571
1.5546875,-0.00010106983382314789,6.981384198977653e-05,1.0257351515983898e-05,2.9786452948806055e-05,6.8571,5.8571
1.55859375,-0.00010252361308613711,8.93429434225987e-05,2.4908215866331045e-05,3.174097840238048e-05,6.8571,5.8571
1.5625,-8.543363019455247e-05,0.00010350921468528275,-1.414998699931327e-05,2.7848080598153736e-05,6.8571,5.8571
1.56640625,-0.00010106983382314789,5.8118995474174184e-05,-7.372263057602802e-05,1.2211876969558325e-05,6.8571,5.8571
1.5703125,-0.00011521995198290983,6.396641873197535e-05,-9.27174991683826e-06,2.5893555144579307e-05,6.8571,5.8571
1.57421875,-0.00011668988434882118,7.275370672159922e-05,2.1984504237430457e-05,3.12563853147174e-05,6.8571,5.8571
1.578125,-9.911530836957345e-05,4.443731729915321e-05,3.369550385595491e-05,4.0043673304341266e-05,6.8571,5.8571
1.58203125,-7.95862069367513e-05,7.07991812680248e-05,4.052826639200435e-05,4.834636820630206e-05,6.8571,5.8571
1.5859375,-6.298081713282971e-05,0.00011864467212329299,4.409928258182723e-06,4.199819875791569e-05,6.8571,5.8571
1.58984375,-6.785905421530472e-05,0.0001230383161181049,-4.8781059220263216e-06,3.369550385595491e-05,6.8571,5.8571
1.59375,-0.00010155442691081094,0.00010838745176775776,3.028719913939124e-05,3.2241724592965664e-05,6.8571,5.8571
1.59765625,-0.00010008449454489959,0.0001127810957625697,3.369550385595491e-05,4.7377182030975895e-05,6.8571,5.8571
1.6015625,-9.2282545833524e-05,0.0001103419772213322,2.1984504237430457e-05,6.396641873197535e-05,6.8571,5.8571
1.60546875,-0.00010350895236438538,0.00010594833322652027,3.516543622186626e-05,6.642169037613497e-05,6.8571,5.8571
1.609375,-0.00010790259635919729,9.71610452368964e-05,5.127007983520264e-05,6.785931653620212e-05,6.8571,5.8571
1.61328125,-0.00013035540942092007,8.007106234531175e-05,6.007352092774861e-05,5.5679876932936674e-05,6.8571,5.8571
1.6171875,-0.00015721801958037683,6.055811401541169e-05,2.5893555144579307e-05,2.9301859861142977e-05,6.8571,5.8571
1.62109375,-0.00015721801958037683,4.687643584039071e-05,-3.9058071705195625e-05,1.1727283881895247e-05,6.8571,5.8571
1.625,-0.00015135444321965358,6.29972325566492e-05,-2.0013563360036555e-05,9.77275842832082e-06,6.8571,5.8571
1.62890625,-0.00014939991776607913,4.687643584039071e-05,2.0514571871519107e-05,2.1499911149767376e-05,6.8571,5.8571
1.6328125,-0.00014355249450827796,7.128377435568788e-05,2.8817266773479892e-05,2.442362277866796e-05,6.8571,5.8571
1.63671875,-0.00012743169779201946,9.911557069047083e-05,6.348182564431228e-05,3.6134622397192416e-05,6.8571,5.8571
1.640625,-0.00012059893525597004,7.128377435568788e-05,7.469207907225154e-05,4.933170748455032e-05,6.8571,5.8571
1.64453125,-0.00010643266399328599,6.152730019073785e-05,5.1770826025787823e-05,4.786177511863897e-05,6.8571,5.8571
1.6484375,-0.00011326542652933539,8.007106234531175e-05,7.818232974746393e-06,3.907448712901511e-05,6.8571,5.8571
1.65234375,-0.00015917254503395128,6.104270710307477e-05,4.102901258258953e-05,3.028719913939124e-05,6.8571,5.8571
1.65625,-0.00019970068026550693,1.709011405203334e-05,5.5679876932936674e-05,8.803572252994655e-06,6.8571,5.8571
1.66015625,-0.00020165520571908138,7.275370672159922e-05,3.077179222705432e-05,1.954538569619295e-05,6.8571,5.8571
1.6640625,-0.00019042879918822,8.251018088654925e-05,2.002997878385603e-05,4.052826639200435e-05,6.8571,5.8571
1.66796875,-0.00019236717153887228,7.616201143816288e-05,2.5392808953994127e-05,4.0043673304341266e-05,6.8571,5.8571
1.671875,-0.00018553440900282288,0.00011229650267490663,5.0300893659876476e-05,3.174097840238048e-05,6.8571,5.8571
1.67578125,-0.0001679598330235751,9.228280815442139e-05,6.981384198977653e-05,2.6862741319905467e-05,6.8571,5.8571
1.6796875,-0.00017235347701838707,9.813023141222257e-05,2.8817266773479892e-05,2.8332673685816814e-05,6.8571,5.8571
1.68359375,-0.00018114076500801092,9.276740124208447e-05,-2.0982749535362714e-05,3.2241724592965664e-05,6.8571,5.8571
1.6875,-0.0001738234093842984,7.128377435568788e-05,2.002997878385603e-05,3.8589894041352025e-05,6.8571,5.8571
1.69140625,-0.000181625358095674,0.00010790285868009469,3.12563853147174e-05,5.274001220111398e-05,6.8571,5.8571
1.6953125,-0.00018992805299763478,0.00011961385829861914,6.152730019073785e-05,6.201189327840093e-05,6.8571,5.8571
1.69921875,-0.00019139798536354613,8.837375724727253e-05,5.0300893659876476e-05,4.687643584039071e-05,6.8571,5.8571
1.703125,-0.00019139798536354613,6.396641873197535e-05,1.954538569619295e-05,3.028719913939124e-05,6.8571,5.8571
1.70703125,-0.00017626252792553592,9.813023141222257e-05,4.199819875791569e-05,2.8332673685816814e-05,6.8571,5.8571
1.7109375,-0.00016894517230182338,9.96001637781339e-05,3.174097840238048e-05,3.321091076829183e-05,6.8571,5.8571
1.71484375,-0.0001552634941268024,0.00011767548594796682,4.542265657740147e-05,3.369550385595491e-05,6.8571,5.8571
1.71875,-0.00015185518941023874,0.00013035567174181744,4.102901258258953e-05,4.248279184557877e-05,6.8571,5.8571
1.72265625,-0.0001743080024719615,9.617570595864813e-05,3.077179222705432e-05,4.492191038681628e-05,6.8571,5.8571
1.7265625,-0.00019091339227588302,0.00012694736702525375,2.1499911149767376e-05,3.6635368587777606e-05,6.8571,5.8571
1.73046875,-0.00019579162935835808,0.00013817377355611514,3.8589894041352025e-05,4.786177511863897e-05,6.8571,5.8571
1.734375,-0.0002075187820798046,0.000123522909205768,0.00010302462159761967,6.543635109788671e-05,6.8571,5.8571
1.73828125,-0.00022215349332722968,0.0001547791633600367,7.372289289692538e-05,5.860358856183727e-05,6.8571,5.8571
1.7421875,-0.0002182605955230029,0.00013426472264896632,3.907448712901511e-05,5.1770826025787823e-05,6.8571,5.8571
1.74609375,-0.00020506351043564502,0.00012450824848401625,5.8118995474174184e-05,6.201189327840093e-05,6.8571,5.8571
1.75,-0.00020604884971389326,0.00017138455316395828,7.372289289692538e-05,6.642169037613497e-05,6.8571,5.8571
1.75390625,-0.00019286791772945747,0.00012987107865415436,8.055565543297483e-05,6.446716492256054e-05,6.8571,5.8571
1.7578125,-0.00015917254503395128,0.00012108379066453048,5.372535147936225e-05,6.152730019073785e-05,6.8571,5.8571
1.76171875,-0.00016453537520408936,0.0001152202143038072,-4.844619272143973e-07,4.834636820630206e-05,6.8571,5.8571
1.765625,-0.00018748893445639728,0.0001308564179324026,-1.0240936092164417e-05,4.0043673304341266e-05,6.8571,5.8571
1.76953125,-0.00019432169699244673,0.00015379382408178843,1.2211876969558325e-05,5.1770826025787823e-05,6.8571,5.8571
1.7734375,-0.00019726156172426943,9.617570595864813e-05,5.5179130742351497e-05,5.860358856183727e-05,6.8571,5.8571
1.77734375,-0.0001845652228274967,8.593463870603502e-05,6.785931653620212e-05,4.298353803616396e-05,6.8571,5.8571
1.78125,-0.0001640507821164263,9.569111287098505e-05,7.818232974746393e-06,4.0043673304341266e-05,6.8571,5.8571
1.78515625,-0.00016064247739986263,8.202558779888617e-05,-1.1710868458075764e-05,3.8589894041352025e-05,6.8571,5.8571
1.7890625,-0.00017039895156481264,0.0001025238754070345,5.469453765468842e-05,3.808914785076684e-05,6.8571,5.8571
1.79296875,-0.00018601900209048593,0.00011669014666971855,0.00012156838375219357,4.102901258258953e-05,6.8571,5.8571
1.796875,-0.00020701803588921944,0.00013476546883955148,5.0300893659876476e-05,3.077179222705432e-05,6.8571,5.8571
1.80078125,-0.00020506351043564502,0.0001181600790356299,-2.928544443732349e-05,2.7848080598153736e-05,6.8571,5.8571
1.8046875,-0.00021483613770351717,7.519282526283673e-05,-6.832631375600755e-06,3.028719913939124e-05,6.8571,5.8571
1.80859375,-0.0002182605955230029,7.420748598458847e-05,3.321091076829183e-05,1.1727283881895247e-05,6.8571,5.8571
1.8125,-0.00023095693441977568,9.66764521492333e-05,1.2696470057221403e-05,5.863707521171967e-06,6.8571,5.8571
1.81640625,-0.0002504860358525978,9.373658741741062e-05,4.883096129396513e-05,3.6635368587777606e-05,6.8571,5.8571
1.8203125,-0.0002446224594918745,9.911557069047083e-05,9.520651978332197e-05,4.052826639200435e-05,6.8571,5.8571
1.82421875,-0.00024510705257953756,8.202558779888617e-05,2.9786452948806055e-05,2.3939029691004882e-05,6.8571,5.8571
1.828125,-0.0002343652391363393,6.251263946898612e-05,1.3197216247806587e-05,2.0514571871519107e-05,6.8571,5.8571
1.83203125,-0.00023631976458991373,6.884465581445037e-05,6.348300608835046e-06,2.9786452948806055e-05,6.8571,5.8571
1.8359375,-0.00023484983222400239,9.228280815442139e-05,2.1499911149767376e-05,3.711996167544068e-05,6.8571,5.8571
1.83984375,-0.00022166890023956657,0.00012206912994277876,7.372289289692538e-05,4.492191038681628e-05,6.8571,5.8571
1.84375,-0.00022019896787365523,0.00013281094338597705,6.396641873197535e-05,5.078548674753956e-05,6.8571,5.8571
1.84765625,-0.0002084879682551308,0.00010691751940184641,3.565002930952934e-05,3.6134622397192416e-05,6.8571,5.8571
1.8515625,-0.0001796869857450217,8.251018088654925e-05,4.151360567025261e-05,3.516543622186626e-05,6.8571,5.8571
1.85546875,-0.00018992805299763478,8.299477397421233e-05,1.709011405203334e-05,6.104270710307477e-05,6.8571,5.8571
1.859375,-0.00020701803588921944,0.00011669014666971855,3.909182067597541e-06,6.543635109788671e-05,6.8571,5.8571
1.86328125,-0.00018992805299763478,0.00012547743465934243,7.275370672159922e-05,4.98163005722134e-05,6.8571,5.8571
1.8671875,-0.0002075187820798046,8.788916415960945e-05,5.1770826025787823e-05,4.346813112382704e-05,6.8571,5.8571
1.87109375,-0.00023875888313115126,9.813023141222257e-05,1.6605520964370257e-05,2.6378148232242386e-05,6.8571,5.8571
1.875,-0.00022900240896620122,0.0001020392823193714,3.2241724592965664e-05,1.612092787670718e-05,6.8571,5.8571
1.87890625,-0.00021775984933241772,0.00010058550305638218,2.4554028046082974e-06,3.6134622397192416e-05,6.8571,5.8571
1.8828125,-0.0002075187820798046,7.860112997940041e-05,2.0514571871519107e-05,6.007352092774861e-05,6.8571,5.8571
1.88671875,-0.00017577793483787284,9.325199432974755e-05,8.39801132524606e-05,8.690382488136118e-05,6.8571,5.8571
1.890625,-0.00017235347701838707,0.0001494001800869765,0.00010302462159761967,9.66764521492333e-05,6.8571,5.8571
1.89453125,-0.00018357988354924845,0.00015038551936522477,0.0001074182655924316,8.494929942778677e-05,6.8571,5.8571
1.8984375,-0.00019091339227588302,0.0001386583666437782,6.981384198977653e-05,7.225296053101403e-05,6.8571,5.8571
1.90234375,-0.00020213979880674446,0.00016649016297856116,4.492191038681628e-05,6.834390962386518e-05,6.8571,5.8571
1.90625,-0.0002036097311726558,0.00014355275682917534,7.664660452582597e-05,8.007106234531175e-05,6.8571,5.8571
1.91015625,-0.0002080033751674677,0.00013720458738078898,7.811653689173732e-05,9.813023141222257e-05,6.8571,5.8571
1.9140625,-0.00022166890023956657,0.00012011460448920433,6.690628346379805e-05,9.032828270084695e-05,6.8571,5.8571
1.91796875,-0.0002534097474814984,6.251263946898612e-05,7.616201143816288e-05,7.469207907225154e-05,6.8571,5.8571
1.921875,-0.0002700151372854199,5.469453765468842e-05,6.495175801022362e-05,6.739087655146113e-05,6.8571,5.8571
1.92578125,-0.0002441378664042114,8.007106234531175e-05,5.7618249283589e-05,5.22554191134509e-05,6.8571,5.8571
1.9296875,-0.00022313883260547792,0.00011132731649958046,4.7377182030975895e-05,5.1770826025787823e-05,6.8571,5.8571
1.93359375,-0.00024363712021362624,0.00011572096049439239,7.519282526283673e-05,5.3224605288777065e-05,6.8571,5.8571
1.9375,-0.0002475461711207751,5.8118995474174184e-05,0.00010838745176775776,4.492191038681628e-05,6.8571,5.8571
1.94140625,-0.00024119800167238877,4.151360567025261e-05,6.981384198977653e-05,3.174097840238048e-05,6.8571,5.8571
1.9453125,-0.00023095693441977568,8.104024852063792e-05,3.418009694361799e-05,3.12563853147174e-05,6.8571,5.8571
1.94921875,-0.0001977461548119325,6.592094418554978e-05,5.8118995474174184e-05,4.0043673304341266e-05,6.8571,5.8571
1.953125,-0.00019091339227588302,8.39801132524606e-05,0.0001020392823193714,5.616447002059976e-05,6.8571,5.8571
1.95703125,-0.00019823074789959558,5.664906310826284e-05,7.176836744335097e-05,6.592094418554978e-05,6.8571,5.8571
1.9609375,-0.00020604884971389326,2.7347334407568552e-05,5.860358856183727e-05,5.274001220111398e-05,6.8571,5.8571
1.96484375,-0.00022265423951781484,2.0514571871519107e-05,5.9572774737163425e-05,3.760455476310376e-05,6.8571,5.8571
1.96875,-0.00024901610348668647,4.590724966506455e-05,3.907448712901511e-05,2.9301859861142977e-05,6.8571,5.8571
1.97265625,-0.00024315252712596314,6.592094418554978e-05,7.664660452582597e-05,3.955908021667819e-05,6.8571,5.8571
1.9765625,-0.00023289530677042796,5.274001220111398e-05,7.372289289692538e-05,4.3952724211490116e-05,6.8571,5.8571
1.98046875,-0.00020995790062104214,5.616447002059976e-05,5.8118995474174184e-05,4.786177511863897e-05,6.8571,5.8571
1.984375,-0.0001630815959411001,3.077179222705432e-05,7.908572306706348e-05,6.348182564431228e-05,6.8571,5.8571
1.98828125,-0.00015282437558556493,2.7347334407568552e-05,0.00010155468923170832,7.128377435568788e-05,6.8571,5.8571
1.9921875,-0.0001450062737712672,6.932924890211347e-05,0.00012547743465934243,7.176836744335097e-05,6.8571,5.8571
1.99609375,-0.0001269471047043564,5.664906310826284e-05,0.00014256741755092707,6.348182564431228e-05,6.8571,5.8571
2.0,-0.00013865810432288085,-1.6104512452887704e-05,7.029843507743962e-05,5.420994456702533e-05,6.8571,5.8571
2.00390625,-0.00014990066395666432,-3.319449534447234e-05,8.302826062409473e-06,4.492191038681628e-05,6.8571,5.8571
2.0078125,-0.00013524979960631716,-3.408173556114974e-06,8.803572252994655e-06,3.6635368587777606e-05,6.8571,5.8571
2.01171875,-0.0001376889181475547,-3.367908843213543e-05,2.9786452948806055e-05,2.1984504237430457e-05,6.8571,5.8571
2.015625,-0.00015086985013199047,-6.005710550392913e-05,-9.69055014877469e-07,4.409928258182723e-06,6.8571,5.8571
2.01953125,-0.00014208256214236662,-3.7103546251621194e-05,-2.0013563360036555e-05,-4.844619272143973e-07,6.8571,5.8571
2.0234375,-0.00011132705417868308,-3.172456297856101e-05,-3.9058071705195625e-05,-1.414998699931327e-05,6.8571,5.8571
2.02734375,-9.081261346761266e-05,-4.9315292060730836e-05,-4.9315292060730836e-05,-2.5877139720759827e-05,6.8571,5.8571
2.03125,-0.00010447813853971155,-3.611820697337293e-05,-4.979988514839392e-05,-3.661895316395812e-05,6.8571,5.8571
2.03515625,-0.00011034171490043482,-4.979988514839392e-05,-6.590452876173032e-05,-4.9315292060730836e-05,6.8571,5.8571
2.0390625,-9.325173200885017e-05,-8.837349492637514e-05,-6.151088476691837e-05,-6.590452876173032e-05,6.8571,5.8571
2.04296875,-8.641896947280074e-05,-4.345171570000757e-05,-8.494903710688938e-05,-7.372263057602802e-05,6.8571,5.8571
2.046875,-9.472166437476152e-05,3.955908021667819e-05,-7.811627457083995e-05,-6.249622404516662e-05,6.8571,5.8571
2.05078125,-9.520625746242459e-05,3.955908021667819e-05,-5.1754410601968346e-05,-4.686002041657123e-05,6.8571,5.8571
2.0546875,-9.032802037994958e-05,1.9044639505607767e-05,-1.414998699931327e-05,-5.0284478236057e-05,6.8571,5.8571
2.05859375,-7.567715602960242e-05,3.077179222705432e-05,1.6605520964370257e-05,-5.125366441138317e-05,6.8571,5.8571
2.0625,-8.984342729228649e-05,3.369550385595491e-05,5.863707521171967e-06,-3.563361388570986e-05,6.8571,5.8571
2.06640625,-9.373632509651324e-05,6.543635109788671e-05,1.3197216247806587e-05,-1.7574444818799038e-05,6.8571,5.8571
2.0703125,-6.785905421530472e-05,7.958646925764867e-05,3.8589894041352025e-05,3.909182067597541e-06,6.8571,5.8571
2.07421875,-8.055539311207744e-05,3.808914785076684e-05,1.3681809335469672e-05,-5.362699009689407e-06,6.8571,5.8571
2.078125,-0.00011717447743648427,-1.7574444818799038e-05,-2.245268190127406e-05,-3.661895316395812e-05,6.8571,5.8571
2.08203125,-0.00012059893525597004,-5.847292097352493e-06,-2.928544443732349e-05,-4.198178333409622e-05,6.8571,5.8571
2.0859375,-0.00011034171490043482,5.078548674753956e-05,-2.5877139720759827e-05,-3.9058071705195625e-05,6.8571,5.8571
2.08984375,-0.00010399354545204846,7.908572306706348e-05,1.8075453330281604e-05,-3.857347861753254e-05,6.8571,5.8571
2.09375,-0.00010008449454489959,9.325199432974755e-05,5.8118995474174184e-05,-2.440720735484848e-05,6.8571,5.8571
2.09765625,-0.00010203901999847403,8.39801132524606e-05,4.248279184557877e-05,5.863707521171967e-06,6.8571,5.8571
2.1015625,-9.81299690913252e-05,7.323829980926232e-05,2.7347334407568552e-05,7.818232974746393e-06,6.8571,5.8571
2.10546875,-0.00010985712181277173,8.593463870603502e-05,5.420994456702533e-05,-2.9235804684519024e-06,6.8571,5.8571
2.109375,-0.00011815981671473252,6.981384198977653e-05,5.1770826025787823e-05,-8.286410638589999e-06,6.8571,5.8571
2.11328125,-9.716078291599901e-05,9.520651978332197e-05,2.9301859861142977e-05,2.4554028046082974e-06,6.8571,5.8571
2.1171875,-0.00010937252872510864,9.472192669565889e-05,2.002997878385603e-05,3.909182067597541e-06,6.8571,5.8571
2.12109375,-0.00013134074869916834,6.981384198977653e-05,3.424588979934462e-06,9.288165340657742e-06,6.8571,5.8571
2.125,-0.00013182534178683141,7.958646925764867e-05,3.6134622397192416e-05,2.9301859861142977e-05,6.8571,5.8571
2.12890625,-0.00014355249450827796,0.00010058550305638218,6.690628346379805e-05,2.3939029691004882e-05,6.8571,5.8571
2.1328125,-0.00014599161304951547,0.00010058550305638218,6.543635109788671e-05,5.379114433508888e-06,6.8571,5.8571
2.13671875,-0.00012841703707026775,9.71610452368964e-05,8.007106234531175e-05,1.470063526360036e-06,6.8571,5.8571
2.140625,-0.00011181164726634617,0.0001098573841336691,9.472192669565889e-05,1.5636334789044097e-05,6.8571,5.8571
2.14453125,-9.911530836957345e-05,0.0001098573841336691,7.811653689173732e-05,1.954538569619295e-05,6.8571,5.8571
2.1484375,-0.00010693341018387115,0.00011767548594796682,5.9572774737163425e-05,3.909182067597541e-06,6.8571,5.8571
2.15234375,-0.00012255346070954445,0.0001020392823193714,9.911557069047083e-05,-3.89276664377806e-06,6.8571,5.8571
2.15625,-0.00011521995198290983,0.00012059919757686741,0.0001127810957625697,8.302826062409473e-06,6.8571,5.8571
2.16015625,-0.00010350895236438538,0.00014256741755092707,5.713365619592592e-05,2.4908215866331045e-05,6.8571,5.8571
2.1640625,-0.0001005852407354848,0.00017479285788052194,6.592094418554978e-05,2.7347334407568552e-05,6.8571,5.8571
2.16796875,-9.911530836957345e-05,0.00016892928151979866,0.0001074182655924316,1.6605520964370257e-05,6.8571,5.8571
2.171875,-9.472166437476152e-05,8.738841796902427e-05,4.492191038681628e-05,5.379114433508888e-06,6.8571,5.8571
2.17578125,-0.00010203901999847403,6.884465581445037e-05,1.709011405203334e-05,-1.9382411902036407e-06,6.8571,5.8571
2.1796875,-0.00011425076580758366,7.811653689173732e-05,4.933170748455032e-05,-4.393512834363249e-06,6.8571,5.8571
2.18359375,-0.00011668988434882118,5.860358856183727e-05,1.470063526360036e-06,-2.1968088813610973e-05,6.8571,5.8571
2.1875,-0.00010497888473029672,5.908818164950035e-05,-3.954266479285872e-05,-2.9770037524986575e-05,6.8571,5.8571
2.19140625,-9.129720655527575e-05,8.738841796902427e-05,-7.3172244632638265e-06,-1.0741682282749608e-05,6.8571,5.8571
2.1953125,-9.423707128709844e-05,0.00011132731649958046,2.8817266773479892e-05,-9.69055014877469e-07,6.8571,5.8571
2.19921875,-8.299451165331496e-05,0.00013281094338597705,6.396641873197535e-05,1.2211876969558325e-05,6.8571,5.8571
2.203125,-7.519256294193937e-05,0.00014599187537041284,8.202558779888617e-05,1.954538569619295e-05,6.8571,5.8571
2.20703125,-8.007080002441438e-05,0.00012059919757686741,5.078548674753956e-05,7.333639887083315e-06,6.8571,5.8571
2.2109375,-7.95862069367513e-05,0.00011132731649958046,4.151360567025261e-05,1.954656614023108e-06,6.8571,5.8571
2.21484375,-7.616174911726551e-05,0.0001313410110200657,0.0001020392823193714,1.954538569619295e-05,6.8571,5.8571
2.21875,-7.908546074616612e-05,0.00012011460448920433,0.00011572096049439239,2.7848080598153736e-05,6.8571,5.8571
2.22265625,-9.911530836957345e-05,9.373658741741062e-05,7.225296053101403e-05,1.3681809335469672e-05,6.8571,5.8571
2.2265625,-0.00011620529126115808,0.0001020392823193714,4.102901258258953e-05,-4.844619272143973e-07,6.8571,5.8571
2.23046875,-0.00013134074869916834,0.0001386583666437782,6.884465581445037e-05,-1.6589105540550776e-05,6.8571,5.8571
2.234375,-0.00015624883340505067,0.00014159823137560088,8.34955201647975e-05,-2.8316258261997333e-05,6.8571,5.8571
2.23828125,-0.00016112707048752568,0.00012694736702525375,6.932924890211347e-05,-3.367908843213543e-05,6.8571,5.8571
2.2421875,-0.00012938622324559388,0.00014061289209735264,8.593463870603502e-05,-2.733091898374907e-05,6.8571,5.8571
2.24609375,-9.617544363775076e-05,0.0001264627739375907,9.129746887617312e-05,-1.8543630994125208e-05,6.8571,5.8571
2.25,-9.423707128709844e-05,0.00011669014666971855,0.00011132731649958046,-7.801817550926912e-06,6.8571,5.8571
2.25390625,-9.81299690913252e-05,0.00014843099391165037,0.00013426472264896632,1.0257351515983898e-05,6.8571,5.8571
2.2578125,-0.00010106983382314789,0.00014305201063859015,7.908572306706348e-05,1.954656614023108e-06,6.8571,5.8571
2.26171875,-0.00011668988434882118,0.00013231019719539186,5.0300893659876476e-05,-2.438987380788816e-06,6.8571,5.8571
2.265625,-0.00012255346070954445,0.00015574834953536288,8.641923179369811e-05,-1.9382411902036407e-06,6.8571,5.8571
2.26953125,-0.0001240233930754558,0.0001733390786175327,0.0001259620277470055,5.008773510338784e-07,6.8571,5.8571
2.2734375,-0.00011425076580758366,0.00016259726517433442,0.00014061289209735264,1.5636334789044097e-05,6.8571,5.8571
2.27734375,-8.934268110170131e-05,0.00016405104443732366,0.0001020392823193714,2.4908215866331045e-05,6.8571,5.8571
2.28125,-8.202532547798879e-05,0.00017527745096818502,6.396641873197535e-05,2.2469097325093535e-05,6.8571,5.8571
2.28515625,-9.178179964293883e-05,0.00013281094338597705,6.201189327840093e-05,1.5151741701381012e-05,6.8571,5.8571
2.2890625,-8.103998619974052e-05,0.0001313410110200657,9.276740124208447e-05,2.6378148232242386e-05,6.8571,5.8571
2.29296875,-3.5149020798046775e-05,0.00018212636660715656,0.00015868821426718557,5.274001220111398e-05,6.8571,5.8571
2.296875,-2.3421868076600218e-05,0.00017088380697337312,0.00013720458738078898,4.98163005722134e-05,6.8571,5.8571
2.30078125,-5.907176622568087e-05,0.00013768918046845206,7.275370672159922e-05,3.321091076829183e-05,6.8571,5.8571
2.3046875,-6.445074949874106e-05,0.0001743082647928589,5.860358856183727e-05,1.612092787670718e-05,6.8571,5.8571
2.30859375,-5.5663461509117196e-05,0.00014403734991683841,6.152730019073785e-05,7.818232974746393e-06,6.8571,5.8571
2.3125,-6.737446112764167e-05,0.00011620555358205547,9.764563832455947e-05,1.465099551079583e-05,6.8571,5.8571
2.31640625,-6.590452876173032e-05,0.0001845654851483941,0.0001313410110200657,2.5392808953994127e-05,6.8571,5.8571
2.3203125,-6.395000330815588e-05,0.00018748919677729467,0.0001049791470511941,2.7848080598153736e-05,6.8571,5.8571
2.32421875,-6.346541022049279e-05,0.0001762627902464333,9.373658741741062e-05,2.442362277866796e-05,6.8571,5.8571
2.328125,-4.8814545870145645e-05,0.00020556451894712758,0.0001547791633600367,4.0043673304341266e-05,6.8571,5.8571
2.33203125,-4.002725788052179e-05,0.00020556451894712758,0.00014891558699931342,4.492191038681628e-05,6.8571,5.8571
2.3359375,-3.857347861753254e-05,0.00016112733280842308,7.714735071641115e-05,3.760455476310376e-05,6.8571,5.8571
2.33984375,-4.979988514839392e-05,0.00012206912994277876,5.078548674753956e-05,3.174097840238048e-05,6.8571,5.8571
2.34375,-7.811627457083995e-05,8.251018088654925e-05,3.028719913939124e-05,1.8560046417944682e-05,6.8571,5.8571
2.34765625,-7.176810512245358e-05,7.07991812680248e-05,2.1499911149767376e-05,1.3681809335469672e-05,6.8571,5.8571
2.3515625,-6.590452876173032e-05,0.00010302462159761967,2.9786452948806055e-05,1.3116044868866083e-10,6.8571,5.8571
2.35546875,-7.567715602960242e-05,9.863097760280774e-05,5.078548674753956e-05,-5.362699009689407e-06,6.8571,5.8571
2.359375,-8.202532547798879e-05,4.7377182030975895e-05,2.4908215866331045e-05,-6.832631375600755e-06,6.8571,5.8571
2.36328125,-9.667618982833593e-05,4.883096129396513e-05,-2.438987380788816e-06,-9.69055014877469e-07,6.8571,5.8571
2.3671875,-9.959990145723654e-05,7.616201143816288e-05,1.1727283881895247e-05,1.1727283881895247e-05,6.8571,5.8571
2.37109375,-9.617544363775076e-05,7.372289289692538e-05,3.8589894041352025e-05,1.2696470057221403e-05,6.8571,5.8571
2.375,-0.00010497888473029672,9.764563832455947e-05,6.884465581445037e-05,1.4166402423132752e-05,6.8571,5.8571
2.37890625,-0.00010937252872510864,0.00010155468923170832,5.860358856183727e-05,2.2469097325093535e-05,6.8571,5.8571
2.3828125,-0.00010838718944686038,5.3224605288777065e-05,4.443731729915321e-05,1.954538569619295e-05,6.8571,5.8571
2.38671875,-0.00011278083344167234,5.7618249283589e-05,5.274001220111398e-05,6.348300608835046e-06,6.8571,5.8571
2.390625,-9.959990145723654e-05,8.88583503349356e-05,6.642169037613497e-05,7.818232974746393e-06,6.8571,5.8571
2.39453125,-9.27671389211871e-05,7.714735071641115e-05,5.9572774737163425e-05,5.379114433508888e-06,6.8571,5.8571
2.3984375,-7.714708839551377e-05,7.860112997940041e-05,4.443731729915321e-05,4.894521345845802e-06,6.8571,5.8571
2.40234375,-4.736076660715642e-05,6.785931653620212e-05,3.565002930952934e-05,1.612092787670718e-05,6.8571,5.8571
2.40625,-3.367908843213543e-05,7.128377435568788e-05,6.543635109788671e-05,2.002997878385603e-05,6.8571,5.8571
2.41015625,-3.661895316395812e-05,8.202558779888617e-05,0.00010937279104600602,2.4554028046082974e-06,6.8571,5.8571
2.4140625,-5.907176622568087e-05,3.6635368587777606e-05,0.00011620555358205547,-1.5619919365224616e-05,6.8571,5.8571
2.41796875,-7.95862069367513e-05,2.9786452948806055e-05,9.911557069047083e-05,-1.902822408178828e-05,6.8571,5.8571
2.421875,-8.349525784390013e-05,5.22554191134509e-05,7.811653689173732e-05,-1.8543630994125208e-05,6.8571,5.8571
2.42578125,-7.029817275654224e-05,5.8118995474174184e-05,8.93429434225987e-05,-7.801817550926912e-06,6.8571,5.8571
2.4296875,-6.590452876173032e-05,7.323829980926232e-05,0.00010790285868009469,-1.9382411902036407e-06,6.8571,5.8571
2.43359375,-5.370893605554278e-05,0.0001020392823193714,0.00011912926521095605,1.6605520964370257e-05,6.8571,5.8571
2.4375,-1.902822408178828e-05,8.15409947112231e-05,0.00012890189247882818,4.298353803616396e-05,6.8571,5.8571
2.44140625,-1.0240936092164417e-05,4.199819875791569e-05,0.0001313410110200657,5.274001220111398e-05,6.8571,5.8571
2.4453125,-2.5877139720759827e-05,4.3952724211490116e-05,0.00013035567174181744,4.542265657740147e-05,6.8571,5.8571
2.44921875,-3.9058071705195625e-05,8.007106234531175e-05,0.00012743196011291686,3.321091076829183e-05,6.8571,5.8571
2.453125,-1.8059037906462123e-05,0.00012059919757686741,0.00015135470554055092,4.346813112382704e-05,6.8571,5.8571
2.45703125,-2.9235804684519024e-06,0.00011132731649958046,0.00015379382408178843,6.348182564431228e-05,6.8571,5.8571
2.4609375,-2.5376393530174653e-05,0.0001074182655924316,0.00012694736702525375,6.446716492256054e-05,6.8571,5.8571
2.46484375,-5.223900368963143e-05,0.0001025238754070345,9.617570595864813e-05,4.786177511863897e-05,6.8571,5.8571
2.46875,-5.223900368963143e-05,7.714735071641115e-05,0.00010155468923170832,4.199819875791569e-05,6.8571,5.8571
2.47265625,-4.8814545870145645e-05,6.834390962386518e-05,0.00010594833322652027,3.907448712901511e-05,6.8571,5.8571
2.4765625,-6.688986803997858e-05,3.565002930952934e-05,9.325199432974755e-05,2.1984504237430457e-05,6.8571,5.8571
2.48046875,-6.737446112764167e-05,3.369550385595491e-05,9.569111287098505e-05,3.760455476310376e-05,6.8571,5.8571
2.484375,-3.857347861753254e-05,8.446470634012368e-05,0.00013231019719539186,6.152730019073785e-05,6.8571,5.8571
2.48828125,-4.002725788052179e-05,0.00010107009614404525,0.00014012829900968954,4.6391842752727626e-05,6.8571,5.8571
2.4921875,-5.27235967772945e-05,9.66764521492333e-05,0.00012890189247882818,3.6134622397192416e-05,6.8571,5.8571
2.49609375,-4.4420901875333724e-05,9.813023141222257e-05,0.00011572096049439239,2.6378148232242386e-05,6.8571,5.8571
2.5,-4.686002041657123e-05,7.275370672159922e-05,9.325199432974755e-05,1.0257351515983898e-05,6.8571,5.8571
2.50390625,-6.395000330815588e-05,6.007352092774861e-05,8.88583503349356e-05,5.863707521171967e-06,6.8571,5.8571
2.5078125,-6.640527495231548e-05,7.176836744335097e-05,0.00011961385829861914,4.409928258182723e-06,6.8571,5.8571
2.51171875,-6.834364730296781e-05,6.739087655146113e-05,0.00015282463790646227,7.818232974746393e-06,6.8571,5.8571
2.515625,-6.640527495231548e-05,6.981384198977653e-05,0.00014550728228274976,1.8075453330281604e-05,6.8571,5.8571
2.51953125,-4.1497190246433135e-05,4.687643584039071e-05,0.0001049791470511941,2.9301859861142977e-05,6.8571,5.8571
2.5234375,-4.101259715877005e-05,4.6391842752727626e-05,5.8118995474174184e-05,1.2211876969558325e-05,6.8571,5.8571
2.52734375,-5.125366441138317e-05,6.543635109788671e-05,6.201189327840093e-05,9.854704386969502e-07,6.8571,5.8571
2.53125,-6.785905421530472e-05,7.714735071641115e-05,9.71610452368964e-05,1.5151741701381012e-05,6.8571,5.8571
2.53515625,-9.178179964293883e-05,6.201189327840093e-05,0.00012450824848401625,1.709011405203334e-05,6.8571,5.8571
2.5390625,-7.763168148317686e-05,5.22554191134509e-05,9.911557069047083e-05,2.1984504237430457e-05,6.8571,5.8571
2.54296875,-4.5406241153581986e-05,8.543389251544983e-05,0.00010594833322652027,4.298353803616396e-05,6.8571,5.8571
2.546875,-4.0511850968184873e-05,8.738841796902427e-05,0.00010790285868009469,3.418009694361799e-05,6.8571,5.8571
2.55078125,-5.320818986495759e-05,6.739087655146113e-05,8.494929942778677e-05,2.34382835004197e-05,6.8571,5.8571
2.5546875,-5.614805459678028e-05,9.472192669565889e-05,0.00012156838375219357,2.8817266773479892e-05,6.8571,5.8571
2.55859375,-5.370893605554278e-05,0.00010302462159761967,0.00012938648556649126,2.4908215866331045e-05,6.8571,5.8571
2.5625,-4.589083424124507e-05,9.228280815442139e-05,0.0001279165532005799,3.272631768062874e-05,6.8571,5.8571
2.56640625,-4.0511850968184873e-05,0.00011620555358205547,0.00015234004481879922,4.590724966506455e-05,6.8571,5.8571
2.5703125,-4.393630878767064e-05,0.00014012829900968954,0.00014550728228274976,4.687643584039071e-05,6.8571,5.8571
2.57421875,-4.0511850968184873e-05,0.00014550728228274976,0.00013476546883955148,3.955908021667819e-05,6.8571,5.8571
2.578125,-5.0769071323720084e-05,0.00013035567174181744,0.00013231019719539186,1.7590860242618525e-05,6.8571,5.8571
2.58203125,-6.395000330815588e-05,0.0001259620277470055,0.00010546374013885719,1.954538569619295e-05,6.8571,5.8571
2.5859375,-5.760183385976952e-05,0.00011425102812848104,8.690382488136118e-05,3.760455476310376e-05,6.8571,5.8571
2.58984375,-5.5663461509117196e-05,0.00012059919757686741,0.000123522909205768,4.151360567025261e-05,6.8571,5.8571
2.59375,-7.469181675135416e-05,0.00012108379066453048,0.0001337801295613032,2.6378148232242386e-05,6.8571,5.8571
2.59765625,-8.641896947280074e-05,6.932924890211347e-05,8.788916415960945e-05,6.849046799420229e-06,6.8571,5.8571
2.6015625,-8.397985093156321e-05,4.492191038681628e-05,6.251263946898612e-05,-2.9235804684519024e-06,6.8571,5.8571
2.60546875,-7.95862069367513e-05,3.369550385595491e-05,5.8118995474174184e-05,-9.27174991683826e-06,6.8571,5.8571
2.609375,-5.223900368963143e-05,6.690628346379805e-05,9.129746887617312e-05,-4.393512834363249e-06,6.8571,5.8571
2.61328125,-3.611820697337293e-05,0.00010447840086060892,0.00012987107865415436,1.0758097706569082e-05,6.8571,5.8571
2.6171875,-2.7831665174334262e-05,9.42373336079958e-05,0.00010691751940184641,1.1242690794232167e-05,6.8571,5.8571
2.62109375,-2.0013563360036555e-05,7.714735071641115e-05,5.664906310826284e-05,1.5151741701381012e-05,6.8571,5.8571
2.625,-2.0013563360036555e-05,5.908818164950035e-05,7.176836744335097e-05,2.3939029691004882e-05,6.8571,5.8571
2.62890625,-3.367908843213543e-05,7.567741835049982e-05,0.00011181190958724354,2.2469097325093535e-05,6.8571,5.8571
2.6328125,-5.4678122230868934e-05,0.00010008475686579699,0.00010447840086060892,1.709011405203334e-05,6.8571,5.8571
2.63671875,-5.663264768444335e-05,6.981384198977653e-05,8.788916415960945e-05,1.3681809335469672e-05,6.8571,5.8571
2.640625,-6.445074949874106e-05,1.954538569619295e-05,6.104270710307477e-05,5.379114433508888e-06,6.8571,5.8571
2.64453125,-7.372263057602802e-05,2.002997878385603e-05,4.7377182030975895e-05,-1.122627537041268e-05,6.8571,5.8571
2.6484375,-8.299451165331496e-05,1.709011405203334e-05,4.834636820630206e-05,-1.6104512452887704e-05,6.8571,5.8571
2.65234375,-9.373632509651324e-05,2.4908215866331045e-05,4.687643584039071e-05,-1.6589105540550776e-05,6.8571,5.8571
2.65625,-6.493534258640414e-05,6.785931653620212e-05,5.1770826025787823e-05,-9.27174991683826e-06,6.8571,5.8571
2.66015625,-2.5376393530174653e-05,7.275370672159922e-05,2.442362277866796e-05,3.424588979934462e-06,6.8571,5.8571
2.6640625,-1.122627537041268e-05,6.007352092774861e-05,3.12563853147174e-05,1.612092787670718e-05,6.8571,5.8571
2.66796875,-1.3665393911650198e-05,8.251018088654925e-05,5.8118995474174184e-05,2.0999164959182195e-05,6.8571,5.8571
2.671875,-1.2195461545738851e-05,0.00010643292631418334,7.664660452582597e-05,1.1727283881895247e-05,6.8571,5.8571
2.67578125,1.3116044868866083e-10,9.373658741741062e-05,6.932924890211347e-05,4.894521345845802e-06,6.8571,5.8571
2.6796875,-9.27174991683826e-06,0.0001098573841336691,6.055811401541169e-05,3.424588979934462e-06,6.8571,5.8571
2.68359375,-2.928544443732349e-05,0.00011717473975738164,5.713365619592592e-05,6.348300608835046e-06,6.8571,5.8571
2.6875,-7.3172244632638265e-06,8.299477397421233e-05,6.592094418554978e-05,5.863707521171967e-06,6.8571,5.8571
2.69140625,9.854704386969502e-07,9.520651978332197e-05,7.420748598458847e-05,7.818232974746393e-06,6.8571,5.8571
2.6953125,2.295369041275662e-05,0.00010643292631418334,4.590724966506455e-05,2.0999164959182195e-05,6.8571,5.8571
2.69921875,5.372535147936225e-05,0.00011082657030899529,5.5679876932936674e-05,3.2241724592965664e-05,6.8571,5.8571
2.703125,6.007352092774861e-05,0.00014061289209735264,7.225296053101403e-05,4.3952724211490116e-05,6.8571,5.8571
2.70703125,5.5179130742351497e-05,0.00011132731649958046,5.420994456702533e-05,3.907448712901511e-05,6.8571,5.8571
2.7109375,6.592094418554978e-05,0.00011572096049439239,7.029843507743962e-05,3.12563853147174e-05,6.8571,5.8571
2.71484375,0.00010643292631418334,0.00015673368881361112,0.00013329553647364013,5.420994456702533e-05,6.8571,5.8571
2.71875,0.00012743196011291686,0.00014550728228274976,0.00010058550305638218,5.7618249283589e-05,6.8571,5.8571
2.72265625,0.00012547743465934243,0.00013426472264896632,2.7848080598153736e-05,4.687643584039071e-05,6.8571,5.8571
2.7265625,0.0001230383161181049,0.00010350921468528275,4.3952724211490116e-05,3.8589894041352025e-05,6.8571,5.8571
2.73046875,0.00011473562121614412,0.0001025238754070345,6.251263946898612e-05,2.6378148232242386e-05,6.8571,5.8571
2.734375,9.42373336079958e-05,0.000123522909205768,6.981384198977653e-05,3.2241724592965664e-05,6.8571,5.8571
2.73828125,9.71610452368964e-05,0.00010302462159761967,8.641923179369811e-05,2.6378148232242386e-05,6.8571,5.8571
2.7421875,0.00013035567174181744,9.520651978332197e-05,7.567741835049982e-05,2.1499911149767376e-05,6.8571,5.8571
2.74609375,0.00014843099391165037,0.0001049791470511941,4.298353803616396e-05,2.1499911149767376e-05,6.8571,5.8571
2.75,0.00016552097680323498,0.00010546374013885719,5.5179130742351497e-05,2.0999164959182195e-05,6.8571,5.8571
2.75390625,0.0001743082647928589,7.029843507743962e-05,7.811653689173732e-05,2.5893555144579307e-05,6.8571,5.8571
2.7578125,0.00019823101022049296,4.7377182030975895e-05,6.104270710307477e-05,2.1499911149767376e-05,6.8571,5.8571
2.76171875,0.00023045645055008783,5.469453765468842e-05,4.298353803616396e-05,2.7848080598153736e-05,6.8571,5.8571
2.765625,0.00023535084073548495,4.542265657740147e-05,5.9572774737163425e-05,3.955908021667819e-05,6.8571,5.8571
2.76953125,0.0002290026712870986,2.9301859861142977e-05,6.785931653620212e-05,3.369550385595491e-05,6.8571,5.8571
2.7734375,0.00018797378986495775,-1.3665393911650198e-05,3.077179222705432e-05,-9.69055014877469e-07,6.8571,5.8571
2.77734375,0.00016649016297856116,-6.493534258640414e-05,8.302826062409473e-06,-1.6104512452887704e-05,6.8571,5.8571
2.78125,0.0001997009425864043,-6.346541022049279e-05,-4.296712261234448e-05,-1.3180800823987113e-05,6.8571,5.8571
2.78515625,0.00023094104363775093,-7.176810512245358e-05,-6.981357966887916e-05,-1.7574444818799038e-05,6.8571,5.8571
2.7890625,0.00022410828110170148,-9.81299690913252e-05,-6.541993567406723e-05,-2.928544443732349e-05,6.8571,5.8571
2.79296875,0.00020945741675135434,-0.0001323099348744945,-7.079891894712741e-05,-3.954266479285872e-05,6.8571,5.8571
2.796875,0.00021923004401922647,-0.0001640507821164263,-0.0001054634778179598,-2.8800851349660418e-05,6.8571,5.8571
2.80078125,0.00022948726437476167,-0.00016844442611123822,-0.0001552634941268024,-4.393512834363249e-06,6.8571,5.8571
2.8046875,0.0002504862981734952,-0.00015917254503395128,-0.0001479461385030899,1.3197216247806587e-05,6.8571,5.8571
2.80859375,0.0002788026875959412,-0.0001796869857450217,-0.00014939991776607913,3.272631768062874e-05,6.8571,5.8571
2.8125,0.00027733275523002986,-0.00021239701916227964,-0.00017773246029144726,4.102901258258953e-05,6.8571,5.8571
2.81640625,0.00026512100942092026,-0.00024853151039902336,-0.00018309529046158535,4.542265657740147e-05,6.8571,5.8571
2.8203125,0.00023827455236438556,-0.00024609239185778586,-0.00018261069737392227,4.933170748455032e-05,6.8571,5.8571
2.82421875,0.00022753273892118725,-0.00023289530677042796,-0.00019627622244602116,4.298353803616396e-05,6.8571,5.8571
2.828125,0.00020360999349355315,-0.00023095693441977568,-0.00019139798536354613,3.028719913939124e-05,6.8571,5.8571
2.83203125,0.0001816256204165714,-0.00018114076500801092,-0.00014599161304951547,1.954538569619295e-05,6.8571,5.8571
2.8359375,0.00018017184115358214,-0.00015624883340505067,-0.0001235226468848706,2.0999164959182195e-05,6.8571,5.8571
2.83984375,0.0001762627902464333,-0.0001474453923125047,-0.00011767522362706943,2.34382835004197e-05,6.8571,5.8571
2.84375,0.000184080892060731,-9.178179964293883e-05,-8.690356256046382e-05,2.295369041275662e-05,6.8571,5.8571
2.84765625,0.00018212636660715656,-8.593437638513765e-05,-8.055539311207744e-05,5.863707521171967e-06,6.8571,5.8571
2.8515625,0.00017968724806591903,-8.788890183871209e-05,-5.711724077210644e-05,-4.8781059220263216e-06,6.8571,5.8571
2.85546875,0.00017674738333409637,-3.611820697337293e-05,-9.756343004501346e-06,1.3681809335469672e-05,6.8571,5.8571
2.859375,0.00016699090916914633,-2.2937274988937133e-05,-1.0240936092164417e-05,1.9044639505607767e-05,6.8571,5.8571
2.86328125,0.00018748919677729467,2.5392808953994127e-05,1.7590860242618525e-05,2.9301859861142977e-05,6.8571,5.8571
2.8671875,0.00021239728148317704,8.494929942778677e-05,7.275370672159922e-05,5.5679876932936674e-05,6.8571,5.8571
2.87109375,0.00020360999349355315,7.128377435568788e-05,0.00010790285868009469,4.7377182030975895e-05,6.8571,5.8571
2.875,0.00020067012876173046,7.469207907225154e-05,0.0001279165532005799,4.346813112382704e-05,6.8571,5.8571
2.87890625,0.00018748919677729467,0.00010008475686579699,0.0001391591128343634,4.492191038681628e-05,6.8571,5.8571
2.8828125,0.00016503638371557193,0.00010887204485542085,0.00010838745176775776,3.12563853147174e-05,6.8571,5.8571
2.88671875,0.0001913982476844435,0.0001259620277470055,0.00010594833322652027,2.3939029691004882e-05,6.8571,5.8571
2.890625,0.00022410828110170148,0.0001547791633600367,0.00014305201063859015,1.9044639505607767e-05,6.8571,5.8571
2.89453125,0.0002187454509315634,0.00013182560410772879,0.00011961385829861914,1.0257351515983898e-05,6.8571,5.8571
2.8984375,0.00020897282366369124,0.00011620555358205547,9.863097760280774e-05,4.409928258182723e-06,6.8571,5.8571
2.90234375,0.0002099581629419395,0.000151839298628214,0.0001025238754070345,2.002997878385603e-05,6.8571,5.8571
2.90625,0.00022557821346761282,0.00016259726517433442,0.00012156838375219357,3.6134622397192416e-05,6.8571,5.8571
2.91015625,0.00022509362037994974,0.00015818746807660038,0.00018212636660715656,4.542265657740147e-05,6.8571,5.8571
2.9140625,0.00021727551856565204,0.00019335277313801792,0.00019236743385976965,5.908818164950035e-05,6.8571,5.8571
2.91796875,0.0002260628065552759,0.00019091365459678045,0.00017968724806591903,7.029843507743962e-05,6.8571,5.8571
2.921875,0.00024853177271992073,0.00014012829900968954,0.00014355275682917534,6.884465581445037e-05,6.8571,5.8571
2.92578125,0.0002695308065186542,0.0001479464008239873,0.00012206912994277876,7.029843507743962e-05,6.8571,5.8571
2.9296875,0.0002763635690547037,0.00018212636660715656,0.00014550728228274976,6.495175801022362e-05,6.8571,5.8571
2.93359375,0.00029198361958037697,0.00020409458658121623,0.00016991462079804693,6.152730019073785e-05,6.8571,5.8571
2.9375,0.0002958926704875258,0.00020604911203479068,0.00016649016297856116,5.8118995474174184e-05,6.8571,5.8571
2.94140625,0.0002914990264927139,0.00017186914625162136,0.0001308564179324026,5.713365619592592e-05,6.8571,5.8571
2.9453125,0.0003085890093842986,0.00015965740044251173,0.00011376643504081798,5.274001220111398e-05,6.8571,5.8571
2.94921875,0.00032225453445639744,0.00016014199353017484,0.0001279165532005799,4.346813112382704e-05,6.8571,5.8571
2.953125,0.0003325117548119327,0.0001733390786175327,0.00015087011245288785,4.102901258258953e-05,6.8571,5.8571
2.95703125,0.00033593621263141844,0.0001972618240451668,0.00016356645134966058,4.98163005722134e-05,6.8571,5.8571
2.9609375,0.0003163909580956742,0.00017968724806591903,0.00014891558699931342,6.251263946898612e-05,6.8571,5.8571
2.96484375,0.00030907360247196163,0.00013281094338597705,0.0001279165532005799,5.274001220111398e-05,6.8571,5.8571
2.96875,0.0003237244668223088,0.00012400750229343109,0.00012694736702525375,4.248279184557877e-05,6.8571,5.8571
2.97265625,0.00033007263627069514,0.00016552097680323498,0.00015818746807660038,5.860358856183727e-05,6.8571,5.8571
2.9765625,0.0003393445173479821,0.00016161192589608613,0.00016014199353017484,7.275370672159922e-05,6.8571,5.8571
2.98046875,0.00038035724566720083,0.0001391591128343634,0.00013231019719539186,7.469207907225154e-05,6.8571,5.8571
2.984375,0.0004023416187441826,0.0001259620277470055,0.0001313410110200657,6.884465581445037e-05,6.8571,5.8571
2.98828125,0.0004238252456305792,0.00013231019719539186,0.00014109748518501572,6.690628346379805e-05,6.8571,5.8571
2.9921875,0.00045214163505302523,0.00013573465501487764,0.00016014199353017484,7.372289289692538e-05,6.8571,5.8571
2.99609375,0.0004584898045014116,0.000123522909205768,0.00015818746807660038,7.811653689173732e-05,6.8571,5.8571
3.0,0.00043992988924391557,0.00014891558699931342,0.000123522909205768,7.029843507743962e-05,6.8571,5.8571
3.00390625,0.0004101435674555582,0.00016112733280842308,0.00011181190958724354,5.274001220111398e-05,6.8571,5.8571
3.0078125,0.0003945235169298849,0.00015526375644769977,0.00013525006192721456,3.418009694361799e-05,6.8571,5.8571
3.01171875,0.00041893085544518206,0.0001547791633600367,0.00014696106154573902,2.7848080598153736e-05,6.8571,5.8571
3.015625,0.0004413998216098269,0.0001547791633600367,0.0001547791633600367,4.590724966506455e-05,6.8571,5.8571
3.01953125,0.00043456705907377746,0.0001279165532005799,0.00013231019719539186,5.8118995474174184e-05,6.8571,5.8571
3.0234375,0.0004243098387182423,9.617570595864813e-05,0.0001049791470511941,4.590724966506455e-05,6.8571,5.8571
3.02734375,0.0004023416187441826,0.00011326568885023278,0.00011132731649958046,3.369550385595491e-05,6.8571,5.8571
3.03125,0.0003920843983886474,0.00012156838375219357,0.00011473562121614412,2.8332673685816814e-05,6.8571,5.8571
3.03515625,0.0003842662965743497,9.617570595864813e-05,0.00011767548594796682,3.418009694361799e-05,6.8571,5.8571
3.0390625,0.0003842662965743497,0.00011181190958724354,0.00011181190958724354,4.6391842752727626e-05,6.8571,5.8571
3.04296875,0.0003759636016723889,0.00012450824848401625,9.71610452368964e-05,5.420994456702533e-05,6.8571,5.8571
3.046875,0.00034667802607461675,0.00010643292631418334,9.472192669565889e-05,5.713365619592592e-05,6.8571,5.8571
3.05078125,0.0003290872969924469,9.911557069047083e-05,0.00013426472264896632,5.8118995474174184e-05,6.8571,5.8571
3.0546875,0.0003188462297398338,0.00012255372303044182,0.0001499009262775617,4.492191038681628e-05,6.8571,5.8571
3.05859375,0.00031933082282749683,0.00010350921468528275,0.00013281094338597705,3.028719913939124e-05,6.8571,5.8571
3.0625,0.0003066344839307242,7.958646925764867e-05,9.129746887617312e-05,1.8560046417944682e-05,6.8571,5.8571
3.06640625,0.0002822109923125049,8.738841796902427e-05,7.176836744335097e-05,6.348300608835046e-06,6.8571,5.8571
3.0703125,0.00026707553487449466,8.641923179369811e-05,9.863097760280774e-05,-5.847292097352493e-06,6.8571,5.8571
3.07421875,0.0002529254167147327,9.081287578851004e-05,0.0001103419772213322,-3.408173556114974e-06,6.8571,5.8571
3.078125,0.0002573190607095446,9.276740124208447e-05,8.446470634012368e-05,1.0257351515983898e-05,6.8571,5.8571
3.08203125,0.00025828824688487075,9.17820619638362e-05,4.542265657740147e-05,2.1499911149767376e-05,6.8571,5.8571
3.0859375,0.0002602427723384452,8.93429434225987e-05,3.2241724592965664e-05,2.8817266773479892e-05,6.8571,5.8571
3.08984375,0.0002661063486991685,9.373658741741062e-05,6.739087655146113e-05,2.6862741319905467e-05,6.8571,5.8571
3.09375,0.0002695308065186542,0.00011767548594796682,0.0001103419772213322,2.3939029691004882e-05,6.8571,5.8571
3.09765625,0.0002446227218127719,0.0001020392823193714,7.176836744335097e-05,2.34382835004197e-05,6.8571,5.8571
3.1015625,0.00022019923019455263,8.15409947112231e-05,3.711996167544068e-05,1.6605520964370257e-05,6.8571,5.8571
3.10546875,0.00020018553567406738,7.908572306706348e-05,1.8075453330281604e-05,1.3681809335469672e-05,6.8571,5.8571
3.109375,0.0001782173157000077,5.713365619592592e-05,3.424588979934462e-06,1.4166402423132752e-05,6.8571,5.8571
3.11328125,0.00020262465421530488,5.664906310826284e-05,3.808914785076684e-05,2.2469097325093535e-05,6.8571,5.8571
3.1171875,0.00022166916256046397,5.863707521171967e-06,-1.5619919365224616e-05,1.8560046417944682e-05,6.8571,5.8571
3.12109375,0.00021776011165331512,-5.125366441138317e-05,-9.325173200885017e-05,1.5151741701381012e-05,6.8571,5.8571
3.125,0.00022118456947280087,-6.884439349355299e-05,-7.908546074616612e-05,4.492191038681628e-05,6.8571,5.8571
3.12890625,0.0001997009425864043,-9.423707128709844e-05,-9.373632509651324e-05,5.860358856183727e-05,6.8571,5.8571
3.1328125,0.00016699090916914633,-0.0001289016301579308,-0.00012011434216830696,5.469453765468842e-05,6.8571,5.8571
3.13671875,0.00018505007823605717,-0.00016699064684824898,-0.00014939991776607913,5.274001220111398e-05,6.8571,5.8571
3.140625,0.0002372892130861373,-0.0001821261042862592,-0.00019286791772945747,6.201189327840093e-05,6.8571,5.8571
3.14453125,0.0002368046199984742,-0.00019823074789959558,-0.0002246087649713893,5.908818164950035e-05,6.8571,5.8571
3.1484375,0.0002050637727565424,-0.00018847427373464554,-0.0002182605955230029,5.420994456702533e-05,6.8571,5.8571
3.15234375,0.00018017184115358214,-0.0001450062737712672,-0.00017039895156481264,4.7377182030975895e-05,6.8571,5.8571
3.15625,0.00014891558699931342,-0.00014452168068360412,-0.000176747121013199,3.711996167544068e-05,6.8571,5.8571
3.16015625,0.00014550728228274976,-0.0001425671552300297,-0.00015282437558556493,4.346813112382704e-05,6.8571,5.8571
3.1640625,0.00015135470554055092,-0.0001059480709056229,-0.00011767522362706943,3.907448712901511e-05,6.8571,5.8571
3.16796875,0.00014891558699931342,-8.44644440192263e-05,-0.00010106983382314789,2.7347334407568552e-05,6.8571,5.8571
3.171875,0.00013573465501487764,-2.7831665174334262e-05,-3.416368151979851e-05,3.028719913939124e-05,6.8571,5.8571
3.17578125,9.96001637781339e-05,9.288165340657742e-06,2.4554028046082974e-06,2.6378148232242386e-05,6.8571,5.8571
3.1796875,7.372289289692538e-05,-3.89276664377806e-06,-2.1483495725947888e-05,9.77275842832082e-06,6.8571,5.8571
3.18359375,6.642169037613497e-05,9.77275842832082e-06,-2.928544443732349e-05,3.424588979934462e-06,6.8571,5.8571
3.1875,6.396641873197535e-05,4.3952724211490116e-05,1.2211876969558325e-05,1.5636334789044097e-05,6.8571,5.8571
3.19140625,8.202558779888617e-05,7.275370672159922e-05,6.642169037613497e-05,3.174097840238048e-05,6.8571,5.8571
3.1953125,0.00010155468923170832,9.569111287098505e-05,0.00010107009614404525,2.6862741319905467e-05,6.8571,5.8571
3.19921875,8.494929942778677e-05,9.71610452368964e-05,0.0001049791470511941,2.2469097325093535e-05,6.8571,5.8571
3.203125,6.739087655146113e-05,0.00010937279104600602,0.00010937279104600602,2.1984504237430457e-05,6.8571,5.8571
3.20703125,6.739087655146113e-05,0.00012059919757686741,0.00012156838375219357,1.3681809335469672e-05,6.8571,5.8571
3.2109375,8.007106234531175e-05,0.0001391591128343634,0.00015135470554055092,2.6378148232242386e-05,6.8571,5.8571
3.21484375,9.373658741741062e-05,0.00016064273972076,0.00018017184115358214,3.808914785076684e-05,6.8571,5.8571
3.21875,8.788916415960945e-05,0.0001577028749889373,0.00018065643424124522,3.418009694361799e-05,6.8571,5.8571
3.22265625,6.642169037613497e-05,0.00013768918046845206,0.00015429457027237362,4.052826639200435e-05,6.8571,5.8571
3.2265625,5.0300893659876476e-05,0.0001049791470511941,0.00014159823137560088,4.248279184557877e-05,6.8571,5.8571
3.23046875,3.711996167544068e-05,0.00010399380777294584,0.00015526375644769977,3.808914785076684e-05,6.8571,5.8571
3.234375,2.2469097325093535e-05,0.00011376643504081798,0.0001684446884321356,3.321091076829183e-05,6.8571,5.8571
3.23828125,2.5893555144579307e-05,0.00010546374013885719,0.0001684446884321356,3.6635368587777606e-05,6.8571,5.8571
3.2421875,3.6635368587777606e-05,0.0001098573841336691,0.000142082824463264,3.077179222705432e-05,6.8571,5.8571
3.24609375,3.955908021667819e-05,0.00010838745176775776,0.00012547743465934243,1.4166402423132752e-05,6.8571,5.8571
3.25,2.442362277866796e-05,8.738841796902427e-05,0.0001494001800869765,4.409928258182723e-06,6.8571,5.8571
3.25390625,2.34382835004197e-05,0.00010691751940184641,0.00018261095969481964,4.409928258182723e-06,6.8571,5.8571
3.2578125,5.0300893659876476e-05,0.00013964370592202646,0.0001782173157000077,1.2211876969558325e-05,6.8571,5.8571
3.26171875,5.078548674753956e-05,0.00011229650267490663,0.00015526375644769977,1.465099551079583e-05,6.8571,5.8571
3.265625,5.7618249283589e-05,0.0001025238754070345,0.00014256741755092707,2.002997878385603e-05,6.8571,5.8571
3.26953125,9.96001637781339e-05,0.00013182560410772879,0.00016161192589608613,2.6862741319905467e-05,6.8571,5.8571
3.2734375,0.00011864467212329299,0.00016356645134966058,0.0001870046036896316,3.2241724592965664e-05,6.8571,5.8571
3.27734375,0.00011572096049439239,0.0001577028749889373,0.00018553467132372025,3.8589894041352025e-05,6.8571,5.8571
3.28125,0.00011864467212329299,0.00016112733280842308,0.00016161192589608613,4.346813112382704e-05,6.8571,5.8571
3.28515625,0.0001279165532005799,0.0001894437222308691,0.00018065643424124522,5.372535147936225e-05,6.8571,5.8571
3.2890625,0.00013817377355611514,0.00018652001060196852,0.00020117087495231562,3.760455476310376e-05,6.8571,5.8571
3.29296875,0.000123522909205768,0.0001733390786175327,0.00020018553567406738,1.5151741701381012e-05,6.8571,5.8571
3.296875,0.00011132731649958046,0.00015917280735484865,0.00019042906150911734,2.295369041275662e-05,6.8571,5.8571
3.30078125,0.00011961385829861914,0.0001577028749889373,0.00017723197642175944,2.7848080598153736e-05,6.8571,5.8571
3.3046875,0.00011132731649958046,0.0001547791633600367,0.00016014199353017484,3.272631768062874e-05,6.8571,5.8571
3.30859375,0.00010643292631418334,0.0001743082647928589,0.0001630818582619975,3.174097840238048e-05,6.8571,5.8571
3.3125,0.00011181190958724354,0.00016649016297856116,0.00019091365459678045,3.2241724592965664e-05,6.8571,5.8571
3.31640625,0.0001230383161181049,0.00012547743465934243,0.00017235373933928446,4.6391842752727626e-05,6.8571,5.8571
3.3203125,0.00014159823137560088,0.0001049791470511941,0.0001264627739375907,4.346813112382704e-05,6.8571,5.8571
3.32421875,0.00012743196011291686,7.714735071641115e-05,0.0001284172993911651,3.6134622397192416e-05,6.8571,5.8571
3.328125,0.00011376643504081798,8.007106234531175e-05,0.00015526375644769977,3.516543622186626e-05,6.8571,5.8571
3.33203125,0.00011082657030899529,0.00011229650267490663,0.00016503638371557193,4.151360567025261e-05,6.8571,5.8571
3.3359375,0.00010838745176775776,0.000142082824463264,0.0001679600953444725,4.883096129396513e-05,6.8571,5.8571
3.33984375,0.0001074182655924316,0.00012011460448920433,0.00014159823137560088,5.1770826025787823e-05,6.8571,5.8571
3.34375,8.984368961318389e-05,0.0001025238754070345,0.0001127810957625697,4.0043673304341266e-05,6.8571,5.8571
3.34765625,8.007106234531175e-05,0.00011767548594796682,0.0001264627739375907,2.6378148232242386e-05,6.8571,5.8571
3.3515625,8.93429434225987e-05,0.00012206912994277876,0.00015673368881361112,3.272631768062874e-05,6.8571,5.8571
3.35546875,0.00010107009614404525,0.00013525006192721456,0.00015282463790646227,4.298353803616396e-05,6.8571,5.8571
3.359375,9.42373336079958e-05,0.0001259620277470055,0.00013329553647364013,4.98163005722134e-05,6.8571,5.8571
3.36328125,8.39801132524606e-05,0.00013035567174181744,0.00012987107865415436,4.933170748455032e-05,6.8571,5.8571
3.3671875,9.228280815442139e-05,0.00014061289209735264,0.0001279165532005799,4.883096129396513e-05,6.8571,5.8571
3.37109375,9.373658741741062e-05,0.00012743196011291686,0.00014061289209735264,5.713365619592592e-05,6.8571,5.8571
3.375,9.325199432974755e-05,0.00011425102812848104,0.00015135470554055092,5.860358856183727e-05,6.8571,5.8571
3.37890625,8.543389251544983e-05,0.0001025238754070345,0.0001313410110200657,5.469453765468842e-05,6.8571,5.8571
3.3828125,6.785931653620212e-05,8.690382488136118e-05,9.911557069047083e-05,4.199819875791569e-05,6.8571,5.8571
3.38671875,5.713365619592592e-05,8.15409947112231e-05,7.029843507743962e-05,2.0514571871519107e-05,6.8571,5.8571
3.390625,4.492191038681628e-05,8.93429434225987e-05,7.908572306706348e-05,1.7590860242618525e-05,6.8571,5.8571
3.39453125,6.152730019073785e-05,0.00010302462159761967,0.00010643292631418334,2.9301859861142977e-05,6.8571,5.8571
3.3984375,8.738841796902427e-05,0.0001127810957625697,0.00012206912994277876,5.127007983520264e-05,6.8571,5.8571
3.40234375,0.00010350921468528275,0.0001074182655924316,0.00011425102812848104,6.981384198977653e-05,6.8571,5.8571
3.40625,0.0001230383161181049,0.00012108379066453048,0.00011376643504081798,7.128377435568788e-05,6.8571,5.8571
3.41015625,0.00011912926521095605,0.00012938648556649126,0.00013573465501487764,7.372289289692538e-05,6.8571,5.8571
3.4140625,0.00011181190958724354,0.00013476546883955148,0.00014256741755092707,6.884465581445037e-05,6.8571,5.8571
3.41796875,0.00011620555358205547,0.0001049791470511941,0.00012743196011291686,6.104270710307477e-05,6.8571,5.8571
3.421875,0.00011961385829861914,8.984368961318389e-05,0.00011229650267490663,5.8118995474174184e-05,6.8571,5.8571
3.42578125,0.00012156838375219357,0.00012743196011291686,0.00010790285868009469,5.664906310826284e-05,6.8571,5.8571
3.4296875,0.00011229650267490663,0.00012890189247882818,0.00012890189247882818,5.469453765468842e-05,6.8571,5.8571
3.43359375,0.00010887204485542085,0.00010937279104600602,0.00014744565463340207,4.443731729915321e-05,6.8571,5.8571
3.4375,0.00010691751940184641,9.032828270084695e-05,0.00013964370592202646,4.7377182030975895e-05,6.8571,5.8571
3.44140625,0.00010594833322652027,8.641923179369811e-05,0.00010887204485542085,5.9572774737163425e-05,6.8571,5.8571
3.4453125,0.0001127810957625697,0.00011425102812848104,9.813023141222257e-05,5.616447002059976e-05,6.8571,5.8571
3.44921875,0.0001181600790356299,0.000123522909205768,0.000123522909205768,6.348182564431228e-05,6.8571,5.8571
3.453125,0.0001127810957625697,0.0001308564179324026,0.00014012829900968954,7.519282526283673e-05,6.8571,5.8571
3.45703125,0.0001074182655924316,0.00013525006192721456,0.00013720458738078898,7.908572306706348e-05,6.8571,5.8571
3.4609375,0.00011181190958724354,0.00014305201063859015,9.569111287098505e-05,7.323829980926232e-05,6.8571,5.8571
3.46484375,0.00011326568885023278,0.00014305201063859015,8.494929942778677e-05,5.8118995474174184e-05,6.8571,5.8571
3.46875,9.520651978332197e-05,0.0001259620277470055,0.00010887204485542085,3.955908021667819e-05,6.8571,5.8571
3.47265625,9.863097760280774e-05,0.00014012829900968954,0.00013035567174181744,4.443731729915321e-05,6.8571,5.8571
3.4765625,0.00010594833322652027,0.00015624909572594804,0.0001479464008239873,5.5179130742351497e-05,6.8571,5.8571
3.48046875,9.032828270084695e-05,0.00014403734991683841,0.00010887204485542085,4.0043673304341266e-05,6.8571,5.8571
3.484375,5.420994456702533e-05,0.00010594833322652027,8.007106234531175e-05,2.9301859861142977e-05,6.8571,5.8571
3.48828125,3.6134622397192416e-05,0.0001049791470511941,9.520651978332197e-05,2.4908215866331045e-05,6.8571,5.8571
3.4921875,3.077179222705432e-05,0.00013525006192721456,0.00011376643504081798,2.5392808953994127e-05,6.8571,5.8571
3.49609375,2.442362277866796e-05,0.00011767548594796682,9.617570595864813e-05,3.2241724592965664e-05,6.8571,5.8571
3.5,2.9301859861142977e-05,0.00010594833322652027,7.420748598458847e-05,2.7347334407568552e-05,6.8571,5.8571
3.50390625,3.6635368587777606e-05,0.00010546374013885719,6.348182564431228e-05,3.077179222705432e-05,6.8571,5.8571
3.5078125,6.495175801022362e-05,0.00010350921468528275,6.592094418554978e-05,3.711996167544068e-05,6.8571,5.8571
3.51171875,7.664660452582597e-05,0.00014061289209735264,0.00010302462159761967,4.199819875791569e-05,6.8571,5.8571
3.515625,8.34955201647975e-05,0.00015868821426718557,0.00011767548594796682,5.372535147936225e-05,6.8571,5.8571
3.51953125,0.00010594833322652027,0.00013182560410772879,0.00010155468923170832,6.104270710307477e-05,6.8571,5.8571
3.5234375,0.00011082657030899529,0.00011473562121614412,8.690382488136118e-05,5.616447002059976e-05,6.8571,5.8571
3.52734375,0.0001098573841336691,0.0001313410110200657,0.0001127810957625697,6.495175801022362e-05,6.8571,5.8571
3.53125,0.00010643292631418334,0.00014061289209735264,0.0001337801295613032,8.788916415960945e-05,6.8571,5.8571
3.53515625,0.00010155468923170832,0.00013426472264896632,0.00011229650267490663,9.081287578851004e-05,6.8571,5.8571
3.5390625,9.520651978332197e-05,0.0001264627739375907,0.0001020392823193714,7.763194380407423e-05,6.8571,5.8571
3.54296875,7.323829980926232e-05,0.00010302462159761967,9.813023141222257e-05,7.323829980926232e-05,6.8571,5.8571
3.546875,4.834636820630206e-05,0.00011620555358205547,0.00010107009614404525,7.128377435568788e-05,6.8571,5.8571
3.55078125,3.8589894041352025e-05,0.00014305201063859015,0.0001367038411902038,7.763194380407423e-05,6.8571,5.8571
3.5546875,4.443731729915321e-05,0.00013426472264896632,0.00012400750229343109,7.029843507743962e-05,6.8571,5.8571
3.55859375,4.7377182030975895e-05,0.0001127810957625697,8.299477397421233e-05,5.0300893659876476e-05,6.8571,5.8571
3.5625,4.933170748455032e-05,0.00010399380777294584,6.007352092774861e-05,5.0300893659876476e-05,6.8571,5.8571
3.56640625,4.052826639200435e-05,0.00012938648556649126,7.225296053101403e-05,5.908818164950035e-05,6.8571,5.8571
3.5703125,4.590724966506455e-05,0.00012547743465934243,8.494929942778677e-05,5.9572774737163425e-05,6.8571,5.8571
3.57421875,8.007106234531175e-05,0.00011961385829861914,9.472192669565889e-05,6.543635109788671e-05,6.8571,5.8571
3.578125,9.617570595864813e-05,0.00012450824848401625,0.00011229650267490663,8.15409947112231e-05,6.8571,5.8571
3.58203125,0.00010107009614404525,0.0001049791470511941,0.00010399380777294584,9.863097760280774e-05,6.8571,5.8571
3.5859375,0.00010058550305638218,0.0001127810957625697,0.00010546374013885719,0.00010058550305638218,6.8571,5.8571
3.58984375,9.617570595864813e-05,0.00011425102812848104,0.00011572096049439239,9.863097760280774e-05,6.8571,5.8571
3.59375,9.325199432974755e-05,0.00011376643504081798,0.00012011460448920433,9.863097760280774e-05,6.8571,5.8571
3.59765625,7.908572306706348e-05,8.93429434225987e-05,0.00010447840086060892,8.446470634012368e-05,6.8571,5.8571
3.6015625,5.078548674753956e-05,3.174097840238048e-05,6.690628346379805e-05,6.834390962386518e-05,6.8571,5.8571
3.60546875,3.077179222705432e-05,3.418009694361799e-05,5.664906310826284e-05,5.8118995474174184e-05,6.8571,5.8571
3.609375,2.6378148232242386e-05,7.469207907225154e-05,0.00010155468923170832,6.785931653620212e-05,6.8571,5.8571
3.61328125,2.442362277866796e-05,0.0001074182655924316,0.00012743196011291686,7.958646925764867e-05,6.8571,5.8571
3.6171875,4.052826639200435e-05,0.00010155468923170832,9.472192669565889e-05,6.932924890211347e-05,6.8571,5.8571
3.62109375,3.8589894041352025e-05,6.104270710307477e-05,6.884465581445037e-05,5.420994456702533e-05,6.8571,5.8571
3.625,3.516543622186626e-05,5.908818164950035e-05,7.664660452582597e-05,5.7618249283589e-05,6.8571,5.8571
3.62890625,3.6134622397192416e-05,6.785931653620212e-05,9.66764521492333e-05,6.104270710307477e-05,6.8571,5.8571
3.6328125,4.590724966506455e-05,5.7618249283589e-05,9.71610452368964e-05,5.5179130742351497e-05,6.8571,5.8571
3.63671875,6.007352092774861e-05,5.372535147936225e-05,9.17820619638362e-05,5.664906310826284e-05,6.8571,5.8571
3.640625,5.616447002059976e-05,5.078548674753956e-05,8.299477397421233e-05,6.690628346379805e-05,6.8571,5.8571
3.64453125,5.0300893659876476e-05,4.98163005722134e-05,6.201189327840093e-05,5.860358856183727e-05,6.8571,5.8571
3.6484375,4.3952724211490116e-05,6.251263946898612e-05,9.228280815442139e-05,3.6134622397192416e-05,6.8571,5.8571
3.65234375,3.468084313420317e-05,7.323829980926232e-05,0.00012987107865415436,4.933170748455032e-05,6.8571,5.8571
3.65625,3.321091076829183e-05,6.834390962386518e-05,9.911557069047083e-05,3.711996167544068e-05,6.8571,5.8571
3.66015625,4.346813112382704e-05,6.690628346379805e-05,4.298353803616396e-05,1.465099551079583e-05,6.8571,5.8571
3.6640625,3.711996167544068e-05,4.98163005722134e-05,1.8075453330281604e-05,2.2469097325093535e-05,6.8571,5.8571
3.66796875,2.002997878385603e-05,6.152730019073785e-05,4.786177511863897e-05,3.2241724592965664e-05,6.8571,5.8571
3.671875,1.8560046417944682e-05,9.569111287098505e-05,9.520651978332197e-05,4.199819875791569e-05,6.8571,5.8571
3.67578125,4.443731729915321e-05,0.00012059919757686741,0.00013182560410772879,4.151360567025261e-05,6.8571,5.8571
3.6796875,4.492191038681628e-05,0.0001308564179324026,9.66764521492333e-05,9.911557069047083e-05,6.8571,5.8571
3.68359375,3.418009694361799e-05,0.00010937279104600602,4.98163005722134e-05,6.690628346379805e-05,6.8571,5.8571
3.6875,3.565002930952934e-05,9.569111287098505e-05,5.664906310826284e-05,-1.3180800823987113e-05,6.8571,5.8571
3.69140625,1.954538569619295e-05,9.032828270084695e-05,5.078548674753956e-05,3.6635368587777606e-05,6.8571,5.8571
3.6953125,1.954538569619295e-05,9.569111287098505e-05,6.29972325566492e-05,4.7377182030975895e-05,6.8571,5.8571
3.69921875,1.1242690794232167e-05,7.07991812680248e-05,2.295369041275662e-05,2.9786452948806055e-05,6.8571,5.8571
3.703125,-9.756343004501346e-06,4.052826639200435e-05,-2.0982749535362714e-05,2.3939029691004882e-05,6.8571,5.8571
3.70703125,-7.801817550926912e-06,5.9572774737163425e-05,2.2469097325093535e-05,4.687643584039071e-05,6.8571,5.8571
3.7109375,8.803572252994655e-06,9.129746887617312e-05,8.104024852063792e-05,5.078548674753956e-05,6.8571,5.8571
3.71484375,4.409928258182723e-06,0.00010350921468528275,0.0001313410110200657,1.7590860242618525e-05,6.8571,5.8571
3.71875,-9.756343004501346e-06,8.104024852063792e-05,7.029843507743962e-05,2.9301859861142977e-05,6.8571,5.8571
3.72265625,2.4554028046082974e-06,9.42373336079958e-05,6.543635109788671e-05,1.612092787670718e-05,6.8571,5.8571
3.7265625,1.709011405203334e-05,0.00011864467212329299,0.00011669014666971855,1.954538569619295e-05,6.8571,5.8571
3.73046875,2.34382835004197e-05,0.00010838745176775776,0.0001152202143038072,1.954538569619295e-05,6.8571,5.8571
3.734375,3.808914785076684e-05,8.837375724727253e-05,0.0001020392823193714,5.420994456702533e-05,6.8571,5.8571
3.73828125,7.664660452582597e-05,6.201189327840093e-05,7.07991812680248e-05,6.201189327840093e-05,6.8571,5.8571
3.7421875,8.202558779888617e-05,5.1770826025787823e-05,1.5151741701381012e-05,3.6134622397192416e-05,6.8571,5.8571
3.74609375,5.372535147936225e-05,6.29972325566492e-05,5.379114433508888e-06,5.7618249283589e-05,6.8571,5.8571
3.75,8.007106234531175e-05,9.66764521492333e-05,3.369550385595491e-05,3.6134622397192416e-05,6.8571,5.8571
3.75390625,9.96001637781339e-05,0.00011620555358205547,8.104024852063792e-05,-3.89276664377806e-06,6.8571,5.8571
3.7578125,7.07991812680248e-05,9.276740124208447e-05,0.00016064273972076,6.849046799420229e-06,6.8571,5.8571
3.76171875,5.274001220111398e-05,6.495175801022362e-05,3.516543622186626e-05,6.348182564431228e-05,6.8571,5.8571
3.765625,5.078548674753956e-05,4.687643584039071e-05,-5.0769071323720084e-05,5.22554191134509e-05,6.8571,5.8571
3.76953125,5.8118995474174184e-05,8.593463870603502e-05,0.00012156838375219357,-1.2195461545738851e-05,6.8571,5.8571
3.7734375,5.5179130742351497e-05,0.00011181190958724354,0.00018652001060196852,8.302826062409473e-06,6.8571,5.8571
3.77734375,6.396641873197535e-05,7.225296053101403e-05,5.908818164950035e-05,3.418009694361799e-05,6.8571,5.8571
3.78125,7.225296053101403e-05,9.228280815442139e-05,7.372289289692538e-05,9.288165340657742e-06,6.8571,5.8571
3.78515625,6.884465581445037e-05,9.081287578851004e-05,0.0001284172993911651,-1.8543630994125208e-05,6.8571,5.8571
3.7890625,8.984368961318389e-05,5.908818164950035e-05,9.42373336079958e-05,2.5392808953994127e-05,6.8571,5.8571
3.79296875,9.472192669565889e-05,9.813023141222257e-05,0.00010447840086060892,4.894521345845802e-06,6.8571,5.8571
3.796875,8.837375724727253e-05,0.00011181190958724354,0.0001181600790356299,-5.907176622568087e-05,6.8571,5.8571
3.80078125,8.984368961318389e-05,8.788916415960945e-05,8.690382488136118e-05,-2.438987380788816e-06,6.8571,5.8571
3.8046875,4.590724966506455e-05,8.15409947112231e-05,9.617570595864813e-05,4.102901258258953e-05,6.8571,5.8571
3.80859375,3.369550385595491e-05,7.567741835049982e-05,0.0001743082647928589,3.174097840238048e-05,6.8571,5.8571
3.8125,6.690628346379805e-05,8.055565543297483e-05,0.00016209651898374923,3.272631768062874e-05,6.8571,5.8571
3.81640625,0.00011181190958724354,6.29972325566492e-05,0.00013035567174181744,-6.832631375600755e-06,6.8571,5.8571
3.8203125,5.664906310826284e-05,6.495175801022362e-05,0.00015234004481879922,-3.222530916914619e-05,6.8571,5.8571
3.82421875,8.837375724727253e-05,7.029843507743962e-05,0.00011326568885023278,-4.844619272143973e-07,6.8571,5.8571
3.828125,8.788916415960945e-05,9.520651978332197e-05,7.908572306706348e-05,3.418009694361799e-05,6.8571,5.8571
3.83203125,2.5392808953994127e-05,0.00012499284157167935,0.00016892928151979866,1.4166402423132752e-05,6.8571,5.8571
3.8359375,3.8589894041352025e-05,8.104024852063792e-05,0.00014159823137560088,3.321091076829183e-05,6.8571,5.8571
3.83984375,5.420994456702533e-05,5.713365619592592e-05,5.5679876932936674e-05,7.763194380407423e-05,6.8571,5.8571
3.84375,7.958646925764867e-05,9.325199432974755e-05,9.081287578851004e-05,4.834636820630206e-05,6.8571,5.8571
3.84765625,6.396641873197535e-05,0.00011181190958724354,0.00012400750229343109,2.5893555144579307e-05,6.8571,5.8571
3.8515625,8.202558779888617e-05,0.00012059919757686741,0.0001547791633600367,1.1727283881895247e-05,6.8571,5.8571
3.85546875,6.251263946898612e-05,0.00011717473975738164,0.00015330923099412535,7.225296053101403e-05,6.8571,5.8571
3.859375,4.883096129396513e-05,0.00012108379066453048,0.00015429457027237362,8.88583503349356e-05,6.8571,5.8571
3.86328125,0.00012011460448920433,0.00012108379066453048,0.00013768918046845206,3.321091076829183e-05,6.8571,5.8571
3.8671875,0.00010691751940184641,0.0001181600790356299,0.00011425102812848104,3.174097840238048e-05,6.8571,5.8571
3.87109375,9.472192669565889e-05,0.0001020392823193714,0.0001284172993911651,7.811653689173732e-05,6.8571,5.8571
3.875,4.248279184557877e-05,9.764563832455947e-05,8.202558779888617e-05,0.00011132731649958046,6.8571,5.8571
3.87890625,2.8817266773479892e-05,0.00013182560410772879,2.9786452948806055e-05,7.420748598458847e-05,6.8571,5.8571
3.8828125,2.6378148232242386e-05,0.00013621924810254071,0.00010350921468528275,3.418009694361799e-05,6.8571,5.8571
3.88671875,-1.9382411902036407e-06,0.0001230383161181049,0.00012499284157167935,9.863097760280774e-05,6.8571,5.8571
3.890625,4.443731729915321e-05,8.494929942778677e-05,0.00013720458738078898,7.029843507743962e-05,6.8571,5.8571
3.89453125,5.863707521171967e-06,0.0001308564179324026,0.0002070182982101168,-5.847292097352493e-06,6.8571,5.8571
3.8984375,7.07991812680248e-05,0.0001313410110200657,0.0001870046036896316,1.954656614023108e-06,6.8571,5.8571
3.90234375,4.542265657740147e-05,0.0001098573841336691,0.000151839298628214,2.295369041275662e-05,6.8571,5.8571
3.90625,2.9786452948806055e-05,0.0001337801295613032,0.00018358014587014582,3.077179222705432e-05,6.8571,5.8571
3.91015625,4.7377182030975895e-05,0.00011425102812848104,0.00022118456947280087,5.664906310826284e-05,6.8571,5.8571
3.9140625,1.7590860242618525e-05,0.0001127810957625697,0.00021532099311207762,6.152730019073785e-05,6.8571,5.8571
3.91796875,6.396641873197535e-05,8.690382488136118e-05,0.0001577028749889373,2.5392808953994127e-05,6.8571,5.8571
3.921875,5.860358856183727e-05,9.764563832455947e-05,0.00016405104443732366,5.22554191134509e-05,6.8571,5.8571
3.92578125,7.860112997940041e-05,0.000123522909205768,0.00019091365459678045,5.9572774737163425e-05,6.8571,5.8571
3.9296875,8.837375724727253e-05,0.00010350921468528275,0.00019236743385976965,3.565002930952934e-05,6.8571,5.8571
3.93359375,4.346813112382704e-05,0.000123522909205768,0.00023436550145723668,7.714735071641115e-05,6.8571,5.8571
3.9375,3.8589894041352025e-05,0.0001367038411902038,0.00024071367090562303,7.567741835049982e-05,6.8571,5.8571
3.94140625,9.129746887617312e-05,7.323829980926232e-05,0.00015379382408178843,3.468084313420317e-05,6.8571,5.8571
3.9453125,3.12563853147174e-05,6.348182564431228e-05,0.00013281094338597705,3.565002930952934e-05,6.8571,5.8571
3.94921875,-5.125366441138317e-05,0.00012059919757686741,0.0001738236717051958,4.052826639200435e-05,6.8571,5.8571
3.953125,4.0043673304341266e-05,8.543389251544983e-05,0.00013817377355611514,2.7347334407568552e-05,6.8571,5.8571
3.95703125,4.346813112382704e-05,4.443731729915321e-05,0.00011132731649958046,2.34382835004197e-05,6.8571,5.8571
3.9609375,-0.0001269471047043564,5.860358856183727e-05,0.00011082657030899529,2.6378148232242386e-05,6.8571,5.8571
3.96484375,-0.000181625358095674,4.933170748455032e-05,5.420994456702533e-05,2.0514571871519107e-05,6.8571,5.8571
3.96875,-0.0001269471047043564,4.102901258258953e-05,6.446716492256054e-05,-1.6104512452887704e-05,6.8571,5.8571
3.97265625,-7.908546074616612e-05,5.860358856183727e-05,0.0001074182655924316,-2.3421868076600218e-05,6.8571,5.8571
3.9765625,-4.0511850968184873e-05,1.3197216247806587e-05,7.664660452582597e-05,-9.27174991683826e-06,6.8571,5.8571
3.98046875,-8.738815564812689e-05,5.863707521171967e-06,8.055565543297483e-05,-1.3180800823987113e-05,6.8571,5.8571
3.984375,-0.0001347652065186541,6.884465581445037e-05,7.519282526283673e-05,2.0514571871519107e-05,6.8571,5.8571
3.98828125,-0.0001289016301579308,7.616201143816288e-05,6.495175801022362e-05,6.055811401541169e-05,6.8571,5.8571
3.9921875,-9.863071528191037e-05,9.228280815442139e-05,0.00011082657030899529,5.713365619592592e-05,6.8571,5.8571
3.99609375,-6.445074949874106e-05,0.00010937279104600602,0.00012694736702525375,6.055811401541169e-05,6.8571,5.8571
4.0,-6.151088476691837e-05,8.984368961318389e-05,9.276740124208447e-05,4.933170748455032e-05,6.8571,5.8571
4.00390625,-4.686002041657123e-05,8.34955201647975e-05,5.713365619592592e-05,3.468084313420317e-05,6.8571,5.8571
4.0078125,-7.519256294193937e-05,6.007352092774861e-05,3.711996167544068e-05,2.2469097325093535e-05,6.8571,5.8571
4.01171875,-9.129720655527575e-05,3.8589894041352025e-05,3.418009694361799e-05,6.849046799420229e-06,6.8571,5.8571
4.015625,-8.593437638513765e-05,6.932924890211347e-05,7.029843507743962e-05,1.7590860242618525e-05,6.8571,5.8571
4.01953125,-7.029817275654224e-05,8.104024852063792e-05,5.3224605288777065e-05,3.12563853147174e-05,6.8571,5.8571
4.0234375,-3.0270783715571765e-05,5.616447002059976e-05,1.3681809335469672e-05,1.709011405203334e-05,6.8571,5.8571
4.02734375,-6.981357966887916e-05,7.958646925764867e-05,4.3952724211490116e-05,2.6862741319905467e-05,6.8571,5.8571
4.03125,-0.000115720698173495,0.00010691751940184641,6.495175801022362e-05,4.590724966506455e-05,6.8571,5.8571
4.03515625,-0.0001108263079880979,9.520651978332197e-05,7.029843507743962e-05,4.3952724211490116e-05,6.8571,5.8571
4.0390625,-8.299451165331496e-05,5.713365619592592e-05,4.199819875791569e-05,1.465099551079583e-05,6.8571,5.8571
4.04296875,-4.246637642175929e-05,3.760455476310376e-05,-1.3665393911650198e-05,-9.27174991683826e-06,6.8571,5.8571
4.046875,-3.1239969890897925e-05,6.690628346379805e-05,-1.8543630994125208e-05,1.3116044868866083e-10,6.8571,5.8571
4.05078125,-2.0982749535362714e-05,7.664660452582597e-05,2.1499911149767376e-05,1.0257351515983898e-05,6.8571,5.8571
4.0546875,3.028719913939124e-05,8.251018088654925e-05,5.274001220111398e-05,2.8817266773479892e-05,6.8571,5.8571
4.05859375,3.6635368587777606e-05,9.863097760280774e-05,1.954538569619295e-05,3.6134622397192416e-05,6.8571,5.8571
4.0625,3.2241724592965664e-05,0.00010790285868009469,-3.1239969890897925e-05,3.565002930952934e-05,6.8571,5.8571
4.06640625,7.323829980926232e-05,0.00011572096049439239,-2.5877139720759827e-05,4.933170748455032e-05,6.8571,5.8571
4.0703125,9.764563832455947e-05,0.0001098573841336691,1.3681809335469672e-05,5.9572774737163425e-05,6.8571,5.8571
4.07421875,0.00010155468923170832,0.00010691751940184641,3.174097840238048e-05,6.642169037613497e-05,6.8571,5.8571
4.078125,7.908572306706348e-05,6.981384198977653e-05,2.8817266773479892e-05,5.908818164950035e-05,6.8571,5.8571
4.08203125,5.664906310826284e-05,2.0514571871519107e-05,-1.9382411902036407e-06,2.9786452948806055e-05,6.8571,5.8571
4.0859375,6.251263946898612e-05,9.77275842832082e-06,-1.952897027237347e-05,1.3681809335469672e-05,6.8571,5.8571
4.08984375,7.176836744335097e-05,3.418009694361799e-05,1.1727283881895247e-05,1.8075453330281604e-05,6.8571,5.8571
