timestamp,TP9,AF7,AF8,TP10,Valence,Arousal
0.0,-2.6371640340581394e-05,-4.2972298724650974e-05,-4.1994798027924035e-05,-2.8321023913939143e-05,3.3333,4.4667
0.00390625,-2.7832273565575666e-05,-3.8579163409475876e-05,-3.7112912364385464e-05,-2.3927888598764042e-05,3.3333,4.4667
0.0078125,-2.7349141037308333e-05,-3.613541166765853e-05,-4.3949799421377906e-05,-2.686039068894486e-05,3.3333,4.4667
0.01171875,-3.466916062256812e-05,-4.883168508491648e-05,-4.932043543327994e-05,-3.7112912364385464e-05,3.3333,4.4667
0.015625,-3.564666131929505e-05,-5.27360700517281e-05,-3.80904130611124e-05,-3.7112912364385464e-05,3.3333,4.4667
0.01953125,-3.80904130611124e-05,-4.9809185781643416e-05,-4.150604767956056e-05,-3.174227635248343e-05,3.3333,4.4667
0.0234375,-4.6387933343099125e-05,-5.2247319703364635e-05,-6.20167088505379e-05,-3.271977704921037e-05,3.3333,4.4667
0.02734375,-3.8579163409475876e-05,-4.7365434039826065e-05,-5.957295710872056e-05,-3.174227635248343e-05,3.3333,4.4667
0.03125,-2.6371640340581394e-05,-4.68766836914626e-05,-5.029793613000689e-05,-3.564666131929505e-05,3.3333,4.4667
0.03515625,-3.125352600411996e-05,-5.7129205366903206e-05,-6.0061707457084024e-05,-3.760166271274894e-05,3.3333,4.4667
0.0390625,-3.0276025307393018e-05,-5.566857214190892e-05,-6.49435931206226e-05,-3.4180410274204646e-05,3.3333,4.4667
0.04296875,-3.369165992584118e-05,-5.4202321096818514e-05,-6.152795850217444e-05,-3.760166271274894e-05,3.3333,4.4667
0.046875,-4.2972298724650974e-05,-5.4202321096818514e-05,-5.2247319703364635e-05,-3.466916062256812e-05,3.3333,4.4667
0.05078125,-4.1994798027924035e-05,-4.883168508491648e-05,-4.346104907301444e-05,-3.174227635248343e-05,3.3333,4.4667
0.0546875,-3.906791375783935e-05,-4.24835483762875e-05,-4.1994798027924035e-05,-3.174227635248343e-05,3.3333,4.4667
0.05859375,-3.5157910970931585e-05,-4.052854698283362e-05,-4.3949799421377906e-05,-3.223102670084689e-05,3.3333,4.4667
0.0625,-3.564666131929505e-05,-4.6387933343099125e-05,-4.7365434039826065e-05,-3.174227635248343e-05,3.3333,4.4667
0.06640625,-2.2950387902037106e-05,-3.955104628610668e-05,-3.7112912364385464e-05,-2.686039068894486e-05,3.3333,4.4667
0.0703125,-2.6371640340581394e-05,-3.466916062256812e-05,-3.564666131929505e-05,-2.3927888598764042e-05,3.3333,4.4667
0.07421875,-4.346104907301444e-05,-4.6387933343099125e-05,-3.5157910970931585e-05,-2.2950387902037106e-05,3.3333,4.4667
0.078125,-3.369165992584118e-05,-5.8595456411993605e-05,-3.7112912364385464e-05,-2.8321023913939143e-05,3.3333,4.4667
0.08203125,-3.80904130611124e-05,-5.8595456411993605e-05,-5.566857214190892e-05,-3.125352600411996e-05,3.3333,4.4667
0.0859375,-4.492730011810485e-05,-4.834293473655301e-05,-5.469107144518199e-05,-3.760166271274894e-05,3.3333,4.4667
0.08984375,-2.686039068894486e-05,-2.880977426230261e-05,-4.4438549769741386e-05,-3.955104628610668e-05,3.3333,4.4667
0.09375,-2.8321023913939143e-05,-2.3927888598764042e-05,-4.7365434039826065e-05,-3.174227635248343e-05,3.3333,4.4667
0.09765625,-4.3949799421377906e-05,-2.1972887205310157e-05,-4.1994798027924035e-05,-2.9298524610666075e-05,3.3333,4.4667
0.1015625,-3.369165992584118e-05,4.391542505836554e-06,-1.5141617968413853e-05,-2.7349141037308333e-05,3.3333,4.4667
0.10546875,-2.1972887205310157e-05,2.4365411123826704e-06,-3.076477565575649e-05,-4.0039796634470156e-05,3.3333,4.4667
0.109375,-1.1720365529869568e-05,-1.563036831677732e-05,-5.9084206760357085e-05,-4.932043543327994e-05,3.3333,4.4667
0.11328125,-1.8557252586862005e-05,-2.3927888598764042e-05,-5.761795571526667e-05,-4.68766836914626e-05,3.3333,4.4667
0.1171875,-2.3927888598764042e-05,-2.9787274959029552e-05,-5.8595456411993605e-05,-5.1269819006637696e-05,3.3333,4.4667
0.12109375,-9.770981956511818e-06,-3.564666131929505e-05,-5.810670606363014e-05,-6.445484277225913e-05,3.3333,4.4667
0.125,-1.025411448477915e-05,-3.6624162016022e-05,-5.8595456411993605e-05,-7.568486514442667e-05,3.3333,4.4667
0.12890625,-9.282231608148337e-06,-3.8579163409475876e-05,-6.152795850217444e-05,-7.568486514442667e-05,3.3333,4.4667
0.1328125,4.880292854200021e-06,-4.834293473655301e-05,-6.103920815381096e-05,-7.129172982925156e-05,3.3333,4.4667
0.13671875,9.273428169375122e-06,-4.24835483762875e-05,-5.7129205366903206e-05,-7.275798087434198e-05,3.3333,4.4667
0.140625,-8.793481259784869e-06,-3.613541166765853e-05,-5.9084206760357085e-05,-7.470736444769971e-05,3.3333,4.4667
0.14453125,-2.5882889992217924e-05,-4.4438549769741386e-05,-5.9084206760357085e-05,-7.373548157106891e-05,3.3333,4.4667
0.1484375,-2.7832273565575666e-05,-4.2972298724650974e-05,-6.055045780544749e-05,-7.422423191943237e-05,3.3333,4.4667
0.15234375,-2.880977426230261e-05,-4.7365434039826065e-05,-6.88479780874342e-05,-7.422423191943237e-05,3.3333,4.4667
0.15625,-2.1001004328679357e-05,-4.9809185781643416e-05,-6.152795850217444e-05,-7.226923052597851e-05,3.3333,4.4667
0.16015625,-9.282231608148337e-06,-3.466916062256812e-05,-5.8595456411993605e-05,-6.836484555916687e-05,3.3333,4.4667
0.1640625,-1.318661657495997e-05,-2.2950387902037106e-05,-6.055045780544749e-05,-6.152795850217444e-05,3.3333,4.4667
0.16796875,-2.3927888598764042e-05,-3.223102670084689e-05,-5.61573224902724e-05,-5.957295710872056e-05,3.3333,4.4667
0.171875,-2.2950387902037106e-05,-4.101729733119709e-05,-5.810670606363014e-05,-6.103920815381096e-05,3.3333,4.4667
0.17578125,-2.3927888598764042e-05,-4.4438549769741386e-05,-6.543234346898606e-05,-5.810670606363014e-05,3.3333,4.4667
0.1796875,-4.0039796634470156e-05,-4.2972298724650974e-05,-5.9084206760357085e-05,-5.957295710872056e-05,3.3333,4.4667
0.18359375,-3.906791375783935e-05,-4.2972298724650974e-05,-4.785418438818954e-05,-6.20167088505379e-05,3.3333,4.4667
0.1875,-2.6371640340581394e-05,-4.492730011810485e-05,-4.6387933343099125e-05,-5.8595456411993605e-05,3.3333,4.4667
0.19140625,-2.3927888598764042e-05,-4.3949799421377906e-05,-3.80904130611124e-05,-5.469107144518199e-05,3.3333,4.4667
0.1953125,-2.6371640340581394e-05,-4.2972298724650974e-05,-3.466916062256812e-05,-5.566857214190892e-05,3.3333,4.4667
0.19921875,-3.369165992584118e-05,-4.4438549769741386e-05,-4.6387933343099125e-05,-5.566857214190892e-05,3.3333,4.4667
0.203125,-3.760166271274894e-05,-4.6387933343099125e-05,-4.68766836914626e-05,-5.517982179354545e-05,3.3333,4.4667
0.20703125,-3.613541166765853e-05,-4.6387933343099125e-05,-3.760166271274894e-05,-5.761795571526667e-05,3.3333,4.4667
0.2109375,-3.466916062256812e-05,-4.785418438818954e-05,-2.1972887205310157e-05,-5.2247319703364635e-05,3.3333,4.4667
0.21484375,-3.564666131929505e-05,-4.24835483762875e-05,-2.5882889992217924e-05,-4.3949799421377906e-05,3.3333,4.4667
0.21875,-2.9298524610666075e-05,-3.760166271274894e-05,-3.5157910970931585e-05,-4.7365434039826065e-05,3.3333,4.4667
0.22265625,-3.174227635248343e-05,-3.5157910970931585e-05,-3.076477565575649e-05,-4.1994798027924035e-05,3.3333,4.4667
0.2265625,-3.564666131929505e-05,-2.5882889992217924e-05,-3.271977704921037e-05,-3.613541166765853e-05,3.3333,4.4667
0.23046875,-4.101729733119709e-05,-2.8321023913939143e-05,-4.24835483762875e-05,-4.1994798027924035e-05,3.3333,4.4667
0.234375,-4.150604767956056e-05,-3.760166271274894e-05,-4.492730011810485e-05,-4.1994798027924035e-05,3.3333,4.4667
0.23828125,-2.9787274959029552e-05,-3.076477565575649e-05,-4.052854698283362e-05,-4.4438549769741386e-05,3.3333,4.4667
0.2421875,-2.539413964385445e-05,-2.4905389295490985e-05,-3.320852739757384e-05,-4.6387933343099125e-05,3.3333,4.4667
0.24609375,-1.904600293522547e-05,-3.076477565575649e-05,-2.9787274959029552e-05,-4.68766836914626e-05,3.3333,4.4667
0.25,-2.002350363195242e-05,-3.223102670084689e-05,-2.9787274959029552e-05,-4.0039796634470156e-05,3.3333,4.4667
0.25390625,-3.223102670084689e-05,-2.880977426230261e-05,-3.0276025307393018e-05,-3.564666131929505e-05,3.3333,4.4667
0.2578125,-4.150604767956056e-05,-3.7112912364385464e-05,-4.492730011810485e-05,-4.346104907301444e-05,3.3333,4.4667
0.26171875,-4.101729733119709e-05,-3.7112912364385464e-05,-5.175856935500117e-05,-4.7365434039826065e-05,3.3333,4.4667
0.265625,-4.101729733119709e-05,-3.320852739757384e-05,-4.68766836914626e-05,-4.589918299473566e-05,3.3333,4.4667
0.26953125,-3.8579163409475876e-05,-3.223102670084689e-05,-4.24835483762875e-05,-4.785418438818954e-05,3.3333,4.4667
0.2734375,-2.7349141037308333e-05,-2.7832273565575666e-05,-3.223102670084689e-05,-4.785418438818954e-05,3.3333,4.4667
0.27734375,-2.686039068894486e-05,-3.6624162016022e-05,-3.271977704921037e-05,-4.7365434039826065e-05,3.3333,4.4667
0.28125,-3.320852739757384e-05,-3.955104628610668e-05,-3.369165992584118e-05,-3.8579163409475876e-05,3.3333,4.4667
0.28515625,-3.125352600411996e-05,-3.6624162016022e-05,-3.6624162016022e-05,-3.564666131929505e-05,3.3333,4.4667
0.2890625,-3.4180410274204646e-05,-3.906791375783935e-05,-3.564666131929505e-05,-4.101729733119709e-05,3.3333,4.4667
0.29296875,-3.271977704921037e-05,-4.6387933343099125e-05,-3.174227635248343e-05,-3.6624162016022e-05,3.3333,4.4667
0.296875,-3.223102670084689e-05,-4.68766836914626e-05,-2.539413964385445e-05,-2.7832273565575666e-05,3.3333,4.4667
0.30078125,-3.80904130611124e-05,-3.760166271274894e-05,-2.7832273565575666e-05,-3.0276025307393018e-05,3.3333,4.4667
0.3046875,-4.101729733119709e-05,-3.613541166765853e-05,-4.1994798027924035e-05,-3.760166271274894e-05,3.3333,4.4667
0.30859375,-3.076477565575649e-05,-3.955104628610668e-05,-3.613541166765853e-05,-4.101729733119709e-05,3.3333,4.4667
0.3125,-3.076477565575649e-05,-4.834293473655301e-05,-3.7112912364385464e-05,-3.7112912364385464e-05,3.3333,4.4667
0.31640625,-3.613541166765853e-05,-4.68766836914626e-05,-3.320852739757384e-05,-3.613541166765853e-05,3.3333,4.4667
0.3203125,-3.613541166765853e-05,-4.1994798027924035e-05,-3.320852739757384e-05,-4.346104907301444e-05,3.3333,4.4667
0.32421875,-3.760166271274894e-05,-4.932043543327994e-05,-4.3949799421377906e-05,-4.589918299473566e-05,3.3333,4.4667
0.328125,-3.80904130611124e-05,-5.371357074845505e-05,-4.7365434039826065e-05,-4.150604767956056e-05,3.3333,4.4667
0.33203125,-4.052854698283362e-05,-4.932043543327994e-05,-5.078668647837036e-05,-4.052854698283362e-05,3.3333,4.4667
0.3359375,-3.369165992584118e-05,-4.150604767956056e-05,-4.2972298724650974e-05,-3.613541166765853e-05,3.3333,4.4667
0.33984375,-3.0276025307393018e-05,-4.1994798027924035e-05,-4.0039796634470156e-05,-3.466916062256812e-05,3.3333,4.4667
0.34375,-3.955104628610668e-05,-4.589918299473566e-05,-4.052854698283362e-05,-4.101729733119709e-05,3.3333,4.4667
0.34765625,-3.760166271274894e-05,-4.24835483762875e-05,-4.150604767956056e-05,-4.834293473655301e-05,3.3333,4.4667
0.3515625,-4.1994798027924035e-05,-4.541043264637219e-05,-4.834293473655301e-05,-4.834293473655301e-05,3.3333,4.4667
0.35546875,-4.6387933343099125e-05,-5.4202321096818514e-05,-5.1269819006637696e-05,-4.1994798027924035e-05,3.3333,4.4667
0.359375,-3.7112912364385464e-05,-4.834293473655301e-05,-4.0039796634470156e-05,-3.80904130611124e-05,3.3333,4.4667
0.36328125,-3.076477565575649e-05,-4.150604767956056e-05,-2.7832273565575666e-05,-3.369165992584118e-05,3.3333,4.4667
0.3671875,-3.4180410274204646e-05,-4.3949799421377906e-05,-3.613541166765853e-05,-2.8321023913939143e-05,3.3333,4.4667
0.37109375,-3.7112912364385464e-05,-4.541043264637219e-05,-3.564666131929505e-05,-3.0276025307393018e-05,3.3333,4.4667
0.375,-3.271977704921037e-05,-5.078668647837036e-05,-3.174227635248343e-05,-3.80904130611124e-05,3.3333,4.4667
0.37890625,-2.5882889992217924e-05,-5.4202321096818514e-05,-3.466916062256812e-05,-3.076477565575649e-05,3.3333,4.4667
0.3828125,-2.2950387902037106e-05,-4.7365434039826065e-05,-4.0039796634470156e-05,-2.6371640340581394e-05,3.3333,4.4667
0.38671875,-3.369165992584118e-05,-4.932043543327994e-05,-4.4438549769741386e-05,-3.125352600411996e-05,3.3333,4.4667
0.390625,-3.4180410274204646e-05,-6.29885917271687e-05,-4.785418438818954e-05,-3.466916062256812e-05,3.3333,4.4667
0.39453125,-3.7112912364385464e-05,-7.66623658411536e-05,-5.810670606363014e-05,-3.369165992584118e-05,3.3333,4.4667
0.3984375,-3.174227635248343e-05,-8.349925289814605e-05,-6.6409844165713e-05,-2.880977426230261e-05,3.3333,4.4667
0.40234375,-1.953475328358894e-05,-8.984177178667889e-05,-7.51961147960632e-05,-2.3927888598764042e-05,3.3333,4.4667
0.40625,-2.4905389295490985e-05,-9.71674091920348e-05,-8.008361827969788e-05,-1.757975189013507e-05,3.3333,4.4667
0.41015625,-1.2697866226596502e-05,-0.00010546492947402153,-8.740363786495767e-05,-1.6113500845044653e-05,3.3333,4.4667
0.4140625,-1.0742864833142618e-05,-0.00013671686266880295,-0.00011425681792446786,-1.5141617968413853e-05,3.3333,4.4667
0.41796875,-1.3675366923323438e-05,-0.0001557612727946899,-0.0001328068598818952,-1.1720365529869568e-05,3.3333,4.4667
0.421875,-1.5928093385468856e-09,-0.00016796317804348821,-0.0001494131360860609,-1.2697866226596502e-05,3.3333,4.4667
0.42578125,-1.9565942027924306e-06,-0.00018896258956282904,-0.00016796317804348821,-1.1231615181506086e-05,3.3333,4.4667
0.4296875,5.857793550926956e-06,-0.00020458574725017165,-0.0001733394318754864,3.9027921574730725e-06,3.3333,4.4667
0.43359375,7.807177124284706e-06,-0.00022704579199450675,-0.00019677697731654842,-9.790935060654816e-07,3.3333,4.4667
0.4375,3.414041809109605e-06,-0.00023486017974822616,-0.000213377635700618,-7.327230214694467e-06,3.3333,4.4667
0.44140625,4.391542505836554e-06,-0.00022900079338796062,-0.0002055632479468986,-4.394728124513648e-06,3.3333,4.4667
0.4453125,1.0250928866102058e-05,-0.00023339392870313572,-0.00021679327031906613,-7.815980563057935e-06,3.3333,4.4667
0.44921875,1.6599065574731027e-05,-0.000231444545129778,-0.00021435513639734495,4.880292854200021e-06,3.3333,4.4667
0.453125,1.4644064181277157e-05,-0.00022655704164614327,-0.00018994009025955597,2.0503450541542662e-05,3.3333,4.4667
0.45703125,2.4365411123826704e-06,-0.00022167515598260472,-0.0001801707011123827,2.343595263172348e-05,3.3333,4.4667
0.4609375,1.4646582357518554e-06,-0.000201658862980087,-0.00016308129237994966,2.0014700193179193e-05,3.3333,4.4667
0.46484375,5.369043202563489e-06,-0.0001801707011123827,-0.0001557612727946899,1.562156487800409e-05,3.3333,4.4667
0.46875,-3.9115955962463e-06,-0.0001674800455152209,-0.00015722190601968414,1.8065316619821443e-05,3.3333,4.4667
0.47265625,-1.9565942027924306e-06,-0.00016259254203158618,-0.0001596656577615015,1.171717991119246e-05,3.3333,4.4667
0.4765625,-5.86097916960405e-06,-0.00015868815706477455,-0.00014892438573769744,-3.4228452478828328e-06,3.3333,4.4667
0.48046875,-1.806850223849854e-05,-0.0001503850189626917,-0.0001279249742183566,-8.304730911421401e-06,3.3333,4.4667
0.484375,-1.8557252586862005e-05,-0.00014306499937743192,-0.00011718370219455255,1.947790764019203e-06,3.3333,4.4667
0.48828125,-1.1720365529869568e-05,-0.00011669495184618908,-0.00010058304381048296,-1.4678438544289633e-06,3.3333,4.4667
0.4921875,-1.806850223849854e-05,-9.911679276539256e-05,-8.984177178667889e-05,-1.3675366923323438e-05,3.3333,4.4667
0.49609375,-3.0276025307393018e-05,-0.00010107179415884644,-8.10555011563287e-05,-1.6602251193408123e-05,3.3333,4.4667
0.5,-3.6624162016022e-05,-9.765054172030214e-05,-7.617361549279013e-05,-2.1001004328679357e-05,3.3333,4.4667
0.50390625,-3.613541166765853e-05,-7.568486514442667e-05,-7.129172982925156e-05,-2.3439138250400572e-05,3.3333,4.4667
0.5078125,-3.271977704921037e-05,-5.957295710872056e-05,-5.810670606363014e-05,-2.9787274959029552e-05,3.3333,4.4667
0.51171875,-3.4180410274204646e-05,-4.541043264637219e-05,-4.6387933343099125e-05,-4.492730011810485e-05,3.3333,4.4667
0.515625,-4.0039796634470156e-05,-3.8579163409475876e-05,-3.125352600411996e-05,-4.7365434039826065e-05,3.3333,4.4667
0.51953125,-4.2972298724650974e-05,-5.371357074845505e-05,-2.246163755367364e-05,-4.1994798027924035e-05,3.3333,4.4667
0.5234375,-4.932043543327994e-05,-5.029793613000689e-05,-2.1972887205310157e-05,-3.760166271274894e-05,3.3333,4.4667
0.52734375,-5.322482040009158e-05,-3.5157910970931585e-05,-1.3675366923323438e-05,-3.6624162016022e-05,3.3333,4.4667
0.53125,-4.4438549769741386e-05,-2.539413964385445e-05,-4.883478472877115e-06,-4.101729733119709e-05,3.3333,4.4667
0.53515625,-4.2972298724650974e-05,-2.686039068894486e-05,-4.883478472877115e-06,-4.150604767956056e-05,3.3333,4.4667
0.5390625,-4.4438549769741386e-05,-2.5882889992217924e-05,-1.4678438544289633e-06,-4.541043264637219e-05,3.3333,4.4667
0.54296875,-4.834293473655301e-05,-1.1231615181506086e-05,1.4155313832913676e-05,-4.4438549769741386e-05,3.3333,4.4667
0.546875,-5.566857214190892e-05,-3.9115955962463e-06,1.366656348455021e-05,-4.052854698283362e-05,3.3333,4.4667
0.55078125,-5.7129205366903206e-05,-7.815980563057935e-06,8.78467782101164e-06,-3.7112912364385464e-05,3.3333,4.4667
0.5546875,-4.346104907301444e-05,-1.5928093385468856e-09,2.4902203676813882e-05,-3.6624162016022e-05,3.3333,4.4667
0.55859375,-4.932043543327994e-05,4.391542505836554e-06,3.17334729137102e-05,-4.2972298724650974e-05,3.3333,4.4667
0.5625,-6.347734207553217e-05,4.391542505836554e-06,2.1969701586633064e-05,-4.101729733119709e-05,3.3333,4.4667
0.56640625,-5.517982179354545e-05,9.76217851773859e-06,2.1969701586633064e-05,-3.4180410274204646e-05,3.3333,4.4667
0.5703125,-5.2247319703364635e-05,9.273428169375122e-06,3.1244722565346736e-05,-3.760166271274894e-05,3.3333,4.4667
0.57421875,-5.61573224902724e-05,1.1228429562828992e-05,2.5874086553444696e-05,-4.883168508491648e-05,3.3333,4.4667
0.578125,-5.566857214190892e-05,1.7576566271457977e-05,2.0014700193179193e-05,-5.469107144518199e-05,3.3333,4.4667
0.58203125,-5.6646072838635866e-05,1.4644064181277157e-05,1.8554066968184913e-05,-5.322482040009158e-05,3.3333,4.4667
0.5859375,-6.103920815381096e-05,8.78467782101164e-06,2.782908794689858e-05,-4.492730011810485e-05,3.3333,4.4667
0.58984375,-6.152795850217444e-05,9.273428169375122e-06,4.4429746330968155e-05,-3.320852739757384e-05,3.3333,4.4667
0.59375,-5.4202321096818514e-05,1.611031522636756e-05,3.9547860667429604e-05,-3.6624162016022e-05,3.3333,4.4667
0.59765625,-5.2247319703364635e-05,1.562156487800409e-05,2.3924702980086946e-05,-4.2972298724650974e-05,3.3333,4.4667
0.6015625,-5.322482040009158e-05,1.7576566271457977e-05,1.4644064181277157e-05,-4.24835483762875e-05,3.3333,4.4667
0.60546875,-5.2247319703364635e-05,2.1480951238269595e-05,1.4155313832913676e-05,-4.68766836914626e-05,3.3333,4.4667
0.609375,-5.029793613000689e-05,1.9525949844815713e-05,1.904281731654838e-05,-5.029793613000689e-05,3.3333,4.4667
0.61328125,-5.322482040009158e-05,1.171717991119246e-05,1.9525949844815713e-05,-4.7365434039826065e-05,3.3333,4.4667
0.6171875,-5.6646072838635866e-05,9.273428169375122e-06,1.562156487800409e-05,-4.24835483762875e-05,3.3333,4.4667
0.62109375,-5.517982179354545e-05,1.366656348455021e-05,1.0739679214465524e-05,-4.150604767956056e-05,3.3333,4.4667
0.625,-5.469107144518199e-05,2.1480951238269595e-05,4.871575390249206e-07,-3.80904130611124e-05,3.3333,4.4667
0.62890625,-4.6387933343099125e-05,2.6362836901808165e-05,5.857793550926956e-06,-3.613541166765853e-05,3.3333,4.4667
0.6328125,-3.223102670084689e-05,6.835294247653906e-06,2.4902203676813882e-05,-4.1994798027924035e-05,3.3333,4.4667
0.63671875,-3.8579163409475876e-05,-1.318661657495997e-05,1.4155313832913676e-05,-4.0039796634470156e-05,3.3333,4.4667
0.640625,-5.2247319703364635e-05,-1.904600293522547e-05,-2.445344551155898e-06,-4.1994798027924035e-05,3.3333,4.4667
0.64453125,-5.029793613000689e-05,-9.282231608148337e-06,-1.5928093385468856e-09,-4.834293473655301e-05,3.3333,4.4667
0.6484375,-4.589918299473566e-05,-6.349729517967517e-06,3.9027921574730725e-06,-4.1994798027924035e-05,3.3333,4.4667
0.65234375,-4.7365434039826065e-05,-8.793481259784869e-06,-8.793481259784869e-06,-4.1994798027924035e-05,3.3333,4.4667
0.65625,-4.492730011810485e-05,2.4365411123826704e-06,-1.5141617968413853e-05,-4.785418438818954e-05,3.3333,4.4667
0.66015625,-4.150604767956056e-05,7.324044596017373e-06,-9.770981956511818e-06,-4.1994798027924035e-05,3.3333,4.4667
0.6640625,-4.1994798027924035e-05,8.78467782101164e-06,-4.394728124513648e-06,-3.8579163409475876e-05,3.3333,4.4667
0.66796875,-3.7112912364385464e-05,4.391542505836554e-06,9.759078873883879e-07,-4.24835483762875e-05,3.3333,4.4667
0.671875,-3.6624162016022e-05,-9.770981956511818e-06,-1.4678438544289633e-06,-4.3949799421377906e-05,3.3333,4.4667
0.67578125,-4.932043543327994e-05,-1.5141617968413853e-05,-1.1231615181506086e-05,-4.4438549769741386e-05,3.3333,4.4667
0.6796875,-5.2247319703364635e-05,-1.7091001541771603e-05,-1.1720365529869568e-05,-4.346104907301444e-05,3.3333,4.4667
0.68359375,-4.3949799421377906e-05,-1.6602251193408123e-05,-9.770981956511818e-06,-4.6387933343099125e-05,3.3333,4.4667
0.6875,-3.7112912364385464e-05,-1.3675366923323438e-05,-1.1231615181506086e-05,-4.785418438818954e-05,3.3333,4.4667
0.69140625,-3.564666131929505e-05,-1.563036831677732e-05,-1.318661657495997e-05,-4.101729733119709e-05,3.3333,4.4667
0.6953125,-3.5157910970931585e-05,-1.4164117271686904e-05,-1.0742864833142618e-05,-3.80904130611124e-05,3.3333,4.4667
0.69921875,-3.369165992584118e-05,-1.0742864833142618e-05,-1.0742864833142618e-05,-4.150604767956056e-05,3.3333,4.4667
0.703125,-4.0039796634470156e-05,-1.7091001541771603e-05,-1.0742864833142618e-05,-4.3949799421377906e-05,3.3333,4.4667
0.70703125,-5.4202321096818514e-05,-1.318661657495997e-05,-4.394728124513648e-06,-4.1994798027924035e-05,3.3333,4.4667
0.7109375,-4.785418438818954e-05,-2.445344551155898e-06,3.9027921574730725e-06,-3.955104628610668e-05,3.3333,4.4667
0.71484375,-4.3949799421377906e-05,-1.3675366923323438e-05,-1.9565942027924306e-06,-3.8579163409475876e-05,3.3333,4.4667
0.71875,-4.834293473655301e-05,-1.1231615181506086e-05,-1.2697866226596502e-05,-4.3949799421377906e-05,3.3333,4.4667
0.72265625,-4.101729733119709e-05,-6.349729517967517e-06,-1.318661657495997e-05,-4.68766836914626e-05,3.3333,4.4667
0.7265625,-3.6624162016022e-05,-3.564666131929505e-05,-2.686039068894486e-05,-3.8579163409475876e-05,3.3333,4.4667
0.73046875,-3.369165992584118e-05,-4.589918299473566e-05,-2.9787274959029552e-05,-3.8579163409475876e-05,3.3333,4.4667
0.734375,-3.320852739757384e-05,-3.369165992584118e-05,-2.686039068894486e-05,-4.883168508491648e-05,3.3333,4.4667
0.73828125,-3.613541166765853e-05,-3.174227635248343e-05,-2.6371640340581394e-05,-4.346104907301444e-05,3.3333,4.4667
0.7421875,-4.589918299473566e-05,-3.955104628610668e-05,-3.125352600411996e-05,-4.150604767956056e-05,3.3333,4.4667
0.74609375,-4.492730011810485e-05,-3.369165992584118e-05,-3.0276025307393018e-05,-4.589918299473566e-05,3.3333,4.4667
0.75,-3.4180410274204646e-05,-2.5882889992217924e-05,-3.076477565575649e-05,-4.150604767956056e-05,3.3333,4.4667
0.75390625,-3.955104628610668e-05,-2.880977426230261e-05,-3.369165992584118e-05,-3.7112912364385464e-05,3.3333,4.4667
0.7578125,-4.1994798027924035e-05,-3.466916062256812e-05,-2.7349141037308333e-05,-3.5157910970931585e-05,3.3333,4.4667
0.76171875,-3.955104628610668e-05,-3.320852739757384e-05,-2.246163755367364e-05,-4.101729733119709e-05,3.3333,4.4667
0.765625,-4.1994798027924035e-05,-2.2950387902037106e-05,-1.8557252586862005e-05,-4.492730011810485e-05,3.3333,4.4667
0.76953125,-3.6624162016022e-05,-2.3927888598764042e-05,-1.6602251193408123e-05,-4.052854698283362e-05,3.3333,4.4667
0.7734375,-3.5157910970931585e-05,-3.4180410274204646e-05,-1.757975189013507e-05,-3.80904130611124e-05,3.3333,4.4667
0.77734375,-4.101729733119709e-05,-4.24835483762875e-05,-1.904600293522547e-05,-4.4438549769741386e-05,3.3333,4.4667
0.78125,-4.2972298724650974e-05,-3.8579163409475876e-05,-2.002350363195242e-05,-4.0039796634470156e-05,3.3333,4.4667
0.78515625,-4.24835483762875e-05,-3.369165992584118e-05,-1.8557252586862005e-05,-3.5157910970931585e-05,3.3333,4.4667
0.7890625,-3.906791375783935e-05,-3.369165992584118e-05,-1.806850223849854e-05,-4.2972298724650974e-05,3.3333,4.4667
0.79296875,-3.369165992584118e-05,-4.101729733119709e-05,-2.8321023913939143e-05,-4.932043543327994e-05,3.3333,4.4667
0.796875,-3.369165992584118e-05,-4.7365434039826065e-05,-3.4180410274204646e-05,-4.3949799421377906e-05,3.3333,4.4667
0.80078125,-3.125352600411996e-05,-4.101729733119709e-05,-2.8321023913939143e-05,-3.613541166765853e-05,3.3333,4.4667
0.8046875,-2.3927888598764042e-05,-3.125352600411996e-05,-3.076477565575649e-05,-3.466916062256812e-05,3.3333,4.4667
0.80859375,-3.0276025307393018e-05,-3.4180410274204646e-05,-3.906791375783935e-05,-3.760166271274894e-05,3.3333,4.4667
0.8125,-3.4180410274204646e-05,-3.5157910970931585e-05,-3.174227635248343e-05,-4.1994798027924035e-05,3.3333,4.4667
0.81640625,-3.223102670084689e-05,-3.223102670084689e-05,-2.5882889992217924e-05,-4.492730011810485e-05,3.3333,4.4667
0.8203125,-4.150604767956056e-05,-3.6624162016022e-05,-3.5157910970931585e-05,-4.3949799421377906e-05,3.3333,4.4667
0.82421875,-4.150604767956056e-05,-2.7349141037308333e-05,-3.223102670084689e-05,-4.3949799421377906e-05,3.3333,4.4667
0.828125,-3.466916062256812e-05,-2.4905389295490985e-05,-1.8557252586862005e-05,-4.24835483762875e-05,3.3333,4.4667
0.83203125,-3.955104628610668e-05,-3.0276025307393018e-05,-2.8321023913939143e-05,-4.0039796634470156e-05,3.3333,4.4667
0.8359375,-3.6624162016022e-05,-3.466916062256812e-05,-3.5157910970931585e-05,-3.80904130611124e-05,3.3333,4.4667
0.83984375,-2.686039068894486e-05,-3.80904130611124e-05,-3.0276025307393018e-05,-4.1994798027924035e-05,3.3333,4.4667
0.84375,-2.9787274959029552e-05,-4.101729733119709e-05,-2.9298524610666075e-05,-4.101729733119709e-05,3.3333,4.4667
0.84765625,-4.0039796634470156e-05,-4.052854698283362e-05,-3.6624162016022e-05,-4.346104907301444e-05,3.3333,4.4667
0.8515625,-3.955104628610668e-05,-4.2972298724650974e-05,-3.8579163409475876e-05,-4.68766836914626e-05,3.3333,4.4667
0.85546875,-3.5157910970931585e-05,-4.4438549769741386e-05,-4.24835483762875e-05,-3.955104628610668e-05,3.3333,4.4667
0.859375,-3.466916062256812e-05,-4.3949799421377906e-05,-3.760166271274894e-05,-3.7112912364385464e-05,3.3333,4.4667
0.86328125,-3.80904130611124e-05,-4.346104907301444e-05,-2.7832273565575666e-05,-3.5157910970931585e-05,3.3333,4.4667
0.8671875,-4.6387933343099125e-05,-4.24835483762875e-05,-2.8321023913939143e-05,-2.7349141037308333e-05,3.3333,4.4667
0.87109375,-4.2972298724650974e-05,-4.7365434039826065e-05,-2.9787274959029552e-05,-2.2950387902037106e-05,3.3333,4.4667
0.875,-3.4180410274204646e-05,-5.2247319703364635e-05,-3.271977704921037e-05,-2.4416638947127508e-05,3.3333,4.4667
0.87890625,-2.9298524610666075e-05,-4.883168508491648e-05,-3.271977704921037e-05,-2.539413964385445e-05,3.3333,4.4667
0.8828125,-3.955104628610668e-05,-4.785418438818954e-05,-3.906791375783935e-05,-3.613541166765853e-05,3.3333,4.4667
0.88671875,-4.6387933343099125e-05,-4.24835483762875e-05,-4.4438549769741386e-05,-4.6387933343099125e-05,3.3333,4.4667
0.890625,-4.541043264637219e-05,-4.492730011810485e-05,-4.589918299473566e-05,-4.3949799421377906e-05,3.3333,4.4667
0.89453125,-4.541043264637219e-05,-4.68766836914626e-05,-5.1269819006637696e-05,-4.150604767956056e-05,3.3333,4.4667
0.8984375,-4.7365434039826065e-05,-4.6387933343099125e-05,-5.078668647837036e-05,-4.052854698283362e-05,3.3333,4.4667
0.90234375,-4.24835483762875e-05,-4.1994798027924035e-05,-4.1994798027924035e-05,-2.7832273565575666e-05,3.3333,4.4667
0.90625,-3.174227635248343e-05,-3.466916062256812e-05,-3.4180410274204646e-05,-2.4416638947127508e-05,3.3333,4.4667
0.91015625,-2.7349141037308333e-05,-4.052854698283362e-05,-3.8579163409475876e-05,-3.076477565575649e-05,3.3333,4.4667
0.9140625,-3.0276025307393018e-05,-4.834293473655301e-05,-3.6624162016022e-05,-3.076477565575649e-05,3.3333,4.4667
0.91796875,-3.613541166765853e-05,-5.761795571526667e-05,-2.3927888598764042e-05,-3.0276025307393018e-05,3.3333,4.4667
0.921875,-4.101729733119709e-05,-5.469107144518199e-05,-2.7349141037308333e-05,-2.4905389295490985e-05,3.3333,4.4667
0.92578125,-4.101729733119709e-05,-4.883168508491648e-05,-3.320852739757384e-05,-2.4416638947127508e-05,3.3333,4.4667
0.9296875,-5.078668647837036e-05,-5.6646072838635866e-05,-4.052854698283362e-05,-3.80904130611124e-05,3.3333,4.4667
0.93359375,-5.810670606363014e-05,-6.49435931206226e-05,-4.834293473655301e-05,-4.2972298724650974e-05,3.3333,4.4667
0.9375,-4.346104907301444e-05,-6.055045780544749e-05,-4.346104907301444e-05,-3.174227635248343e-05,3.3333,4.4667
0.94140625,-3.369165992584118e-05,-5.9084206760357085e-05,-3.0276025307393018e-05,-2.9787274959029552e-05,3.3333,4.4667
0.9453125,-4.4438549769741386e-05,-6.055045780544749e-05,-3.174227635248343e-05,-3.7112912364385464e-05,3.3333,4.4667
0.94921875,-5.029793613000689e-05,-4.9809185781643416e-05,-3.760166271274894e-05,-3.223102670084689e-05,3.3333,4.4667
0.953125,-4.834293473655301e-05,-5.4202321096818514e-05,-4.052854698283362e-05,-2.539413964385445e-05,3.3333,4.4667
0.95703125,-5.27360700517281e-05,-6.20167088505379e-05,-4.3949799421377906e-05,-3.320852739757384e-05,3.3333,4.4667
0.9609375,-5.810670606363014e-05,-5.517982179354545e-05,-3.7112912364385464e-05,-3.8579163409475876e-05,3.3333,4.4667
0.96484375,-5.469107144518199e-05,-4.346104907301444e-05,-3.80904130611124e-05,-3.760166271274894e-05,3.3333,4.4667
0.96875,-4.9809185781643416e-05,-3.8579163409475876e-05,-4.9809185781643416e-05,-4.4438549769741386e-05,3.3333,4.4667
0.97265625,-4.1994798027924035e-05,-3.906791375783935e-05,-4.68766836914626e-05,-4.4438549769741386e-05,3.3333,4.4667
0.9765625,-3.564666131929505e-05,-3.6624162016022e-05,-4.24835483762875e-05,-4.541043264637219e-05,3.3333,4.4667
0.98046875,-4.492730011810485e-05,-3.80904130611124e-05,-4.150604767956056e-05,-4.68766836914626e-05,3.3333,4.4667
0.984375,-4.492730011810485e-05,-4.3949799421377906e-05,-3.466916062256812e-05,-3.760166271274894e-05,3.3333,4.4667
0.98828125,-4.589918299473566e-05,-4.492730011810485e-05,-3.5157910970931585e-05,-4.541043264637219e-05,3.3333,4.4667
0.9921875,-4.589918299473566e-05,-4.7365434039826065e-05,-3.906791375783935e-05,-5.517982179354545e-05,3.3333,4.4667
0.99609375,-3.80904130611124e-05,-4.6387933343099125e-05,-4.492730011810485e-05,-4.883168508491648e-05,3.3333,4.4667
1.0,-3.5157910970931585e-05,-3.6624162016022e-05,-3.613541166765853e-05,-4.150604767956056e-05,3.3333,4.4667
1.00390625,-3.8579163409475876e-05,-3.6624162016022e-05,-3.760166271274894e-05,-3.7112912364385464e-05,3.3333,4.4667
1.0078125,-2.686039068894486e-05,-4.4438549769741386e-05,-4.1994798027924035e-05,-4.24835483762875e-05,3.3333,4.4667
1.01171875,-2.1972887205310157e-05,-4.3949799421377906e-05,-3.6624162016022e-05,-4.346104907301444e-05,3.3333,4.4667
1.015625,-3.906791375783935e-05,-4.346104907301444e-05,-3.8579163409475876e-05,-4.150604767956056e-05,3.3333,4.4667
1.01953125,-3.613541166765853e-05,-4.150604767956056e-05,-3.174227635248343e-05,-3.760166271274894e-05,3.3333,4.4667
1.0234375,-2.8321023913939143e-05,-3.4180410274204646e-05,-3.80904130611124e-05,-3.6624162016022e-05,3.3333,4.4667
1.02734375,-3.271977704921037e-05,-3.0276025307393018e-05,-4.9809185781643416e-05,-3.466916062256812e-05,3.3333,4.4667
1.03125,-3.174227635248343e-05,-3.076477565575649e-05,-4.785418438818954e-05,-3.320852739757384e-05,3.3333,4.4667
1.03515625,-2.9298524610666075e-05,-3.466916062256812e-05,-5.078668647837036e-05,-3.613541166765853e-05,3.3333,4.4667
1.0390625,-2.8321023913939143e-05,-3.5157910970931585e-05,-4.785418438818954e-05,-3.0276025307393018e-05,3.3333,4.4667
1.04296875,-3.271977704921037e-05,-2.5882889992217924e-05,-4.2972298724650974e-05,-3.613541166765853e-05,3.3333,4.4667
1.046875,-4.0039796634470156e-05,-2.539413964385445e-05,-4.3949799421377906e-05,-4.24835483762875e-05,3.3333,4.4667
1.05078125,-3.760166271274894e-05,-1.7091001541771603e-05,-3.760166271274894e-05,-3.271977704921037e-05,3.3333,4.4667
1.0546875,-3.369165992584118e-05,-2.3927888598764042e-05,-3.369165992584118e-05,-3.760166271274894e-05,3.3333,4.4667
1.05859375,-3.5157910970931585e-05,-5.469107144518199e-05,-2.7832273565575666e-05,-4.052854698283362e-05,3.3333,4.4667
1.0625,-3.7112912364385464e-05,-6.20167088505379e-05,-3.0276025307393018e-05,-3.369165992584118e-05,3.3333,4.4667
1.06640625,-3.760166271274894e-05,-5.27360700517281e-05,-2.4416638947127508e-05,-3.7112912364385464e-05,3.3333,4.4667
1.0703125,-3.271977704921037e-05,-4.834293473655301e-05,-2.686039068894486e-05,-3.564666131929505e-05,3.3333,4.4667
1.07421875,-2.686039068894486e-05,-5.8595456411993605e-05,-3.80904130611124e-05,-3.223102670084689e-05,3.3333,4.4667
1.078125,-2.7349141037308333e-05,-5.517982179354545e-05,-3.125352600411996e-05,-2.8321023913939143e-05,3.3333,4.4667
1.08203125,-3.4180410274204646e-05,-4.0039796634470156e-05,-2.539413964385445e-05,-3.5157910970931585e-05,3.3333,4.4667
1.0859375,-3.5157910970931585e-05,-3.760166271274894e-05,-2.051225398031589e-05,-3.906791375783935e-05,3.3333,4.4667
1.08984375,-3.80904130611124e-05,-4.101729733119709e-05,-3.7112912364385464e-05,-3.8579163409475876e-05,3.3333,4.4667
1.09375,-3.80904130611124e-05,-4.2972298724650974e-05,-4.492730011810485e-05,-4.492730011810485e-05,3.3333,4.4667
1.09765625,-3.80904130611124e-05,-4.541043264637219e-05,-3.80904130611124e-05,-4.2972298724650974e-05,3.3333,4.4667
1.1015625,-3.955104628610668e-05,-4.1994798027924035e-05,-4.492730011810485e-05,-3.760166271274894e-05,3.3333,4.4667
1.10546875,-3.320852739757384e-05,-3.369165992584118e-05,-3.760166271274894e-05,-3.320852739757384e-05,3.3333,4.4667
1.109375,-3.4180410274204646e-05,-4.150604767956056e-05,-2.5882889992217924e-05,-3.369165992584118e-05,3.3333,4.4667
1.11328125,-4.1994798027924035e-05,-5.175856935500117e-05,-2.4905389295490985e-05,-3.80904130611124e-05,3.3333,4.4667
1.1171875,-3.466916062256812e-05,-4.24835483762875e-05,-2.7349141037308333e-05,-3.223102670084689e-05,3.3333,4.4667
1.12109375,-2.880977426230261e-05,-3.80904130611124e-05,-3.80904130611124e-05,-2.880977426230261e-05,3.3333,4.4667
1.125,-3.0276025307393018e-05,-4.7365434039826065e-05,-4.68766836914626e-05,-3.5157910970931585e-05,3.3333,4.4667
1.12890625,-3.613541166765853e-05,-5.4202321096818514e-05,-4.150604767956056e-05,-3.564666131929505e-05,3.3333,4.4667
1.1328125,-3.8579163409475876e-05,-5.761795571526667e-05,-4.0039796634470156e-05,-3.0276025307393018e-05,3.3333,4.4667
1.13671875,-4.101729733119709e-05,-5.8595456411993605e-05,-4.24835483762875e-05,-3.4180410274204646e-05,3.3333,4.4667
1.140625,-4.150604767956056e-05,-5.7129205366903206e-05,-4.589918299473566e-05,-4.101729733119709e-05,3.3333,4.4667
1.14453125,-3.4180410274204646e-05,-5.175856935500117e-05,-4.3949799421377906e-05,-4.052854698283362e-05,3.3333,4.4667
1.1484375,-3.466916062256812e-05,-5.517982179354545e-05,-3.7112912364385464e-05,-4.0039796634470156e-05,3.3333,4.4667
1.15234375,-2.4416638947127508e-05,-4.883168508491648e-05,-3.076477565575649e-05,-4.150604767956056e-05,3.3333,4.4667
1.15625,-2.1489754677042823e-05,-5.4202321096818514e-05,-3.271977704921037e-05,-4.68766836914626e-05,3.3333,4.4667
1.16015625,-4.1994798027924035e-05,-6.78760952108034e-05,-3.955104628610668e-05,-4.883168508491648e-05,3.3333,4.4667
1.1640625,-3.466916062256812e-05,-5.566857214190892e-05,-4.0039796634470156e-05,-4.4438549769741386e-05,3.3333,4.4667
1.16796875,-3.223102670084689e-05,-4.6387933343099125e-05,-4.0039796634470156e-05,-3.906791375783935e-05,3.3333,4.4667
1.171875,-4.3949799421377906e-05,-5.029793613000689e-05,-4.101729733119709e-05,-4.589918299473566e-05,3.3333,4.4667
1.17578125,-3.564666131929505e-05,-5.7129205366903206e-05,-4.6387933343099125e-05,-5.175856935500117e-05,3.3333,4.4667
1.1796875,-3.0276025307393018e-05,-6.103920815381096e-05,-6.543234346898606e-05,-5.029793613000689e-05,3.3333,4.4667
1.18359375,-3.223102670084689e-05,-5.761795571526667e-05,-6.49435931206226e-05,-4.7365434039826065e-05,3.3333,4.4667
1.1875,-3.271977704921037e-05,-5.371357074845505e-05,-4.68766836914626e-05,-5.029793613000689e-05,3.3333,4.4667
1.19140625,-4.346104907301444e-05,-5.8595456411993605e-05,-3.760166271274894e-05,-4.6387933343099125e-05,3.3333,4.4667
1.1953125,-4.785418438818954e-05,-5.469107144518199e-05,-2.1972887205310157e-05,-3.564666131929505e-05,3.3333,4.4667
1.19921875,-2.9787274959029552e-05,-4.932043543327994e-05,-3.223102670084689e-05,-3.174227635248343e-05,3.3333,4.4667
1.203125,-2.002350363195242e-05,-5.175856935500117e-05,-5.175856935500117e-05,-3.906791375783935e-05,3.3333,4.4667
1.20703125,-2.5882889992217924e-05,-4.6387933343099125e-05,-5.7129205366903206e-05,-5.322482040009158e-05,3.3333,4.4667
1.2109375,-1.806850223849854e-05,-3.4180410274204646e-05,-5.078668647837036e-05,-5.469107144518199e-05,3.3333,4.4667
1.21484375,-1.953475328358894e-05,-4.0039796634470156e-05,-4.2972298724650974e-05,-5.61573224902724e-05,3.3333,4.4667
1.21875,-3.0276025307393018e-05,-5.029793613000689e-05,-4.4438549769741386e-05,-5.029793613000689e-05,3.3333,4.4667
1.22265625,-2.8321023913939143e-05,-4.589918299473566e-05,-4.150604767956056e-05,-4.785418438818954e-05,3.3333,4.4667
1.2265625,-2.3927888598764042e-05,-4.150604767956056e-05,-4.24835483762875e-05,-5.566857214190892e-05,3.3333,4.4667
1.23046875,-3.0276025307393018e-05,-4.492730011810485e-05,-5.27360700517281e-05,-6.0061707457084024e-05,3.3333,4.4667
1.234375,-2.9787274959029552e-05,-4.24835483762875e-05,-5.517982179354545e-05,-5.4202321096818514e-05,3.3333,4.4667
1.23828125,-2.880977426230261e-05,-3.076477565575649e-05,-4.346104907301444e-05,-4.834293473655301e-05,3.3333,4.4667
1.2421875,-3.0276025307393018e-05,-3.0276025307393018e-05,-3.6624162016022e-05,-4.9809185781643416e-05,3.3333,4.4667
1.24609375,-2.539413964385445e-05,-3.174227635248343e-05,-4.052854698283362e-05,-5.029793613000689e-05,3.3333,4.4667
1.25,-2.4905389295490985e-05,-3.466916062256812e-05,-5.517982179354545e-05,-4.6387933343099125e-05,3.3333,4.4667
1.25390625,-2.880977426230261e-05,-4.2972298724650974e-05,-6.396609242389565e-05,-4.492730011810485e-05,3.3333,4.4667
1.2578125,-2.880977426230261e-05,-4.492730011810485e-05,-5.371357074845505e-05,-4.150604767956056e-05,3.3333,4.4667
1.26171875,-2.686039068894486e-05,-3.369165992584118e-05,-4.541043264637219e-05,-4.101729733119709e-05,3.3333,4.4667
1.265625,-3.564666131929505e-05,-3.125352600411996e-05,-4.346104907301444e-05,-4.785418438818954e-05,3.3333,4.4667
1.26953125,-4.1994798027924035e-05,-3.5157910970931585e-05,-4.150604767956056e-05,-4.68766836914626e-05,3.3333,4.4667
1.2734375,-3.6624162016022e-05,-3.466916062256812e-05,-4.589918299473566e-05,-4.9809185781643416e-05,3.3333,4.4667
1.27734375,-3.271977704921037e-05,-3.4180410274204646e-05,-4.24835483762875e-05,-5.078668647837036e-05,3.3333,4.4667
1.28125,-3.076477565575649e-05,-3.4180410274204646e-05,-3.8579163409475876e-05,-4.101729733119709e-05,3.3333,4.4667
1.28515625,-1.2209115878233036e-05,-1.563036831677732e-05,-2.9787274959029552e-05,-3.076477565575649e-05,3.3333,4.4667
1.2890625,-1.1231615181506086e-05,-1.2209115878233036e-05,-2.539413964385445e-05,-3.369165992584118e-05,3.3333,4.4667
1.29296875,-2.1001004328679357e-05,-2.3927888598764042e-05,-2.2950387902037106e-05,-3.760166271274894e-05,3.3333,4.4667
1.296875,-2.246163755367364e-05,-2.9298524610666075e-05,-1.953475328358894e-05,-3.564666131929505e-05,3.3333,4.4667
1.30078125,-2.4905389295490985e-05,-4.541043264637219e-05,-1.3675366923323438e-05,-4.346104907301444e-05,3.3333,4.4667
1.3046875,-2.7349141037308333e-05,-3.8579163409475876e-05,-1.5928093385468856e-09,-4.834293473655301e-05,3.3333,4.4667
1.30859375,-1.953475328358894e-05,-2.5882889992217924e-05,-3.4228452478828328e-06,-4.589918299473566e-05,3.3333,4.4667
1.3125,-1.6113500845044653e-05,-2.4416638947127508e-05,-3.80904130611124e-05,-4.0039796634470156e-05,3.3333,4.4667
1.31640625,-2.051225398031589e-05,-2.880977426230261e-05,-6.055045780544749e-05,-3.466916062256812e-05,3.3333,4.4667
1.3203125,-2.8321023913939143e-05,-2.7832273565575666e-05,-3.955104628610668e-05,-3.369165992584118e-05,3.3333,4.4667
1.32421875,-3.369165992584118e-05,-2.7832273565575666e-05,-2.7832273565575666e-05,-3.7112912364385464e-05,3.3333,4.4667
1.328125,-3.4180410274204646e-05,-3.320852739757384e-05,-3.760166271274894e-05,-3.466916062256812e-05,3.3333,4.4667
1.33203125,-3.6624162016022e-05,-3.369165992584118e-05,-4.932043543327994e-05,-3.5157910970931585e-05,3.3333,4.4667
1.3359375,-3.271977704921037e-05,-2.9787274959029552e-05,-4.589918299473566e-05,-3.271977704921037e-05,3.3333,4.4667
1.33984375,-2.9298524610666075e-05,-2.4416638947127508e-05,-3.613541166765853e-05,-3.271977704921037e-05,3.3333,4.4667
1.34375,-2.6371640340581394e-05,-1.6113500845044653e-05,-3.4180410274204646e-05,-3.564666131929505e-05,3.3333,4.4667
1.34765625,-2.3439138250400572e-05,-2.686039068894486e-05,-2.7832273565575666e-05,-3.223102670084689e-05,3.3333,4.4667
1.3515625,-2.880977426230261e-05,-4.7365434039826065e-05,-2.002350363195242e-05,-2.9298524610666075e-05,3.3333,4.4667
1.35546875,-3.80904130611124e-05,-5.2247319703364635e-05,-2.6371640340581394e-05,-2.8321023913939143e-05,3.3333,4.4667
1.359375,-3.955104628610668e-05,-4.346104907301444e-05,-3.906791375783935e-05,-2.8321023913939143e-05,3.3333,4.4667
1.36328125,-3.80904130611124e-05,-3.613541166765853e-05,-3.369165992584118e-05,-2.880977426230261e-05,3.3333,4.4667
1.3671875,-3.564666131929505e-05,-3.564666131929505e-05,-2.6371640340581394e-05,-2.6371640340581394e-05,3.3333,4.4667
1.37109375,-2.8321023913939143e-05,-4.492730011810485e-05,-2.8321023913939143e-05,-2.5882889992217924e-05,3.3333,4.4667
1.375,-3.0276025307393018e-05,-6.396609242389565e-05,-3.906791375783935e-05,-3.125352600411996e-05,3.3333,4.4667
1.37890625,-3.613541166765853e-05,-6.29885917271687e-05,-4.052854698283362e-05,-3.271977704921037e-05,3.3333,4.4667
1.3828125,-3.6624162016022e-05,-5.8595456411993605e-05,-2.686039068894486e-05,-2.4905389295490985e-05,3.3333,4.4667
1.38671875,-3.760166271274894e-05,-5.371357074845505e-05,-2.3439138250400572e-05,-2.5882889992217924e-05,3.3333,4.4667
1.390625,-2.5882889992217924e-05,-4.7365434039826065e-05,-3.125352600411996e-05,-2.9298524610666075e-05,3.3333,4.4667
1.39453125,-2.002350363195242e-05,-5.566857214190892e-05,-3.4180410274204646e-05,-2.1001004328679357e-05,3.3333,4.4667
1.3984375,-4.346104907301444e-05,-6.0061707457084024e-05,-3.906791375783935e-05,-2.246163755367364e-05,3.3333,4.4667
1.40234375,-4.834293473655301e-05,-5.517982179354545e-05,-3.466916062256812e-05,-2.539413964385445e-05,3.3333,4.4667
1.40625,-4.24835483762875e-05,-5.27360700517281e-05,-2.880977426230261e-05,-2.4905389295490985e-05,3.3333,4.4667
1.41015625,-3.466916062256812e-05,-4.7365434039826065e-05,-3.223102670084689e-05,-2.880977426230261e-05,3.3333,4.4667
1.4140625,-3.223102670084689e-05,-4.9809185781643416e-05,-4.3949799421377906e-05,-3.955104628610668e-05,3.3333,4.4667
1.41796875,-3.466916062256812e-05,-4.834293473655301e-05,-3.613541166765853e-05,-3.7112912364385464e-05,3.3333,4.4667
1.421875,-2.6371640340581394e-05,-3.7112912364385464e-05,-2.5882889992217924e-05,-3.369165992584118e-05,3.3333,4.4667
1.42578125,-2.6371640340581394e-05,-3.369165992584118e-05,-2.3927888598764042e-05,-3.80904130611124e-05,3.3333,4.4667
1.4296875,-2.686039068894486e-05,-3.564666131929505e-05,-2.1001004328679357e-05,-3.174227635248343e-05,3.3333,4.4667
1.43359375,-1.806850223849854e-05,-3.8579163409475876e-05,-3.0276025307393018e-05,-3.0276025307393018e-05,3.3333,4.4667
1.4375,-2.686039068894486e-05,-4.1994798027924035e-05,-3.271977704921037e-05,-3.7112912364385464e-05,3.3333,4.4667
1.44140625,-3.613541166765853e-05,-3.80904130611124e-05,-1.3675366923323438e-05,-2.6371640340581394e-05,3.3333,4.4667
1.4453125,-3.4180410274204646e-05,-2.4416638947127508e-05,-1.1231615181506086e-05,-2.246163755367364e-05,3.3333,4.4667
1.44921875,-2.9787274959029552e-05,-2.3927888598764042e-05,-3.5157910970931585e-05,-3.125352600411996e-05,3.3333,4.4667
1.453125,-2.2950387902037106e-05,-2.3439138250400572e-05,-4.24835483762875e-05,-2.7349141037308333e-05,3.3333,4.4667
1.45703125,-2.002350363195242e-05,-1.1720365529869568e-05,-3.955104628610668e-05,-2.7832273565575666e-05,3.3333,4.4667
1.4609375,-3.4180410274204646e-05,-3.4180410274204646e-05,-4.1994798027924035e-05,-3.5157910970931585e-05,3.3333,4.4667
1.46484375,-3.760166271274894e-05,-4.541043264637219e-05,-4.492730011810485e-05,-3.955104628610668e-05,3.3333,4.4667
1.46875,-3.271977704921037e-05,-3.955104628610668e-05,-3.955104628610668e-05,-3.5157910970931585e-05,3.3333,4.4667
1.47265625,-3.125352600411996e-05,-5.27360700517281e-05,-3.369165992584118e-05,-3.174227635248343e-05,3.3333,4.4667
1.4765625,-3.4180410274204646e-05,-4.834293473655301e-05,-3.613541166765853e-05,-3.4180410274204646e-05,3.3333,4.4667
1.48046875,-3.564666131929505e-05,-4.2972298724650974e-05,-3.80904130611124e-05,-4.1994798027924035e-05,3.3333,4.4667
1.484375,-2.539413964385445e-05,-4.1994798027924035e-05,-3.760166271274894e-05,-3.4180410274204646e-05,3.3333,4.4667
1.48828125,-2.539413964385445e-05,-4.346104907301444e-05,-2.9787274959029552e-05,-2.7349141037308333e-05,3.3333,4.4667
1.4921875,-3.0276025307393018e-05,-4.492730011810485e-05,-3.5157910970931585e-05,-3.466916062256812e-05,3.3333,4.4667
1.49609375,-3.7112912364385464e-05,-4.4438549769741386e-05,-3.4180410274204646e-05,-3.906791375783935e-05,3.3333,4.4667
1.5,-3.4180410274204646e-05,-5.029793613000689e-05,-3.076477565575649e-05,-3.4180410274204646e-05,3.3333,4.4667
1.50390625,-3.564666131929505e-05,-5.371357074845505e-05,-3.5157910970931585e-05,-2.6371640340581394e-05,3.3333,4.4667
1.5078125,-4.0039796634470156e-05,-4.834293473655301e-05,-3.955104628610668e-05,-2.246163755367364e-05,3.3333,4.4667
1.51171875,-3.564666131929505e-05,-4.7365434039826065e-05,-4.1994798027924035e-05,-2.7832273565575666e-05,3.3333,4.4667
1.515625,-3.271977704921037e-05,-5.1269819006637696e-05,-4.0039796634470156e-05,-3.271977704921037e-05,3.3333,4.4667
1.51953125,-3.320852739757384e-05,-5.2247319703364635e-05,-5.322482040009158e-05,-3.076477565575649e-05,3.3333,4.4667
1.5234375,-3.369165992584118e-05,-4.68766836914626e-05,-5.4202321096818514e-05,-3.4180410274204646e-05,3.3333,4.4667
1.52734375,-3.076477565575649e-05,-4.785418438818954e-05,-4.68766836914626e-05,-3.466916062256812e-05,3.3333,4.4667
1.53125,-3.076477565575649e-05,-4.4438549769741386e-05,-4.0039796634470156e-05,-3.760166271274894e-05,3.3333,4.4667
1.53515625,-3.7112912364385464e-05,-4.68766836914626e-05,-4.541043264637219e-05,-4.0039796634470156e-05,3.3333,4.4667
1.5390625,-3.955104628610668e-05,-5.175856935500117e-05,-5.4202321096818514e-05,-3.906791375783935e-05,3.3333,4.4667
1.54296875,-3.955104628610668e-05,-4.68766836914626e-05,-5.27360700517281e-05,-4.24835483762875e-05,3.3333,4.4667
1.546875,-4.0039796634470156e-05,-4.052854698283362e-05,-5.469107144518199e-05,-4.492730011810485e-05,3.3333,4.4667
1.55078125,-3.760166271274894e-05,-2.9298524610666075e-05,-5.957295710872056e-05,-3.760166271274894e-05,3.3333,4.4667
1.5546875,-3.320852739757384e-05,-3.564666131929505e-05,-4.932043543327994e-05,-2.4416638947127508e-05,3.3333,4.4667
1.55859375,-3.906791375783935e-05,-3.6624162016022e-05,-4.492730011810485e-05,-2.686039068894486e-05,3.3333,4.4667
1.5625,-4.24835483762875e-05,-3.8579163409475876e-05,-4.101729733119709e-05,-2.9787274959029552e-05,3.3333,4.4667
1.56640625,-3.564666131929505e-05,-2.7832273565575666e-05,-5.078668647837036e-05,-3.223102670084689e-05,3.3333,4.4667
1.5703125,-4.052854698283362e-05,-2.051225398031589e-05,-5.957295710872056e-05,-4.150604767956056e-05,3.3333,4.4667
1.57421875,-4.834293473655301e-05,-2.051225398031589e-05,-3.8579163409475876e-05,-4.0039796634470156e-05,3.3333,4.4667
1.578125,-2.7349141037308333e-05,-7.815980563057935e-06,-4.2972298724650974e-05,-4.346104907301444e-05,3.3333,4.4667
1.58203125,-1.4652867620050386e-05,-3.076477565575649e-05,-7.422423191943237e-05,-4.68766836914626e-05,3.3333,4.4667
1.5859375,-2.1972887205310157e-05,-6.0061707457084024e-05,-6.933672843579767e-05,-4.834293473655301e-05,3.3333,4.4667
1.58984375,-2.539413964385445e-05,-5.61573224902724e-05,-5.6646072838635866e-05,-5.4202321096818514e-05,3.3333,4.4667
1.59375,-9.770981956511818e-06,-6.982547878416117e-05,-7.129172982925156e-05,-5.9084206760357085e-05,3.3333,4.4667
1.59765625,9.759078873883879e-07,-8.886427108995195e-05,-8.447675359487298e-05,-6.543234346898606e-05,3.3333,4.4667
1.6015625,-1.025411448477915e-05,-8.398800324650952e-05,-7.66623658411536e-05,-7.470736444769971e-05,3.3333,4.4667
1.60546875,-1.3675366923323438e-05,-7.763986653788055e-05,-8.935302143831542e-05,-7.959486793133441e-05,3.3333,4.4667
1.609375,-7.815980563057935e-06,-8.349925289814605e-05,-0.00010546492947402153,-9.13080228317693e-05,3.3333,4.4667
1.61328125,-1.1231615181506086e-05,-8.496550394323645e-05,-0.00010448742877729459,-0.00010204929485557337,3.3333,4.4667
1.6171875,-2.051225398031589e-05,-7.812861688624401e-05,-0.0001000942934621195,-9.667865884367134e-05,3.3333,4.4667
1.62109375,-2.2950387902037106e-05,-6.49435931206226e-05,-8.740363786495767e-05,-8.691488751659421e-05,3.3333,4.4667
1.625,-1.3675366923323438e-05,-6.396609242389565e-05,-7.812861688624401e-05,-8.447675359487298e-05,3.3333,4.4667
1.62890625,-1.953475328358894e-05,-6.396609242389565e-05,-7.08029794808881e-05,-8.59430046399634e-05,3.3333,4.4667
1.6328125,-1.904600293522547e-05,-5.469107144518199e-05,-6.738734486243993e-05,-7.812861688624401e-05,3.3333,4.4667
1.63671875,-1.953475328358894e-05,-5.9084206760357085e-05,-6.982547878416117e-05,-6.836484555916687e-05,3.3333,4.4667
1.640625,-2.4905389295490985e-05,-5.761795571526667e-05,-6.88479780874342e-05,-6.836484555916687e-05,3.3333,4.4667
1.64453125,-2.880977426230261e-05,-4.834293473655301e-05,-7.568486514442667e-05,-6.78760952108034e-05,3.3333,4.4667
1.6484375,-3.369165992584118e-05,-4.68766836914626e-05,-6.20167088505379e-05,-6.152795850217444e-05,3.3333,4.4667
1.65234375,-2.7832273565575666e-05,-3.4180410274204646e-05,-6.055045780544749e-05,-5.810670606363014e-05,3.3333,4.4667
1.65625,-1.7091001541771603e-05,-2.1001004328679357e-05,-7.275798087434198e-05,-6.103920815381096e-05,3.3333,4.4667
1.66015625,-2.539413964385445e-05,-3.369165992584118e-05,-5.9084206760357085e-05,-6.445484277225913e-05,3.3333,4.4667
1.6640625,-3.0276025307393018e-05,-4.4438549769741386e-05,-4.346104907301444e-05,-5.810670606363014e-05,3.3333,4.4667
1.66796875,-2.5882889992217924e-05,-4.589918299473566e-05,-4.492730011810485e-05,-5.371357074845505e-05,3.3333,4.4667
1.671875,-2.686039068894486e-05,-4.834293473655301e-05,-5.078668647837036e-05,-5.2247319703364635e-05,3.3333,4.4667
1.67578125,-2.3927888598764042e-05,-4.150604767956056e-05,-5.61573224902724e-05,-5.810670606363014e-05,3.3333,4.4667
1.6796875,-3.174227635248343e-05,-4.541043264637219e-05,-5.7129205366903206e-05,-5.7129205366903206e-05,3.3333,4.4667
1.68359375,-2.9787274959029552e-05,-4.052854698283362e-05,-4.052854698283362e-05,-4.7365434039826065e-05,3.3333,4.4667
1.6875,-1.6113500845044653e-05,-3.7112912364385464e-05,-3.7112912364385464e-05,-5.2247319703364635e-05,3.3333,4.4667
1.69140625,-2.880977426230261e-05,-5.27360700517281e-05,-5.9084206760357085e-05,-5.7129205366903206e-05,3.3333,4.4667
1.6953125,-3.466916062256812e-05,-4.785418438818954e-05,-6.20167088505379e-05,-4.883168508491648e-05,3.3333,4.4667
1.69921875,-2.3927888598764042e-05,-5.078668647837036e-05,-4.785418438818954e-05,-4.9809185781643416e-05,3.3333,4.4667
1.703125,-1.4652867620050386e-05,-5.566857214190892e-05,-4.4438549769741386e-05,-5.810670606363014e-05,3.3333,4.4667
1.70703125,-1.757975189013507e-05,-5.1269819006637696e-05,-4.9809185781643416e-05,-5.957295710872056e-05,3.3333,4.4667
1.7109375,-3.369165992584118e-05,-5.6646072838635866e-05,-5.957295710872056e-05,-7.178048017761503e-05,3.3333,4.4667
1.71484375,-3.223102670084689e-05,-2.7832273565575666e-05,-4.541043264637219e-05,-7.763986653788055e-05,3.3333,4.4667
1.71875,-2.686039068894486e-05,-1.6113500845044653e-05,-3.223102670084689e-05,-4.492730011810485e-05,3.3333,4.4667
1.72265625,-2.7832273565575666e-05,-4.052854698283362e-05,-4.9809185781643416e-05,-2.4905389295490985e-05,3.3333,4.4667
1.7265625,-3.320852739757384e-05,-5.2247319703364635e-05,-5.761795571526667e-05,-2.4416638947127508e-05,3.3333,4.4667
1.73046875,-3.174227635248343e-05,-6.055045780544749e-05,-4.3949799421377906e-05,-9.770981956511818e-06,3.3333,4.4667
1.734375,-3.613541166765853e-05,-6.396609242389565e-05,-4.589918299473566e-05,1.947790764019203e-06,3.3333,4.4667
1.73828125,-4.785418438818954e-05,-6.055045780544749e-05,-5.761795571526667e-05,1.171717991119246e-05,3.3333,4.4667
1.7421875,-5.322482040009158e-05,-6.347734207553217e-05,-5.175856935500117e-05,2.685158725017163e-05,3.3333,4.4667
1.74609375,-5.7129205366903206e-05,-6.152795850217444e-05,-4.150604767956056e-05,3.905911031906612e-05,3.3333,4.4667
1.75,-5.7129205366903206e-05,-5.61573224902724e-05,-3.906791375783935e-05,4.8339749117875925e-05,3.3333,4.4667
1.75390625,-6.78760952108034e-05,-4.9809185781643416e-05,-4.2972298724650974e-05,4.345224563424122e-05,3.3333,4.4667
1.7578125,-6.689859451407647e-05,-4.101729733119709e-05,-3.320852739757384e-05,3.5154725352254486e-05,3.3333,4.4667
1.76171875,-4.9809185781643416e-05,-3.80904130611124e-05,-4.4438549769741386e-05,3.17334729137102e-05,3.3333,4.4667
1.765625,-5.029793613000689e-05,-3.5157910970931585e-05,-5.4202321096818514e-05,3.222222326207367e-05,3.3333,4.4667
1.76953125,-5.761795571526667e-05,-3.174227635248343e-05,-3.955104628610668e-05,3.07615900370794e-05,3.3333,4.4667
1.7734375,-4.883168508491648e-05,-3.6624162016022e-05,-2.051225398031589e-05,2.782908794689858e-05,3.3333,4.4667
1.77734375,-4.1994798027924035e-05,-3.466916062256812e-05,-1.4164117271686904e-05,2.4902203676813882e-05,3.3333,4.4667
1.78125,-4.785418438818954e-05,-4.101729733119709e-05,-2.2950387902037106e-05,1.9525949844815713e-05,3.3333,4.4667
1.78515625,-4.68766836914626e-05,-3.6624162016022e-05,-2.246163755367364e-05,1.562156487800409e-05,3.3333,4.4667
1.7890625,-5.029793613000689e-05,-3.0276025307393018e-05,-1.3675366923323438e-05,1.6599065574731027e-05,3.3333,4.4667
1.79296875,-5.469107144518199e-05,-4.3949799421377906e-05,-2.3439138250400572e-05,1.8065316619821443e-05,3.3333,4.4667
1.796875,-5.029793613000689e-05,-4.4438549769741386e-05,-2.1972887205310157e-05,1.8554066968184913e-05,3.3333,4.4667
1.80078125,-5.1269819006637696e-05,-4.0039796634470156e-05,-2.1001004328679357e-05,1.4155313832913676e-05,3.3333,4.4667
1.8046875,-4.932043543327994e-05,-4.052854698283362e-05,-2.5882889992217924e-05,9.76217851773859e-06,3.3333,4.4667
1.80859375,-4.6387933343099125e-05,-3.564666131929505e-05,-9.282231608148337e-06,9.273428169375122e-06,3.3333,4.4667
1.8125,-4.3949799421377906e-05,-3.223102670084689e-05,-1.6113500845044653e-05,9.76217851773859e-06,3.3333,4.4667
1.81640625,-4.150604767956056e-05,-3.466916062256812e-05,-1.806850223849854e-05,5.369043202563489e-06,3.3333,4.4667
1.8203125,-4.492730011810485e-05,-2.3439138250400572e-05,-1.4652867620050386e-05,-4.903431577020143e-07,3.3333,4.4667
1.82421875,-3.760166271274894e-05,-2.1001004328679357e-05,-2.1489754677042823e-05,-8.304730911421401e-06,3.3333,4.4667
1.828125,-4.101729733119709e-05,-3.5157910970931585e-05,-1.8557252586862005e-05,-1.318661657495997e-05,3.3333,4.4667
1.83203125,-4.68766836914626e-05,-3.5157910970931585e-05,-1.563036831677732e-05,-6.838479866330999e-06,3.3333,4.4667
1.8359375,-4.4438549769741386e-05,-2.3439138250400572e-05,-2.4416638947127508e-05,9.759078873883879e-07,3.3333,4.4667
1.83984375,-4.4438549769741386e-05,-2.1001004328679357e-05,-2.686039068894486e-05,2.4365411123826704e-06,3.3333,4.4667
1.84375,-3.80904130611124e-05,-3.7112912364385464e-05,-2.246163755367364e-05,-5.86097916960405e-06,3.3333,4.4667
1.84765625,-3.564666131929505e-05,-3.906791375783935e-05,-3.271977704921037e-05,-1.4164117271686904e-05,3.3333,4.4667
1.8515625,-3.955104628610668e-05,-3.320852739757384e-05,-4.150604767956056e-05,-1.757975189013507e-05,3.3333,4.4667
1.85546875,-4.346104907301444e-05,-4.24835483762875e-05,-3.369165992584118e-05,-2.1001004328679357e-05,3.3333,4.4667
1.859375,-4.4438549769741386e-05,-3.955104628610668e-05,-1.7091001541771603e-05,-1.7091001541771603e-05,3.3333,4.4667
1.86328125,-4.3949799421377906e-05,-2.9787274959029552e-05,-4.394728124513648e-06,-4.394728124513648e-06,3.3333,4.4667
1.8671875,-4.101729733119709e-05,-2.6371640340581394e-05,-3.613541166765853e-05,-4.394728124513648e-06,3.3333,4.4667
1.87109375,-3.906791375783935e-05,-2.9298524610666075e-05,-5.8595456411993605e-05,-1.563036831677732e-05,3.3333,4.4667
1.875,-4.150604767956056e-05,-3.955104628610668e-05,-5.1269819006637696e-05,-1.8557252586862005e-05,3.3333,4.4667
1.87890625,-3.760166271274894e-05,-3.320852739757384e-05,-4.492730011810485e-05,-1.806850223849854e-05,3.3333,4.4667
1.8828125,-4.1994798027924035e-05,-3.0276025307393018e-05,-3.174227635248343e-05,-1.3675366923323438e-05,3.3333,4.4667
1.88671875,-4.589918299473566e-05,-3.613541166765853e-05,-2.8321023913939143e-05,-2.2950387902037106e-05,3.3333,4.4667
1.890625,-4.492730011810485e-05,-3.8579163409475876e-05,-3.5157910970931585e-05,-2.7349141037308333e-05,3.3333,4.4667
1.89453125,-4.883168508491648e-05,-3.223102670084689e-05,-3.906791375783935e-05,-2.4905389295490985e-05,3.3333,4.4667
1.8984375,-5.175856935500117e-05,-2.686039068894486e-05,-3.8579163409475876e-05,-2.9298524610666075e-05,3.3333,4.4667
1.90234375,-4.785418438818954e-05,-1.8557252586862005e-05,-4.1994798027924035e-05,-2.7832273565575666e-05,3.3333,4.4667
1.90625,-3.760166271274894e-05,-7.815980563057935e-06,-3.4180410274204646e-05,-2.9787274959029552e-05,3.3333,4.4667
1.91015625,-4.150604767956056e-05,-1.4652867620050386e-05,-3.0276025307393018e-05,-2.9787274959029552e-05,3.3333,4.4667
1.9140625,-3.271977704921037e-05,-2.1489754677042823e-05,-2.7832273565575666e-05,-2.539413964385445e-05,3.3333,4.4667
1.91796875,-2.9298524610666075e-05,-3.564666131929505e-05,-1.4652867620050386e-05,-2.9787274959029552e-05,3.3333,4.4667
1.921875,-4.24835483762875e-05,-3.8579163409475876e-05,-1.6602251193408123e-05,-3.369165992584118e-05,3.3333,4.4667
1.92578125,-3.466916062256812e-05,-1.8557252586862005e-05,-2.9787274959029552e-05,-3.320852739757384e-05,3.3333,4.4667
1.9296875,-3.564666131929505e-05,-1.2209115878233036e-05,-3.613541166765853e-05,-3.076477565575649e-05,3.3333,4.4667
1.93359375,-4.2972298724650974e-05,-2.1489754677042823e-05,-3.8579163409475876e-05,-2.2950387902037106e-05,3.3333,4.4667
1.9375,-3.80904130611124e-05,-2.002350363195242e-05,-3.906791375783935e-05,-2.4905389295490985e-05,3.3333,4.4667
1.94140625,-4.0039796634470156e-05,-1.953475328358894e-05,-3.955104628610668e-05,-2.9298524610666075e-05,3.3333,4.4667
1.9453125,-4.052854698283362e-05,-3.0276025307393018e-05,-3.7112912364385464e-05,-2.4905389295490985e-05,3.3333,4.4667
1.94921875,-3.564666131929505e-05,-2.8321023913939143e-05,-3.0276025307393018e-05,-2.2950387902037106e-05,3.3333,4.4667
1.953125,-3.0276025307393018e-05,-2.9787274959029552e-05,-2.1489754677042823e-05,-2.539413964385445e-05,3.3333,4.4667
1.95703125,-2.4416638947127508e-05,-4.101729733119709e-05,-3.320852739757384e-05,-2.539413964385445e-05,3.3333,4.4667
1.9609375,-3.174227635248343e-05,-4.150604767956056e-05,-5.1269819006637696e-05,-2.246163755367364e-05,3.3333,4.4667
1.96484375,-2.880977426230261e-05,-4.4438549769741386e-05,-5.810670606363014e-05,-2.2950387902037106e-05,3.3333,4.4667
1.96875,-2.7832273565575666e-05,-6.6409844165713e-05,-6.396609242389565e-05,-1.8557252586862005e-05,3.3333,4.4667
1.97265625,-2.1972887205310157e-05,-7.373548157106891e-05,-6.347734207553217e-05,-6.349729517967517e-06,3.3333,4.4667
1.9765625,-9.282231608148337e-06,-6.933672843579767e-05,-6.445484277225913e-05,7.807177124284706e-06,3.3333,4.4667
1.98046875,-1.6602251193408123e-05,-8.838113856168462e-05,-8.203300185305564e-05,1.4646582357518554e-06,3.3333,4.4667
1.984375,-2.2950387902037106e-05,-0.00011913870358800642,-9.276865605676358e-05,4.880292854200021e-06,3.3333,4.4667
1.98828125,-1.953475328358894e-05,-0.00011669495184618908,-0.000105953679822385,6.835294247653906e-06,3.3333,4.4667
1.9921875,-1.0742864833142618e-05,-0.00012743622386999313,-0.00013720561301716643,5.857793550926956e-06,3.3333,4.4667
1.99609375,2.4365411123826704e-06,-0.00015819940671641107,-0.00014208749868070496,1.366656348455021e-05,3.3333,4.4667
2.0,4.871575390249206e-07,-0.00017724381684229804,-0.00016015440810986497,8.78467782101164e-06,3.3333,4.4667
2.00390625,-1.5928093385468856e-09,-0.00017871006788738845,-0.00018408070389929048,1.1228429562828992e-05,3.3333,4.4667
2.0078125,2.4365411123826704e-06,-0.00019237822418127716,-0.00019482197592309456,2.0503450541542662e-05,3.3333,4.4667
2.01171875,3.414041809109605e-06,-0.00020946763291371023,-0.00021288888535225453,2.1480951238269595e-05,3.3333,4.4667
2.015625,2.4365411123826704e-06,-0.00020507449759853513,-0.00022314140702769516,1.7576566271457977e-05,3.3333,4.4667
2.01953125,4.880292854200021e-06,-0.0002055632479468986,-0.00021044513361043716,1.0739679214465524e-05,3.3333,4.4667
2.0234375,2.9252914607461375e-06,-0.00020214761332845046,-0.00021093388395880064,8.295927472648173e-06,3.3333,4.4667
2.02734375,-1.9565942027924306e-06,-0.00018994009025955597,-0.00022021452275761044,2.9252914607461375e-06,3.3333,4.4667
2.03125,-3.9115955962463e-06,-0.0001957994766198215,-0.00020214761332845046,1.4646582357518554e-06,3.3333,4.4667
2.03515625,-1.1720365529869568e-05,-0.00018505820459601742,-0.0001801707011123827,1.4646582357518554e-06,3.3333,4.4667
2.0390625,-1.025411448477915e-05,-0.0001552725224463264,-0.00016064315845822845,-1.9565942027924306e-06,3.3333,4.4667
2.04296875,-2.9340948995193657e-06,-0.00014208749868070496,-0.00015331752105287252,-1.2697866226596502e-05,3.3333,4.4667
2.046875,1.947790764019203e-06,-0.00012694747352162968,-0.00014550313329915313,-2.1001004328679357e-05,3.3333,4.4667
2.05078125,-7.815980563057935e-06,-0.00011327931722774091,-0.000124020589251545,-1.7091001541771603e-05,3.3333,4.4667
2.0546875,-1.563036831677732e-05,-0.00010644243017074848,-0.00011376806757610438,-1.904600293522547e-05,3.3333,4.4667
2.05859375,-7.815980563057935e-06,-9.57011581469444e-05,-0.00011327931722774091,-3.369165992584118e-05,3.3333,4.4667
2.0625,-2.2950387902037106e-05,-7.715111618951707e-05,-9.813929206866562e-05,-3.80904130611124e-05,3.3333,4.4667
2.06640625,-3.320852739757384e-05,-5.4202321096818514e-05,-7.617361549279013e-05,-3.271977704921037e-05,3.3333,4.4667
2.0703125,-3.564666131929505e-05,-4.541043264637219e-05,-5.8595456411993605e-05,-3.466916062256812e-05,3.3333,4.4667
2.07421875,-4.2972298724650974e-05,-4.883168508491648e-05,-5.078668647837036e-05,-4.101729733119709e-05,3.3333,4.4667
2.078125,-3.564666131929505e-05,-3.271977704921037e-05,-3.5157910970931585e-05,-3.80904130611124e-05,3.3333,4.4667
2.08203125,-3.8579163409475876e-05,-1.8557252586862005e-05,-2.051225398031589e-05,-4.052854698283362e-05,3.3333,4.4667
2.0859375,-4.052854698283362e-05,-2.880977426230261e-05,-1.904600293522547e-05,-4.68766836914626e-05,3.3333,4.4667
2.08984375,-3.6624162016022e-05,-3.174227635248343e-05,-3.125352600411996e-05,-5.61573224902724e-05,3.3333,4.4667
2.09375,-4.932043543327994e-05,-3.076477565575649e-05,-4.0039796634470156e-05,-6.445484277225913e-05,3.3333,4.4667
2.09765625,-5.27360700517281e-05,-3.271977704921037e-05,-3.076477565575649e-05,-6.592109381734953e-05,3.3333,4.4667
2.1015625,-4.492730011810485e-05,-1.904600293522547e-05,-1.6113500845044653e-05,-6.250545919890137e-05,3.3333,4.4667
2.10546875,-5.7129205366903206e-05,-1.0742864833142618e-05,-6.838479866330999e-06,-6.347734207553217e-05,3.3333,4.4667
2.109375,-5.8595456411993605e-05,-1.9565942027924306e-06,-2.445344551155898e-06,-6.543234346898606e-05,3.3333,4.4667
2.11328125,-4.7365434039826065e-05,3.9027921574730725e-06,-1.5928093385468856e-09,-6.103920815381096e-05,3.3333,4.4667
2.1171875,-3.7112912364385464e-05,6.835294247653906e-06,9.273428169375122e-06,-5.761795571526667e-05,3.3333,4.4667
2.12109375,-2.880977426230261e-05,1.0739679214465524e-05,1.0739679214465524e-05,-6.055045780544749e-05,3.3333,4.4667
2.125,-4.492730011810485e-05,3.414041809109605e-06,-9.790935060654816e-07,-6.20167088505379e-05,3.3333,4.4667
2.12890625,-5.566857214190892e-05,8.78467782101164e-06,3.9027921574730725e-06,-6.445484277225913e-05,3.3333,4.4667
2.1328125,-4.9809185781643416e-05,1.0250928866102058e-05,1.6599065574731027e-05,-6.347734207553217e-05,3.3333,4.4667
2.13671875,-4.834293473655301e-05,1.0739679214465524e-05,1.611031522636756e-05,-5.517982179354545e-05,3.3333,4.4667
2.140625,-5.517982179354545e-05,2.1969701586633064e-05,1.1228429562828992e-05,-5.6646072838635866e-05,3.3333,4.4667
2.14453125,-5.078668647837036e-05,3.027283968871592e-05,5.857793550926956e-06,-5.761795571526667e-05,3.3333,4.4667
2.1484375,-5.1269819006637696e-05,2.6362836901808165e-05,5.369043202563489e-06,-5.8595456411993605e-05,3.3333,4.4667
2.15234375,-6.103920815381096e-05,2.0014700193179193e-05,4.391542505836554e-06,-7.08029794808881e-05,3.3333,4.4667
2.15625,-6.055045780544749e-05,2.0014700193179193e-05,1.3183430956282876e-05,-6.49435931206226e-05,3.3333,4.4667
2.16015625,-4.932043543327994e-05,2.7340337598535098e-05,2.1969701586633064e-05,-4.7365434039826065e-05,3.3333,4.4667
2.1640625,-4.785418438818954e-05,1.562156487800409e-05,2.4902203676813882e-05,-5.469107144518199e-05,3.3333,4.4667
2.16796875,-5.469107144518199e-05,7.807177124284706e-06,1.2694680607919408e-05,-6.982547878416117e-05,3.3333,4.4667
2.171875,-5.078668647837036e-05,1.0739679214465524e-05,-9.790935060654816e-07,-7.51961147960632e-05,3.3333,4.4667
2.17578125,-4.7365434039826065e-05,1.2694680607919408e-05,2.4365411123826704e-06,-6.836484555916687e-05,3.3333,4.4667
2.1796875,-4.883168508491648e-05,1.0739679214465524e-05,1.947790764019203e-06,-6.29885917271687e-05,3.3333,4.4667
2.18359375,-4.6387933343099125e-05,1.1228429562828992e-05,3.414041809109605e-06,-6.347734207553217e-05,3.3333,4.4667
2.1875,-4.101729733119709e-05,1.5132814529640625e-05,2.9252914607461375e-06,-5.761795571526667e-05,3.3333,4.4667
2.19140625,-4.0039796634470156e-05,2.8317838295262047e-05,5.857793550926956e-06,-6.152795850217444e-05,3.3333,4.4667
2.1953125,-4.7365434039826065e-05,3.17334729137102e-05,1.2694680607919408e-05,-6.347734207553217e-05,3.3333,4.4667
2.19921875,-4.492730011810485e-05,2.343595263172348e-05,1.0250928866102058e-05,-5.2247319703364635e-05,3.3333,4.4667
2.203125,-4.2972298724650974e-05,1.6599065574731027e-05,5.369043202563489e-06,-5.4202321096818514e-05,3.3333,4.4667
2.20703125,-3.613541166765853e-05,1.0739679214465524e-05,7.324044596017373e-06,-5.6646072838635866e-05,3.3333,4.4667
2.2109375,-3.369165992584118e-05,6.346543899290423e-06,1.0250928866102058e-05,-5.371357074845505e-05,3.3333,4.4667
2.21484375,-3.613541166765853e-05,1.1228429562828992e-05,8.78467782101164e-06,-5.469107144518199e-05,3.3333,4.4667
2.21875,-3.369165992584118e-05,1.562156487800409e-05,3.9027921574730725e-06,-5.4202321096818514e-05,3.3333,4.4667
2.22265625,-3.4180410274204646e-05,1.6599065574731027e-05,-4.883478472877115e-06,-5.4202321096818514e-05,3.3333,4.4667
2.2265625,-3.760166271274894e-05,2.0014700193179193e-05,3.9027921574730725e-06,-5.175856935500117e-05,3.3333,4.4667
2.23046875,-3.7112912364385464e-05,1.6599065574731027e-05,1.6599065574731027e-05,-4.883168508491648e-05,3.3333,4.4667
2.234375,-3.0276025307393018e-05,1.562156487800409e-05,1.4155313832913676e-05,-5.078668647837036e-05,3.3333,4.4667
2.23828125,-3.564666131929505e-05,1.8065316619821443e-05,1.171717991119246e-05,-4.7365434039826065e-05,3.3333,4.4667
2.2421875,-3.80904130611124e-05,9.759078873883879e-07,2.9252914607461375e-06,-4.541043264637219e-05,3.3333,4.4667
2.24609375,-2.9787274959029552e-05,-1.8557252586862005e-05,-1.4678438544289633e-06,-5.029793613000689e-05,3.3333,4.4667
2.25,-2.7832273565575666e-05,-1.025411448477915e-05,1.947790764019203e-06,-5.175856935500117e-05,3.3333,4.4667
2.25390625,-3.5157910970931585e-05,-8.304730911421401e-06,-6.838479866330999e-06,-4.541043264637219e-05,3.3333,4.4667
2.2578125,-4.346104907301444e-05,-1.4652867620050386e-05,-1.7091001541771603e-05,-4.541043264637219e-05,3.3333,4.4667
2.26171875,-3.6624162016022e-05,-5.86097916960405e-06,-9.282231608148337e-06,-4.052854698283362e-05,3.3333,4.4667
2.265625,-3.271977704921037e-05,1.4646582357518554e-06,-7.327230214694467e-06,-3.7112912364385464e-05,3.3333,4.4667
2.26953125,-4.052854698283362e-05,-1.9565942027924306e-06,-1.4164117271686904e-05,-4.492730011810485e-05,3.3333,4.4667
2.2734375,-3.613541166765853e-05,-1.6113500845044653e-05,-9.770981956511818e-06,-4.3949799421377906e-05,3.3333,4.4667
2.27734375,-3.125352600411996e-05,-9.770981956511818e-06,1.947790764019203e-06,-3.955104628610668e-05,3.3333,4.4667
2.28125,-3.320852739757384e-05,1.4646582357518554e-06,8.78467782101164e-06,-3.7112912364385464e-05,3.3333,4.4667
2.28515625,-3.320852739757384e-05,-4.903431577020143e-07,3.9027921574730725e-06,-3.564666131929505e-05,3.3333,4.4667
2.2890625,-3.8579163409475876e-05,-1.4678438544289633e-06,-5.86097916960405e-06,-4.101729733119709e-05,3.3333,4.4667
2.29296875,-5.1269819006637696e-05,-6.838479866330999e-06,-2.246163755367364e-05,-5.4202321096818514e-05,3.3333,4.4667
2.296875,-4.9809185781643416e-05,-1.6113500845044653e-05,-2.9298524610666075e-05,-6.152795850217444e-05,3.3333,4.4667
2.30078125,-3.320852739757384e-05,-8.793481259784869e-06,-5.86097916960405e-06,-5.1269819006637696e-05,3.3333,4.4667
2.3046875,-3.613541166765853e-05,-1.6113500845044653e-05,-1.9565942027924306e-06,-3.906791375783935e-05,3.3333,4.4667
2.30859375,-5.27360700517281e-05,-3.320852739757384e-05,-3.125352600411996e-05,-4.492730011810485e-05,3.3333,4.4667
2.3125,-4.6387933343099125e-05,-2.9298524610666075e-05,-3.5157910970931585e-05,-3.955104628610668e-05,3.3333,4.4667
2.31640625,-2.9298524610666075e-05,-2.6371640340581394e-05,-3.369165992584118e-05,-3.564666131929505e-05,3.3333,4.4667
2.3203125,-4.2972298724650974e-05,-2.2950387902037106e-05,-4.150604767956056e-05,-4.68766836914626e-05,3.3333,4.4667
2.32421875,-5.322482040009158e-05,-2.3439138250400572e-05,-4.052854698283362e-05,-4.785418438818954e-05,3.3333,4.4667
2.328125,-4.2972298724650974e-05,-2.1001004328679357e-05,-2.7349141037308333e-05,-4.101729733119709e-05,3.3333,4.4667
2.33203125,-4.052854698283362e-05,-2.539413964385445e-05,-2.2950387902037106e-05,-4.3949799421377906e-05,3.3333,4.4667
2.3359375,-4.9809185781643416e-05,-3.564666131929505e-05,-3.076477565575649e-05,-4.589918299473566e-05,3.3333,4.4667
2.33984375,-3.613541166765853e-05,-2.2950387902037106e-05,-2.7832273565575666e-05,-4.4438549769741386e-05,3.3333,4.4667
2.34375,-2.6371640340581394e-05,-1.1231615181506086e-05,-2.051225398031589e-05,-4.492730011810485e-05,3.3333,4.4667
2.34765625,-3.5157910970931585e-05,-2.246163755367364e-05,-2.6371640340581394e-05,-3.955104628610668e-05,3.3333,4.4667
2.3515625,-4.1994798027924035e-05,-2.2950387902037106e-05,-4.0039796634470156e-05,-3.955104628610668e-05,3.3333,4.4667
2.35546875,-4.492730011810485e-05,-1.0742864833142618e-05,-3.613541166765853e-05,-5.1269819006637696e-05,3.3333,4.4667
2.359375,-4.7365434039826065e-05,-6.349729517967517e-06,-2.2950387902037106e-05,-4.346104907301444e-05,3.3333,4.4667
2.36328125,-5.566857214190892e-05,-4.3949799421377906e-05,-2.1972887205310157e-05,-3.125352600411996e-05,3.3333,4.4667
2.3671875,-5.9084206760357085e-05,-6.20167088505379e-05,-2.686039068894486e-05,-2.880977426230261e-05,3.3333,4.4667
2.37109375,-5.371357074845505e-05,-4.346104907301444e-05,-1.953475328358894e-05,-2.4416638947127508e-05,3.3333,4.4667
2.375,-5.029793613000689e-05,-3.564666131929505e-05,-1.5141617968413853e-05,-1.4164117271686904e-05,3.3333,4.4667
2.37890625,-4.9809185781643416e-05,-3.7112912364385464e-05,-2.051225398031589e-05,-4.394728124513648e-06,3.3333,4.4667
2.3828125,-4.6387933343099125e-05,-3.223102670084689e-05,-1.1720365529869568e-05,-1.2697866226596502e-05,3.3333,4.4667
2.38671875,-4.541043264637219e-05,-2.686039068894486e-05,-1.3675366923323438e-05,-1.7091001541771603e-05,3.3333,4.4667
2.390625,-4.589918299473566e-05,-2.1001004328679357e-05,-3.320852739757384e-05,-1.563036831677732e-05,3.3333,4.4667
2.39453125,-5.566857214190892e-05,-2.002350363195242e-05,-4.492730011810485e-05,-1.904600293522547e-05,3.3333,4.4667
2.3984375,-5.029793613000689e-05,-1.0742864833142618e-05,-3.613541166765853e-05,-1.6602251193408123e-05,3.3333,4.4667
2.40234375,-4.3949799421377906e-05,2.9252914607461375e-06,-2.880977426230261e-05,-1.8557252586862005e-05,3.3333,4.4667
2.40625,-4.492730011810485e-05,-1.1231615181506086e-05,-2.002350363195242e-05,-2.2950387902037106e-05,3.3333,4.4667
2.41015625,-3.906791375783935e-05,-2.4416638947127508e-05,-1.806850223849854e-05,-1.2697866226596502e-05,3.3333,4.4667
2.4140625,-3.955104628610668e-05,-2.880977426230261e-05,-3.125352600411996e-05,-1.1720365529869568e-05,3.3333,4.4667
2.41796875,-4.3949799421377906e-05,-4.834293473655301e-05,-4.0039796634470156e-05,-2.8321023913939143e-05,3.3333,4.4667
2.421875,-4.3949799421377906e-05,-3.613541166765853e-05,-3.7112912364385464e-05,-3.174227635248343e-05,3.3333,4.4667
2.42578125,-4.1994798027924035e-05,-1.1720365529869568e-05,-3.125352600411996e-05,-2.2950387902037106e-05,3.3333,4.4667
2.4296875,-4.3949799421377906e-05,-3.320852739757384e-05,-2.4905389295490985e-05,-1.7091001541771603e-05,3.3333,4.4667
2.43359375,-4.0039796634470156e-05,-3.955104628610668e-05,-2.4416638947127508e-05,-2.1001004328679357e-05,3.3333,4.4667
2.4375,-4.589918299473566e-05,-2.5882889992217924e-05,-2.539413964385445e-05,-2.051225398031589e-05,3.3333,4.4667
2.44140625,-5.322482040009158e-05,-3.4180410274204646e-05,-2.002350363195242e-05,-1.904600293522547e-05,3.3333,4.4667
2.4453125,-4.3949799421377906e-05,-3.466916062256812e-05,-2.9787274959029552e-05,-3.223102670084689e-05,3.3333,4.4667
2.44921875,-4.4438549769741386e-05,-3.369165992584118e-05,-3.271977704921037e-05,-3.174227635248343e-05,3.3333,4.4667
2.453125,-3.8579163409475876e-05,-4.101729733119709e-05,-2.1972887205310157e-05,-2.3439138250400572e-05,3.3333,4.4667
2.45703125,-3.6624162016022e-05,-3.271977704921037e-05,-2.3439138250400572e-05,-3.125352600411996e-05,3.3333,4.4667
2.4609375,-3.8579163409475876e-05,-2.3927888598764042e-05,-2.3927888598764042e-05,-3.955104628610668e-05,3.3333,4.4667
2.46484375,-3.906791375783935e-05,-2.539413964385445e-05,-3.0276025307393018e-05,-3.760166271274894e-05,3.3333,4.4667
2.46875,-4.68766836914626e-05,-3.0276025307393018e-05,-2.6371640340581394e-05,-3.5157910970931585e-05,3.3333,4.4667
2.47265625,-3.466916062256812e-05,-3.906791375783935e-05,-1.904600293522547e-05,-3.0276025307393018e-05,3.3333,4.4667
2.4765625,-2.7832273565575666e-05,-3.906791375783935e-05,-1.953475328358894e-05,-3.320852739757384e-05,3.3333,4.4667
2.48046875,-4.3949799421377906e-05,-2.880977426230261e-05,-2.7349141037308333e-05,-3.369165992584118e-05,3.3333,4.4667
2.484375,-3.955104628610668e-05,-6.838479866330999e-06,-3.271977704921037e-05,-2.1489754677042823e-05,3.3333,4.4667
2.48828125,-2.880977426230261e-05,-6.349729517967517e-06,-2.880977426230261e-05,-2.1972887205310157e-05,3.3333,4.4667
2.4921875,-2.4905389295490985e-05,-2.4416638947127508e-05,-2.686039068894486e-05,-3.320852739757384e-05,3.3333,4.4667
2.49609375,-2.2950387902037106e-05,-1.563036831677732e-05,-2.051225398031589e-05,-3.4180410274204646e-05,3.3333,4.4667
2.5,-2.539413964385445e-05,-2.002350363195242e-05,-2.880977426230261e-05,-3.076477565575649e-05,3.3333,4.4667
2.50390625,-3.466916062256812e-05,-3.271977704921037e-05,-2.7832273565575666e-05,-3.8579163409475876e-05,3.3333,4.4667
2.5078125,-4.589918299473566e-05,-3.174227635248343e-05,-2.3927888598764042e-05,-4.2972298724650974e-05,3.3333,4.4667
2.51171875,-4.932043543327994e-05,-3.6624162016022e-05,-3.320852739757384e-05,-3.955104628610668e-05,3.3333,4.4667
2.515625,-4.150604767956056e-05,-3.0276025307393018e-05,-3.0276025307393018e-05,-3.8579163409475876e-05,3.3333,4.4667
2.51953125,-3.320852739757384e-05,-1.806850223849854e-05,-3.369165992584118e-05,-4.101729733119709e-05,3.3333,4.4667
2.5234375,-2.9298524610666075e-05,-2.3927888598764042e-05,-3.4180410274204646e-05,-3.7112912364385464e-05,3.3333,4.4667
2.52734375,-3.0276025307393018e-05,-4.0039796634470156e-05,-2.7349141037308333e-05,-3.271977704921037e-05,3.3333,4.4667
2.53125,-3.80904130611124e-05,-3.7112912364385464e-05,-3.5157910970931585e-05,-3.906791375783935e-05,3.3333,4.4667
2.53515625,-3.80904130611124e-05,-4.4438549769741386e-05,-4.052854698283362e-05,-4.492730011810485e-05,3.3333,4.4667
2.5390625,-2.4416638947127508e-05,-3.906791375783935e-05,-2.002350363195242e-05,-3.80904130611124e-05,3.3333,4.4667
2.54296875,-1.757975189013507e-05,-1.8557252586862005e-05,-2.8321023913939143e-05,-3.613541166765853e-05,3.3333,4.4667
2.546875,-3.320852739757384e-05,-2.4416638947127508e-05,-5.322482040009158e-05,-3.6624162016022e-05,3.3333,4.4667
2.55078125,-3.80904130611124e-05,-4.68766836914626e-05,-4.883168508491648e-05,-3.271977704921037e-05,3.3333,4.4667
2.5546875,-2.3439138250400572e-05,-3.906791375783935e-05,-5.2247319703364635e-05,-3.613541166765853e-05,3.3333,4.4667
2.55859375,-2.5882889992217924e-05,-3.80904130611124e-05,-6.055045780544749e-05,-3.8579163409475876e-05,3.3333,4.4667
2.5625,-3.6624162016022e-05,-4.9809185781643416e-05,-4.785418438818954e-05,-4.052854698283362e-05,3.3333,4.4667
2.56640625,-2.7349141037308333e-05,-3.7112912364385464e-05,-3.564666131929505e-05,-4.052854698283362e-05,3.3333,4.4667
2.5703125,-2.1489754677042823e-05,-2.3927888598764042e-05,-4.346104907301444e-05,-4.150604767956056e-05,3.3333,4.4667
2.57421875,-2.4416638947127508e-05,-3.6624162016022e-05,-4.24835483762875e-05,-3.955104628610668e-05,3.3333,4.4667
2.578125,-2.3439138250400572e-05,-4.589918299473566e-05,-4.2972298724650974e-05,-3.466916062256812e-05,3.3333,4.4667
2.58203125,-2.3439138250400572e-05,-4.2972298724650974e-05,-4.492730011810485e-05,-2.9298524610666075e-05,3.3333,4.4667
2.5859375,-2.2950387902037106e-05,-4.052854698283362e-05,-3.760166271274894e-05,-2.7832273565575666e-05,3.3333,4.4667
2.58984375,-2.880977426230261e-05,-3.613541166765853e-05,-2.5882889992217924e-05,-3.320852739757384e-05,3.3333,4.4667
2.59375,-3.223102670084689e-05,-3.760166271274894e-05,-2.1972887205310157e-05,-3.564666131929505e-05,3.3333,4.4667
2.59765625,-3.174227635248343e-05,-4.052854698283362e-05,-2.6371640340581394e-05,-4.052854698283362e-05,3.3333,4.4667
2.6015625,-3.6624162016022e-05,-4.24835483762875e-05,-2.051225398031589e-05,-4.1994798027924035e-05,3.3333,4.4667
2.60546875,-4.0039796634470156e-05,-3.320852739757384e-05,-1.757975189013507e-05,-3.8579163409475876e-05,3.3333,4.4667
2.609375,-3.906791375783935e-05,-2.1489754677042823e-05,-2.4905389295490985e-05,-4.346104907301444e-05,3.3333,4.4667
2.61328125,-3.906791375783935e-05,-2.3439138250400572e-05,-2.5882889992217924e-05,-5.1269819006637696e-05,3.3333,4.4667
2.6171875,-3.320852739757384e-05,-3.0276025307393018e-05,-3.223102670084689e-05,-4.589918299473566e-05,3.3333,4.4667
2.62109375,-3.8579163409475876e-05,-3.076477565575649e-05,-3.320852739757384e-05,-3.955104628610668e-05,3.3333,4.4667
2.625,-3.955104628610668e-05,-2.9787274959029552e-05,-1.7091001541771603e-05,-3.8579163409475876e-05,3.3333,4.4667
2.62890625,-2.7832273565575666e-05,-2.686039068894486e-05,-2.1001004328679357e-05,-3.466916062256812e-05,3.3333,4.4667
2.6328125,-2.1001004328679357e-05,-1.757975189013507e-05,-6.49435931206226e-05,-3.320852739757384e-05,3.3333,4.4667
2.63671875,-2.8321023913939143e-05,-1.0742864833142618e-05,-7.568486514442667e-05,-3.369165992584118e-05,3.3333,4.4667
2.640625,-3.8579163409475876e-05,-2.1972887205310157e-05,-6.933672843579767e-05,-3.271977704921037e-05,3.3333,4.4667
2.64453125,-2.1001004328679357e-05,-1.0742864833142618e-05,-5.6646072838635866e-05,-2.539413964385445e-05,3.3333,4.4667
2.6484375,-2.1972887205310157e-05,-1.9565942027924306e-06,-3.613541166765853e-05,-2.4416638947127508e-05,3.3333,4.4667
2.65234375,-3.906791375783935e-05,-2.3439138250400572e-05,-4.346104907301444e-05,-3.271977704921037e-05,3.3333,4.4667
2.65625,-4.1994798027924035e-05,-2.1001004328679357e-05,-4.68766836914626e-05,-3.955104628610668e-05,3.3333,4.4667
2.66015625,-4.101729733119709e-05,-4.3949799421377906e-05,-5.2247319703364635e-05,-4.4438549769741386e-05,3.3333,4.4667
2.6640625,-3.7112912364385464e-05,-6.152795850217444e-05,-5.2247319703364635e-05,-3.906791375783935e-05,3.3333,4.4667
2.66796875,-3.271977704921037e-05,-4.24835483762875e-05,-2.9787274959029552e-05,-3.174227635248343e-05,3.3333,4.4667
2.671875,-3.564666131929505e-05,-4.68766836914626e-05,-4.150604767956056e-05,-3.906791375783935e-05,3.3333,4.4667
2.67578125,-4.3949799421377906e-05,-4.883168508491648e-05,-5.27360700517281e-05,-3.80904130611124e-05,3.3333,4.4667
2.6796875,-3.7112912364385464e-05,-3.271977704921037e-05,-4.150604767956056e-05,-2.5882889992217924e-05,3.3333,4.4667
2.68359375,-3.6624162016022e-05,-3.564666131929505e-05,-3.906791375783935e-05,-2.7832273565575666e-05,3.3333,4.4667
2.6875,-4.785418438818954e-05,-6.29885917271687e-05,-4.150604767956056e-05,-3.076477565575649e-05,3.3333,4.4667
2.69140625,-3.955104628610668e-05,-6.250545919890137e-05,-3.7112912364385464e-05,-3.80904130611124e-05,3.3333,4.4667
2.6953125,-3.613541166765853e-05,-5.810670606363014e-05,-2.8321023913939143e-05,-5.1269819006637696e-05,3.3333,4.4667
2.69921875,-4.3949799421377906e-05,-6.250545919890137e-05,-1.7091001541771603e-05,-4.932043543327994e-05,3.3333,4.4667
2.703125,-4.492730011810485e-05,-5.566857214190892e-05,-1.1231615181506086e-05,-4.2972298724650974e-05,3.3333,4.4667
2.70703125,-4.68766836914626e-05,-4.7365434039826065e-05,-1.318661657495997e-05,-3.955104628610668e-05,3.3333,4.4667
2.7109375,-4.346104907301444e-05,-4.0039796634470156e-05,-2.1001004328679357e-05,-3.955104628610668e-05,3.3333,4.4667
2.71484375,-3.7112912364385464e-05,-2.880977426230261e-05,-5.957295710872056e-05,-3.613541166765853e-05,3.3333,4.4667
2.71875,-3.955104628610668e-05,-1.318661657495997e-05,-8.59430046399634e-05,-4.101729733119709e-05,3.3333,4.4667
2.72265625,-3.906791375783935e-05,-6.349729517967517e-06,-7.910611758297095e-05,-5.371357074845505e-05,3.3333,4.4667
2.7265625,-2.8321023913939143e-05,-3.271977704921037e-05,-6.0061707457084024e-05,-4.883168508491648e-05,3.3333,4.4667
2.73046875,-3.125352600411996e-05,-3.955104628610668e-05,-5.27360700517281e-05,-4.6387933343099125e-05,3.3333,4.4667
2.734375,-4.68766836914626e-05,-2.1489754677042823e-05,-5.2247319703364635e-05,-5.029793613000689e-05,3.3333,4.4667
2.73828125,-4.24835483762875e-05,-3.0276025307393018e-05,-5.2247319703364635e-05,-4.589918299473566e-05,3.3333,4.4667
2.7421875,-4.101729733119709e-05,-3.320852739757384e-05,-4.541043264637219e-05,-4.7365434039826065e-05,3.3333,4.4667
2.74609375,-3.8579163409475876e-05,7.324044596017373e-06,-3.0276025307393018e-05,-4.7365434039826065e-05,3.3333,4.4667
2.75,-2.7832273565575666e-05,-3.9115955962463e-06,-3.076477565575649e-05,-3.271977704921037e-05,3.3333,4.4667
2.75390625,-3.4180410274204646e-05,-3.613541166765853e-05,-2.9787274959029552e-05,-2.002350363195242e-05,3.3333,4.4667
2.7578125,-3.564666131929505e-05,-4.150604767956056e-05,-4.346104907301444e-05,-2.2950387902037106e-05,3.3333,4.4667
2.76171875,-4.150604767956056e-05,-6.29885917271687e-05,-4.932043543327994e-05,-2.4905389295490985e-05,3.3333,4.4667
2.765625,-4.9809185781643416e-05,-6.88479780874342e-05,-2.9298524610666075e-05,-2.2950387902037106e-05,3.3333,4.4667
2.76953125,-3.7112912364385464e-05,-7.275798087434198e-05,-3.5157910970931585e-05,-2.2950387902037106e-05,3.3333,4.4667
2.7734375,-4.052854698283362e-05,-7.910611758297095e-05,-3.5157910970931585e-05,-2.7832273565575666e-05,3.3333,4.4667
2.77734375,-4.785418438818954e-05,-6.396609242389565e-05,-2.246163755367364e-05,-2.539413964385445e-05,3.3333,4.4667
2.78125,-3.5157910970931585e-05,-5.322482040009158e-05,-2.9787274959029552e-05,-2.5882889992217924e-05,3.3333,4.4667
2.78515625,-2.7832273565575666e-05,-5.4202321096818514e-05,-2.246163755367364e-05,-2.686039068894486e-05,3.3333,4.4667
2.7890625,-4.6387933343099125e-05,-4.3949799421377906e-05,-1.6602251193408123e-05,-2.1489754677042823e-05,3.3333,4.4667
2.79296875,-4.785418438818954e-05,-3.4180410274204646e-05,-2.7832273565575666e-05,-2.1972887205310157e-05,3.3333,4.4667
2.796875,-3.320852739757384e-05,-2.539413964385445e-05,-2.539413964385445e-05,-2.539413964385445e-05,3.3333,4.4667
2.80078125,-1.563036831677732e-05,-1.025411448477915e-05,-4.68766836914626e-05,-3.0276025307393018e-05,3.3333,4.4667
2.8046875,-1.563036831677732e-05,-9.770981956511818e-06,-5.566857214190892e-05,-2.880977426230261e-05,3.3333,4.4667
2.80859375,-2.9787274959029552e-05,-1.7091001541771603e-05,-3.5157910970931585e-05,-2.3927888598764042e-05,3.3333,4.4667
2.8125,-3.613541166765853e-05,-2.3439138250400572e-05,-3.760166271274894e-05,-2.6371640340581394e-05,3.3333,4.4667
2.81640625,-3.174227635248343e-05,-1.7091001541771603e-05,-5.8595456411993605e-05,-2.7349141037308333e-05,3.3333,4.4667
2.8203125,-2.9787274959029552e-05,-6.349729517967517e-06,-6.543234346898606e-05,-2.880977426230261e-05,3.3333,4.4667
2.82421875,-3.223102670084689e-05,-4.883478472877115e-06,-5.6646072838635866e-05,-3.906791375783935e-05,3.3333,4.4667
2.828125,-4.101729733119709e-05,-6.838479866330999e-06,-4.4438549769741386e-05,-4.052854698283362e-05,3.3333,4.4667
2.83203125,-4.24835483762875e-05,1.4646582357518554e-06,-3.80904130611124e-05,-3.466916062256812e-05,3.3333,4.4667
2.8359375,-3.271977704921037e-05,-5.86097916960405e-06,-2.7349141037308333e-05,-2.880977426230261e-05,3.3333,4.4667
2.83984375,-2.9298524610666075e-05,-2.002350363195242e-05,-1.806850223849854e-05,-2.7349141037308333e-05,3.3333,4.4667
2.84375,-3.8579163409475876e-05,-2.051225398031589e-05,-1.6113500845044653e-05,-2.8321023913939143e-05,3.3333,4.4667
2.84765625,-4.4438549769741386e-05,-4.589918299473566e-05,-2.002350363195242e-05,-3.80904130611124e-05,3.3333,4.4667
2.8515625,-4.24835483762875e-05,-6.78760952108034e-05,-3.906791375783935e-05,-5.27360700517281e-05,3.3333,4.4667
2.85546875,-3.760166271274894e-05,-6.152795850217444e-05,-4.24835483762875e-05,-4.68766836914626e-05,3.3333,4.4667
2.859375,-2.3927888598764042e-05,-3.613541166765853e-05,-2.539413964385445e-05,-2.5882889992217924e-05,3.3333,4.4667
2.86328125,-3.4180410274204646e-05,-4.883168508491648e-05,-2.6371640340581394e-05,-2.1972887205310157e-05,3.3333,4.4667
2.8671875,-3.7112912364385464e-05,-5.517982179354545e-05,-1.6113500845044653e-05,-2.4905389295490985e-05,3.3333,4.4667
2.87109375,-3.0276025307393018e-05,-4.150604767956056e-05,-1.7091001541771603e-05,-2.3439138250400572e-05,3.3333,4.4667
2.875,-3.271977704921037e-05,-4.883168508491648e-05,-3.955104628610668e-05,-3.0276025307393018e-05,3.3333,4.4667
2.87890625,-3.223102670084689e-05,-4.68766836914626e-05,-5.078668647837036e-05,-3.5157910970931585e-05,3.3333,4.4667
2.8828125,-3.0276025307393018e-05,-3.4180410274204646e-05,-5.7129205366903206e-05,-2.880977426230261e-05,3.3333,4.4667
2.88671875,-3.7112912364385464e-05,-2.6371640340581394e-05,-5.9084206760357085e-05,-3.076477565575649e-05,3.3333,4.4667
2.890625,-4.101729733119709e-05,-3.906791375783935e-05,-6.88479780874342e-05,-4.0039796634470156e-05,3.3333,4.4667
2.89453125,-3.4180410274204646e-05,-5.4202321096818514e-05,-7.129172982925156e-05,-4.0039796634470156e-05,3.3333,4.4667
2.8984375,-3.6624162016022e-05,-6.396609242389565e-05,-6.152795850217444e-05,-3.369165992584118e-05,3.3333,4.4667
2.90234375,-3.7112912364385464e-05,-6.445484277225913e-05,-6.836484555916687e-05,-1.904600293522547e-05,3.3333,4.4667
2.90625,-2.4416638947127508e-05,-6.29885917271687e-05,-7.031422913252463e-05,-1.953475328358894e-05,3.3333,4.4667
2.91015625,-3.0276025307393018e-05,-8.398800324650952e-05,-8.545425429159992e-05,-2.7832273565575666e-05,3.3333,4.4667
2.9140625,-3.6624162016022e-05,-8.203300185305564e-05,-9.179115536003663e-05,-1.4164117271686904e-05,3.3333,4.4667
2.91796875,-1.8557252586862005e-05,-8.398800324650952e-05,-9.618990849530787e-05,-1.0742864833142618e-05,3.3333,4.4667
2.921875,-1.9565942027924306e-06,-0.00010497617912565806,-0.00012011620428473336,-1.0742864833142618e-05,3.3333,4.4667
2.92578125,-4.903431577020143e-07,-0.00010888618191256582,-0.00012890247491508354,-1.1720365529869568e-05,3.3333,4.4667
2.9296875,4.880292854200021e-06,-0.0001279249742183566,-0.0001435537497257954,-2.539413964385445e-05,3.3333,4.4667
2.93359375,1.0739679214465524e-05,-0.0001362281123204395,-0.0001518512700077821,-2.246163755367364e-05,3.3333,4.4667
2.9375,2.4902203676813882e-05,-0.00013671686266880295,-0.00015722190601968414,-1.4164117271686904e-05,3.3333,4.4667
2.94140625,1.562156487800409e-05,-0.0001821257025058366,-0.00016601379447013048,-1.5141617968413853e-05,3.3333,4.4667
2.9453125,4.880292854200021e-06,-0.00023827581436667428,-0.0001635700427283131,-1.4164117271686904e-05,3.3333,4.4667
2.94921875,1.3183430956282876e-05,-0.000243163317850309,-0.0001684519283918517,-1.1720365529869568e-05,3.3333,4.4667
2.953125,1.4155313832913676e-05,-0.00024267456750194554,-0.00017724381684229804,-9.282231608148337e-06,3.3333,4.4667
2.95703125,1.171717991119246e-05,-0.00023876456471503776,-0.00017626631614557105,-1.9565942027924306e-06,3.3333,4.4667
2.9609375,1.2205930259555942e-05,-0.00022314140702769516,-0.0001777325671906615,-3.4228452478828328e-06,3.3333,4.4667
2.96484375,1.171717991119246e-05,-0.0002138663860489815,-0.0001777325671906615,-1.318661657495997e-05,3.3333,4.4667
2.96875,9.76217851773859e-06,-0.00020068136228336005,-0.00017871006788738845,-1.4164117271686904e-05,3.3333,4.4667
2.97265625,7.807177124284706e-06,-0.0002026363636768139,-0.00021240013500389108,-1.318661657495997e-05,3.3333,4.4667
2.9765625,-1.4678438544289633e-06,-0.00020214761332845046,-0.00021825952136415657,-1.2697866226596502e-05,3.3333,4.4667
2.98046875,2.9252914607461375e-06,-0.00017675506649393453,-0.00019774886019317922,-1.1231615181506086e-05,3.3333,4.4667
2.984375,1.4646582357518554e-06,-0.00016454754342504007,-0.000201658862980087,-1.318661657495997e-05,3.3333,4.4667
2.98828125,-4.394728124513648e-06,-0.00014892438573769744,-0.00019335572487800412,-1.3675366923323438e-05,3.3333,4.4667
2.9921875,-2.9340948995193657e-06,-0.0001328068598818952,-0.000183591953550927,-1.4652867620050386e-05,3.3333,4.4667
2.99609375,-1.3675366923323438e-05,-0.00013915499659052414,-0.000170895680133669,-1.3675366923323438e-05,3.3333,4.4667
3.0,-1.757975189013507e-05,-0.0001196274539363699,-0.00014696938434424355,-1.318661657495997e-05,3.3333,4.4667
3.00390625,-1.4652867620050386e-05,-0.0001015605445072099,-0.0001235318389031815,-1.757975189013507e-05,3.3333,4.4667
3.0078125,-1.757975189013507e-05,-0.00011620620149782562,-0.000105953679822385,-2.4416638947127508e-05,3.3333,4.4667
3.01171875,-1.1720365529869568e-05,-0.00011425681792446786,-8.886427108995195e-05,-2.4905389295490985e-05,3.3333,4.4667
3.015625,-1.3675366923323438e-05,-8.203300185305564e-05,-8.154425150469217e-05,-2.6371640340581394e-05,3.3333,4.4667
3.01953125,-2.5882889992217924e-05,-6.933672843579767e-05,-9.081927248340583e-05,-3.369165992584118e-05,3.3333,4.4667
3.0234375,-2.6371640340581394e-05,-8.545425429159992e-05,-7.861736723460748e-05,-2.8321023913939143e-05,3.3333,4.4667
3.02734375,-3.076477565575649e-05,-9.862804241702908e-05,-6.103920815381096e-05,-2.4416638947127508e-05,3.3333,4.4667
3.03125,-4.2972298724650974e-05,-9.179115536003663e-05,-4.932043543327994e-05,-3.4180410274204646e-05,3.3333,4.4667
3.03515625,-4.68766836914626e-05,-7.08029794808881e-05,-3.8579163409475876e-05,-3.5157910970931585e-05,3.3333,4.4667
3.0390625,-4.541043264637219e-05,-4.4438549769741386e-05,-3.8579163409475876e-05,-3.955104628610668e-05,3.3333,4.4667
3.04296875,-4.492730011810485e-05,-2.880977426230261e-05,-2.9298524610666075e-05,-4.68766836914626e-05,3.3333,4.4667
3.046875,-4.24835483762875e-05,-2.2950387902037106e-05,-1.806850223849854e-05,-4.541043264637219e-05,3.3333,4.4667
3.05078125,-4.052854698283362e-05,-1.6113500845044653e-05,-8.793481259784869e-06,-4.68766836914626e-05,3.3333,4.4667
3.0546875,-3.80904130611124e-05,-5.86097916960405e-06,-6.349729517967517e-06,-4.589918299473566e-05,3.3333,4.4667
3.05859375,-3.80904130611124e-05,6.346543899290423e-06,-2.880977426230261e-05,-5.2247319703364635e-05,3.3333,4.4667
3.0625,-4.9809185781643416e-05,4.880292854200021e-06,-3.613541166765853e-05,-5.6646072838635866e-05,3.3333,4.4667
3.06640625,-5.469107144518199e-05,3.414041809109605e-06,-1.6113500845044653e-05,-5.810670606363014e-05,3.3333,4.4667
3.0703125,-5.175856935500117e-05,1.3183430956282876e-05,4.880292854200021e-06,-5.810670606363014e-05,3.3333,4.4667
3.07421875,-5.322482040009158e-05,1.171717991119246e-05,1.8554066968184913e-05,-5.322482040009158e-05,3.3333,4.4667
3.078125,-5.2247319703364635e-05,2.2458451934996544e-05,1.4155313832913676e-05,-5.2247319703364635e-05,3.3333,4.4667
3.08203125,-5.2247319703364635e-05,4.540724702769509e-05,-3.4228452478828328e-06,-5.957295710872056e-05,3.3333,4.4667
3.0859375,-5.371357074845505e-05,5.273288443305102e-05,-6.349729517967517e-06,-6.0061707457084024e-05,3.3333,4.4667
3.08984375,-5.078668647837036e-05,4.296349528587774e-05,6.346543899290423e-06,-6.103920815381096e-05,3.3333,4.4667
3.09375,-4.883168508491648e-05,3.07615900370794e-05,1.3183430956282876e-05,-6.78760952108034e-05,3.3333,4.4667
3.09765625,-5.2247319703364635e-05,2.1969701586633064e-05,6.346543899290423e-06,-6.689859451407647e-05,3.3333,4.4667
3.1015625,-5.61573224902724e-05,2.099220088990613e-05,1.366656348455021e-05,-6.49435931206226e-05,3.3333,4.4667
3.10546875,-5.322482040009158e-05,2.1969701586633064e-05,2.3924702980086946e-05,-5.810670606363014e-05,3.3333,4.4667
3.109375,-4.0039796634470156e-05,1.4155313832913676e-05,2.782908794689858e-05,-5.078668647837036e-05,3.3333,4.4667
3.11328125,-4.24835483762875e-05,9.76217851773859e-06,2.978408934035245e-05,-5.322482040009158e-05,3.3333,4.4667
3.1171875,-4.3949799421377906e-05,1.611031522636756e-05,3.905911031906612e-05,-4.883168508491648e-05,3.3333,4.4667
3.12109375,-4.346104907301444e-05,2.7340337598535098e-05,4.345224563424122e-05,-5.517982179354545e-05,3.3333,4.4667
3.125,-4.9809185781643416e-05,3.1244722565346736e-05,4.4429746330968155e-05,-5.9084206760357085e-05,3.3333,4.4667
3.12890625,-4.834293473655301e-05,3.6620976397344905e-05,3.905911031906612e-05,-5.27360700517281e-05,3.3333,4.4667
3.1328125,-4.492730011810485e-05,4.248036275761041e-05,2.782908794689858e-05,-4.9809185781643416e-05,3.3333,4.4667
3.13671875,-4.932043543327994e-05,1.5132814529640625e-05,2.099220088990613e-05,-4.9809185781643416e-05,3.3333,4.4667
3.140625,-4.883168508491648e-05,-1.318661657495997e-05,2.538533620508123e-05,-5.1269819006637696e-05,3.3333,4.4667
3.14453125,-5.175856935500117e-05,-1.025411448477915e-05,3.905911031906612e-05,-4.932043543327994e-05,3.3333,4.4667
3.1484375,-5.371357074845505e-05,4.391542505836554e-06,3.905911031906612e-05,-4.1994798027924035e-05,3.3333,4.4667
3.15234375,-4.150604767956056e-05,9.76217851773859e-06,3.027283968871592e-05,-3.466916062256812e-05,3.3333,4.4667
3.15625,-3.955104628610668e-05,9.273428169375122e-06,1.8065316619821443e-05,-4.2972298724650974e-05,3.3333,4.4667
3.16015625,-4.834293473655301e-05,1.1228429562828992e-05,1.5132814529640625e-05,-5.322482040009158e-05,3.3333,4.4667
3.1640625,-4.150604767956056e-05,2.343595263172348e-05,3.5643475700617966e-05,-5.029793613000689e-05,3.3333,4.4667
3.16796875,-3.466916062256812e-05,2.9295338991988983e-05,5.0777883039597124e-05,-4.24835483762875e-05,3.3333,4.4667
3.171875,-3.564666131929505e-05,3.2710973610437135e-05,2.2947202283360014e-05,-3.906791375783935e-05,3.3333,4.4667
3.17578125,-3.8579163409475876e-05,3.027283968871592e-05,1.171717991119246e-05,-4.101729733119709e-05,3.3333,4.4667
3.1796875,-4.052854698283362e-05,2.7340337598535098e-05,2.1480951238269595e-05,-4.101729733119709e-05,3.3333,4.4667
3.18359375,-4.541043264637219e-05,3.027283968871592e-05,1.9525949844815713e-05,-4.24835483762875e-05,3.3333,4.4667
3.1875,-5.078668647837036e-05,2.5874086553444696e-05,1.611031522636756e-05,-5.1269819006637696e-05,3.3333,4.4667
3.19140625,-4.0039796634470156e-05,1.8554066968184913e-05,1.8065316619821443e-05,-5.27360700517281e-05,3.3333,4.4667
3.1953125,-3.369165992584118e-05,1.3183430956282876e-05,1.4644064181277157e-05,-4.24835483762875e-05,3.3333,4.4667
3.19921875,-4.1994798027924035e-05,1.1228429562828992e-05,2.0014700193179193e-05,-4.3949799421377906e-05,3.3333,4.4667
3.203125,-4.3949799421377906e-05,-3.9115955962463e-06,1.366656348455021e-05,-4.150604767956056e-05,3.3333,4.4667
3.20703125,-5.029793613000689e-05,-7.815980563057935e-06,3.414041809109605e-06,-4.150604767956056e-05,3.3333,4.4667
3.2109375,-4.541043264637219e-05,-2.9340948995193657e-06,1.4644064181277157e-05,-4.541043264637219e-05,3.3333,4.4667
3.21484375,-3.7112912364385464e-05,-4.903431577020143e-07,7.324044596017373e-06,-4.68766836914626e-05,3.3333,4.4667
3.21875,-4.1994798027924035e-05,-3.4228452478828328e-06,-1.6602251193408123e-05,-5.2247319703364635e-05,3.3333,4.4667
3.22265625,-4.4438549769741386e-05,-3.4228452478828328e-06,-1.8557252586862005e-05,-5.517982179354545e-05,3.3333,4.4667
3.2265625,-4.4438549769741386e-05,9.759078873883879e-07,-7.815980563057935e-06,-5.61573224902724e-05,3.3333,4.4667
3.23046875,-4.541043264637219e-05,-1.2209115878233036e-05,-5.86097916960405e-06,-5.9084206760357085e-05,3.3333,4.4667
3.234375,-4.7365434039826065e-05,-2.2950387902037106e-05,-1.0742864833142618e-05,-4.9809185781643416e-05,3.3333,4.4667
3.23828125,-4.541043264637219e-05,-2.246163755367364e-05,-1.318661657495997e-05,-4.2972298724650974e-05,3.3333,4.4667
3.2421875,-4.68766836914626e-05,-1.563036831677732e-05,-1.318661657495997e-05,-5.175856935500117e-05,3.3333,4.4667
3.24609375,-5.61573224902724e-05,-2.9340948995193657e-06,-2.7832273565575666e-05,-5.61573224902724e-05,3.3333,4.4667
3.25,-3.8579163409475876e-05,-4.394728124513648e-06,-3.076477565575649e-05,-5.175856935500117e-05,3.3333,4.4667
3.25390625,-2.686039068894486e-05,-2.002350363195242e-05,-3.125352600411996e-05,-5.469107144518199e-05,3.3333,4.4667
3.2578125,-3.80904130611124e-05,-2.4905389295490985e-05,-3.466916062256812e-05,-5.1269819006637696e-05,3.3333,4.4667
3.26171875,-3.8579163409475876e-05,-5.372228821240583e-06,-2.7832273565575666e-05,-4.6387933343099125e-05,3.3333,4.4667
3.265625,-3.320852739757384e-05,8.295927472648173e-06,-3.076477565575649e-05,-4.68766836914626e-05,3.3333,4.4667
3.26953125,-3.076477565575649e-05,-1.1231615181506086e-05,-2.880977426230261e-05,-4.3949799421377906e-05,3.3333,4.4667
3.2734375,-3.271977704921037e-05,-2.4905389295490985e-05,-1.4164117271686904e-05,-3.7112912364385464e-05,3.3333,4.4667
3.27734375,-4.052854698283362e-05,-1.4652867620050386e-05,-1.7091001541771603e-05,-3.369165992584118e-05,3.3333,4.4667
3.28125,-4.150604767956056e-05,-1.7091001541771603e-05,-1.953475328358894e-05,-3.8579163409475876e-05,3.3333,4.4667
3.28515625,-4.150604767956056e-05,-2.880977426230261e-05,-1.1231615181506086e-05,-3.8579163409475876e-05,3.3333,4.4667
3.2890625,-3.613541166765853e-05,-2.3439138250400572e-05,-1.4652867620050386e-05,-3.564666131929505e-05,3.3333,4.4667
3.29296875,-2.5882889992217924e-05,-1.757975189013507e-05,-9.282231608148337e-06,-3.076477565575649e-05,3.3333,4.4667
3.296875,-3.7112912364385464e-05,-2.002350363195242e-05,2.9252914607461375e-06,-2.686039068894486e-05,3.3333,4.4667
3.30078125,-4.492730011810485e-05,-2.051225398031589e-05,-1.7091001541771603e-05,-3.955104628610668e-05,3.3333,4.4667
3.3046875,-3.760166271274894e-05,-1.8557252586862005e-05,-2.7832273565575666e-05,-4.68766836914626e-05,3.3333,4.4667
3.30859375,-3.80904130611124e-05,-2.051225398031589e-05,-2.3927888598764042e-05,-3.466916062256812e-05,3.3333,4.4667
3.3125,-3.613541166765853e-05,-2.7832273565575666e-05,-2.4416638947127508e-05,-3.5157910970931585e-05,3.3333,4.4667
3.31640625,-2.9298524610666075e-05,-3.223102670084689e-05,-2.3439138250400572e-05,-3.7112912364385464e-05,3.3333,4.4667
3.3203125,-2.8321023913939143e-05,-2.002350363195242e-05,-3.271977704921037e-05,-3.466916062256812e-05,3.3333,4.4667
3.32421875,-2.8321023913939143e-05,-5.86097916960405e-06,-3.906791375783935e-05,-3.613541166765853e-05,3.3333,4.4667
3.328125,-3.271977704921037e-05,1.4646582357518554e-06,-3.80904130611124e-05,-3.5157910970931585e-05,3.3333,4.4667
3.33203125,-5.1269819006637696e-05,-1.2697866226596502e-05,-4.052854698283362e-05,-3.6624162016022e-05,3.3333,4.4667
3.3359375,-5.029793613000689e-05,-2.002350363195242e-05,-3.955104628610668e-05,-4.6387933343099125e-05,3.3333,4.4667
3.33984375,-4.24835483762875e-05,-1.6602251193408123e-05,-3.6624162016022e-05,-5.469107144518199e-05,3.3333,4.4667
3.34375,-3.8579163409475876e-05,-2.246163755367364e-05,-2.8321023913939143e-05,-5.27360700517281e-05,3.3333,4.4667
3.34765625,-3.955104628610668e-05,-2.1489754677042823e-05,-3.320852739757384e-05,-4.9809185781643416e-05,3.3333,4.4667
3.3515625,-5.27360700517281e-05,-3.076477565575649e-05,-3.271977704921037e-05,-4.150604767956056e-05,3.3333,4.4667
3.35546875,-4.932043543327994e-05,-2.539413964385445e-05,-1.2697866226596502e-05,-3.320852739757384e-05,3.3333,4.4667
3.359375,-3.6624162016022e-05,-2.7832273565575666e-05,-2.539413964385445e-05,-4.1994798027924035e-05,3.3333,4.4667
3.36328125,-1.8557252586862005e-05,-3.0276025307393018e-05,-3.906791375783935e-05,-4.9809185781643416e-05,3.3333,4.4667
3.3671875,-6.349729517967517e-06,-2.7349141037308333e-05,-3.80904130611124e-05,-5.7129205366903206e-05,3.3333,4.4667
3.37109375,-2.4905389295490985e-05,-4.1994798027924035e-05,-4.3949799421377906e-05,-6.445484277225913e-05,3.3333,4.4667
3.375,-2.7832273565575666e-05,-4.2972298724650974e-05,-4.150604767956056e-05,-6.396609242389565e-05,3.3333,4.4667
3.37890625,-2.8321023913939143e-05,-3.760166271274894e-05,-3.7112912364385464e-05,-5.810670606363014e-05,3.3333,4.4667
3.3828125,-1.806850223849854e-05,-3.466916062256812e-05,-3.320852739757384e-05,-5.1269819006637696e-05,3.3333,4.4667
3.38671875,-1.025411448477915e-05,-2.7832273565575666e-05,-3.125352600411996e-05,-5.1269819006637696e-05,3.3333,4.4667
3.390625,-2.051225398031589e-05,-2.539413964385445e-05,-3.564666131929505e-05,-5.029793613000689e-05,3.3333,4.4667
3.39453125,-2.2950387902037106e-05,-3.0276025307393018e-05,-3.5157910970931585e-05,-5.61573224902724e-05,3.3333,4.4667
3.3984375,-2.3439138250400572e-05,-2.9787274959029552e-05,-3.076477565575649e-05,-6.055045780544749e-05,3.3333,4.4667
3.40234375,-2.1972887205310157e-05,-1.953475328358894e-05,-3.466916062256812e-05,-5.6646072838635866e-05,3.3333,4.4667
3.40625,-2.8321023913939143e-05,-1.806850223849854e-05,-3.125352600411996e-05,-5.371357074845505e-05,3.3333,4.4667
3.41015625,-3.076477565575649e-05,-1.6602251193408123e-05,-2.2950387902037106e-05,-5.2247319703364635e-05,3.3333,4.4667
3.4140625,-2.9787274959029552e-05,-1.806850223849854e-05,-2.7349141037308333e-05,-4.932043543327994e-05,3.3333,4.4667
3.41796875,-2.051225398031589e-05,-2.6371640340581394e-05,-3.564666131929505e-05,-5.1269819006637696e-05,3.3333,4.4667
3.421875,-2.1972887205310157e-05,-2.4905389295490985e-05,-4.589918299473566e-05,-5.810670606363014e-05,3.3333,4.4667
3.42578125,-3.564666131929505e-05,-1.8557252586862005e-05,-4.9809185781643416e-05,-4.883168508491648e-05,3.3333,4.4667
3.4296875,-3.7112912364385464e-05,-2.539413964385445e-05,-4.3949799421377906e-05,-4.6387933343099125e-05,3.3333,4.4667
3.43359375,-3.466916062256812e-05,-3.564666131929505e-05,-3.955104628610668e-05,-5.810670606363014e-05,3.3333,4.4667
3.4375,-3.466916062256812e-05,-3.174227635248343e-05,-5.2247319703364635e-05,-5.566857214190892e-05,3.3333,4.4667
3.44140625,-2.4416638947127508e-05,-1.6113500845044653e-05,-5.175856935500117e-05,-4.541043264637219e-05,3.3333,4.4667
3.4453125,-1.8557252586862005e-05,-9.282231608148337e-06,-4.346104907301444e-05,-4.150604767956056e-05,3.3333,4.4667
3.44921875,-2.539413964385445e-05,-1.5141617968413853e-05,-3.7112912364385464e-05,-4.541043264637219e-05,3.3333,4.4667
3.453125,-2.246163755367364e-05,-2.246163755367364e-05,-3.174227635248343e-05,-4.24835483762875e-05,3.3333,4.4667
3.45703125,-4.101729733119709e-05,-3.271977704921037e-05,-4.052854698283362e-05,-4.346104907301444e-05,3.3333,4.4667
3.4609375,-4.541043264637219e-05,-3.320852739757384e-05,-3.613541166765853e-05,-4.9809185781643416e-05,3.3333,4.4667
3.46484375,-3.223102670084689e-05,-1.2209115878233036e-05,-2.5882889992217924e-05,-5.078668647837036e-05,3.3333,4.4667
3.46875,-3.613541166765853e-05,-1.1231615181506086e-05,-2.5882889992217924e-05,-5.4202321096818514e-05,3.3333,4.4667
3.47265625,-3.0276025307393018e-05,-1.6602251193408123e-05,-3.4180410274204646e-05,-4.6387933343099125e-05,3.3333,4.4667
3.4765625,-2.8321023913939143e-05,-6.349729517967517e-06,-3.80904130611124e-05,-4.589918299473566e-05,3.3333,4.4667
3.48046875,-3.271977704921037e-05,-2.8321023913939143e-05,-3.6624162016022e-05,-4.589918299473566e-05,3.3333,4.4667
3.484375,-3.369165992584118e-05,-6.29885917271687e-05,-3.5157910970931585e-05,-4.492730011810485e-05,3.3333,4.4667
3.48828125,-4.834293473655301e-05,-6.20167088505379e-05,-3.955104628610668e-05,-4.883168508491648e-05,3.3333,4.4667
3.4921875,-4.7365434039826065e-05,-5.761795571526667e-05,-4.68766836914626e-05,-5.078668647837036e-05,3.3333,4.4667
3.49609375,-4.101729733119709e-05,-5.2247319703364635e-05,-4.052854698283362e-05,-4.9809185781643416e-05,3.3333,4.4667
3.5,-3.80904130611124e-05,-4.052854698283362e-05,-3.5157910970931585e-05,-4.3949799421377906e-05,3.3333,4.4667
3.50390625,-4.1994798027924035e-05,-3.369165992584118e-05,-3.613541166765853e-05,-4.589918299473566e-05,3.3333,4.4667
3.5078125,-2.7349141037308333e-05,-2.002350363195242e-05,-2.3439138250400572e-05,-4.2972298724650974e-05,3.3333,4.4667
3.51171875,-1.953475328358894e-05,-2.6371640340581394e-05,-1.563036831677732e-05,-4.541043264637219e-05,3.3333,4.4667
3.515625,-4.2972298724650974e-05,-4.346104907301444e-05,-2.3439138250400572e-05,-4.932043543327994e-05,3.3333,4.4667
3.51953125,-4.785418438818954e-05,-3.320852739757384e-05,-2.539413964385445e-05,-4.2972298724650974e-05,3.3333,4.4667
3.5234375,-4.4438549769741386e-05,-3.076477565575649e-05,-3.223102670084689e-05,-4.68766836914626e-05,3.3333,4.4667
3.52734375,-4.101729733119709e-05,-3.0276025307393018e-05,-4.346104907301444e-05,-4.7365434039826065e-05,3.3333,4.4667
3.53125,-2.9787274959029552e-05,-1.563036831677732e-05,-4.492730011810485e-05,-4.492730011810485e-05,3.3333,4.4667
3.53515625,-3.125352600411996e-05,-3.125352600411996e-05,-5.4202321096818514e-05,-4.24835483762875e-05,3.3333,4.4667
3.5390625,-3.0276025307393018e-05,-4.24835483762875e-05,-4.541043264637219e-05,-3.320852739757384e-05,3.3333,4.4667
3.54296875,-2.1972887205310157e-05,-2.539413964385445e-05,-2.3927888598764042e-05,-3.8579163409475876e-05,3.3333,4.4667
3.546875,-2.8321023913939143e-05,-2.6371640340581394e-05,-3.320852739757384e-05,-4.0039796634470156e-05,3.3333,4.4667
3.55078125,-4.24835483762875e-05,-3.5157910970931585e-05,-4.883168508491648e-05,-3.466916062256812e-05,3.3333,4.4667
3.5546875,-4.7365434039826065e-05,-3.7112912364385464e-05,-5.27360700517281e-05,-3.125352600411996e-05,3.3333,4.4667
3.55859375,-4.492730011810485e-05,-4.2972298724650974e-05,-4.785418438818954e-05,-3.7112912364385464e-05,3.3333,4.4667
3.5625,-4.589918299473566e-05,-4.346104907301444e-05,-4.7365434039826065e-05,-4.68766836914626e-05,3.3333,4.4667
3.56640625,-3.8579163409475876e-05,-2.8321023913939143e-05,-4.492730011810485e-05,-3.955104628610668e-05,3.3333,4.4667
3.5703125,-3.271977704921037e-05,-2.539413964385445e-05,-4.150604767956056e-05,-3.613541166765853e-05,3.3333,4.4667
3.57421875,-4.346104907301444e-05,-4.589918299473566e-05,-5.029793613000689e-05,-4.3949799421377906e-05,3.3333,4.4667
3.578125,-3.6624162016022e-05,-4.150604767956056e-05,-4.68766836914626e-05,-4.492730011810485e-05,3.3333,4.4667
3.58203125,-2.686039068894486e-05,-4.541043264637219e-05,-4.2972298724650974e-05,-4.932043543327994e-05,3.3333,4.4667
3.5859375,-3.369165992584118e-05,-5.175856935500117e-05,-4.492730011810485e-05,-5.029793613000689e-05,3.3333,4.4667
3.58984375,-2.880977426230261e-05,-3.955104628610668e-05,-4.541043264637219e-05,-4.1994798027924035e-05,3.3333,4.4667
3.59375,-3.320852739757384e-05,-3.5157910970931585e-05,-4.883168508491648e-05,-3.5157910970931585e-05,3.3333,4.4667
3.59765625,-4.24835483762875e-05,-3.564666131929505e-05,-5.175856935500117e-05,-3.369165992584118e-05,3.3333,4.4667
3.6015625,-3.760166271274894e-05,-3.955104628610668e-05,-5.078668647837036e-05,-3.6624162016022e-05,3.3333,4.4667
3.60546875,-3.271977704921037e-05,-4.24835483762875e-05,-4.1994798027924035e-05,-4.1994798027924035e-05,3.3333,4.4667
3.609375,-3.760166271274894e-05,-5.4202321096818514e-05,-4.24835483762875e-05,-3.7112912364385464e-05,3.3333,4.4667
3.61328125,-4.150604767956056e-05,-6.250545919890137e-05,-4.541043264637219e-05,-3.613541166765853e-05,3.3333,4.4667
3.6171875,-3.613541166765853e-05,-5.27360700517281e-05,-3.760166271274894e-05,-3.320852739757384e-05,3.3333,4.4667
3.62109375,-3.613541166765853e-05,-4.883168508491648e-05,-4.101729733119709e-05,-3.4180410274204646e-05,3.3333,4.4667
3.625,-4.24835483762875e-05,-4.4438549769741386e-05,-4.101729733119709e-05,-3.8579163409475876e-05,3.3333,4.4667
3.62890625,-3.466916062256812e-05,-3.564666131929505e-05,-2.7349141037308333e-05,-3.320852739757384e-05,3.3333,4.4667
3.6328125,-4.4438549769741386e-05,-4.541043264637219e-05,-3.4180410274204646e-05,-3.906791375783935e-05,3.3333,4.4667
3.63671875,-4.4438549769741386e-05,-4.541043264637219e-05,-5.6646072838635866e-05,-5.2247319703364635e-05,3.3333,4.4667
3.640625,-4.492730011810485e-05,-4.4438549769741386e-05,-5.9084206760357085e-05,-4.7365434039826065e-05,3.3333,4.4667
3.64453125,-4.346104907301444e-05,-4.101729733119709e-05,-4.785418438818954e-05,-4.492730011810485e-05,3.3333,4.4667
3.6484375,-3.4180410274204646e-05,-3.0276025307393018e-05,-3.8579163409475876e-05,-4.150604767956056e-05,3.3333,4.4667
3.65234375,-3.80904130611124e-05,-2.9298524610666075e-05,-2.9787274959029552e-05,-3.369165992584118e-05,3.3333,4.4667
3.65625,-4.3949799421377906e-05,-3.271977704921037e-05,-2.7349141037308333e-05,-3.5157910970931585e-05,3.3333,4.4667
3.66015625,-4.052854698283362e-05,-3.174227635248343e-05,-3.0276025307393018e-05,-3.80904130611124e-05,3.3333,4.4667
3.6640625,-3.320852739757384e-05,-2.880977426230261e-05,-3.369165992584118e-05,-3.7112912364385464e-05,3.3333,4.4667
3.66796875,-3.5157910970931585e-05,-3.0276025307393018e-05,-3.271977704921037e-05,-3.466916062256812e-05,3.3333,4.4667
3.671875,-3.271977704921037e-05,-2.9298524610666075e-05,-4.346104907301444e-05,-3.125352600411996e-05,3.3333,4.4667
3.67578125,-2.539413964385445e-05,-3.076477565575649e-05,-4.541043264637219e-05,-3.0276025307393018e-05,3.3333,4.4667
3.6796875,-2.8321023913939143e-05,-2.7349141037308333e-05,-4.2972298724650974e-05,-3.174227635248343e-05,3.3333,4.4667
3.68359375,-4.0039796634470156e-05,-1.6602251193408123e-05,-3.760166271274894e-05,-3.271977704921037e-05,3.3333,4.4667
3.6875,-4.24835483762875e-05,-1.8557252586862005e-05,-2.5882889992217924e-05,-3.223102670084689e-05,3.3333,4.4667
3.69140625,-3.5157910970931585e-05,-4.0039796634470156e-05,-1.2697866226596502e-05,-3.174227635248343e-05,3.3333,4.4667
3.6953125,-3.5157910970931585e-05,-4.541043264637219e-05,-2.002350363195242e-05,-3.4180410274204646e-05,3.3333,4.4667
3.69921875,-4.0039796634470156e-05,-4.150604767956056e-05,-4.0039796634470156e-05,-3.760166271274894e-05,3.3333,4.4667
3.703125,-3.320852739757384e-05,-3.8579163409475876e-05,-3.076477565575649e-05,-3.906791375783935e-05,3.3333,4.4667
3.70703125,-3.564666131929505e-05,-4.1994798027924035e-05,-3.125352600411996e-05,-3.6624162016022e-05,3.3333,4.4667
3.7109375,-3.4180410274204646e-05,-5.078668647837036e-05,-4.589918299473566e-05,-3.125352600411996e-05,3.3333,4.4667
3.71484375,-3.271977704921037e-05,-4.4438549769741386e-05,-4.1994798027924035e-05,-2.9298524610666075e-05,3.3333,4.4667
3.71875,-3.4180410274204646e-05,-4.3949799421377906e-05,-4.785418438818954e-05,-4.052854698283362e-05,3.3333,4.4667
3.72265625,-3.4180410274204646e-05,-5.1269819006637696e-05,-4.883168508491648e-05,-4.4438549769741386e-05,3.3333,4.4667
3.7265625,-2.9787274959029552e-05,-4.101729733119709e-05,-2.6371640340581394e-05,-3.125352600411996e-05,3.3333,4.4667
3.73046875,-3.076477565575649e-05,-3.8579163409475876e-05,-2.6371640340581394e-05,-2.539413964385445e-05,3.3333,4.4667
3.734375,-3.564666131929505e-05,-4.6387933343099125e-05,-3.5157910970931585e-05,-2.1972887205310157e-05,3.3333,4.4667
3.73828125,-2.880977426230261e-05,-4.101729733119709e-05,-1.757975189013507e-05,-2.3439138250400572e-05,3.3333,4.4667
3.7421875,-2.7832273565575666e-05,-4.2972298724650974e-05,-2.5882889992217924e-05,-3.076477565575649e-05,3.3333,4.4667
3.74609375,-3.0276025307393018e-05,-4.4438549769741386e-05,-5.2247319703364635e-05,-2.9787274959029552e-05,3.3333,4.4667
3.75,-3.0276025307393018e-05,-4.541043264637219e-05,-5.8595456411993605e-05,-3.0276025307393018e-05,3.3333,4.4667
3.75390625,-2.686039068894486e-05,-4.3949799421377906e-05,-5.371357074845505e-05,-3.271977704921037e-05,3.3333,4.4667
3.7578125,-2.9787274959029552e-05,-3.80904130611124e-05,-5.371357074845505e-05,-3.076477565575649e-05,3.3333,4.4667
3.76171875,-3.271977704921037e-05,-3.564666131929505e-05,-5.175856935500117e-05,-3.174227635248343e-05,3.3333,4.4667
3.765625,-3.0276025307393018e-05,-3.5157910970931585e-05,-4.101729733119709e-05,-3.564666131929505e-05,3.3333,4.4667
3.76953125,-4.3949799421377906e-05,-3.369165992584118e-05,-3.906791375783935e-05,-4.6387933343099125e-05,3.3333,4.4667
3.7734375,-3.7112912364385464e-05,-4.1994798027924035e-05,-4.4438549769741386e-05,-5.322482040009158e-05,3.3333,4.4667
3.77734375,-2.7832273565575666e-05,-4.7365434039826065e-05,-5.27360700517281e-05,-4.883168508491648e-05,3.3333,4.4667
3.78125,-4.0039796634470156e-05,-4.0039796634470156e-05,-4.541043264637219e-05,-4.541043264637219e-05,3.3333,4.4667
3.78515625,-3.5157910970931585e-05,-3.6624162016022e-05,-4.68766836914626e-05,-4.4438549769741386e-05,3.3333,4.4667
3.7890625,-3.0276025307393018e-05,-4.150604767956056e-05,-6.88479780874342e-05,-4.1994798027924035e-05,3.3333,4.4667
3.79296875,-4.101729733119709e-05,-4.785418438818954e-05,-7.422423191943237e-05,-3.906791375783935e-05,3.3333,4.4667
3.796875,-4.2972298724650974e-05,-5.029793613000689e-05,-5.6646072838635866e-05,-3.955104628610668e-05,3.3333,4.4667
3.80078125,-3.5157910970931585e-05,-3.6624162016022e-05,-4.492730011810485e-05,-4.150604767956056e-05,3.3333,4.4667
3.8046875,-2.7349141037308333e-05,-2.7349141037308333e-05,-3.760166271274894e-05,-4.346104907301444e-05,3.3333,4.4667
3.80859375,-3.076477565575649e-05,-2.7349141037308333e-05,-4.492730011810485e-05,-5.2247319703364635e-05,3.3333,4.4667
3.8125,-3.7112912364385464e-05,-3.80904130611124e-05,-5.175856935500117e-05,-5.322482040009158e-05,3.3333,4.4667
3.81640625,-3.223102670084689e-05,-4.101729733119709e-05,-3.466916062256812e-05,-3.760166271274894e-05,3.3333,4.4667
3.8203125,-2.9298524610666075e-05,-3.80904130611124e-05,-4.101729733119709e-05,-3.174227635248343e-05,3.3333,4.4667
3.82421875,-4.1994798027924035e-05,-3.613541166765853e-05,-5.61573224902724e-05,-3.6624162016022e-05,3.3333,4.4667
3.828125,-5.078668647837036e-05,-3.955104628610668e-05,-4.4438549769741386e-05,-4.052854698283362e-05,3.3333,4.4667
3.83203125,-4.150604767956056e-05,-3.125352600411996e-05,-4.2972298724650974e-05,-4.0039796634470156e-05,3.3333,4.4667
3.8359375,-3.223102670084689e-05,-2.246163755367364e-05,-4.7365434039826065e-05,-3.760166271274894e-05,3.3333,4.4667
3.83984375,-3.760166271274894e-05,-2.7832273565575666e-05,-4.6387933343099125e-05,-3.955104628610668e-05,3.3333,4.4667
3.84375,-3.8579163409475876e-05,-2.9787274959029552e-05,-4.101729733119709e-05,-4.052854698283362e-05,3.3333,4.4667
3.84765625,-4.0039796634470156e-05,-3.906791375783935e-05,-3.906791375783935e-05,-4.4438549769741386e-05,3.3333,4.4667
3.8515625,-3.955104628610668e-05,-5.566857214190892e-05,-4.932043543327994e-05,-4.3949799421377906e-05,3.3333,4.4667
3.85546875,-5.1269819006637696e-05,-5.566857214190892e-05,-5.7129205366903206e-05,-4.0039796634470156e-05,3.3333,4.4667
3.859375,-5.078668647837036e-05,-5.1269819006637696e-05,-5.566857214190892e-05,-3.6624162016022e-05,3.3333,4.4667
3.86328125,-3.613541166765853e-05,-4.883168508491648e-05,-4.1994798027924035e-05,-3.6624162016022e-05,3.3333,4.4667
3.8671875,-3.8579163409475876e-05,-4.150604767956056e-05,-4.492730011810485e-05,-4.24835483762875e-05,3.3333,4.4667
3.87109375,-3.955104628610668e-05,-3.6624162016022e-05,-5.7129205366903206e-05,-4.492730011810485e-05,3.3333,4.4667
3.875,-3.955104628610668e-05,-3.906791375783935e-05,-4.68766836914626e-05,-4.541043264637219e-05,3.3333,4.4667
3.87890625,-4.101729733119709e-05,-4.541043264637219e-05,-4.883168508491648e-05,-4.150604767956056e-05,3.3333,4.4667
3.8828125,-3.80904130611124e-05,-3.906791375783935e-05,-5.469107144518199e-05,-3.5157910970931585e-05,3.3333,4.4667
3.88671875,-2.4905389295490985e-05,-3.125352600411996e-05,-4.6387933343099125e-05,-3.7112912364385464e-05,3.3333,4.4667
3.890625,-3.613541166765853e-05,-3.271977704921037e-05,-4.1994798027924035e-05,-3.466916062256812e-05,3.3333,4.4667
3.89453125,-3.5157910970931585e-05,-3.4180410274204646e-05,-3.7112912364385464e-05,-3.174227635248343e-05,3.3333,4.4667
3.8984375,-2.1972887205310157e-05,-3.466916062256812e-05,-4.1994798027924035e-05,-4.150604767956056e-05,3.3333,4.4667
3.90234375,-2.9298524610666075e-05,-3.760166271274894e-05,-4.785418438818954e-05,-3.223102670084689e-05,3.3333,4.4667
3.90625,-4.2972298724650974e-05,-3.5157910970931585e-05,-5.029793613000689e-05,-2.7832273565575666e-05,3.3333,4.4667
3.91015625,-4.052854698283362e-05,-2.9787274959029552e-05,-5.322482040009158e-05,-3.125352600411996e-05,3.3333,4.4667
3.9140625,-3.223102670084689e-05,-3.955104628610668e-05,-4.9809185781643416e-05,-3.4180410274204646e-05,3.3333,4.4667
3.91796875,-3.223102670084689e-05,-4.492730011810485e-05,-4.932043543327994e-05,-4.4438549769741386e-05,3.3333,4.4667
3.921875,-2.9787274959029552e-05,-2.9298524610666075e-05,-5.078668647837036e-05,-3.760166271274894e-05,3.3333,4.4667
3.92578125,-2.9298524610666075e-05,-2.9298524610666075e-05,-4.6387933343099125e-05,-2.8321023913939143e-05,3.3333,4.4667
3.9296875,-2.880977426230261e-05,-3.125352600411996e-05,-4.4438549769741386e-05,-2.880977426230261e-05,3.3333,4.4667
3.93359375,-2.3439138250400572e-05,-3.80904130611124e-05,-4.932043543327994e-05,-3.0276025307393018e-05,3.3333,4.4667
3.9375,-2.246163755367364e-05,-5.469107144518199e-05,-5.957295710872056e-05,-2.3439138250400572e-05,3.3333,4.4667
3.94140625,-2.3439138250400572e-05,-4.6387933343099125e-05,-5.2247319703364635e-05,-1.7091001541771603e-05,3.3333,4.4667
3.9453125,-2.7349141037308333e-05,-4.492730011810485e-05,-5.6646072838635866e-05,-2.002350363195242e-05,3.3333,4.4667
3.94921875,-3.369165992584118e-05,-6.836484555916687e-05,-7.568486514442667e-05,-2.8321023913939143e-05,3.3333,4.4667
3.953125,-2.880977426230261e-05,-7.861736723460748e-05,-8.10555011563287e-05,-2.051225398031589e-05,3.3333,4.4667
3.95703125,-1.806850223849854e-05,-0.00010107179415884644,-0.00010497617912565806,-2.1972887205310157e-05,3.3333,4.4667
3.9609375,-6.349729517967517e-06,-0.00012060495463309683,-0.00012450933959990844,-2.4905389295490985e-05,3.3333,4.4667
3.96484375,-4.883478472877115e-06,-0.00013818311371389336,-0.0001328068598818952,-6.838479866330999e-06,3.3333,4.4667
3.96875,-5.86097916960405e-06,-0.00017138443048203252,-0.00015868815706477455,3.9027921574730725e-06,3.3333,4.4667
3.97265625,-8.304730911421401e-06,-0.00019384447522636757,-0.0001821257025058366,-4.903431577020143e-07,3.3333,4.4667
3.9765625,-8.793481259784869e-06,-0.00020897888256534678,-0.00019433322557473105,2.9252914607461375e-06,3.3333,4.4667
3.98046875,-3.9115955962463e-06,-0.00021874827171252005,-0.00021288888535225453,3.414041809109605e-06,3.3333,4.4667
3.984375,-7.327230214694467e-06,-0.00022607390911787595,-0.00022314140702769516,9.273428169375122e-06,3.3333,4.4667
3.98828125,-9.790935060654816e-07,-0.00022851204303959717,-0.00022460765807278554,1.5132814529640625e-05,3.3333,4.4667
3.9921875,2.9252914607461375e-06,-0.00022558515876951247,-0.00022314140702769516,1.904281731654838e-05,3.3333,4.4667
3.99609375,-4.394728124513648e-06,-0.00021435513639734495,-0.00020458574725017165,2.1969701586633064e-05,3.3333,4.4667
4.0,-1.2697866226596502e-05,-0.0001992151112382696,-0.00017724381684229804,1.0739679214465524e-05,3.3333,4.4667
