timestamp,TP9,AF7,AF8,TP10,Valence,Arousal
0.0,5.906412478370337e-05,8.837782769512474e-05,0.00013719564304417488,1.85312421515221e-05,7.2667,6.0667
0.00390625,7.37065926756695e-05,9.177234873884186e-05,0.00013719564304417488,2.6844941995880075e-05,7.2667,6.0667
0.0078125,4.833398623025866e-05,0.00010983810480201421,0.00011277235180590526,2.9779188999771136e-05,7.2667,6.0667
0.01171875,7.37065926756695e-05,0.00012692577853055622,0.00010106413091783016,1.7064118649576578e-05,7.2667,6.0667
0.015625,5.661891894712751e-05,0.00011717372231174183,0.00012499838098878465,1.1713432936598778e-05,7.2667,6.0667
0.01953125,1.6086036314946226e-05,0.00011472851647516594,0.00014355317821927214,2.097644798809798e-05,7.2667,6.0667
0.0234375,-9.28657013046462e-06,0.00011815180464637217,0.00010886002246738385,1.6575077482261404e-05,7.2667,6.0667
0.02734375,-6.590027702906842e-05,0.00010106413091783016,7.859700434882125e-05,2.5377818493934553e-05,7.2667,6.0667
0.03125,-0.00010741124199588005,0.00010008604858319983,9.079426640421149e-05,1.7064118649576578e-05,7.2667,6.0667
0.03515625,-0.00023533865794003202,0.00010155317208514535,7.126138683909363e-05,-1.490678580910945e-06,7.2667,6.0667
0.0390625,-0.00033737565914396885,8.593262185854888e-05,4.637782156099796e-05,7.801103598077383e-06,7.2667,6.0667
0.04296875,-0.00039695238017395276,8.250933368734266e-05,6.004220711833373e-05,1.85312421515221e-05,7.2667,6.0667
0.046875,-0.0005327044547951476,8.104221018539714e-05,4.73559038956283e-05,3.320247717097736e-05,7.2667,6.0667
0.05078125,-0.0006499017321858548,8.54435806912337e-05,2.5377818493934553e-05,3.8064121716639975e-05,7.2667,6.0667
0.0546875,-0.0007616907896086061,8.250933368734266e-05,-2.3439996855115568e-05,2.195453032272833e-05,7.2667,6.0667
0.05859375,-0.0008442236783749141,7.126138683909363e-05,-4.832356213321124e-05,1.5136721107805008e-05,7.2667,6.0667
0.0625,-0.000917953826129549,9.47065957427329e-05,9.54527255664928e-07,2.7823024330510433e-05,7.2667,6.0667
0.06640625,-0.0009648154768093385,0.00013034906670176242,2.8801106665140778e-05,3.512987471274893e-05,7.2667,6.0667
0.0703125,-0.0009677497238132296,0.00012206413398489356,2.7333983163195256e-05,3.904220405127033e-05,7.2667,6.0667
0.07421875,-0.0009672606826459144,0.00012255317515220875,6.297645412222477e-05,3.904220405127033e-05,7.2667,6.0667
0.078125,-0.0009687278061478598,0.00015330523443808652,0.00011717372231174183,3.708603938200963e-05,7.2667,6.0667
0.08203125,-0.0009682387649805447,0.00014306413705195698,0.00012692577853055622,3.173535366903184e-05,7.2667,6.0667
0.0859375,-0.0009682387649805447,0.00012692577853055622,0.00013426139604028384,2.4888777326619376e-05,7.2667,6.0667
0.08984375,-0.0009682387649805447,0.00013621756070954452,0.00016941482583199816,2.3421653824673854e-05,7.2667,6.0667
0.09375,-0.0009682387649805447,0.00016015181078049898,0.00019481619940489814,3.4640833545433747e-05,7.2667,6.0667
0.09765625,-0.0009682387649805447,0.0001425750958846418,0.00019334907590295262,2.7823024330510433e-05,7.2667,6.0667
0.1015625,-0.0009682387649805447,0.00012255317515220875,0.0001787066080109865,2.195453032272833e-05,7.2667,6.0667
0.10546875,-0.0009682387649805447,0.00011179426947127489,0.00016064085194781414,2.8801106665140778e-05,7.2667,6.0667
0.109375,-0.0009682387649805447,0.00011228331063859007,0.0001459696169283589,2.6844941995880075e-05,7.2667,6.0667
0.11328125,-0.0009682387649805447,0.0001327942725383383,0.00013621756070954452,3.075727133440148e-05,7.2667,6.0667
0.1171875,-0.0009682387649805447,0.00011619563997711147,0.0001288819431998169,3.320247717097736e-05,7.2667,6.0667
0.12109375,-0.0009682387649805447,9.323947224078739e-05,0.00013426139604028384,3.610795704737927e-05,7.2667,6.0667
0.125,-0.0009682387649805447,7.468467501029986e-05,0.00012108605165026323,3.8064121716639975e-05,7.2667,6.0667
0.12890625,-0.0009682387649805447,7.272851034103915e-05,8.837782769512474e-05,3.415179237811858e-05,7.2667,6.0667
0.1328125,-0.0009682387649805447,7.03120716319524e-05,7.468467501029986e-05,2.6844941995880075e-05,7.2667,6.0667
0.13671875,-0.0009682387649805447,7.712988084687573e-05,7.517371617761504e-05,2.5866859661249734e-05,7.2667,6.0667
0.140625,-0.0009682387649805447,7.03120716319524e-05,7.223946917372397e-05,3.561891588006411e-05,7.2667,6.0667
0.14453125,-0.0009682387649805447,5.906412478370337e-05,7.95750866834516e-05,3.561891588006411e-05,7.2667,6.0667
0.1484375,-0.0009682387649805447,4.1976451055161374e-05,7.077234567177845e-05,3.659699821469445e-05,7.2667,6.0667
0.15234375,-0.0009682387649805447,1.7064118649576578e-05,5.175727440146488e-05,4.099836872053103e-05,7.2667,6.0667
0.15625,-0.0009682387649805447,3.953124521858551e-05,5.0290150899519356e-05,4.4421656891737254e-05,7.2667,6.0667
0.16015625,-0.0009682387649805447,4.4421656891737254e-05,4.588878039368278e-05,3.8064121716639975e-05,7.2667,6.0667
0.1640625,-0.0009682387649805447,2.8312065497825597e-05,5.661891894712751e-05,4.148740988784621e-05,7.2667,6.0667
0.16796875,-0.0009682387649805447,7.312062430762204e-06,4.2954533389791735e-05,4.833398623025866e-05,7.2667,6.0667
0.171875,-0.0009682387649805447,2.4216507576104503e-06,1.7064118649576578e-05,4.3932615724422077e-05,7.2667,6.0667
0.17578125,-0.0009682387649805447,-1.613314647287707e-05,2.04874068207828e-05,4.34435745571069e-05,7.2667,6.0667
0.1796875,-0.0009687278061478598,-7.330405461203916e-06,1.999836565346763e-05,4.491069805905243e-05,7.2667,6.0667
0.18359375,-0.0009672606826459144,2.5866859661249734e-05,1.950932448615245e-05,3.904220405127033e-05,7.2667,6.0667
0.1875,-0.0009667716414785991,2.195453032272833e-05,1.366959760585948e-05,3.512987471274893e-05,7.2667,6.0667
0.19140625,-0.0009682387649805447,2.146548915541315e-05,1.5596995147631056e-05,4.34435745571069e-05,7.2667,6.0667
0.1953125,-0.0009115962909544517,5.1268233234149704e-05,3.757508054932481e-05,4.637782156099796e-05,7.2667,6.0667
0.19921875,-0.0008222455929732203,4.0509327553215855e-05,4.246549222247655e-05,4.4421656891737254e-05,7.2667,6.0667
0.203125,-0.0008017346310734721,1.5136721107805008e-05,5.0779192066834526e-05,3.610795704737927e-05,7.2667,6.0667
0.20703125,-0.0007734277776241703,2.04874068207828e-05,4.2954533389791735e-05,3.415179237811858e-05,7.2667,6.0667
0.2109375,-0.0007241209211078049,3.4640833545433747e-05,1.5136721107805008e-05,3.512987471274893e-05,7.2667,6.0667
0.21484375,-0.0006630770765758755,6.05312482856489e-05,1.5596995147631056e-05,3.8064121716639975e-05,7.2667,6.0667
0.21875,-0.0005761715844312199,6.933398929732206e-05,3.271343600366218e-05,3.8064121716639975e-05,7.2667,6.0667
0.22265625,-0.0005790770643076218,6.004220711833373e-05,3.708603938200963e-05,2.8312065497825597e-05,7.2667,6.0667
0.2265625,-0.0005366167841336689,2.4399736159304212e-05,3.320247717097736e-05,3.757508054932481e-05,7.2667,6.0667
0.23046875,-0.00042868252179446094,1.1713432936598778e-05,2.6355900828564898e-05,4.73559038956283e-05,7.2667,6.0667
0.234375,-0.0003964633390066376,2.4399736159304212e-05,3.415179237811858e-05,3.8064121716639975e-05,7.2667,6.0667
0.23828125,-0.000346178400155642,6.05312482856489e-05,5.417371311055163e-05,3.708603938200963e-05,7.2667,6.0667
0.2421875,-0.00030857976452735176,5.319563077592127e-05,4.099836872053103e-05,3.610795704737927e-05,7.2667,6.0667
0.24609375,-0.0002753824994048981,1.999836565346763e-05,4.4421656891737254e-05,2.9290147832455955e-05,7.2667,6.0667
0.25,-0.00025584961983978025,1.5136721107805008e-05,3.4640833545433747e-05,3.2224394836347e-05,7.2667,6.0667
0.25390625,-0.00024022906961318377,1.366959760585948e-05,3.075727133440148e-05,3.3662751210803405e-05,7.2667,6.0667
0.2578125,-0.00019920714581368732,1.1224391769283606e-05,3.855316288395515e-05,3.415179237811858e-05,7.2667,6.0667
0.26171875,-0.00018505371908903638,4.73559038956283e-05,5.8575083616388194e-05,3.271343600366218e-05,7.2667,6.0667
0.265625,-0.00012645508039368274,6.982303046463723e-05,9.226138990615703e-05,3.173535366903184e-05,7.2667,6.0667
0.26953125,-7.809753908445867e-05,4.1976451055161374e-05,7.95750866834516e-05,3.173535366903184e-05,7.2667,6.0667
0.2734375,-5.076876796978712e-05,4.980110973220418e-05,6.1020289452964075e-05,2.391069499198903e-05,7.2667,6.0667
0.27734375,-3.957835537651635e-05,6.1020289452964075e-05,5.661891894712751e-05,2.3421653824673854e-05,7.2667,6.0667
0.28125,-6.352323126573573e-06,6.004220711833373e-05,6.24874129549096e-05,2.7823024330510433e-05,7.2667,6.0667
0.28515625,4.637782156099796e-05,5.319563077592127e-05,8.104221018539714e-05,3.320247717097736e-05,7.2667,6.0667
0.2890625,4.4421656891737254e-05,2.7823024330510433e-05,8.15312513527123e-05,3.512987471274893e-05,7.2667,6.0667
0.29296875,7.37065926756695e-05,3.271343600366218e-05,6.1020289452964075e-05,2.5866859661249734e-05,7.2667,6.0667
0.296875,9.568467807736325e-05,3.610795704737927e-05,5.2706589608606106e-05,2.391069499198903e-05,7.2667,6.0667
0.30078125,0.00011815180464637217,2.4888777326619376e-05,8.202029252002748e-05,3.173535366903184e-05,7.2667,6.0667
0.3046875,0.0001596627696131838,5.808604244907303e-05,8.932714290226598e-05,3.2224394836347e-05,7.2667,6.0667
0.30859375,0.0001977504464087892,7.37065926756695e-05,6.982303046463723e-05,3.173535366903184e-05,7.2667,6.0667
0.3125,0.0002245901763561456,7.859700434882125e-05,7.419563384298467e-05,2.8312065497825597e-05,7.2667,6.0667
0.31640625,0.00019872852874341956,6.395453645685514e-05,7.321755150835433e-05,2.6844941995880075e-05,7.2667,6.0667
0.3203125,0.00023486004086976424,3.757508054932481e-05,6.933398929732206e-05,3.173535366903184e-05,7.2667,6.0667
0.32421875,0.0003022326534493019,9.030522523689631e-05,0.00012499838098878465,3.173535366903184e-05,7.2667,6.0667
0.328125,0.00029245183010299843,9.764084274662394e-05,0.00010302029558709088,3.561891588006411e-05,7.2667,6.0667
0.33203125,0.0003007655299473564,2.8312065497825597e-05,3.02682301670863e-05,2.8801106665140778e-05,7.2667,6.0667
0.3359375,0.00032323265651636526,4.0509327553215855e-05,5.1268233234149704e-05,2.04874068207828e-05,7.2667,6.0667
0.33984375,0.0003456997830853742,5.221754844129093e-05,6.346549528953996e-05,1.950932448615245e-05,7.2667,6.0667
0.34375,0.00033738608324101625,4.1976451055161374e-05,5.1268233234149704e-05,1.85312421515221e-05,7.2667,6.0667
0.34765625,0.00032616690352025635,4.9312068564889e-05,6.493261879148548e-05,2.7823024330510433e-05,7.2667,6.0667
0.3515625,0.00032225457418173494,5.612987777981233e-05,7.615179851224538e-05,2.8801106665140778e-05,7.2667,6.0667
0.35546875,0.0003461888242526894,6.44435776241703e-05,5.175727440146488e-05,2.8312065497825597e-05,7.2667,6.0667
0.359375,0.0003984299277729457,7.03120716319524e-05,5.0290150899519356e-05,3.02682301670863e-05,7.2667,6.0667
0.36328125,0.00038669293975738156,9.568467807736325e-05,6.004220711833373e-05,2.5377818493934553e-05,7.2667,6.0667
0.3671875,0.00039011622792858776,8.886686886243992e-05,2.8801106665140778e-05,2.6844941995880075e-05,7.2667,6.0667
0.37109375,0.0003642545803158617,6.1020289452964075e-05,3.399733092240801e-06,3.02682301670863e-05,7.2667,6.0667
0.375,0.0003569189628061341,5.368467194323645e-05,3.02682301670863e-05,3.02682301670863e-05,7.2667,6.0667
0.37890625,0.0004247806165529869,5.515179544518197e-05,2.9779188999771136e-05,2.4399736159304212e-05,7.2667,6.0667
0.3828125,0.00042138609550926987,7.37065926756695e-05,2.8312065497825597e-05,2.391069499198903e-05,7.2667,6.0667
0.38671875,0.0004204080131746395,9.128330757152668e-05,4.833398623025866e-05,2.3421653824673854e-05,7.2667,6.0667
0.390625,0.0004199189720073243,8.886686886243992e-05,3.4640833545433747e-05,2.4399736159304212e-05,7.2667,6.0667
0.39453125,0.0004150285603341726,9.568467807736325e-05,3.904220405127033e-05,3.02682301670863e-05,7.2667,6.0667
0.3984375,0.0004404011667795834,9.030522523689631e-05,5.7107960114442676e-05,3.4640833545433747e-05,7.2667,6.0667
0.40234375,0.00044920390779125657,7.908604551613643e-05,3.904220405127033e-05,3.4640833545433747e-05,7.2667,6.0667
0.40625,0.0004584956899702449,8.73997453604944e-05,4.6866862728313134e-05,3.610795704737927e-05,7.2667,6.0667
0.41015625,0.00041405047799954225,9.030522523689631e-05,6.24874129549096e-05,3.855316288395515e-05,7.2667,6.0667
0.4140625,0.00043407239873197525,0.00010106413091783016,5.221754844129093e-05,3.708603938200963e-05,7.2667,6.0667
0.41796875,0.0005019340524788281,7.37065926756695e-05,5.906412478370337e-05,3.512987471274893e-05,7.2667,6.0667
0.421875,0.00047313815786221105,6.737782462806135e-05,6.6399742293431e-05,3.271343600366218e-05,7.2667,6.0667
0.42578125,0.00045018199012588695,0.00010595454259098192,5.175727440146488e-05,3.2224394836347e-05,7.2667,6.0667
0.4296875,0.00045018199012588695,9.519563691004807e-05,5.175727440146488e-05,3.271343600366218e-05,7.2667,6.0667
0.43359375,0.00047558336369878687,8.495453952391853e-05,4.1976451055161374e-05,3.075727133440148e-05,7.2667,6.0667
0.4375,0.0004824011729137102,0.00010057508975051501,3.561891588006411e-05,2.6844941995880075e-05,7.2667,6.0667
0.44140625,0.00046629158151979854,9.323947224078739e-05,2.8801106665140778e-05,2.9290147832455955e-05,7.2667,6.0667
0.4453125,0.00046042308751201647,9.177234873884186e-05,5.2706589608606106e-05,2.8312065497825597e-05,7.2667,6.0667
0.44921875,0.0004330943163973449,9.030522523689631e-05,1.804220098420693e-05,2.097644798809798e-05,7.2667,6.0667
0.453125,0.00047362719902952616,7.517371617761504e-05,-3.3220820201419075e-05,2.04874068207828e-05,7.2667,6.0667
0.45703125,0.0005195107673746853,7.810796318150607e-05,1.4435684229801067e-06,2.293261265735868e-05,7.2667,6.0667
0.4609375,0.0005043792583154039,9.959700741588465e-05,9.268227100022905e-06,2.7823024330510433e-05,7.2667,6.0667
0.46484375,0.0004804450082444496,8.73997453604944e-05,2.04874068207828e-05,3.659699821469445e-05,7.2667,6.0667
0.46875,0.00047020391085831996,8.250933368734266e-05,5.564083661249715e-05,4.099836872053103e-05,7.2667,6.0667
0.47265625,0.0005004669289768826,7.56627573449302e-05,3.953124521858551e-05,4.099836872053103e-05,7.2667,6.0667
0.4765625,0.0005058463818173496,6.150933062027925e-05,4.377815426871152e-06,3.561891588006411e-05,7.2667,6.0667
0.48046875,0.0004926710374273289,7.810796318150607e-05,-6.8413642938887445e-06,2.7823024330510433e-05,7.2667,6.0667
0.484375,0.00046922582852368963,6.004220711833373e-05,1.1224391769283606e-05,2.6355900828564898e-05,7.2667,6.0667
0.48828125,0.0004716710343602655,3.415179237811858e-05,1.2202474103913957e-05,3.2224394836347e-05,7.2667,6.0667
0.4921875,0.0004843573375829709,4.491069805905243e-05,8.290144765392553e-06,3.4640833545433747e-05,7.2667,6.0667
0.49609375,0.0004912039139253833,6.395453645685514e-05,-5.374240791943222e-06,2.9290147832455955e-05,7.2667,6.0667
0.5,0.0005131819993270772,7.321755150835433e-05,-5.863281959258394e-06,2.6844941995880075e-05,7.2667,6.0667
0.50390625,0.00046824774618905925,9.177234873884186e-05,2.9290147832455955e-05,2.9779188999771136e-05,7.2667,6.0667
0.5078125,0.0004594450051773861,7.664083967956055e-05,1.366959760585948e-05,2.6844941995880075e-05,7.2667,6.0667
0.51171875,0.0005117148758251315,6.297645412222477e-05,4.86685659418633e-06,2.4399736159304212e-05,7.2667,6.0667
0.515625,0.0005024230936461434,6.1020289452964075e-05,3.399733092240801e-06,2.5866859661249734e-05,7.2667,6.0667
0.51953125,0.0004980217231403066,6.884494813000689e-05,1.366959760585948e-05,2.4399736159304212e-05,7.2667,6.0667
0.5234375,0.0005004669289768826,8.788878652780957e-05,3.512987471274893e-05,3.02682301670863e-05,7.2667,6.0667
0.52734375,0.0005160874792034791,6.737782462806135e-05,1.999836565346763e-05,3.4640833545433747e-05,7.2667,6.0667
0.53125,0.00049560528443122,6.591070112611582e-05,2.2443571490043502e-05,3.512987471274893e-05,7.2667,6.0667
0.53515625,0.0004677587050217441,6.884494813000689e-05,2.5866859661249734e-05,3.953124521858551e-05,7.2667,6.0667
0.5390625,0.0004941381609292744,6.6399742293431e-05,1.5596995147631056e-05,3.320247717097736e-05,7.2667,6.0667
0.54296875,0.0005058463818173496,5.906412478370337e-05,3.855316288395515e-05,2.9779188999771136e-05,7.2667,6.0667
0.546875,0.0004994888466422523,4.588878039368278e-05,4.148740988784621e-05,3.320247717097736e-05,7.2667,6.0667
0.55078125,0.0004897367904234378,5.221754844129093e-05,1.85312421515221e-05,3.659699821469445e-05,7.2667,6.0667
0.5546875,0.0004999778878095674,4.0509327553215855e-05,1.804220098420693e-05,4.34435745571069e-05,7.2667,6.0667
0.55859375,0.00046629158151979854,3.3662751210803405e-05,3.610795704737927e-05,4.3932615724422077e-05,7.2667,6.0667
0.5625,0.0004179628073380636,4.588878039368278e-05,6.542165995880066e-05,3.708603938200963e-05,7.2667,6.0667
0.56640625,0.0004784888435751888,1.5136721107805008e-05,3.708603938200963e-05,4.0509327553215855e-05,7.2667,6.0667
0.5703125,0.0005165765203707942,-2.2950955687800394e-05,-9.28657013046462e-06,4.1976451055161374e-05,7.2667,6.0667
0.57421875,0.0005024230936461434,4.377815426871152e-06,-1.222081713435567e-05,3.512987471274893e-05,7.2667,6.0667
0.578125,0.0004824011729137102,3.2224394836347e-05,1.0735350601968427e-05,3.320247717097736e-05,7.2667,6.0667
0.58203125,0.0004775107612405585,4.491069805905243e-05,3.2224394836347e-05,2.6844941995880075e-05,7.2667,6.0667
0.5859375,0.000496065558471046,5.466275427786681e-05,2.5377818493934553e-05,2.293261265735868e-05,7.2667,6.0667
0.58984375,0.0004877806257541772,4.9312068564889e-05,2.4888777326619376e-05,2.146548915541315e-05,7.2667,6.0667
0.59375,0.00047216007552758067,2.7333983163195256e-05,2.4888777326619376e-05,2.8312065497825597e-05,7.2667,6.0667
0.59765625,0.0004326052752300297,1.4647679940489829e-05,2.5866859661249734e-05,3.708603938200963e-05,7.2667,6.0667
0.6015625,0.00044382445495078966,2.293261265735868e-05,3.953124521858551e-05,3.271343600366218e-05,7.2667,6.0667
0.60546875,0.0004814230905790799,2.5866859661249734e-05,2.9779188999771136e-05,3.2224394836347e-05,7.2667,6.0667
0.609375,0.0004506710312932021,4.246549222247655e-05,2.6355900828564898e-05,3.320247717097736e-05,7.2667,6.0667
0.61328125,0.0004365176045685512,4.34435745571069e-05,3.2224394836347e-05,2.8801106665140778e-05,7.2667,6.0667
0.6171875,0.00043113815172808427,3.953124521858551e-05,3.3662751210803405e-05,3.610795704737927e-05,7.2667,6.0667
0.62109375,0.0004326052752300297,6.150933062027925e-05,2.4888777326619376e-05,4.002028638590067e-05,7.2667,6.0667
0.625,0.00042089705434195465,3.320247717097736e-05,9.268227100022905e-06,2.6355900828564898e-05,7.2667,6.0667
0.62890625,0.0004150285603341726,1.2691515271229128e-05,2.4216507576104503e-06,2.8801106665140778e-05,7.2667,6.0667
0.6328125,0.00042282445188372627,5.368467194323645e-05,8.779185932707732e-06,4.099836872053103e-05,7.2667,6.0667
0.63671875,0.00039011622792858776,2.5866859661249734e-05,2.5377818493934553e-05,3.415179237811858e-05,7.2667,6.0667
0.640625,0.00042138609550926987,2.097644798809798e-05,3.757508054932481e-05,3.271343600366218e-05,7.2667,6.0667
0.64453125,0.0004570285664682994,2.5866859661249734e-05,2.9290147832455955e-05,3.8064121716639975e-05,7.2667,6.0667
0.6484375,0.00042282445188372627,-1.4666022970931546e-05,5.3558977615015024e-06,3.708603938200963e-05,7.2667,6.0667
0.65234375,0.0004116052721629663,-5.863281959258394e-06,3.512987471274893e-05,3.708603938200963e-05,7.2667,6.0667
0.65625,0.00043994089273975733,2.097644798809798e-05,4.980110973220418e-05,4.2954533389791735e-05,7.2667,6.0667
0.66015625,0.00043994089273975733,3.708603938200963e-05,2.097644798809798e-05,4.1976451055161374e-05,7.2667,6.0667
0.6640625,0.0004204080131746395,5.221754844129093e-05,2.04874068207828e-05,4.246549222247655e-05,7.2667,6.0667
0.66796875,0.0004223354107164111,4.34435745571069e-05,1.9020283318837277e-05,4.4421656891737254e-05,7.2667,6.0667
0.671875,0.0004052477369878691,4.588878039368278e-05,-1.490678580910945e-06,4.0509327553215855e-05,7.2667,6.0667
0.67578125,0.0004091600663263905,6.6399742293431e-05,-7.330405461203916e-06,3.904220405127033e-05,7.2667,6.0667
0.6796875,0.0004218463695490959,4.491069805905243e-05,1.950932448615245e-05,3.610795704737927e-05,7.2667,6.0667
0.68359375,0.0004257586988876173,2.7823024330510433e-05,3.02682301670863e-05,3.610795704737927e-05,7.2667,6.0667
0.6875,0.000438962810405127,1.7553159816891755e-05,3.561891588006411e-05,4.002028638590067e-05,7.2667,6.0667
0.69140625,0.0004032915723186083,2.8312065497825597e-05,1.4647679940489829e-05,3.173535366903184e-05,7.2667,6.0667
0.6953125,0.00040769294282444495,3.953124521858551e-05,5.844938928816681e-06,3.1246312501716655e-05,7.2667,6.0667
0.69921875,0.00046531349918516827,2.2443571490043502e-05,3.075727133440148e-05,4.1976451055161374e-05,7.2667,6.0667
0.703125,0.0004643354168505379,2.8801106665140778e-05,1.4158638773174658e-05,4.2954533389791735e-05,7.2667,6.0667
0.70703125,0.000447736784289311,5.661891894712751e-05,1.7064118649576578e-05,4.0509327553215855e-05,7.2667,6.0667
0.7109375,0.0004457806196200503,3.904220405127033e-05,2.7823024330510433e-05,4.34435745571069e-05,7.2667,6.0667
0.71484375,0.000456050484133669,1.2691515271229128e-05,3.855316288395515e-05,4.5399739226367595e-05,7.2667,6.0667
0.71875,0.00045262719596246277,2.146548915541315e-05,1.804220098420693e-05,4.0509327553215855e-05,7.2667,6.0667
0.72265625,0.00043994089273975733,2.8312065497825597e-05,8.290144765392553e-06,4.4421656891737254e-05,7.2667,6.0667
0.7265625,0.0004326052752300297,3.271343600366218e-05,2.7823024330510433e-05,4.5399739226367595e-05,7.2667,6.0667
0.73046875,0.0004072039016571298,2.391069499198903e-05,-9.28657013046462e-06,3.3662751210803405e-05,7.2667,6.0667
0.734375,0.00044529157845273515,3.399733092240801e-06,-5.863281959258394e-06,3.1246312501716655e-05,7.2667,6.0667
0.73828125,0.00047118199319295034,-2.2950955687800394e-05,4.377815426871152e-06,4.1976451055161374e-05,7.2667,6.0667
0.7421875,0.0004672696638544289,-2.7841367360952147e-05,-2.7841367360952147e-05,3.757508054932481e-05,7.2667,6.0667
0.74609375,0.00047020391085831996,-3.7622190707255645e-05,-7.176877103685052e-05,2.4399736159304212e-05,7.2667,6.0667
0.75,0.0004355395222339208,-4.3433150460059494e-05,-9.227973293659874e-05,1.950932448615245e-05,7.2667,6.0667
0.75390625,0.0004706929520256352,-4.049890345616844e-05,-9.66523363149462e-05,1.5136721107805008e-05,7.2667,6.0667
0.7578125,0.000498999805474937,-9.52139799404898e-05,-0.0001327838484412909,1.85312421515221e-05,7.2667,6.0667
0.76171875,0.0005160874792034791,-0.00015671809851224534,-0.00016209755135271228,1.999836565346763e-05,7.2667,6.0667
0.765625,0.0005038902171480888,-0.000172827689906157,-0.00016258659252002745,1.4647679940489829e-05,7.2667,6.0667
0.76953125,0.0004970436408056763,-0.00016111946901808193,-0.00019382769297322038,9.268227100022905e-06,7.2667,6.0667
0.7734375,0.0005331751529320211,-0.00018798796609292742,-0.00023680578144197754,8.290144765392553e-06,7.2667,6.0667
0.77734375,0.0005541751559990845,-0.00021336057253833825,-0.00024267427544975964,4.86685659418633e-06,7.2667,6.0667
0.78125,0.0005712628297276265,-0.0001742948134081025,-0.0002241194782192721,5.844938928816681e-06,7.2667,6.0667
0.78515625,0.0005536861148317693,-0.00020018522814831764,-0.0002162948195422293,2.9106919249256294e-06,7.2667,6.0667
0.7890625,0.0005571094030029756,-0.00023827290494392306,-0.00022363043705195696,-7.819446628519095e-06,7.2667,6.0667
0.79296875,0.0005541751559990845,-0.00018554276025635155,-0.00018603180142366674,-1.3687940636301195e-05,7.2667,6.0667
0.796875,0.0005483354291187914,-0.00013571809544518193,-0.00015231672800640876,-5.863281959258394e-06,7.2667,6.0667
0.80078125,0.0005649340616800183,-8.298795075761041e-05,-0.00011181261250171662,-7.819446628519095e-06,7.2667,6.0667
0.8046875,0.0005454011821149004,-5.517013847562369e-05,-8.200986842298007e-05,-2.6863285026321796e-05,7.2667,6.0667
0.80859375,0.0005365984411032273,-4.049890345616844e-05,-7.079068870222016e-05,-3.273177903410389e-05,7.2667,6.0667
0.8125,0.0005263573437170977,1.2691515271229128e-05,-5.125780913710229e-05,-3.419890253604942e-05,7.2667,6.0667
0.81640625,0.00049560528443122,5.9553165951018556e-05,-3.908931420920117e-05,-3.566602603799494e-05,7.2667,6.0667
0.8203125,0.0004941381609292744,7.37065926756695e-05,1.4435684229801067e-06,-3.908931420920117e-05,7.2667,6.0667
0.82421875,0.0004462696607873655,5.9553165951018556e-05,1.7553159816891755e-05,-3.566602603799494e-05,7.2667,6.0667
0.828125,0.0004623792521812772,0.00011766276347905702,4.34435745571069e-05,-3.7133149539940474e-05,7.2667,6.0667
0.83203125,0.000498999805474937,0.00011521755764248112,4.3932615724422077e-05,-2.102355814602882e-05,7.2667,6.0667
0.8359375,0.00047362719902952616,0.00011766276347905702,6.05312482856489e-05,-8.30848779583427e-06,7.2667,6.0667
0.83984375,0.00044480253728542,0.00015232715210345617,8.837782769512474e-05,-1.1242734799725318e-05,7.2667,6.0667
0.84375,0.00042138609550926987,0.0001459696169283589,8.593262185854888e-05,-1.0753693632410144e-05,7.2667,6.0667
0.84765625,0.0004257586988876173,0.00014890386393224994,9.764084274662394e-05,4.6548608834975623e-07,7.2667,6.0667
0.8515625,0.0003725395130327306,0.00012304221631952392,9.519563691004807e-05,9.757268267338077e-06,7.2667,6.0667
0.85546875,0.00036132033331197073,0.00012741481969787138,8.642166302586406e-05,1.0735350601968427e-05,7.2667,6.0667
0.859375,0.00036376553914854655,0.00013181619020370794,9.71518015793088e-05,1.0246309434653254e-05,7.2667,6.0667
0.86328125,0.0003295614245639734,0.00012157509281757839,0.00011032714596932939,1.366959760585948e-05,7.2667,6.0667
0.8671875,0.00034178745374685283,0.00011912988698100253,0.00012499838098878465,1.5136721107805008e-05,7.2667,6.0667
0.87109375,0.0003515395099656672,0.00012986002553444726,0.00010546550142366674,1.9020283318837277e-05,7.2667,6.0667
0.875,0.0003383641655756466,0.00013817372537880523,8.3487416021973e-05,2.293261265735868e-05,7.2667,6.0667
0.87890625,0.0002871011443900206,0.00011766276347905702,7.712988084687573e-05,2.6355900828564898e-05,7.2667,6.0667
0.8828125,0.0002905244325612268,0.00010595454259098192,9.568467807736325e-05,3.075727133440148e-05,7.2667,6.0667
0.88671875,0.0003291011505241474,0.00011521755764248112,0.00011717372231174183,3.3662751210803405e-05,7.2667,6.0667
0.890625,0.00030321073578393225,0.00012010796931563288,0.00010204221325246053,3.4640833545433747e-05,7.2667,6.0667
0.89453125,0.0003036997769512474,0.00012206413398489356,8.593262185854888e-05,2.8801106665140778e-05,7.2667,6.0667
0.8984375,0.00029685320060883496,0.00011081618713664454,7.76189220141909e-05,3.075727133440148e-05,7.2667,6.0667
0.90234375,0.00029391895360494387,8.932714290226598e-05,0.00010155317208514535,3.708603938200963e-05,7.2667,6.0667
0.90625,0.00028563402088807507,0.00010448741908903641,0.00011619563997711147,4.0509327553215855e-05,7.2667,6.0667
0.91015625,0.0002661011413229572,0.00010693262492561229,0.00010350933675440606,4.588878039368278e-05,7.2667,6.0667
0.9140625,0.0002675682648249027,8.202029252002748e-05,9.910796624856948e-05,3.855316288395515e-05,7.2667,6.0667
0.91796875,0.00024167785008468758,6.688878346074618e-05,9.226138990615703e-05,3.512987471274893e-05,7.2667,6.0667
0.921875,0.0002729477176653697,5.417371311055163e-05,0.00011766276347905702,4.833398623025866e-05,7.2667,6.0667
0.92578125,0.00029489703593957425,4.882302739757384e-05,0.00012790386086518655,4.980110973220418e-05,7.2667,6.0667
0.9296875,0.0002700134706614786,3.757508054932481e-05,7.272851034103915e-05,4.5399739226367595e-05,7.2667,6.0667
0.93359375,0.00023776552074616618,5.175727440146488e-05,4.980110973220418e-05,4.73559038956283e-05,7.2667,6.0667
0.9375,0.00024167785008468758,8.54435806912337e-05,8.642166302586406e-05,4.980110973220418e-05,7.2667,6.0667
0.94140625,0.0002748751152071412,5.759700128175785e-05,8.3487416021973e-05,4.882302739757384e-05,7.2667,6.0667
0.9453125,0.00024754634409246965,9.757268267338077e-06,5.417371311055163e-05,3.904220405127033e-05,7.2667,6.0667
0.94921875,0.00024118880891737239,3.415179237811858e-05,5.661891894712751e-05,4.491069805905243e-05,7.2667,6.0667
0.953125,0.0002333929173678187,3.415179237811858e-05,4.1976451055161374e-05,5.175727440146488e-05,7.2667,6.0667
0.95703125,0.00022703538219272142,1.999836565346763e-05,4.34435745571069e-05,4.5399739226367595e-05,7.2667,6.0667
0.9609375,0.00024069976775005722,1.5596995147631056e-05,6.004220711833373e-05,4.3932615724422077e-05,7.2667,6.0667
0.96484375,0.00023874360308079654,7.801103598077383e-06,1.7064118649576578e-05,4.0509327553215855e-05,7.2667,6.0667
0.96875,0.00024021072658274203,1.7553159816891755e-05,-1.613314647287707e-05,4.148740988784621e-05,7.2667,6.0667
0.97265625,0.0001957942817395285,1.4158638773174658e-05,-1.1242734799725318e-05,4.882302739757384e-05,7.2667,6.0667
0.9765625,0.00020456825562371252,4.86685659418633e-06,-1.0753693632410144e-05,4.637782156099796e-05,7.2667,6.0667
0.98046875,0.00023874360308079654,-5.125962462805944e-07,-8.30848779583427e-06,4.73559038956283e-05,7.2667,6.0667
0.984375,0.00022899154686198216,-2.8819449695582495e-05,-1.1731775967040494e-05,4.9312068564889e-05,7.2667,6.0667
0.98828125,0.00021826140830853746,-1.3687940636301195e-05,-2.4907120357061096e-05,4.980110973220418e-05,7.2667,6.0667
0.9921875,0.00018552441722590983,2.4216507576104503e-06,-3.273177903410389e-05,5.564083661249715e-05,7.2667,6.0667
0.99609375,0.0002050572967910277,-2.9797532030212843e-05,-4.734547979858089e-05,4.3932615724422077e-05,7.2667,6.0667
1.0,0.00020652442029297323,-4.734547979858089e-05,-3.175369669947354e-05,3.708603938200963e-05,7.2667,6.0667
1.00390625,0.000203101132121767,-3.908931420920117e-05,-4.441123279468984e-05,4.6866862728313134e-05,7.2667,6.0667
1.0078125,0.00021190387313344014,-1.5644105305561896e-05,-6.83454828656443e-05,4.9312068564889e-05,7.2667,6.0667
1.01171875,0.00018748058189517052,-2.3929038022430745e-05,-7.519205920805675e-05,4.73559038956283e-05,7.2667,6.0667
1.015625,0.00021777236714122226,-1.9556434644083295e-05,-7.372493570611121e-05,4.882302739757384e-05,7.2667,6.0667
1.01953125,0.00024510113825589383,-2.3555078965422636e-08,-3.908931420920117e-05,5.0779192066834526e-05,7.2667,6.0667
1.0234375,0.00023388195853513388,-4.885199624628043e-06,-4.3922191627374664e-05,5.175727440146488e-05,7.2667,6.0667
1.02734375,0.00021190387313344014,-1.222081713435567e-05,-6.785644169832911e-05,4.73559038956283e-05,7.2667,6.0667
1.03125,0.00022948058802929732,-9.28657013046462e-06,-6.785644169832911e-05,3.953124521858551e-05,7.2667,6.0667
1.03515625,0.0002646340178210117,6.823021263447031e-06,-6.149890652323183e-05,4.34435745571069e-05,7.2667,6.0667
1.0390625,0.0002675682648249027,8.779185932707732e-06,-5.565917964293886e-05,5.466275427786681e-05,7.2667,6.0667
1.04296875,0.0002822107327168688,-1.711122880750742e-05,-5.712630314488439e-05,5.417371311055163e-05,7.2667,6.0667
1.046875,0.0002729477176653697,-2.4687609155412957e-06,-3.908931420920117e-05,3.415179237811858e-05,7.2667,6.0667
1.05078125,0.00025925456498054477,1.5136721107805008e-05,-2.7352326193636967e-05,3.1246312501716655e-05,7.2667,6.0667
1.0546875,0.0002773203210437171,-1.9556434644083295e-05,-4.881260330052642e-05,4.6866862728313134e-05,7.2667,6.0667
1.05859375,0.0003041888181185626,-7.372493570611121e-05,-0.00010790028316319522,5.175727440146488e-05,7.2667,6.0667
1.0625,0.00034129841257953767,-0.00010496603615930416,-0.00013522905427786676,4.002028638590067e-05,7.2667,6.0667
1.06640625,0.0003334737539024949,-0.00012254275105516135,-0.0001176523393820096,4.0509327553215855e-05,7.2667,6.0667
1.0703125,0.0003691162248615244,-0.0001406085071183337,-0.00015769618084687567,5.417371311055163e-05,7.2667,6.0667
1.07421875,0.00046286829334859234,-0.00016989344290226595,-0.00020944824319981686,5.7107960114442676e-05,7.2667,6.0667
1.078125,0.0004706929520256352,-0.0002319153697688258,-0.00024022906961318377,6.884494813000689e-05,7.2667,6.0667
1.08203125,0.00047020391085831996,-0.0002573167433417258,-0.0002534044140032044,6.6399742293431e-05,7.2667,6.0667
1.0859375,0.00046091212867933163,-0.00025780578450904096,-0.0002397400284458686,7.03120716319524e-05,7.2667,6.0667
1.08984375,0.00047118199319295034,-0.00029442633780270077,-0.0002499811258319981,9.079426640421149e-05,7.2667,6.0667
1.09375,0.00046873678735637447,-0.00030320031168688485,-0.00029198113196612495,9.128330757152668e-05,7.2667,6.0667
1.09765625,0.0004365176045685512,-0.0002753824994048981,-0.00027098112889906156,8.250933368734266e-05,7.2667,6.0667
1.1015625,0.00041356143683222703,-0.0003310468910963607,-0.000269514005397116,8.886686886243992e-05,7.2667,6.0667
1.10546875,0.0003627874568139162,-0.00032420031475394824,-0.0002739153759029526,9.275043107347221e-05,7.2667,6.0667
1.109375,0.00037058334836346987,-0.00027049208773174634,-0.0002612290726802472,0.00010008604858319983,7.2667,6.0667
1.11328125,0.0003700943071961547,-0.0002831783909544518,-0.00025584961983978025,0.00011423947530785076,7.2667,6.0667
1.1171875,0.0003256778623529412,-0.00021971810771343554,-0.0002016523516502632,0.00010644358375829711,7.2667,6.0667
1.12109375,0.0002905244325612268,-0.00018700988375829706,-0.00018358659558709084,0.00010693262492561229,7.2667,6.0667
1.125,0.0002773203210437171,-0.00018844824013275347,-0.00015329481034103912,0.00010983810480201421,7.2667,6.0667
1.12890625,0.00028025456804760816,-0.0001537838515083543,-0.00010007562448615241,9.568467807736325e-05,7.2667,6.0667
1.1328125,0.0002558312768093385,-0.00012890028623025861,-0.00011327973600366215,8.837782769512474e-05,7.2667,6.0667
1.13671875,0.00025243675576562145,-8.494411542687112e-05,-6.932356520027464e-05,8.15312513527123e-05,7.2667,6.0667
1.140625,0.00023632716437170978,-2.637424385900662e-05,-6.352323126573573e-06,7.37065926756695e-05,7.2667,6.0667
1.14453125,0.0002070134614602884,-6.8413642938887445e-06,5.3558977615015024e-06,7.468467501029986e-05,7.2667,6.0667
1.1484375,0.00020212304978713667,-3.957835537651635e-05,1.7553159816891755e-05,6.982303046463723e-05,7.2667,6.0667
1.15234375,0.00018699154072785535,-4.881260330052642e-05,-5.374240791943222e-06,6.05312482856489e-05,7.2667,6.0667
1.15625,0.00020407921445639735,1.3180556438544307e-05,2.391069499198903e-05,5.808604244907303e-05,7.2667,6.0667
1.16015625,0.00017332715517051956,3.610795704737927e-05,6.933398929732206e-05,5.564083661249715e-05,7.2667,6.0667
1.1640625,0.00017186003166857407,2.5866859661249734e-05,7.272851034103915e-05,4.588878039368278e-05,7.2667,6.0667
1.16796875,0.0002221449705195697,5.1268233234149704e-05,8.73997453604944e-05,4.3932615724422077e-05,7.2667,6.0667
1.171875,0.00020652442029297323,6.493261879148548e-05,9.812988391393912e-05,4.588878039368278e-05,7.2667,6.0667
1.17578125,0.00019823948757610437,6.6399742293431e-05,7.56627573449302e-05,4.34435745571069e-05,7.2667,6.0667
1.1796875,0.00018115181384756237,7.37065926756695e-05,6.835590696269171e-05,3.173535366903184e-05,7.2667,6.0667
1.18359375,0.00018943674656443123,8.837782769512474e-05,9.71518015793088e-05,3.2224394836347e-05,7.2667,6.0667
1.1875,0.00017577236100709546,0.00010399837792172124,0.00012206413398489356,4.4421656891737254e-05,7.2667,6.0667
1.19140625,0.00014743674043030442,0.00010693262492561229,0.00010399837792172124,4.491069805905243e-05,7.2667,6.0667
1.1953125,0.0001537942756054017,0.00012059701048294806,9.421755457541772e-05,3.757508054932481e-05,7.2667,6.0667
1.19921875,0.0001630572906569009,0.00011472851647516594,9.71518015793088e-05,2.9779188999771136e-05,7.2667,6.0667
1.203125,0.000180173731512932,0.00010106413091783016,8.104221018539714e-05,3.3662751210803405e-05,7.2667,6.0667
1.20703125,0.00016599153766079194,8.397645718928817e-05,8.837782769512474e-05,3.610795704737927e-05,7.2667,6.0667
1.2109375,0.00016843674349736784,6.199837178759443e-05,0.00010155317208514535,3.855316288395515e-05,7.2667,6.0667
1.21484375,0.00014890386393224994,0.00010008604858319983,0.00010057508975051501,4.4421656891737254e-05,7.2667,6.0667
1.21875,0.00012108605165026323,0.00013377235487296865,0.00012059701048294806,4.099836872053103e-05,7.2667,6.0667
1.22265625,0.0001581956461112383,0.0001196189281483177,0.00013621756070954452,4.002028638590067e-05,7.2667,6.0667
1.2265625,0.0001747942786724651,0.0001078819401327535,0.00012741481969787138,3.659699821469445e-05,7.2667,6.0667
1.23046875,0.00017675044334172578,0.00011130522830395971,9.910796624856948e-05,3.2224394836347e-05,7.2667,6.0667
1.234375,0.00015526139910734723,9.079426640421149e-05,9.617371924467844e-05,3.320247717097736e-05,7.2667,6.0667
1.23828125,0.00016259701661707485,0.00010350933675440606,0.00013230523137102313,3.320247717097736e-05,7.2667,6.0667
1.2421875,0.00019481619940489814,0.00012597646332341498,0.0001621079754497597,4.2954533389791735e-05,7.2667,6.0667
1.24609375,0.000203101132121767,0.00013621756070954452,0.00015917372844586865,4.73559038956283e-05,7.2667,6.0667
1.25,0.00022165592935225451,0.00014159701355001146,0.00013328331370565349,3.904220405127033e-05,7.2667,6.0667
1.25390625,0.00019286003473563746,0.00014110797238269627,0.00013964084888075075,3.904220405127033e-05,7.2667,6.0667
1.2578125,0.00021043674963149462,0.0001454805757610437,0.00017137099050125887,4.0509327553215855e-05,7.2667,6.0667
1.26171875,0.0002612107296498054,0.00012643673736324103,0.00017381619633783475,3.2224394836347e-05,7.2667,6.0667
1.265625,0.0002563203179766537,0.0001254874221560998,0.00016015181078049898,3.2224394836347e-05,7.2667,6.0667
1.26953125,0.0002700134706614786,0.00014306413705195698,0.00018259017022201877,4.34435745571069e-05,7.2667,6.0667
1.2734375,0.00023192579386587323,0.00014208605471732665,0.000203101132121767,4.637782156099796e-05,7.2667,6.0667
1.27734375,0.00026512305898832684,0.0001454805757610437,0.00017772852567635614,4.2954533389791735e-05,7.2667,6.0667
1.28125,0.00028807922672465094,0.0001406189312153811,0.00015086002860151065,3.512987471274893e-05,7.2667,6.0667
1.28515625,0.00023437099970244907,0.0001235312574868391,0.00018552441722590983,3.708603938200963e-05,7.2667,6.0667
1.2890625,0.0002358381232043946,9.372851340810254e-05,0.00017968469034561688,3.904220405127033e-05,7.2667,6.0667
1.29296875,0.00021777236714122226,0.00011130522830395971,0.00015330523443808652,1.6086036314946226e-05,7.2667,6.0667
1.296875,0.00024069976775005722,0.0001235312574868391,0.0001616189342824445,1.950932448615245e-05,7.2667,6.0667
1.30078125,0.0002577874414785992,8.397645718928817e-05,0.00011766276347905702,4.588878039368278e-05,7.2667,6.0667
1.3046875,0.00023143675269855803,7.664083967956055e-05,0.00012692577853055622,4.637782156099796e-05,7.2667,6.0667
1.30859375,0.00021630524363927672,8.397645718928817e-05,0.00013964084888075075,4.1976451055161374e-05,7.2667,6.0667
1.3125,0.00020359017328908216,8.981618406958116e-05,0.00010886002246738385,3.855316288395515e-05,7.2667,6.0667
1.31640625,0.00020212304978713667,7.908604551613643e-05,0.00013523947837491417,4.882302739757384e-05,7.2667,6.0667
1.3203125,0.00019872852874341956,7.76189220141909e-05,0.00013768468421149007,5.175727440146488e-05,7.2667,6.0667
1.32421875,0.00018894770539711606,7.664083967956055e-05,0.00011472851647516594,4.980110973220418e-05,7.2667,6.0667
1.328125,0.00015917372844586865,4.882302739757384e-05,0.00010742166609292747,5.906412478370337e-05,7.2667,6.0667
1.33203125,0.00014404221938658733,6.24874129549096e-05,0.00011766276347905702,7.223946917372397e-05,7.2667,6.0667
1.3359375,0.0001743052375051499,6.835590696269171e-05,0.00011423947530785076,8.250933368734266e-05,7.2667,6.0667
1.33984375,0.00017968469034561688,4.491069805905243e-05,9.959700741588465e-05,8.397645718928817e-05,7.2667,6.0667
1.34375,0.00019432715823758297,3.757508054932481e-05,9.177234873884186e-05,8.104221018539714e-05,7.2667,6.0667
1.34765625,0.0001454805757610437,1.85312421515221e-05,9.226138990615703e-05,9.959700741588465e-05,7.2667,6.0667
1.3515625,0.0001254874221560998,1.7553159816891755e-05,9.177234873884186e-05,0.00010399837792172124,7.2667,6.0667
1.35546875,0.00019432715823758297,4.5399739226367595e-05,0.0001196189281483177,0.00010057508975051501,7.2667,6.0667
1.359375,0.00018161208788738844,4.3932615724422077e-05,0.00011766276347905702,0.00010934906363469903,7.2667,6.0667
1.36328125,0.00015526139910734723,1.0735350601968427e-05,0.0001025312544197757,0.00011668468114442665,7.2667,6.0667
1.3671875,0.00015477235794003207,1.0735350601968427e-05,0.00011375043414053561,0.00011815180464637217,7.2667,6.0667
1.37109375,0.00014694769926298926,3.757508054932481e-05,0.00013328331370565349,0.00012108605165026323,7.2667,6.0667
1.375,0.00013572851954222933,4.1976451055161374e-05,0.00012010796931563288,0.00012499838098878465,7.2667,6.0667
1.37890625,0.00014208605471732665,4.0509327553215855e-05,0.00010742166609292747,0.00012108605165026323,7.2667,6.0667
1.3828125,0.0001288819431998169,7.56627573449302e-05,0.00015526139910734723,0.0001196189281483177,7.2667,6.0667
1.38671875,9.71518015793088e-05,9.128330757152668e-05,0.0001537942756054017,0.00011815180464637217,7.2667,6.0667
1.390625,0.00012597646332341498,9.372851340810254e-05,0.00014499153459372855,0.00012010796931563288,7.2667,6.0667
1.39453125,0.000151838110936141,0.00012741481969787138,0.0001923709935683223,0.00012643673736324103,7.2667,6.0667
1.3984375,0.00015037098743419548,0.00014208605471732665,0.00019090387006637675,0.00012255317515220875,7.2667,6.0667
1.40234375,0.0001288819431998169,0.00016843674349736784,0.0001997066110780499,0.00011717372231174183,7.2667,6.0667
1.40625,0.00011228331063859007,0.00017137099050125887,0.00022556825869077596,0.00012059701048294806,7.2667,6.0667
1.41015625,0.00013817372537880523,0.00013328331370565349,0.00020994770846417945,0.0001235312574868391,7.2667,6.0667
1.4140625,0.00012206413398489356,0.00015623948144197756,0.00021532716130464636,0.00010934906363469903,7.2667,6.0667
1.41796875,0.00013964084888075075,0.00020359017328908216,0.00022312305285420006,9.666276041199362e-05,7.2667,6.0667
1.421875,0.00015134906976882584,0.0001977504464087892,0.0002196997646829938,0.00010008604858319983,7.2667,6.0667
1.42578125,0.00011717372231174183,0.00018650249956054016,0.0002446120970885786,0.00010302029558709088,7.2667,6.0667
1.4296875,0.00011668468114442665,0.00021826140830853746,0.000279765526880293,0.00010934906363469903,7.2667,6.0667
1.43359375,0.00013230523137102313,0.00021092579079880978,0.00027829840337834745,0.00010693262492561229,7.2667,6.0667
1.4375,0.0001572175637766079,0.00022556825869077596,0.0002963641594415198,9.764084274662394e-05,7.2667,6.0667
1.44140625,0.00015037098743419548,0.00023972168541542684,0.0002753641563744564,8.837782769512474e-05,7.2667,6.0667
1.4453125,0.00015281619327077133,0.00022165592935225451,0.00023437099970244907,8.446549835660335e-05,7.2667,6.0667
1.44921875,0.0001537942756054017,0.000214349078970016,0.00024118880891737239,9.128330757152668e-05,7.2667,6.0667
1.453125,0.00014694769926298926,0.0002148381201373312,0.0002543929204348821,8.593262185854888e-05,7.2667,6.0667
1.45703125,0.00015868468727855346,0.00019628332290684368,0.00027634223870908674,8.202029252002748e-05,7.2667,6.0667
1.4609375,0.00012450933982146946,0.00019286003473563746,0.0002812326503822385,8.73997453604944e-05,7.2667,6.0667
1.46484375,0.00015477235794003207,0.00021728332597390707,0.00028465593855344474,7.810796318150607e-05,7.2667,6.0667
1.46875,0.00021386003780270087,0.00023045867036392768,0.00027050251182879375,6.346549528953996e-05,7.2667,6.0667
1.47265625,0.00019677236407415887,0.00021826140830853746,0.0002519477145983063,6.542165995880066e-05,7.2667,6.0667
1.4765625,0.00020163400861982148,0.0001977504464087892,0.00024118880891737239,6.933398929732206e-05,7.2667,6.0667
1.48046875,0.00016599153766079194,0.00017772852567635614,0.0002358381232043946,6.6399742293431e-05,7.2667,6.0667
1.484375,0.00018161208788738844,0.00016354633182421606,0.00021288195546807052,6.982303046463723e-05,7.2667,6.0667
1.48828125,0.00019041482889906155,0.00014306413705195698,0.00016354633182421606,6.933398929732206e-05,7.2667,6.0667
1.4921875,0.0001743052375051499,0.00011032714596932939,0.0001650134553261616,6.199837178759443e-05,7.2667,6.0667
1.49609375,0.00013034906670176242,0.00010497646025635156,0.000186013458393225,5.808604244907303e-05,7.2667,6.0667
1.5,7.419563384298467e-05,0.00010497646025635156,0.0001557504402746624,6.1020289452964075e-05,7.2667,6.0667
1.50390625,0.00010155317208514535,9.764084274662394e-05,0.000134750437207599,6.297645412222477e-05,7.2667,6.0667
1.5078125,0.00013181619020370794,0.00010644358375829711,0.0001327942725383383,5.612987777981233e-05,7.2667,6.0667
1.51171875,0.0001747942786724651,9.177234873884186e-05,0.00012790386086518655,5.0290150899519356e-05,7.2667,6.0667
1.515625,0.0002680573059922179,8.15312513527123e-05,0.00011521755764248112,5.175727440146488e-05,7.2667,6.0667
1.51953125,0.0004120943133302815,7.223946917372397e-05,8.932714290226598e-05,4.491069805905243e-05,7.2667,6.0667
1.5234375,0.0005370874822705425,4.5399739226367595e-05,0.00010644358375829711,3.953124521858551e-05,7.2667,6.0667
1.52734375,0.0005966642033005264,4.0509327553215855e-05,0.00011423947530785076,4.637782156099796e-05,7.2667,6.0667
1.53125,0.0006474381833188372,5.8575083616388194e-05,0.00010742166609292747,4.980110973220418e-05,7.2667,6.0667
1.53515625,0.0006479272244861524,7.126138683909363e-05,0.00010350933675440606,4.3932615724422077e-05,7.2667,6.0667
1.5390625,0.0006830806542778668,5.175727440146488e-05,8.593262185854888e-05,3.415179237811858e-05,7.2667,6.0667
1.54296875,0.0007729491605539025,5.1268233234149704e-05,6.835590696269171e-05,3.02682301670863e-05,7.2667,6.0667
1.546875,0.0008002779316685741,3.320247717097736e-05,5.417371311055163e-05,3.02682301670863e-05,7.2667,6.0667
1.55078125,0.0008158984818951705,8.779185932707732e-06,4.882302739757384e-05,2.9779188999771136e-05,7.2667,6.0667
1.5546875,0.0008403217731334401,1.804220098420693e-05,5.759700128175785e-05,2.6355900828564898e-05,7.2667,6.0667
1.55859375,0.0008461902671412223,2.7823024330510433e-05,6.933398929732206e-05,2.6844941995880075e-05,7.2667,6.0667
1.5625,0.0007944094376607919,3.561891588006411e-05,6.199837178759443e-05,3.075727133440148e-05,7.2667,6.0667
1.56640625,0.0007514601163195238,4.491069805905243e-05,6.542165995880066e-05,3.320247717097736e-05,7.2667,6.0667
1.5703125,0.0007641464195422292,3.561891588006411e-05,7.615179851224538e-05,3.415179237811858e-05,7.2667,6.0667
1.57421875,0.0007548546373632411,1.950932448615245e-05,5.661891894712751e-05,3.2224394836347e-05,7.2667,6.0667
1.578125,0.0008163875230624857,2.9290147832455955e-05,5.0779192066834526e-05,3.075727133440148e-05,7.2667,6.0667
1.58203125,0.0009023437,2.7823024330510433e-05,4.1976451055161374e-05,2.9290147832455955e-05,7.2667,6.0667
1.5859375,0.0008989204118287938,2.5866859661249734e-05,1.2202474103913957e-05,2.2443571490043502e-05,7.2667,6.0667
1.58984375,0.000845701225973907,1.7064118649576578e-05,1.4158638773174658e-05,2.3421653824673854e-05,7.2667,6.0667
1.59375,0.0007719710782192721,1.7064118649576578e-05,1.6086036314946226e-05,2.6355900828564898e-05,7.2667,6.0667
1.59765625,0.0007353505249256123,2.8801106665140778e-05,3.02682301670863e-05,3.271343600366218e-05,7.2667,6.0667
1.6015625,0.0006689272275532158,1.999836565346763e-05,4.4421656891737254e-05,3.953124521858551e-05,7.2667,6.0667
1.60546875,0.0006855258601144426,1.366959760585948e-05,3.271343600366218e-05,3.904220405127033e-05,7.2667,6.0667
1.609375,0.0006816135307759212,2.3421653824673854e-05,1.85312421515221e-05,3.610795704737927e-05,7.2667,6.0667
1.61328125,0.0006347518800961317,4.4421656891737254e-05,1.5136721107805008e-05,3.512987471274893e-05,7.2667,6.0667
1.6171875,0.000626927221419089,4.0509327553215855e-05,1.2691515271229128e-05,3.3662751210803405e-05,7.2667,6.0667
1.62109375,0.0005619998146761272,3.659699821469445e-05,1.7064118649576578e-05,3.075727133440148e-05,7.2667,6.0667
1.625,0.0004833792552483405,3.561891588006411e-05,4.002028638590067e-05,3.561891588006411e-05,7.2667,6.0667
1.62890625,0.00036813814252689405,2.2443571490043502e-05,1.7064118649576578e-05,3.610795704737927e-05,7.2667,6.0667
1.6328125,0.0003119847096681163,6.333980096131853e-06,-2.441807918974592e-05,2.9779188999771136e-05,7.2667,6.0667
1.63671875,0.0003461888242526894,-1.979719748226124e-06,-2.0534516978713646e-05,3.02682301670863e-05,7.2667,6.0667
1.640625,0.000316875121341268,2.6355900828564898e-05,1.4647679940489829e-05,3.1246312501716655e-05,7.2667,6.0667
1.64453125,0.0002446120970885786,3.271343600366218e-05,3.02682301670863e-05,3.1246312501716655e-05,7.2667,6.0667
1.6484375,0.00013621756070954452,2.04874068207828e-05,2.146548915541315e-05,3.3662751210803405e-05,7.2667,6.0667
1.65234375,2.5866859661249734e-05,2.097644798809798e-05,-6.352323126573573e-06,3.173535366903184e-05,7.2667,6.0667
1.65625,-3.175369669947354e-05,2.195453032272833e-05,-9.775611297779796e-06,2.8312065497825597e-05,7.2667,6.0667
1.66015625,-0.00011181261250171662,1.4158638773174658e-05,2.4216507576104503e-06,2.9290147832455955e-05,7.2667,6.0667
1.6640625,-0.0002670687995605401,7.801103598077383e-06,8.290144765392553e-06,3.173535366903184e-05,7.2667,6.0667
1.66796875,-0.0005009743131746395,2.2443571490043502e-05,-6.8413642938887445e-06,2.7333983163195256e-05,7.2667,6.0667
1.671875,-0.0006156976176012818,1.5596995147631056e-05,-2.246191452048522e-05,2.8312065497825597e-05,7.2667,6.0667
1.67578125,-0.0007416976360036621,-8.30848779583427e-06,-1.1731775967040494e-05,2.8312065497825597e-05,7.2667,6.0667
1.6796875,-0.0009413990350331884,1.7064118649576578e-05,-1.1731775967040494e-05,2.391069499198903e-05,7.2667,6.0667
1.68359375,-0.0009701949296498053,2.9290147832455955e-05,-2.441807918974592e-05,2.6355900828564898e-05,7.2667,6.0667
1.6875,-0.000963377120434882,1.950932448615245e-05,-2.5885202691691444e-05,3.02682301670863e-05,7.2667,6.0667
1.69140625,-0.0009687278061478598,2.293261265735868e-05,-2.637424385900662e-05,2.9290147832455955e-05,7.2667,6.0667
1.6953125,-0.0009682387649805447,2.6355900828564898e-05,-3.6155067205310126e-05,3.02682301670863e-05,7.2667,6.0667
1.69921875,-0.0009682387649805447,3.8064121716639975e-05,-2.0045475811398472e-05,2.293261265735868e-05,7.2667,6.0667
1.703125,-0.0009682387649805447,4.637782156099796e-05,3.399733092240801e-06,2.146548915541315e-05,7.2667,6.0667
1.70703125,-0.0009682387649805447,2.293261265735868e-05,-1.76002699748226e-05,3.561891588006411e-05,7.2667,6.0667
1.7109375,-0.0009682387649805447,1.5136721107805008e-05,-5.174685030441747e-05,4.73559038956283e-05,7.2667,6.0667
1.71484375,-0.0009682387649805447,2.5377818493934553e-05,-3.028657319752802e-05,4.833398623025866e-05,7.2667,6.0667
1.71875,-0.0009682387649805447,5.368467194323645e-05,7.801103598077383e-06,4.2954533389791735e-05,7.2667,6.0667
1.72265625,-0.0009682387649805447,5.612987777981233e-05,7.312062430762204e-06,4.2954533389791735e-05,7.2667,6.0667
1.7265625,-0.0009682387649805447,3.4640833545433747e-05,-1.1731775967040494e-05,3.904220405127033e-05,7.2667,6.0667
1.73046875,-0.0009682387649805447,3.320247717097736e-05,-2.0534516978713646e-05,3.757508054932481e-05,7.2667,6.0667
1.734375,-0.0009682387649805447,1.5136721107805008e-05,-1.4666022970931546e-05,3.953124521858551e-05,7.2667,6.0667
1.73828125,-0.0009682387649805447,1.804220098420693e-05,-3.418076122682521e-06,3.8064121716639975e-05,7.2667,6.0667
1.7421875,-0.0009682387649805447,3.855316288395515e-05,-1.0016374135957733e-06,3.4640833545433747e-05,7.2667,6.0667
1.74609375,-0.0009682387649805447,4.2954533389791735e-05,5.3558977615015024e-06,3.075727133440148e-05,7.2667,6.0667
1.75,-0.0009682387649805447,4.148740988784621e-05,4.6548608834975623e-07,2.8312065497825597e-05,7.2667,6.0667
1.75390625,-0.0009682387649805447,5.906412478370337e-05,-2.9578020828564744e-06,3.075727133440148e-05,7.2667,6.0667
1.7578125,-0.0009682387649805447,6.737782462806135e-05,2.2443571490043502e-05,3.415179237811858e-05,7.2667,6.0667
1.76171875,-0.0009682387649805447,5.1268233234149704e-05,1.6086036314946226e-05,3.610795704737927e-05,7.2667,6.0667
1.765625,-0.0009682387649805447,3.320247717097736e-05,2.9106919249256294e-06,3.075727133440148e-05,7.2667,6.0667
1.76953125,-0.0009682387649805447,3.953124521858551e-05,2.195453032272833e-05,2.9290147832455955e-05,7.2667,6.0667
1.7734375,-0.0009682387649805447,4.637782156099796e-05,1.5596995147631056e-05,2.6355900828564898e-05,7.2667,6.0667
1.77734375,-0.0009682387649805447,5.0290150899519356e-05,2.9106919249256294e-06,2.04874068207828e-05,7.2667,6.0667
1.78125,-0.0009682387649805447,3.4640833545433747e-05,2.5377818493934553e-05,2.293261265735868e-05,7.2667,6.0667
1.78515625,-0.0009682387649805447,4.377815426871152e-06,2.3421653824673854e-05,2.6844941995880075e-05,7.2667,6.0667
1.7890625,-0.0009682387649805447,2.097644798809798e-05,-3.907117289997693e-06,1.6086036314946226e-05,7.2667,6.0667
1.79296875,-0.0009682387649805447,4.099836872053103e-05,9.54527255664928e-07,1.7553159816891755e-05,7.2667,6.0667
1.796875,-0.0009682387649805447,4.9312068564889e-05,2.6355900828564898e-05,3.173535366903184e-05,7.2667,6.0667
1.80078125,-0.0009682387649805447,5.2706589608606106e-05,3.8064121716639975e-05,2.8312065497825597e-05,7.2667,6.0667
1.8046875,-0.0009682387649805447,4.9312068564889e-05,3.173535366903184e-05,2.7823024330510433e-05,7.2667,6.0667
1.80859375,-0.0009682387649805447,2.9779188999771136e-05,1.4647679940489829e-05,3.512987471274893e-05,7.2667,6.0667
1.8125,-0.0009682387649805447,2.097644798809798e-05,9.757268267338077e-06,3.8064121716639975e-05,7.2667,6.0667
1.81640625,-0.0009682387649805447,5.2706589608606106e-05,2.6355900828564898e-05,3.659699821469445e-05,7.2667,6.0667
1.8203125,-0.0009682387649805447,5.1268233234149704e-05,1.1224391769283606e-05,3.3662751210803405e-05,7.2667,6.0667
1.82421875,-0.0009682387649805447,4.0509327553215855e-05,2.6844941995880075e-05,3.173535366903184e-05,7.2667,6.0667
1.828125,-0.0009682387649805447,2.4399736159304212e-05,2.3421653824673854e-05,3.075727133440148e-05,7.2667,6.0667
1.83203125,-0.0009682387649805447,8.779185932707732e-06,-5.125962462805944e-07,2.7333983163195256e-05,7.2667,6.0667
1.8359375,-0.0009682387649805447,-5.125962462805944e-07,4.86685659418633e-06,2.6844941995880075e-05,7.2667,6.0667
1.83984375,-0.0009682387649805447,1.804220098420693e-05,4.86685659418633e-06,3.3662751210803405e-05,7.2667,6.0667
1.84375,-0.0009682387649805447,2.2443571490043502e-05,2.7333983163195256e-05,3.4640833545433747e-05,7.2667,6.0667
1.84765625,-0.0009682387649805447,1.9326095902952784e-06,3.2224394836347e-05,3.320247717097736e-05,7.2667,6.0667
1.8515625,-0.0009682387649805447,2.195453032272833e-05,7.801103598077383e-06,3.173535366903184e-05,7.2667,6.0667
1.85546875,-0.0009682387649805447,1.804220098420693e-05,-1.417698180361637e-05,2.9779188999771136e-05,7.2667,6.0667
1.859375,-0.0009682387649805447,-2.3555078965422636e-08,-1.222081713435567e-05,3.271343600366218e-05,7.2667,6.0667
1.86328125,-0.0009682387649805447,-1.490678580910945e-06,5.844938928816681e-06,3.271343600366218e-05,7.2667,6.0667
1.8671875,-0.0009682387649805447,9.757268267338077e-06,4.377815426871152e-06,2.6844941995880075e-05,7.2667,6.0667
1.87109375,-0.0009682387649805447,1.0246309434653254e-05,4.86685659418633e-06,2.7823024330510433e-05,7.2667,6.0667
1.875,-0.0009682387649805447,8.290144765392553e-06,1.3180556438544307e-05,2.5377818493934553e-05,7.2667,6.0667
1.87890625,-0.0009682387649805447,2.097644798809798e-05,3.415179237811858e-05,3.075727133440148e-05,7.2667,6.0667
1.8828125,-0.0009682387649805447,3.075727133440148e-05,2.4399736159304212e-05,3.953124521858551e-05,7.2667,6.0667
1.88671875,-0.0009682387649805447,1.9020283318837277e-05,7.312062430762204e-06,3.271343600366218e-05,7.2667,6.0667
1.890625,-0.0009682387649805447,-4.885199624628043e-06,2.2443571490043502e-05,3.173535366903184e-05,7.2667,6.0667
1.89453125,-0.0009682387649805447,-1.4666022970931546e-05,2.8801106665140778e-05,2.8312065497825597e-05,7.2667,6.0667
1.8984375,-0.0009682387649805447,1.4647679940489829e-05,2.7333983163195256e-05,2.4888777326619376e-05,7.2667,6.0667
1.90234375,-0.0009682387649805447,3.904220405127033e-05,3.075727133440148e-05,2.6844941995880075e-05,7.2667,6.0667
1.90625,-0.0009662826003112839,2.9779188999771136e-05,1.1713432936598778e-05,2.9290147832455955e-05,7.2667,6.0667
1.91015625,-0.0009701949296498053,3.173535366903184e-05,2.391069499198903e-05,3.320247717097736e-05,7.2667,6.0667
1.9140625,-0.000960442873430991,2.8801106665140778e-05,3.904220405127033e-05,3.4640833545433747e-05,7.2667,6.0667
1.91796875,-0.0009111072497871366,2.7333983163195256e-05,1.4647679940489829e-05,2.8801106665140778e-05,7.2667,6.0667
1.921875,-0.0009159976614602883,2.6844941995880075e-05,1.1224391769283606e-05,2.7333983163195256e-05,7.2667,6.0667
1.92578125,-0.0009570195852597847,1.85312421515221e-05,2.6355900828564898e-05,3.659699821469445e-05,7.2667,6.0667
1.9296875,-0.0009623990381002516,9.757268267338077e-06,3.173535366903184e-05,4.34435745571069e-05,7.2667,6.0667
1.93359375,-0.0009677497238132296,3.8887742595559796e-06,1.950932448615245e-05,4.5399739226367595e-05,7.2667,6.0667
1.9375,-0.0009687278061478598,-1.1242734799725318e-05,-1.0016374135957733e-06,3.271343600366218e-05,7.2667,6.0667
1.94140625,-0.0009667716414785991,3.8887742595559796e-06,-2.0045475811398472e-05,2.7823024330510433e-05,7.2667,6.0667
1.9453125,-0.0009638661616021972,1.9020283318837277e-05,-4.396158457312872e-06,3.561891588006411e-05,7.2667,6.0667
1.94921875,-0.0009829099999999998,3.399733092240801e-06,3.659699821469445e-05,3.855316288395515e-05,7.2667,6.0667
1.953125,-0.0008525373782192721,3.415179237811858e-05,5.0290150899519356e-05,3.8064121716639975e-05,7.2667,6.0667
1.95703125,-0.0007631579131105516,5.221754844129093e-05,3.8064121716639975e-05,3.8064121716639975e-05,7.2667,6.0667
1.9609375,-0.0008408003902037079,3.610795704737927e-05,3.320247717097736e-05,3.708603938200963e-05,7.2667,6.0667
1.96484375,-0.0008940195760585945,1.9020283318837277e-05,3.904220405127033e-05,3.561891588006411e-05,7.2667,6.0667
1.96875,-0.0009067346464087892,9.757268267338077e-06,2.391069499198903e-05,3.4640833545433747e-05,7.2667,6.0667
1.97265625,-0.0008578880639322499,9.268227100022905e-06,1.0735350601968427e-05,3.512987471274893e-05,7.2667,6.0667
1.9765625,-0.0008202894283039597,2.4216507576104503e-06,2.4216507576104503e-06,3.561891588006411e-05,7.2667,6.0667
1.98046875,-0.000792960657189288,1.6575077482261404e-05,1.85312421515221e-05,3.3662751210803405e-05,7.2667,6.0667
1.984375,-0.0007939387395239184,1.1224391769283606e-05,9.54527255664928e-07,3.415179237811858e-05,7.2667,6.0667
1.98828125,-0.0007636469542778667,5.844938928816681e-06,-1.4666022970931546e-05,3.855316288395515e-05,7.2667,6.0667
1.9921875,-0.0006611209119066147,2.146548915541315e-05,2.195453032272833e-05,3.953124521858551e-05,7.2667,6.0667
1.99609375,-0.000545390758017853,2.2443571490043502e-05,1.804220098420693e-05,4.6866862728313134e-05,7.2667,6.0667
2.0,-0.00045359485420004575,2.4216507576104503e-06,1.1224391769283606e-05,5.0290150899519356e-05,7.2667,6.0667
2.00390625,-0.0005019523955092698,-2.9578020828564744e-06,1.7553159816891755e-05,4.2954533389791735e-05,7.2667,6.0667
2.0078125,-0.0004853249958205538,2.146548915541315e-05,2.6355900828564898e-05,4.6866862728313134e-05,7.2667,6.0667
2.01171875,-0.0003193099030807965,3.415179237811858e-05,7.801103598077383e-06,4.833398623025866e-05,7.2667,6.0667
2.015625,-0.00025047016699931334,3.757508054932481e-05,-5.863281959258394e-06,4.980110973220418e-05,7.2667,6.0667
2.01953125,-0.00024753591999542225,2.9290147832455955e-05,1.2202474103913957e-05,5.759700128175785e-05,7.2667,6.0667
2.0234375,-0.0002314263286015106,3.2224394836347e-05,2.04874068207828e-05,6.150933062027925e-05,7.2667,6.0667
2.02734375,-0.00019920714581368732,3.757508054932481e-05,9.757268267338077e-06,5.7107960114442676e-05,7.2667,6.0667
2.03125,-0.00020409755748683906,3.4640833545433747e-05,-2.9578020828564744e-06,6.05312482856489e-05,7.2667,6.0667
2.03515625,-0.00020798111969787134,3.271343600366218e-05,4.86685659418633e-06,6.737782462806135e-05,7.2667,6.0667
2.0390625,-0.00015671809851224534,2.2443571490043502e-05,1.6086036314946226e-05,7.272851034103915e-05,7.2667,6.0667
2.04296875,-0.0002499811258319981,6.333980096131853e-06,1.366959760585948e-05,7.712988084687573e-05,7.2667,6.0667
2.046875,-0.00024949208466468295,1.0246309434653254e-05,1.1713432936598778e-05,7.664083967956055e-05,7.2667,6.0667
2.05078125,-0.00014892220696269168,2.2443571490043502e-05,1.0246309434653254e-05,7.664083967956055e-05,7.2667,6.0667
2.0546875,-0.0001650317983566033,4.3932615724422077e-05,6.823021263447031e-06,7.56627573449302e-05,7.2667,6.0667
2.05859375,-0.00020654276332341496,3.757508054932481e-05,8.779185932707732e-06,7.37065926756695e-05,7.2667,6.0667
2.0625,-0.00023044824626688025,1.85312421515221e-05,1.999836565346763e-05,6.835590696269171e-05,7.2667,6.0667
2.06640625,-0.00020944824319981686,3.2224394836347e-05,2.293261265735868e-05,6.737782462806135e-05,7.2667,6.0667
2.0703125,-0.00021140440786907757,2.8801106665140778e-05,9.757268267338077e-06,7.468467501029986e-05,7.2667,6.0667
2.07421875,-0.00019822906347905696,9.268227100022905e-06,9.268227100022905e-06,7.517371617761504e-05,7.2667,6.0667
2.078125,-0.0002128715313710231,2.6844941995880075e-05,2.4888777326619376e-05,7.272851034103915e-05,7.2667,6.0667
2.08203125,-0.0002392509872785534,2.8312065497825597e-05,2.7823024330510433e-05,7.56627573449302e-05,7.2667,6.0667
2.0859375,-0.00019822906347905696,4.86685659418633e-06,1.3180556438544307e-05,7.272851034103915e-05,7.2667,6.0667
2.08984375,-0.00010056466565346758,6.823021263447031e-06,8.779185932707732e-06,7.272851034103915e-05,7.2667,6.0667
2.09375,-1.711122880750742e-05,1.9020283318837277e-05,-5.374240791943222e-06,7.908604551613643e-05,7.2667,6.0667
2.09765625,-8.347699192492558e-05,2.8801106665140778e-05,1.4158638773174658e-05,7.419563384298467e-05,7.2667,6.0667
2.1015625,-7.61701415426871e-05,4.833398623025866e-05,3.757508054932481e-05,6.346549528953996e-05,7.2667,6.0667
2.10546875,6.786686579537652e-05,4.9312068564889e-05,3.659699821469445e-05,6.24874129549096e-05,7.2667,6.0667
2.109375,7.321755150835433e-05,3.415179237811858e-05,2.6844941995880075e-05,7.56627573449302e-05,7.2667,6.0667
2.11328125,5.175727440146488e-05,2.293261265735868e-05,2.7823024330510433e-05,7.95750866834516e-05,7.2667,6.0667
2.1171875,4.002028638590067e-05,3.271343600366218e-05,3.855316288395515e-05,6.493261879148548e-05,7.2667,6.0667
2.12109375,4.099836872053103e-05,3.904220405127033e-05,3.659699821469445e-05,6.297645412222477e-05,7.2667,6.0667
2.125,1.9326095902952784e-06,2.8312065497825597e-05,3.320247717097736e-05,6.591070112611582e-05,7.2667,6.0667
2.12890625,-3.419890253604942e-05,2.6844941995880075e-05,6.823021263447031e-06,6.6399742293431e-05,7.2667,6.0667
2.1328125,-2.441807918974592e-05,4.099836872053103e-05,9.54527255664928e-07,6.737782462806135e-05,7.2667,6.0667
2.13671875,-6.198794769054701e-05,4.1976451055161374e-05,3.2224394836347e-05,6.737782462806135e-05,7.2667,6.0667
2.140625,1.999836565346763e-05,2.9290147832455955e-05,3.512987471274893e-05,6.933398929732206e-05,7.2667,6.0667
2.14453125,4.002028638590067e-05,3.855316288395515e-05,2.7823024330510433e-05,6.835590696269171e-05,7.2667,6.0667
2.1484375,-0.00014647700112611578,4.9312068564889e-05,3.659699821469445e-05,7.321755150835433e-05,7.2667,6.0667
2.15234375,-0.000274893458237583,4.4421656891737254e-05,5.0290150899519356e-05,8.006412785076678e-05,7.2667,6.0667
2.15625,-0.00031882086191348133,4.833398623025866e-05,6.1020289452964075e-05,8.446549835660335e-05,7.2667,6.0667
2.16015625,-0.00028757976146028837,7.03120716319524e-05,7.223946917372397e-05,8.104221018539714e-05,7.2667,6.0667
2.1640625,-0.00032615647942320895,4.002028638590067e-05,8.3487416021973e-05,7.712988084687573e-05,7.2667,6.0667
2.16796875,-0.0003569085387090867,-2.9578020828564744e-06,6.297645412222477e-05,7.95750866834516e-05,7.2667,6.0667
2.171875,-0.0004047770388509956,4.86685659418633e-06,5.564083661249715e-05,8.299837485465782e-05,7.2667,6.0667
2.17578125,-0.0004223537537468528,2.3421653824673854e-05,4.6866862728313134e-05,7.908604551613643e-05,7.2667,6.0667
2.1796875,-0.0003862222416205081,3.4640833545433747e-05,3.855316288395515e-05,6.982303046463723e-05,7.2667,6.0667
2.18359375,-0.00041012772456397337,3.953124521858551e-05,5.466275427786681e-05,7.077234567177845e-05,7.2667,6.0667
2.1875,-0.00037546333593957426,3.904220405127033e-05,6.835590696269171e-05,7.712988084687573e-05,7.2667,6.0667
2.19140625,-0.00043944142747539476,3.415179237811858e-05,6.884494813000689e-05,7.810796318150607e-05,7.2667,6.0667
2.1953125,-0.00045261677186541537,4.2954533389791735e-05,6.297645412222477e-05,7.321755150835433e-05,7.2667,6.0667
2.19921875,-0.00031542634086976416,5.661891894712751e-05,5.759700128175785e-05,6.982303046463723e-05,7.2667,6.0667
2.203125,-0.000337864700311284,7.615179851224538e-05,7.37065926756695e-05,7.272851034103915e-05,7.2667,6.0667
2.20703125,-0.0003857332004531929,7.712988084687573e-05,6.835590696269171e-05,7.56627573449302e-05,7.2667,6.0667
2.2109375,-0.00041550717740444033,3.2224394836347e-05,3.8064121716639975e-05,6.982303046463723e-05,7.2667,6.0667
2.21484375,-0.00037011265022659644,2.7823024330510433e-05,6.346549528953996e-05,7.321755150835433e-05,7.2667,6.0667
2.21875,-0.00030515647635614556,8.202029252002748e-05,0.00012157509281757839,8.006412785076678e-05,7.2667,6.0667
2.22265625,-0.00030857976452735176,9.177234873884186e-05,0.00012108605165026323,7.810796318150607e-05,7.2667,6.0667
2.2265625,-0.00025584961983978025,1.366959760585948e-05,3.904220405127033e-05,8.250933368734266e-05,7.2667,6.0667
2.23046875,-0.0003202879854154269,-2.441807918974592e-05,-3.175369669947354e-05,8.104221018539714e-05,7.2667,6.0667
2.234375,-0.0002753824994048981,-4.098794462348362e-05,-5.370301497367817e-05,8.642166302586406e-05,7.2667,6.0667
2.23828125,-0.00012205370988784616,-9.909754215152207e-05,-8.641123892881664e-05,9.128330757152668e-05,7.2667,6.0667
2.2421875,-3.273177903410389e-05,-0.00013571809544518193,-0.00012596603922636758,8.3487416021973e-05,7.2667,6.0667
2.24609375,2.9290147832455955e-05,-0.00019333865180590521,-0.00018991536363469899,8.837782769512474e-05,7.2667,6.0667
2.25,6.1020289452964075e-05,-0.0002612290726802472,-0.00024606879649347675,8.886686886243992e-05,7.2667,6.0667
2.25390625,0.0001557504402746624,-0.00030124414701762414,-0.00028806880262760353,8.54435806912337e-05,7.2667,6.0667
2.2578125,0.00015526139910734723,-0.0003349592204348821,-0.0003330030557656214,8.3487416021973e-05,7.2667,6.0667
2.26171875,0.0001581956461112383,-0.00040086470951247423,-0.0003354482616021972,8.202029252002748e-05,7.2667,6.0667
2.265625,0.00014499153459372855,-0.00044237567447928585,-0.0003949962155046921,8.593262185854888e-05,7.2667,6.0667
2.26953125,0.00013230523137102313,-0.0004418866333119707,-0.0004677482809246967,0.00010008604858319983,7.2667,6.0667
2.2734375,0.00018650249956054016,-0.0004311277276310368,-0.00047263869259784843,0.00011864084581368735,7.2667,6.0667
2.27734375,0.000214349078970016,-0.0004379743039734492,-0.0004638647187136644,0.0001157065988097963,7.2667,6.0667
2.28125,0.00023776552074616618,-0.0004623975952117189,-0.00047557293960173946,0.00010983810480201421,7.2667,6.0667
2.28515625,0.00012790386086518655,-0.0004560400600366216,-0.0004565291012039368,0.00010546550142366674,7.2667,6.0667
2.2890625,0.00010057508975051501,-0.00044579896265049205,-0.0004467770449851224,9.86189250812543e-05,7.2667,6.0667
2.29296875,0.00021630524363927672,-0.0004179523832410162,-0.00047263869259784843,0.00010008604858319983,7.2667,6.0667
2.296875,0.00019432715823758297,-0.00039206196850080107,-0.0004628866363790341,8.981618406958116e-05,7.2667,6.0667
2.30078125,0.00018699154072785535,-0.000397441421341268,-0.0004252880007507438,7.664083967956055e-05,7.2667,6.0667
2.3046875,0.00014355317821927214,-0.00037888662411078046,-0.0003964633390066376,6.591070112611582e-05,7.2667,6.0667
2.30859375,0.00010302029558709088,-0.00034226607081712054,-0.0003642441562188143,6.199837178759443e-05,7.2667,6.0667
2.3125,5.175727440146488e-05,-0.00033251401459830624,-0.0003593537445456626,6.786686579537652e-05,7.2667,6.0667
2.31640625,-4.6367397463950545e-05,-0.00030124414701762414,-0.000363266073884184,6.150933062027925e-05,7.2667,6.0667
2.3203125,-6.541123586175324e-05,-0.000269514005397116,-0.000320777026582742,4.0509327553215855e-05,7.2667,6.0667
2.32421875,1.9326095902952784e-06,-0.00027293729356832227,-0.0003168934643717097,2.9779188999771136e-05,7.2667,6.0667
2.328125,5.1268233234149704e-05,-0.00022216331355001142,-0.00029344825546807044,1.950932448615245e-05,7.2667,6.0667
2.33203125,5.3558977615015024e-06,-0.0001786961839139391,-0.00026025099034561683,7.801103598077383e-06,7.2667,6.0667
2.3359375,-2.7352326193636967e-05,-0.00015769618084687567,-0.000252426331668574,-6.8413642938887445e-06,7.2667,6.0667
2.33984375,-9.032356826733805e-05,-0.00015182768683909357,-0.0001996961869810025,-2.0045475811398472e-05,7.2667,6.0667
2.34375,-0.00022020714888075073,-0.00014941124813000687,-0.00016989344290226595,-2.0534516978713646e-05,7.2667,6.0667
2.34765625,-0.0001752728957427329,-0.00010154274798809794,-0.00018505371908903638,-2.3439996855115568e-05,7.2667,6.0667
2.3515625,-0.00018505371908903638,-7.519205920805675e-05,-0.00017771810157930873,-3.273177903410389e-05,7.2667,6.0667
2.35546875,-0.0002480249611627374,-5.223589147173264e-05,-0.00015231672800640876,-3.7622190707255645e-05,7.2667,6.0667
2.359375,-0.00029344825546807044,-1.515506413824672e-05,-0.00010643315966124969,-4.245506812542914e-05,7.2667,6.0667
2.36328125,-0.0003793756652780956,-9.775611297779796e-06,-7.907562141908901e-05,-5.223589147173264e-05,7.2667,6.0667
2.3671875,-0.0003696236090592812,3.415179237811858e-05,-5.712630314488439e-05,-5.8593426646829925e-05,7.2667,6.0667
2.37109375,-0.0003798647064454108,5.221754844129093e-05,-3.8600273041886e-05,-5.810438547951474e-05,7.2667,6.0667
2.375,-0.00034520031782101163,4.491069805905243e-05,-2.9797532030212843e-05,-6.394411235980772e-05,7.2667,6.0667
2.37890625,-0.0003437331943190661,6.737782462806135e-05,3.8887742595559796e-06,-6.345507119249254e-05,7.2667,6.0667
2.3828125,-0.00037595237710688937,0.0001078819401327535,6.823021263447031e-06,-5.663726197756922e-05,7.2667,6.0667
2.38671875,-0.0003139592173678187,0.00014355317821927214,1.999836565346763e-05,-5.810438547951474e-05,7.2667,6.0667
2.390625,-0.0002988277083085374,9.71518015793088e-05,4.34435745571069e-05,-6.052082418860149e-05,7.2667,6.0667
2.39453125,-0.0003290907264271,8.54435806912337e-05,4.882302739757384e-05,-5.419205614099334e-05,7.2667,6.0667
2.3984375,-0.0003520468941634241,0.0001288819431998169,6.395453645685514e-05,-5.3213973806362994e-05,7.2667,6.0667
2.40234375,-0.00029247017313344006,0.00016112989311512933,9.030522523689631e-05,-5.663726197756922e-05,7.2667,6.0667
2.40625,-0.0002621783878873884,0.00018115181384756237,0.00012010796931563288,-5.810438547951474e-05,7.2667,6.0667
2.41015625,-0.00031102497036392763,0.00016354633182421606,0.00012402029865415427,-5.027972680247194e-05,7.2667,6.0667
2.4140625,-0.0002631564702220187,0.0001572175637766079,0.00011228331063859007,-3.6644108372625297e-05,7.2667,6.0667
2.41796875,-0.00024022906961318377,0.0001787066080109865,0.00013621756070954452,-3.273177903410389e-05,7.2667,6.0667
2.421875,-0.00017184960757152663,0.00016990386699931336,0.00014355317821927214,-2.0534516978713646e-05,7.2667,6.0667
2.42578125,-7.030164753490499e-05,0.0001596627696131838,0.00011717372231174183,-1.1242734799725318e-05,7.2667,6.0667
2.4296875,-9.276877410391392e-05,0.0001537942756054017,0.0001196189281483177,-7.330405461203916e-06,7.2667,6.0667
2.43359375,-0.00013914138361638816,0.00015232715210345617,0.00013768468421149007,-1.0016374135957733e-06,7.2667,6.0667
2.4375,-0.00013963042478370335,0.00016990386699931336,0.0001406189312153811,-3.418076122682521e-06,7.2667,6.0667
2.44140625,-8.249890959029524e-05,0.00017186003166857407,0.00014208605471732665,-5.125962462805944e-07,7.2667,6.0667
2.4453125,-7.809753908445867e-05,0.0001650134553261616,0.000151838110936141,5.3558977615015024e-06,7.2667,6.0667
2.44921875,-8.934548593270769e-05,0.00014743674043030442,0.00014939290509956513,6.823021263447031e-06,7.2667,6.0667
2.453125,-0.0001381633012817578,0.00013964084888075075,0.00013132714903639275,7.801103598077383e-06,7.2667,6.0667
2.45703125,-0.00015476193384298466,0.00014159701355001146,0.00012643673736324103,3.8887742595559796e-06,7.2667,6.0667
2.4609375,-8.592219776150148e-05,0.00012937098436713207,0.00013915180771343556,6.823021263447031e-06,7.2667,6.0667
2.46484375,-6.83454828656443e-05,0.00012692577853055622,0.00014159701355001146,1.366959760585948e-05,7.2667,6.0667
2.46875,-7.568110037537192e-05,0.0001425750958846418,0.00013181619020370794,1.366959760585948e-05,7.2667,6.0667
2.47265625,-0.00013036740973220416,0.00014012989004806592,0.00011815180464637217,1.0246309434653254e-05,7.2667,6.0667
2.4765625,-0.0001196085040512703,0.0001254874221560998,0.00010983810480201421,1.1713432936598778e-05,7.2667,6.0667
2.48046875,-1.8578352309452944e-05,0.00012790386086518655,0.00014355317821927214,1.804220098420693e-05,7.2667,6.0667
2.484375,-2.3929038022430745e-05,0.00011815180464637217,0.00015917372844586865,2.293261265735868e-05,7.2667,6.0667
2.48828125,-3.8111231874570815e-05,9.079426640421149e-05,0.00013523947837491417,2.293261265735868e-05,7.2667,6.0667
2.4921875,-4.6856438631265715e-05,9.86189250812543e-05,0.00014159701355001146,2.097644798809798e-05,7.2667,6.0667
2.49609375,-2.5885202691691444e-05,0.00013034906670176242,0.0001459696169283589,1.950932448615245e-05,7.2667,6.0667
2.5,-1.0264652465094972e-05,0.00012643673736324103,0.00014110797238269627,1.7553159816891755e-05,7.2667,6.0667
2.50390625,-4.147698579079879e-05,0.00012597646332341498,0.0001288819431998169,1.804220098420693e-05,7.2667,6.0667
2.5078125,-5.565917964293886e-05,0.00010497646025635156,0.00010934906363469903,1.7553159816891755e-05,7.2667,6.0667
2.51171875,-9.811945981689172e-05,7.223946917372397e-05,0.0001078819401327535,1.0246309434653254e-05,7.2667,6.0667
2.515625,-1.711122880750742e-05,8.837782769512474e-05,0.00011472851647516594,1.366959760585948e-05,7.2667,6.0667
2.51953125,7.810796318150607e-05,8.981618406958116e-05,0.00011081618713664454,2.7823024330510433e-05,7.2667,6.0667
2.5234375,1.5596995147631056e-05,9.030522523689631e-05,0.00010886002246738385,2.2443571490043502e-05,7.2667,6.0667
2.52734375,-2.3929038022430745e-05,0.00010106413091783016,0.00012157509281757839,1.7553159816891755e-05,7.2667,6.0667
2.53125,9.54527255664928e-07,8.250933368734266e-05,9.764084274662394e-05,2.4399736159304212e-05,7.2667,6.0667
2.53515625,1.3180556438544307e-05,8.055316901808196e-05,9.910796624856948e-05,2.7333983163195256e-05,7.2667,6.0667
2.5390625,2.293261265735868e-05,0.00010106413091783016,0.00012255317515220875,3.3662751210803405e-05,7.2667,6.0667
2.54296875,2.7333983163195256e-05,9.177234873884186e-05,0.0001283929020325017,3.4640833545433747e-05,7.2667,6.0667
2.546875,-1.906739347676812e-05,5.906412478370337e-05,0.00011619563997711147,2.5866859661249734e-05,7.2667,6.0667
2.55078125,-4.734547979858089e-05,7.95750866834516e-05,8.250933368734266e-05,1.999836565346763e-05,7.2667,6.0667
2.5546875,-1.8578352309452944e-05,8.593262185854888e-05,8.299837485465782e-05,2.195453032272833e-05,7.2667,6.0667
2.55859375,1.366959760585948e-05,7.468467501029986e-05,8.446549835660335e-05,2.7333983163195256e-05,7.2667,6.0667
2.5625,1.4647679940489829e-05,6.6399742293431e-05,8.691070419317923e-05,2.9779188999771136e-05,7.2667,6.0667
2.56640625,-5.8593426646829925e-05,6.05312482856489e-05,7.664083967956055e-05,2.4888777326619376e-05,7.2667,6.0667
2.5703125,-8.934548593270769e-05,9.079426640421149e-05,7.321755150835433e-05,2.4399736159304212e-05,7.2667,6.0667
2.57421875,-2.6863285026321796e-05,6.05312482856489e-05,7.56627573449302e-05,2.3421653824673854e-05,7.2667,6.0667
2.578125,-1.808931114213777e-05,4.4421656891737254e-05,7.615179851224538e-05,2.4888777326619376e-05,7.2667,6.0667
2.58203125,-7.22578122041657e-05,8.593262185854888e-05,8.886686886243992e-05,3.173535366903184e-05,7.2667,6.0667
2.5859375,-9.276877410391392e-05,7.56627573449302e-05,9.079426640421149e-05,2.9290147832455955e-05,7.2667,6.0667
2.58984375,-6.541123586175324e-05,7.03120716319524e-05,8.299837485465782e-05,2.7823024330510433e-05,7.2667,6.0667
2.59375,-9.276877410391392e-05,0.00010350933675440606,0.0001025312544197757,2.4399736159304212e-05,7.2667,6.0667
2.59765625,-9.616329514763102e-05,8.54435806912337e-05,0.00012206413398489356,1.999836565346763e-05,7.2667,6.0667
2.6015625,-7.519205920805675e-05,3.1246312501716655e-05,5.0779192066834526e-05,2.9290147832455955e-05,7.2667,6.0667
2.60546875,-0.00012792220389562826,3.561891588006411e-05,2.2443571490043502e-05,2.6355900828564898e-05,7.2667,6.0667
2.609375,-8.298795075761041e-05,4.002028638590067e-05,6.199837178759443e-05,1.6086036314946226e-05,7.2667,6.0667
2.61328125,-9.775611297779796e-06,5.759700128175785e-05,6.6399742293431e-05,1.7553159816891755e-05,7.2667,6.0667
2.6171875,-2.246191452048522e-05,6.737782462806135e-05,7.56627573449302e-05,1.366959760585948e-05,7.2667,6.0667
2.62109375,-6.052082418860149e-05,6.004220711833373e-05,7.126138683909363e-05,4.377815426871152e-06,7.2667,6.0667
2.625,-8.54331565941863e-05,5.8575083616388194e-05,6.786686579537652e-05,1.1713432936598778e-05,7.2667,6.0667
2.62890625,-5.7615344312199564e-05,5.9553165951018556e-05,7.126138683909363e-05,1.5136721107805008e-05,7.2667,6.0667
2.6328125,-6.345507119249254e-05,4.491069805905243e-05,5.0290150899519356e-05,1.6575077482261404e-05,7.2667,6.0667
2.63671875,-5.3213973806362994e-05,4.5399739226367595e-05,4.246549222247655e-05,2.097644798809798e-05,7.2667,6.0667
2.640625,-0.00010056466565346758,5.906412478370337e-05,5.175727440146488e-05,1.7064118649576578e-05,7.2667,6.0667
2.64453125,-0.0001459879599588006,5.2706589608606106e-05,6.346549528953996e-05,1.9020283318837277e-05,7.2667,6.0667
2.6484375,-0.00011083453016708626,6.1020289452964075e-05,7.37065926756695e-05,1.7553159816891755e-05,7.2667,6.0667
2.65234375,-9.130165060196839e-05,5.221754844129093e-05,6.24874129549096e-05,1.85312421515221e-05,7.2667,6.0667
2.65625,-7.665918271000226e-05,5.8575083616388194e-05,4.73559038956283e-05,2.391069499198903e-05,7.2667,6.0667
2.66015625,-9.32578152712291e-05,8.15312513527123e-05,5.466275427786681e-05,2.6355900828564898e-05,7.2667,6.0667
2.6640625,-9.081260943465321e-05,6.44435776241703e-05,7.517371617761504e-05,3.1246312501716655e-05,7.2667,6.0667
2.66796875,-7.176877103685052e-05,7.664083967956055e-05,7.712988084687573e-05,3.3662751210803405e-05,7.2667,6.0667
2.671875,-9.374685643854426e-05,7.37065926756695e-05,5.368467194323645e-05,3.2224394836347e-05,7.2667,6.0667
2.67578125,-7.809753908445867e-05,3.4640833545433747e-05,4.882302739757384e-05,4.002028638590067e-05,7.2667,6.0667
2.6796875,-0.0001459879599588006,2.7823024330510433e-05,5.7107960114442676e-05,4.588878039368278e-05,7.2667,6.0667
2.68359375,-0.0001327838484412909,5.808604244907303e-05,7.95750866834516e-05,4.002028638590067e-05,7.2667,6.0667
2.6875,-2.6863285026321796e-05,7.810796318150607e-05,7.76189220141909e-05,4.3932615724422077e-05,7.2667,6.0667
2.69140625,-9.179069176928357e-05,4.1976451055161374e-05,3.320247717097736e-05,4.491069805905243e-05,7.2667,6.0667
2.6953125,-0.00010741124199588005,-8.797528963149446e-06,-1.979719748226124e-06,1.6575077482261404e-05,7.2667,6.0667
2.69921875,-0.00010692220082856487,-2.7841367360952147e-05,-3.4687943703364594e-05,3.2224394836347e-05,7.2667,6.0667
2.703125,-2.8330408528267318e-05,-5.272493263904782e-05,-8.249890959029524e-05,7.517371617761504e-05,7.2667,6.0667
2.70703125,3.320247717097736e-05,-0.0001381633012817578,-0.00015182768683909357,4.637782156099796e-05,7.2667,6.0667
2.7109375,2.3421653824673854e-05,-0.00019480577530785073,-0.00021140440786907757,1.950932448615245e-05,7.2667,6.0667
2.71484375,3.855316288395515e-05,-0.0002763605817395285,-0.0002597619491783016,2.8801106665140778e-05,7.2667,6.0667
2.71875,6.6399742293431e-05,-0.0003290907264271,-0.00030857976452735176,3.320247717097736e-05,7.2667,6.0667
2.72265625,0.00013964084888075075,-0.0003432441531517509,-0.0003407989473151751,2.4399736159304212e-05,7.2667,6.0667
2.7265625,0.00012986002553444726,-0.00035593045637445636,-0.0003739962124376287,1.4647679940489829e-05,7.2667,6.0667
2.73046875,9.226138990615703e-05,-0.00033639757680933846,-0.0003691345678919661,2.3421653824673854e-05,7.2667,6.0667
2.734375,3.610795704737927e-05,-0.00030515647635614556,-0.00034226607081712054,1.3180556438544307e-05,7.2667,6.0667
2.73828125,8.779185932707732e-06,-0.00032175510891737237,-0.00032957976759441515,3.415179237811858e-05,7.2667,6.0667
2.7421875,4.1976451055161374e-05,-0.0003349592204348821,-0.00032175510891737237,7.615179851224538e-05,7.2667,6.0667
2.74609375,6.688878346074618e-05,-0.0003017331881849393,-0.0002968715436392767,8.495453952391853e-05,7.2667,6.0667
2.75,7.615179851224538e-05,-0.00026025099034561683,-0.00027049208773174634,9.519563691004807e-05,7.2667,6.0667
2.75390625,-4.885199624628043e-06,-0.00020749207853055617,-0.0002631564702220187,9.421755457541772e-05,7.2667,6.0667
2.7578125,-3.957835537651635e-05,-0.0001650317983566033,-0.00019529481647516592,5.2706589608606106e-05,7.2667,6.0667
2.76171875,3.708603938200963e-05,-0.00012890028623025861,-0.00013327288960860608,4.7844945062943475e-05,7.2667,6.0667
2.765625,1.6086036314946226e-05,-9.616329514763102e-05,-0.00012547699805905239,8.837782769512474e-05,7.2667,6.0667
2.76953125,-5.7615344312199564e-05,-9.032356826733805e-05,-0.00011376877717097731,9.71518015793088e-05,7.2667,6.0667
2.7734375,-0.00010154274798809794,-5.9542741853971144e-05,-7.22578122041657e-05,8.691070419317923e-05,7.2667,6.0667
2.77734375,-9.763041864957654e-05,-1.0264652465094972e-05,-2.6863285026321796e-05,7.175042800640881e-05,7.2667,6.0667
2.78125,-0.00012987836856488897,2.6844941995880075e-05,5.844938928816681e-06,6.199837178759443e-05,7.2667,6.0667
2.78515625,-0.00022509756055390245,2.6844941995880075e-05,1.999836565346763e-05,5.808604244907303e-05,7.2667,6.0667
2.7890625,-0.00027098112889906156,4.491069805905243e-05,5.515179544518197e-05,5.466275427786681e-05,7.2667,6.0667
2.79296875,-0.0003193099030807965,7.37065926756695e-05,7.95750866834516e-05,5.0779192066834526e-05,7.2667,6.0667
2.796875,-0.00030222222935225447,9.177234873884186e-05,8.446549835660335e-05,4.7844945062943475e-05,7.2667,6.0667
2.80078125,-0.00025878386684367123,0.00010155317208514535,0.00010693262492561229,4.7844945062943475e-05,7.2667,6.0667
2.8046875,-0.00029344825546807044,0.0001283929020325017,0.00011521755764248112,4.73559038956283e-05,7.2667,6.0667
2.80859375,-0.00032517839708857857,0.00013572851954222933,0.00011277235180590526,4.491069805905243e-05,7.2667,6.0667
2.8125,-0.00032517839708857857,0.00011326139297322044,0.00013719564304417488,4.6866862728313134e-05,7.2667,6.0667
2.81640625,-0.00031053592919661247,0.00011864084581368735,0.00013132714903639275,5.368467194323645e-05,7.2667,6.0667
2.8203125,-0.00028562359679102766,0.00014208605471732665,0.00011717372231174183,5.661891894712751e-05,7.2667,6.0667
2.82421875,-0.0002753824994048981,0.0001386627665461204,0.00012059701048294806,5.368467194323645e-05,7.2667,6.0667
2.828125,-0.00031004688802929725,0.0001454805757610437,0.0001577066049439231,6.199837178759443e-05,7.2667,6.0667
2.83203125,-0.0003227331912520027,0.00015232715210345617,0.00018699154072785535,6.835590696269171e-05,7.2667,6.0667
2.8359375,-0.0002700030465644312,0.0001577066049439231,0.00016452441415884644,6.199837178759443e-05,7.2667,6.0667
2.83984375,-0.00023582769910734718,0.00016259701661707485,0.0001621079754497597,6.05312482856489e-05,7.2667,6.0667
2.84375,-0.00022800304043030437,0.00015477235794003207,0.0001752833198397803,7.03120716319524e-05,7.2667,6.0667
2.84765625,-0.00029977702351567865,0.00014404221938658733,0.00015134906976882584,6.933398929732206e-05,7.2667,6.0667
2.8515625,-0.0002992879823483635,0.0001406189312153811,0.0001288819431998169,6.982303046463723e-05,7.2667,6.0667
2.85546875,-0.00019382769297322038,0.0001577066049439231,0.0001596627696131838,7.859700434882125e-05,7.2667,6.0667
2.859375,-0.000201163310482948,0.00015134906976882584,0.00018699154072785535,7.03120716319524e-05,7.2667,6.0667
2.86328125,-0.00021678386070954448,0.00016064085194781414,0.00017919564917830169,6.395453645685514e-05,7.2667,6.0667
2.8671875,-0.00025878386684367123,0.00014159701355001146,0.00016015181078049898,6.493261879148548e-05,7.2667,6.0667
2.87109375,-0.0002641345525566491,0.00011864084581368735,0.00016990386699931336,6.591070112611582e-05,7.2667,6.0667
2.875,-0.0002333824932707713,0.00013523947837491417,0.00017723948450904098,6.982303046463723e-05,7.2667,6.0667
2.87890625,-0.00021922906654612038,0.00013719564304417488,0.00016550249649347677,6.591070112611582e-05,7.2667,6.0667
2.8828125,-0.0002275139992629892,0.0001327942725383383,0.00014743674043030442,5.9553165951018556e-05,7.2667,6.0667
2.88671875,-0.0002734263347356374,0.0001459696169283589,0.00013670660187685971,6.24874129549096e-05,7.2667,6.0667
2.890625,-0.00023387153443808648,0.0001386627665461204,0.0001445312605539025,7.03120716319524e-05,7.2667,6.0667
2.89453125,-0.00015671809851224534,0.00012741481969787138,0.0001498819462668803,7.321755150835433e-05,7.2667,6.0667
2.8984375,-0.0001537838515083543,0.0001254874221560998,0.00015623948144197756,6.688878346074618e-05,7.2667,6.0667
2.90234375,-0.0001708715252368963,0.00012790386086518655,0.00012692577853055622,5.8575083616388194e-05,7.2667,6.0667
2.90625,-0.00017625097807736322,0.00012108605165026323,0.00011277235180590526,5.368467194323645e-05,7.2667,6.0667
2.91015625,-0.00016111946901808193,0.00011521755764248112,0.00013915180771343556,5.466275427786681e-05,7.2667,6.0667
2.9140625,-0.00016989344290226595,0.00011375043414053561,0.00011521755764248112,4.6866862728313134e-05,7.2667,6.0667
2.91796875,-0.00014549891879148542,8.397645718928817e-05,7.908604551613643e-05,4.5399739226367595e-05,7.2667,6.0667
2.921875,-0.00016600988069123365,9.617371924467844e-05,9.568467807736325e-05,5.612987777981233e-05,7.2667,6.0667
2.92578125,-0.0001630756336873426,0.00011081618713664454,0.00011179426947127489,5.175727440146488e-05,7.2667,6.0667
2.9296875,-0.00014745508346074616,0.00011179426947127489,0.00010644358375829711,5.1268233234149704e-05,7.2667,6.0667
2.93359375,-0.00015671809851224534,0.00010693262492561229,0.00010644358375829711,5.2706589608606106e-05,7.2667,6.0667
2.9375,-9.616329514763102e-05,0.00010644358375829711,0.00010837098130006868,4.882302739757384e-05,7.2667,6.0667
2.94140625,-0.00012694412156099793,0.00010837098130006868,0.00010934906363469903,4.6866862728313134e-05,7.2667,6.0667
2.9453125,-0.0001503893304646372,9.617371924467844e-05,8.837782769512474e-05,4.833398623025866e-05,7.2667,6.0667
2.94921875,-8.15208272556649e-05,6.591070112611582e-05,8.642166302586406e-05,4.1976451055161374e-05,7.2667,6.0667
2.953125,-9.32578152712291e-05,6.44435776241703e-05,9.86189250812543e-05,3.561891588006411e-05,7.2667,6.0667
2.95703125,-8.396603309224076e-05,0.00011277235180590526,0.00010155317208514535,3.953124521858551e-05,7.2667,6.0667
2.9609375,-8.15208272556649e-05,0.0001157065988097963,0.00010886002246738385,3.8064121716639975e-05,7.2667,6.0667
2.96484375,-7.760849791714349e-05,0.00010399837792172124,9.372851340810254e-05,3.4640833545433747e-05,7.2667,6.0667
2.96875,-9.081260943465321e-05,0.00010934906363469903,9.226138990615703e-05,3.271343600366218e-05,7.2667,6.0667
2.97265625,-0.00012890028623025861,8.837782769512474e-05,8.495453952391853e-05,3.512987471274893e-05,7.2667,6.0667
2.9765625,-0.00010692220082856487,8.006412785076678e-05,6.05312482856489e-05,3.659699821469445e-05,7.2667,6.0667
2.98046875,-8.103178608834972e-05,6.6399742293431e-05,7.37065926756695e-05,3.173535366903184e-05,7.2667,6.0667
2.984375,-5.712630314488439e-05,6.493261879148548e-05,8.788878652780957e-05,3.855316288395515e-05,7.2667,6.0667
2.98828125,-7.421397687342639e-05,8.593262185854888e-05,8.593262185854888e-05,4.099836872053103e-05,7.2667,6.0667
2.9921875,-7.274685337148086e-05,6.884494813000689e-05,8.055316901808196e-05,3.561891588006411e-05,7.2667,6.0667
2.99609375,-7.665918271000226e-05,7.03120716319524e-05,8.788878652780957e-05,3.075727133440148e-05,7.2667,6.0667
3.0,-0.00012498795689173722,8.691070419317923e-05,8.642166302586406e-05,3.173535366903184e-05,7.2667,6.0667
3.00390625,-7.22578122041657e-05,8.932714290226598e-05,7.76189220141909e-05,3.415179237811858e-05,7.2667,6.0667
3.0078125,-3.3709861368734246e-05,5.466275427786681e-05,6.835590696269171e-05,3.1246312501716655e-05,7.2667,6.0667
3.01171875,-5.076876796978712e-05,3.02682301670863e-05,5.7107960114442676e-05,2.9290147832455955e-05,7.2667,6.0667
3.015625,-8.494411542687112e-05,4.7844945062943475e-05,5.808604244907303e-05,2.6844941995880075e-05,7.2667,6.0667
3.01953125,-8.494411542687112e-05,4.882302739757384e-05,6.688878346074618e-05,2.5866859661249734e-05,7.2667,6.0667
3.0234375,-7.470301804074157e-05,6.884494813000689e-05,7.272851034103915e-05,2.7333983163195256e-05,7.2667,6.0667
3.02734375,-8.005370375371936e-05,7.223946917372397e-05,7.077234567177845e-05,2.4888777326619376e-05,7.2667,6.0667
3.03125,-4.881260330052642e-05,6.44435776241703e-05,6.199837178759443e-05,2.9779188999771136e-05,7.2667,6.0667
3.03515625,-0.00010838932433051039,6.199837178759443e-05,5.417371311055163e-05,3.4640833545433747e-05,7.2667,6.0667
3.0390625,-0.00010105370682078275,7.126138683909363e-05,5.8575083616388194e-05,3.610795704737927e-05,7.2667,6.0667
3.04296875,-2.102355814602882e-05,9.079426640421149e-05,9.71518015793088e-05,3.757508054932481e-05,7.2667,6.0667
3.046875,-2.3929038022430745e-05,6.591070112611582e-05,0.00010008604858319983,3.320247717097736e-05,7.2667,6.0667
3.05078125,-1.490678580910945e-06,3.173535366903184e-05,5.515179544518197e-05,3.271343600366218e-05,7.2667,6.0667
3.0546875,-2.1512599313343998e-05,5.319563077592127e-05,5.417371311055163e-05,2.8801106665140778e-05,7.2667,6.0667
3.05859375,-2.441807918974592e-05,6.1020289452964075e-05,5.612987777981233e-05,2.5377818493934553e-05,7.2667,6.0667
3.0625,-2.102355814602882e-05,4.882302739757384e-05,5.368467194323645e-05,2.6844941995880075e-05,7.2667,6.0667
3.06640625,-4.006739654383152e-05,4.9312068564889e-05,4.7844945062943475e-05,2.5377818493934553e-05,7.2667,6.0667
3.0703125,-4.196602695811396e-05,2.9779188999771136e-05,2.5866859661249734e-05,2.097644798809798e-05,7.2667,6.0667
3.07421875,-8.885644476539252e-05,3.8064121716639975e-05,2.9290147832455955e-05,1.950932448615245e-05,7.2667,6.0667
3.078125,-3.273177903410389e-05,5.906412478370337e-05,5.612987777981233e-05,2.6844941995880075e-05,7.2667,6.0667
3.08203125,3.271343600366218e-05,5.612987777981233e-05,5.417371311055163e-05,2.6844941995880075e-05,7.2667,6.0667
3.0859375,2.097644798809798e-05,5.8575083616388194e-05,4.637782156099796e-05,1.9020283318837277e-05,7.2667,6.0667
3.08984375,-1.222081713435567e-05,5.8575083616388194e-05,5.661891894712751e-05,1.804220098420693e-05,7.2667,6.0667
3.09375,-4.5389315129320196e-05,6.05312482856489e-05,4.882302739757384e-05,2.4399736159304212e-05,7.2667,6.0667
3.09765625,1.4647679940489829e-05,6.493261879148548e-05,3.1246312501716655e-05,2.5377818493934553e-05,7.2667,6.0667
3.1015625,-7.819446628519095e-06,7.126138683909363e-05,5.8575083616388194e-05,2.3421653824673854e-05,7.2667,6.0667
3.10546875,-2.8330408528267318e-05,5.466275427786681e-05,5.0290150899519356e-05,1.7553159816891755e-05,7.2667,6.0667
3.109375,-1.906739347676812e-05,1.804220098420693e-05,2.3421653824673854e-05,1.7064118649576578e-05,7.2667,6.0667
3.11328125,-2.637424385900662e-05,3.512987471274893e-05,3.415179237811858e-05,1.950932448615245e-05,7.2667,6.0667
3.1171875,7.801103598077383e-06,7.664083967956055e-05,4.637782156099796e-05,1.999836565346763e-05,7.2667,6.0667
3.12109375,2.04874068207828e-05,9.421755457541772e-05,6.05312482856489e-05,2.391069499198903e-05,7.2667,6.0667
3.125,4.34435745571069e-05,9.519563691004807e-05,6.1020289452964075e-05,2.3421653824673854e-05,7.2667,6.0667
3.12890625,-3.3709861368734246e-05,7.468467501029986e-05,4.4421656891737254e-05,1.950932448615245e-05,7.2667,6.0667
3.1328125,-7.421397687342639e-05,6.004220711833373e-05,1.3180556438544307e-05,2.04874068207828e-05,7.2667,6.0667
3.13671875,2.9290147832455955e-05,4.3932615724422077e-05,1.7553159816891755e-05,2.4888777326619376e-05,7.2667,6.0667
3.140625,3.02682301670863e-05,3.659699821469445e-05,4.980110973220418e-05,3.320247717097736e-05,7.2667,6.0667
3.14453125,3.1246312501716655e-05,3.561891588006411e-05,6.346549528953996e-05,3.561891588006411e-05,7.2667,6.0667
3.1484375,1.7064118649576578e-05,2.391069499198903e-05,5.466275427786681e-05,2.5377818493934553e-05,7.2667,6.0667
3.15234375,1.4435684229801067e-06,3.3662751210803405e-05,3.271343600366218e-05,2.5866859661249734e-05,7.2667,6.0667
3.15625,2.293261265735868e-05,6.1020289452964075e-05,3.271343600366218e-05,3.271343600366218e-05,7.2667,6.0667
3.16015625,1.950932448615245e-05,5.564083661249715e-05,2.8312065497825597e-05,2.7823024330510433e-05,7.2667,6.0667
3.1640625,1.3180556438544307e-05,2.2443571490043502e-05,4.002028638590067e-05,3.02682301670863e-05,7.2667,6.0667
3.16796875,-5.174685030441747e-05,3.512987471274893e-05,4.3932615724422077e-05,3.320247717097736e-05,7.2667,6.0667
3.171875,-1.0016374135957733e-06,2.9290147832455955e-05,5.3558977615015024e-06,2.5866859661249734e-05,7.2667,6.0667
3.17578125,6.542165995880066e-05,4.637782156099796e-05,1.9020283318837277e-05,2.4888777326619376e-05,7.2667,6.0667
3.1796875,4.099836872053103e-05,5.466275427786681e-05,5.906412478370337e-05,2.6844941995880075e-05,7.2667,6.0667
3.18359375,2.7333983163195256e-05,2.8312065497825597e-05,4.882302739757384e-05,2.4399736159304212e-05,7.2667,6.0667
3.1875,-1.0016374135957733e-06,3.271343600366218e-05,2.7823024330510433e-05,2.9779188999771136e-05,7.2667,6.0667
3.19140625,1.6575077482261404e-05,3.02682301670863e-05,1.5596995147631056e-05,3.708603938200963e-05,7.2667,6.0667
3.1953125,3.320247717097736e-05,4.588878039368278e-05,1.950932448615245e-05,3.904220405127033e-05,7.2667,6.0667
3.19921875,4.3932615724422077e-05,4.588878039368278e-05,2.195453032272833e-05,3.904220405127033e-05,7.2667,6.0667
3.203125,1.0246309434653254e-05,2.6355900828564898e-05,9.757268267338077e-06,3.708603938200963e-05,7.2667,6.0667
3.20703125,-3.418076122682521e-06,2.4216507576104503e-06,1.2202474103913957e-05,3.3662751210803405e-05,7.2667,6.0667
3.2109375,1.85312421515221e-05,-2.9578020828564744e-06,4.002028638590067e-05,3.320247717097736e-05,7.2667,6.0667
3.21484375,3.320247717097736e-05,2.7333983163195256e-05,4.588878039368278e-05,3.512987471274893e-05,7.2667,6.0667
3.21875,5.175727440146488e-05,3.02682301670863e-05,2.8312065497825597e-05,4.148740988784621e-05,7.2667,6.0667
3.22265625,1.0246309434653254e-05,2.4399736159304212e-05,3.075727133440148e-05,4.34435745571069e-05,7.2667,6.0667
3.2265625,-6.8413642938887445e-06,2.4399736159304212e-05,4.980110973220418e-05,4.34435745571069e-05,7.2667,6.0667
3.23046875,6.786686579537652e-05,2.2443571490043502e-05,2.4888777326619376e-05,4.34435745571069e-05,7.2667,6.0667
3.234375,7.175042800640881e-05,6.333980096131853e-06,-5.863281959258394e-06,3.561891588006411e-05,7.2667,6.0667
3.23828125,5.612987777981233e-05,1.4435684229801067e-06,1.9020283318837277e-05,3.2224394836347e-05,7.2667,6.0667
3.2421875,5.0779192066834526e-05,3.4640833545433747e-05,4.6866862728313134e-05,4.1976451055161374e-05,7.2667,6.0667
3.24609375,5.417371311055163e-05,4.491069805905243e-05,5.368467194323645e-05,4.588878039368278e-05,7.2667,6.0667
3.25,5.368467194323645e-05,2.8801106665140778e-05,2.7823024330510433e-05,3.415179237811858e-05,7.2667,6.0667
3.25390625,2.146548915541315e-05,1.7064118649576578e-05,2.04874068207828e-05,2.9779188999771136e-05,7.2667,6.0667
3.2578125,2.4399736159304212e-05,3.075727133440148e-05,4.491069805905243e-05,3.610795704737927e-05,7.2667,6.0667
3.26171875,5.9553165951018556e-05,3.708603938200963e-05,4.3932615724422077e-05,3.757508054932481e-05,7.2667,6.0667
3.265625,8.055316901808196e-05,3.1246312501716655e-05,2.097644798809798e-05,3.271343600366218e-05,7.2667,6.0667
3.26953125,7.03120716319524e-05,3.399733092240801e-06,2.04874068207828e-05,2.9779188999771136e-05,7.2667,6.0667
3.2734375,4.9312068564889e-05,-1.1731775967040494e-05,2.04874068207828e-05,2.7823024330510433e-05,7.2667,6.0667
3.27734375,5.417371311055163e-05,2.195453032272833e-05,2.4399736159304212e-05,2.6844941995880075e-05,7.2667,6.0667
3.28125,3.271343600366218e-05,4.099836872053103e-05,5.7107960114442676e-05,3.3662751210803405e-05,7.2667,6.0667
3.28515625,6.835590696269171e-05,3.1246312501716655e-05,4.73559038956283e-05,3.561891588006411e-05,7.2667,6.0667
3.2890625,8.73997453604944e-05,3.173535366903184e-05,3.8887742595559796e-06,2.6844941995880075e-05,7.2667,6.0667
3.29296875,6.346549528953996e-05,3.610795704737927e-05,1.0246309434653254e-05,2.6844941995880075e-05,7.2667,6.0667
3.296875,5.368467194323645e-05,4.002028638590067e-05,2.6844941995880075e-05,3.173535366903184e-05,7.2667,6.0667
3.30078125,3.659699821469445e-05,4.2954533389791735e-05,4.34435745571069e-05,2.9779188999771136e-05,7.2667,6.0667
3.3046875,5.2706589608606106e-05,2.8312065497825597e-05,4.099836872053103e-05,3.02682301670863e-05,7.2667,6.0667
3.30859375,7.37065926756695e-05,3.953124521858551e-05,3.904220405127033e-05,2.8312065497825597e-05,7.2667,6.0667
3.3125,8.104221018539714e-05,5.368467194323645e-05,4.73559038956283e-05,3.075727133440148e-05,7.2667,6.0667
3.31640625,2.293261265735868e-05,2.6844941995880075e-05,1.950932448615245e-05,3.3662751210803405e-05,7.2667,6.0667
3.3203125,2.4888777326619376e-05,2.4216507576104503e-06,8.779185932707732e-06,3.271343600366218e-05,7.2667,6.0667
3.32421875,0.00010302029558709088,6.823021263447031e-06,1.3180556438544307e-05,3.320247717097736e-05,7.2667,6.0667
3.328125,7.76189220141909e-05,2.7333983163195256e-05,-5.374240791943222e-06,3.02682301670863e-05,7.2667,6.0667
3.33203125,4.148740988784621e-05,4.4421656891737254e-05,-5.374240791943222e-06,2.8801106665140778e-05,7.2667,6.0667
3.3359375,3.904220405127033e-05,2.8312065497825597e-05,2.2443571490043502e-05,2.9779188999771136e-05,7.2667,6.0667
3.33984375,7.077234567177845e-05,1.2691515271229128e-05,2.8801106665140778e-05,3.1246312501716655e-05,7.2667,6.0667
3.34375,6.24874129549096e-05,2.146548915541315e-05,2.9290147832455955e-05,3.757508054932481e-05,7.2667,6.0667
3.34765625,2.9779188999771136e-05,2.293261265735868e-05,3.8887742595559796e-06,3.415179237811858e-05,7.2667,6.0667
3.3515625,5.8575083616388194e-05,2.8801106665140778e-05,8.290144765392553e-06,2.9290147832455955e-05,7.2667,6.0667
3.35546875,2.5866859661249734e-05,1.9020283318837277e-05,2.6844941995880075e-05,3.415179237811858e-05,7.2667,6.0667
3.359375,5.1268233234149704e-05,1.85312421515221e-05,2.3421653824673854e-05,3.512987471274893e-05,7.2667,6.0667
3.36328125,0.00012108605165026323,4.637782156099796e-05,2.7823024330510433e-05,3.271343600366218e-05,7.2667,6.0667
3.3671875,9.519563691004807e-05,5.515179544518197e-05,4.73559038956283e-05,3.561891588006411e-05,7.2667,6.0667
3.37109375,4.6866862728313134e-05,2.9290147832455955e-05,2.391069499198903e-05,3.173535366903184e-05,7.2667,6.0667
3.375,4.2954533389791735e-05,1.2202474103913957e-05,1.3180556438544307e-05,2.8801106665140778e-05,7.2667,6.0667
3.37890625,8.788878652780957e-05,3.610795704737927e-05,4.833398623025866e-05,3.2224394836347e-05,7.2667,6.0667
3.3828125,8.495453952391853e-05,3.4640833545433747e-05,3.8064121716639975e-05,3.3662751210803405e-05,7.2667,6.0667
3.38671875,7.810796318150607e-05,-2.3555078965422636e-08,1.0246309434653254e-05,3.173535366903184e-05,7.2667,6.0667
3.390625,4.3932615724422077e-05,7.801103598077383e-06,2.097644798809798e-05,3.1246312501716655e-05,7.2667,6.0667
3.39453125,2.8312065497825597e-05,5.319563077592127e-05,4.246549222247655e-05,3.8064121716639975e-05,7.2667,6.0667
3.3984375,6.737782462806135e-05,5.0779192066834526e-05,5.368467194323645e-05,3.512987471274893e-05,7.2667,6.0667
3.40234375,9.568467807736325e-05,3.512987471274893e-05,5.417371311055163e-05,2.8801106665140778e-05,7.2667,6.0667
3.40625,0.00011766276347905702,2.4399736159304212e-05,4.491069805905243e-05,3.320247717097736e-05,7.2667,6.0667
3.41015625,5.175727440146488e-05,1.6086036314946226e-05,3.512987471274893e-05,3.659699821469445e-05,7.2667,6.0667
3.4140625,3.320247717097736e-05,2.5866859661249734e-05,3.757508054932481e-05,3.415179237811858e-05,7.2667,6.0667
3.41796875,0.00011081618713664454,2.6844941995880075e-05,5.661891894712751e-05,3.2224394836347e-05,7.2667,6.0667
3.421875,0.00011521755764248112,1.7064118649576578e-05,5.906412478370337e-05,3.3662751210803405e-05,7.2667,6.0667
3.42578125,0.00011228331063859007,1.7553159816891755e-05,2.097644798809798e-05,2.8312065497825597e-05,7.2667,6.0667
3.4296875,0.00010399837792172124,1.9020283318837277e-05,1.2202474103913957e-05,2.8801106665140778e-05,7.2667,6.0667
3.43359375,0.00011619563997711147,1.6086036314946226e-05,2.391069499198903e-05,3.708603938200963e-05,7.2667,6.0667
3.4375,0.00011766276347905702,3.659699821469445e-05,2.6844941995880075e-05,3.1246312501716655e-05,7.2667,6.0667
3.44140625,9.177234873884186e-05,3.173535366903184e-05,4.34435745571069e-05,2.8312065497825597e-05,7.2667,6.0667
3.4453125,8.593262185854888e-05,2.097644798809798e-05,5.759700128175785e-05,2.5377818493934553e-05,7.2667,6.0667
3.44921875,5.1268233234149704e-05,1.804220098420693e-05,2.195453032272833e-05,2.2443571490043502e-05,7.2667,6.0667
3.453125,8.837782769512474e-05,1.804220098420693e-05,6.333980096131853e-06,3.173535366903184e-05,7.2667,6.0667
3.45703125,0.00014306413705195698,3.561891588006411e-05,3.2224394836347e-05,3.173535366903184e-05,7.2667,6.0667
3.4609375,0.00011717372231174183,3.610795704737927e-05,5.0290150899519356e-05,3.2224394836347e-05,7.2667,6.0667
3.46484375,9.568467807736325e-05,2.4399736159304212e-05,7.321755150835433e-05,4.002028638590067e-05,7.2667,6.0667
3.46875,7.908604551613643e-05,3.953124521858551e-05,4.588878039368278e-05,3.659699821469445e-05,7.2667,6.0667
3.47265625,9.421755457541772e-05,4.5399739226367595e-05,2.9106919249256294e-06,2.6844941995880075e-05,7.2667,6.0667
3.4765625,0.00010934906363469903,1.4647679940489829e-05,7.801103598077383e-06,2.195453032272833e-05,7.2667,6.0667
3.48046875,0.00012402029865415427,1.0735350601968427e-05,4.1976451055161374e-05,2.9290147832455955e-05,7.2667,6.0667
3.484375,9.812988391393912e-05,1.999836565346763e-05,4.833398623025866e-05,3.708603938200963e-05,7.2667,6.0667
3.48828125,6.493261879148548e-05,3.3662751210803405e-05,1.5136721107805008e-05,3.4640833545433747e-05,7.2667,6.0667
3.4921875,9.959700741588465e-05,3.173535366903184e-05,8.290144765392553e-06,3.2224394836347e-05,7.2667,6.0667
3.49609375,0.0001196189281483177,1.9020283318837277e-05,1.3180556438544307e-05,3.173535366903184e-05,7.2667,6.0667
3.5,0.0001425750958846418,8.779185932707732e-06,3.4640833545433747e-05,2.7333983163195256e-05,7.2667,6.0667
3.50390625,9.71518015793088e-05,1.7064118649576578e-05,3.512987471274893e-05,2.6355900828564898e-05,7.2667,6.0667
3.5078125,7.419563384298467e-05,4.6866862728313134e-05,4.6548608834975623e-07,2.6844941995880075e-05,7.2667,6.0667
3.51171875,0.0001537942756054017,3.02682301670863e-05,1.1713432936598778e-05,3.02682301670863e-05,7.2667,6.0667
3.515625,0.00015232715210345617,1.2691515271229128e-05,3.075727133440148e-05,3.708603938200963e-05,7.2667,6.0667
3.51953125,0.00014743674043030442,3.561891588006411e-05,1.804220098420693e-05,4.0509327553215855e-05,7.2667,6.0667
3.5234375,0.0001459696169283589,3.953124521858551e-05,2.6844941995880075e-05,3.512987471274893e-05,7.2667,6.0667
3.52734375,0.00015086002860151065,3.8064121716639975e-05,2.6844941995880075e-05,3.415179237811858e-05,7.2667,6.0667
3.53125,0.00014841482276493477,3.320247717097736e-05,9.54527255664928e-07,3.708603938200963e-05,7.2667,6.0667
3.53515625,0.00011815180464637217,2.4888777326619376e-05,7.312062430762204e-06,3.659699821469445e-05,7.2667,6.0667
3.5390625,0.00015134906976882584,2.7333983163195256e-05,2.6844941995880075e-05,3.4640833545433747e-05,7.2667,6.0667
3.54296875,9.910796624856948e-05,2.4399736159304212e-05,3.2224394836347e-05,3.2224394836347e-05,7.2667,6.0667
3.546875,0.00011179426947127489,3.173535366903184e-05,3.4640833545433747e-05,3.855316288395515e-05,7.2667,6.0667
3.55078125,0.00018943674656443123,2.3421653824673854e-05,2.8312065497825597e-05,4.2954533389791735e-05,7.2667,6.0667
3.5546875,0.0001621079754497597,1.9326095902952784e-06,2.6355900828564898e-05,4.002028638590067e-05,7.2667,6.0667
3.55859375,0.00015428331677271688,7.801103598077383e-06,4.1976451055161374e-05,3.3662751210803405e-05,7.2667,6.0667
3.5625,0.00012402029865415427,3.2224394836347e-05,4.6866862728313134e-05,3.561891588006411e-05,7.2667,6.0667
3.56640625,0.00012790386086518655,1.999836565346763e-05,2.8312065497825597e-05,3.757508054932481e-05,7.2667,6.0667
3.5703125,0.00013377235487296865,1.2202474103913957e-05,1.85312421515221e-05,4.246549222247655e-05,7.2667,6.0667
3.57421875,0.00013181619020370794,3.855316288395515e-05,1.950932448615245e-05,4.7844945062943475e-05,7.2667,6.0667
3.578125,0.00012402029865415427,3.271343600366218e-05,4.3932615724422077e-05,4.2954533389791735e-05,7.2667,6.0667
3.58203125,0.00011668468114442665,2.195453032272833e-05,5.759700128175785e-05,3.512987471274893e-05,7.2667,6.0667
3.5859375,0.00013572851954222933,4.3932615724422077e-05,5.0779192066834526e-05,3.512987471274893e-05,7.2667,6.0667
3.58984375,0.0001572175637766079,5.417371311055163e-05,4.0509327553215855e-05,4.099836872053103e-05,7.2667,6.0667
3.59375,0.0001708819493339437,1.999836565346763e-05,8.779185932707732e-06,3.8064121716639975e-05,7.2667,6.0667
3.59765625,0.00013132714903639275,1.5596995147631056e-05,1.804220098420693e-05,3.953124521858551e-05,7.2667,6.0667
3.6015625,0.00012741481969787138,3.8064121716639975e-05,3.708603938200963e-05,4.833398623025866e-05,7.2667,6.0667
3.60546875,0.00014939290509956513,3.512987471274893e-05,3.1246312501716655e-05,5.0779192066834526e-05,7.2667,6.0667
3.609375,0.0001288819431998169,1.950932448615245e-05,1.5596995147631056e-05,4.980110973220418e-05,7.2667,6.0667
3.61328125,0.00013768468421149007,1.0735350601968427e-05,1.4158638773174658e-05,4.5399739226367595e-05,7.2667,6.0667
3.6171875,0.0001327942725383383,2.195453032272833e-05,4.3932615724422077e-05,4.148740988784621e-05,7.2667,6.0667
3.62109375,0.00012255317515220875,1.5136721107805008e-05,3.3662751210803405e-05,3.610795704737927e-05,7.2667,6.0667
3.625,0.00014159701355001146,2.5866859661249734e-05,1.999836565346763e-05,3.8064121716639975e-05,7.2667,6.0667
3.62890625,0.00011668468114442665,3.173535366903184e-05,1.5596995147631056e-05,4.1976451055161374e-05,7.2667,6.0667
3.6328125,0.00011032714596932939,1.4647679940489829e-05,2.4399736159304212e-05,4.4421656891737254e-05,7.2667,6.0667
3.63671875,8.15312513527123e-05,4.377815426871152e-06,3.02682301670863e-05,5.0779192066834526e-05,7.2667,6.0667
3.640625,0.00010983810480201421,1.85312421515221e-05,3.561891588006411e-05,4.588878039368278e-05,7.2667,6.0667
3.64453125,0.0001918819524010071,3.708603938200963e-05,3.757508054932481e-05,4.2954533389791735e-05,7.2667,6.0667
3.6484375,0.0001743052375051499,3.610795704737927e-05,4.491069805905243e-05,4.34435745571069e-05,7.2667,6.0667
3.65234375,0.00013181619020370794,3.708603938200963e-05,5.0779192066834526e-05,4.3932615724422077e-05,7.2667,6.0667
3.65625,0.00012010796931563288,2.293261265735868e-05,1.950932448615245e-05,4.7844945062943475e-05,7.2667,6.0667
3.66015625,0.00017039290816662852,2.6355900828564898e-05,1.999836565346763e-05,4.6866862728313134e-05,7.2667,6.0667
3.6640625,0.00016354633182421606,3.561891588006411e-05,2.6355900828564898e-05,4.4421656891737254e-05,7.2667,6.0667
3.66796875,0.00013768468421149007,7.801103598077383e-06,7.801103598077383e-06,4.1976451055161374e-05,7.2667,6.0667
3.671875,0.00010837098130006868,1.1224391769283606e-05,3.02682301670863e-05,4.099836872053103e-05,7.2667,6.0667
3.67578125,0.00012010796931563288,5.844938928816681e-06,2.097644798809798e-05,4.1976451055161374e-05,7.2667,6.0667
3.6796875,0.00015037098743419548,9.54527255664928e-07,1.0246309434653254e-05,4.0509327553215855e-05,7.2667,6.0667
3.68359375,0.0001406189312153811,3.1246312501716655e-05,4.246549222247655e-05,4.002028638590067e-05,7.2667,6.0667
3.6875,0.00015134906976882584,2.8801106665140778e-05,3.3662751210803405e-05,3.953124521858551e-05,7.2667,6.0667
3.69140625,0.0001235312574868391,1.999836565346763e-05,1.7064118649576578e-05,3.320247717097736e-05,7.2667,6.0667
3.6953125,0.00011766276347905702,2.5377818493934553e-05,1.85312421515221e-05,3.075727133440148e-05,7.2667,6.0667
3.69921875,0.00014743674043030442,1.0735350601968427e-05,2.3421653824673854e-05,3.561891588006411e-05,7.2667,6.0667
3.703125,0.00014743674043030442,1.2202474103913957e-05,1.85312421515221e-05,4.099836872053103e-05,7.2667,6.0667
3.70703125,0.00012937098436713207,3.3662751210803405e-05,1.6575077482261404e-05,3.855316288395515e-05,7.2667,6.0667
3.7109375,0.00011423947530785076,3.659699821469445e-05,2.146548915541315e-05,3.904220405127033e-05,7.2667,6.0667
3.71484375,0.00012937098436713207,1.1224391769283606e-05,2.097644798809798e-05,4.148740988784621e-05,7.2667,6.0667
3.71875,0.00013964084888075075,1.85312421515221e-05,3.8064121716639975e-05,4.002028638590067e-05,7.2667,6.0667
3.72265625,0.00012059701048294806,4.0509327553215855e-05,6.493261879148548e-05,4.0509327553215855e-05,7.2667,6.0667
3.7265625,0.00011521755764248112,2.5377818493934553e-05,5.8575083616388194e-05,4.0509327553215855e-05,7.2667,6.0667
3.73046875,7.810796318150607e-05,1.950932448615245e-05,2.391069499198903e-05,4.099836872053103e-05,7.2667,6.0667
3.734375,0.00011423947530785076,3.1246312501716655e-05,6.333980096131853e-06,3.610795704737927e-05,7.2667,6.0667
3.73828125,0.0001743052375051499,2.2443571490043502e-05,-3.418076122682521e-06,3.708603938200963e-05,7.2667,6.0667
3.7421875,0.00017039290816662852,3.3662751210803405e-05,4.246549222247655e-05,3.757508054932481e-05,7.2667,6.0667
3.74609375,0.0001327942725383383,4.588878039368278e-05,4.2954533389791735e-05,3.271343600366218e-05,7.2667,6.0667
3.75,8.299837485465782e-05,3.1246312501716655e-05,-1.0016374135957733e-06,2.7333983163195256e-05,7.2667,6.0667
3.75390625,0.00013621756070954452,2.7333983163195256e-05,4.6548608834975623e-07,2.391069499198903e-05,7.2667,6.0667
3.7578125,0.00013964084888075075,2.5377818493934553e-05,1.5596995147631056e-05,3.271343600366218e-05,7.2667,6.0667
3.76171875,0.00013964084888075075,2.7333983163195256e-05,2.6355900828564898e-05,4.3932615724422077e-05,7.2667,6.0667
3.765625,0.00011472851647516594,1.9020283318837277e-05,3.415179237811858e-05,3.561891588006411e-05,7.2667,6.0667
3.76953125,7.419563384298467e-05,1.5136721107805008e-05,3.173535366903184e-05,3.271343600366218e-05,7.2667,6.0667
3.7734375,9.812988391393912e-05,2.9290147832455955e-05,1.950932448615245e-05,3.904220405127033e-05,7.2667,6.0667
3.77734375,0.00011619563997711147,3.512987471274893e-05,2.3421653824673854e-05,3.708603938200963e-05,7.2667,6.0667
3.78125,0.0001479257815976196,3.271343600366218e-05,1.9020283318837277e-05,3.708603938200963e-05,7.2667,6.0667
3.78515625,8.299837485465782e-05,4.4421656891737254e-05,1.9020283318837277e-05,3.659699821469445e-05,7.2667,6.0667
3.7890625,6.688878346074618e-05,3.904220405127033e-05,1.6086036314946226e-05,3.3662751210803405e-05,7.2667,6.0667
3.79296875,0.00012986002553444726,3.4640833545433747e-05,1.1713432936598778e-05,3.1246312501716655e-05,7.2667,6.0667
3.796875,0.00012010796931563288,3.320247717097736e-05,3.2224394836347e-05,2.9779188999771136e-05,7.2667,6.0667
3.80078125,0.00013132714903639275,3.173535366903184e-05,4.637782156099796e-05,3.512987471274893e-05,7.2667,6.0667
3.8046875,9.71518015793088e-05,2.9290147832455955e-05,4.5399739226367595e-05,3.561891588006411e-05,7.2667,6.0667
3.80859375,0.00010057508975051501,1.0735350601968427e-05,4.148740988784621e-05,2.8312065497825597e-05,7.2667,6.0667
3.8125,0.00011423947530785076,2.6355900828564898e-05,3.02682301670863e-05,3.075727133440148e-05,7.2667,6.0667
3.81640625,7.859700434882125e-05,4.099836872053103e-05,2.4399736159304212e-05,3.3662751210803405e-05,7.2667,6.0667
3.8203125,0.00011472851647516594,1.999836565346763e-05,1.366959760585948e-05,3.3662751210803405e-05,7.2667,6.0667
3.82421875,9.323947224078739e-05,2.146548915541315e-05,3.02682301670863e-05,3.320247717097736e-05,7.2667,6.0667
3.828125,0.00010497646025635156,4.4421656891737254e-05,4.5399739226367595e-05,3.415179237811858e-05,7.2667,6.0667
3.83203125,0.00014939290509956513,3.8064121716639975e-05,2.6844941995880075e-05,3.708603938200963e-05,7.2667,6.0667
3.8359375,0.00012450933982146946,4.491069805905243e-05,2.097644798809798e-05,3.610795704737927e-05,7.2667,6.0667
3.83984375,0.00011277235180590526,3.8064121716639975e-05,3.512987471274893e-05,3.320247717097736e-05,7.2667,6.0667
3.84375,0.00011326139297322044,1.85312421515221e-05,5.319563077592127e-05,3.2224394836347e-05,7.2667,6.0667
3.84765625,0.0001406189312153811,4.34435745571069e-05,5.759700128175785e-05,3.561891588006411e-05,7.2667,6.0667
3.8515625,0.00011326139297322044,4.34435745571069e-05,3.757508054932481e-05,3.757508054932481e-05,7.2667,6.0667
3.85546875,0.00010693262492561229,3.4640833545433747e-05,1.7553159816891755e-05,4.099836872053103e-05,7.2667,6.0667
3.859375,0.0001157065988097963,5.1268233234149704e-05,2.6844941995880075e-05,4.34435745571069e-05,7.2667,6.0667
3.86328125,0.00011472851647516594,4.980110973220418e-05,3.610795704737927e-05,3.8064121716639975e-05,7.2667,6.0667
3.8671875,0.00011619563997711147,3.1246312501716655e-05,1.999836565346763e-05,4.002028638590067e-05,7.2667,6.0667
3.87109375,0.00012499838098878465,2.391069499198903e-05,1.3180556438544307e-05,4.0509327553215855e-05,7.2667,6.0667
3.875,0.00015623948144197756,2.8312065497825597e-05,2.4399736159304212e-05,3.708603938200963e-05,7.2667,6.0667
3.87890625,9.764084274662394e-05,2.5866859661249734e-05,4.588878039368278e-05,3.561891588006411e-05,7.2667,6.0667
3.8828125,7.517371617761504e-05,2.6355900828564898e-05,4.637782156099796e-05,3.320247717097736e-05,7.2667,6.0667
3.88671875,0.00014890386393224994,2.146548915541315e-05,2.146548915541315e-05,3.2224394836347e-05,7.2667,6.0667
3.890625,0.00013328331370565349,1.804220098420693e-05,1.85312421515221e-05,3.659699821469445e-05,7.2667,6.0667
3.89453125,0.00010837098130006868,2.2443571490043502e-05,1.804220098420693e-05,3.415179237811858e-05,7.2667,6.0667
3.8984375,0.0001078819401327535,3.320247717097736e-05,1.7553159816891755e-05,2.8312065497825597e-05,7.2667,6.0667
3.90234375,0.00011423947530785076,2.7823024330510433e-05,2.2443571490043502e-05,3.1246312501716655e-05,7.2667,6.0667
3.90625,0.00011619563997711147,2.2443571490043502e-05,2.4888777326619376e-05,2.9290147832455955e-05,7.2667,6.0667
3.91015625,9.47065957427329e-05,2.04874068207828e-05,2.146548915541315e-05,3.320247717097736e-05,7.2667,6.0667
3.9140625,9.030522523689631e-05,8.290144765392553e-06,2.391069499198903e-05,4.1976451055161374e-05,7.2667,6.0667
3.91796875,6.884494813000689e-05,9.757268267338077e-06,3.173535366903184e-05,3.4640833545433747e-05,7.2667,6.0667
3.921875,0.00010155317208514535,2.7333983163195256e-05,3.953124521858551e-05,3.3662751210803405e-05,7.2667,6.0667
3.92578125,0.00014499153459372855,4.1976451055161374e-05,4.833398623025866e-05,3.953124521858551e-05,7.2667,6.0667
3.9296875,0.00013034906670176242,4.1976451055161374e-05,4.0509327553215855e-05,3.953124521858551e-05,7.2667,6.0667
3.93359375,0.0001078819401327535,3.610795704737927e-05,3.757508054932481e-05,4.099836872053103e-05,7.2667,6.0667
3.9375,0.00010448741908903641,4.34435745571069e-05,3.3662751210803405e-05,3.4640833545433747e-05,7.2667,6.0667
3.94140625,0.00013964084888075075,4.9312068564889e-05,2.3421653824673854e-05,2.5866859661249734e-05,7.2667,6.0667
3.9453125,0.0001283929020325017,3.610795704737927e-05,2.6844941995880075e-05,2.8801106665140778e-05,7.2667,6.0667
3.94921875,0.00012108605165026323,2.7823024330510433e-05,3.1246312501716655e-05,3.610795704737927e-05,7.2667,6.0667
3.953125,0.00010595454259098192,2.146548915541315e-05,1.9020283318837277e-05,3.415179237811858e-05,7.2667,6.0667
3.95703125,9.959700741588465e-05,1.2202474103913957e-05,7.801103598077383e-06,3.3662751210803405e-05,7.2667,6.0667
3.9609375,0.00013964084888075075,2.391069499198903e-05,4.148740988784621e-05,3.757508054932481e-05,7.2667,6.0667
3.96484375,0.0001406189312153811,3.1246312501716655e-05,6.004220711833373e-05,3.659699821469445e-05,7.2667,6.0667
3.96875,0.00013768468421149007,3.415179237811858e-05,2.8312065497825597e-05,4.002028638590067e-05,7.2667,6.0667
3.97265625,0.00010644358375829711,6.004220711833373e-05,2.5866859661249734e-05,3.659699821469445e-05,7.2667,6.0667
3.9765625,9.323947224078739e-05,4.73559038956283e-05,2.9290147832455955e-05,3.3662751210803405e-05,7.2667,6.0667
3.98046875,0.0001669696199954223,2.6355900828564898e-05,2.4399736159304212e-05,3.512987471274893e-05,7.2667,6.0667
3.984375,0.0001616189342824445,3.904220405127033e-05,4.002028638590067e-05,3.708603938200963e-05,7.2667,6.0667
3.98828125,0.0001454805757610437,4.9312068564889e-05,3.757508054932481e-05,4.002028638590067e-05,7.2667,6.0667
3.9921875,0.00012643673736324103,2.7823024330510433e-05,1.2691515271229128e-05,3.561891588006411e-05,7.2667,6.0667
3.99609375,0.00013230523137102313,2.9290147832455955e-05,1.5136721107805008e-05,3.173535366903184e-05,7.2667,6.0667
4.0,0.00014939290509956513,3.02682301670863e-05,2.7333983163195256e-05,3.2224394836347e-05,7.2667,6.0667
4.00390625,0.00011277235180590526,9.757268267338077e-06,1.9020283318837277e-05,3.271343600366218e-05,7.2667,6.0667
4.0078125,0.00012206413398489356,2.4888777326619376e-05,2.097644798809798e-05,3.610795704737927e-05,7.2667,6.0667
4.01171875,8.788878652780957e-05,2.6844941995880075e-05,2.7823024330510433e-05,3.953124521858551e-05,7.2667,6.0667
4.015625,0.0001025312544197757,1.7553159816891755e-05,3.075727133440148e-05,3.904220405127033e-05,7.2667,6.0667
4.01953125,0.00017039290816662852,1.9020283318837277e-05,3.610795704737927e-05,4.099836872053103e-05,7.2667,6.0667
4.0234375,0.00013230523137102313,2.3421653824673854e-05,2.5377818493934553e-05,3.953124521858551e-05,7.2667,6.0667
4.02734375,0.00010644358375829711,3.8064121716639975e-05,9.268227100022905e-06,3.173535366903184e-05,7.2667,6.0667
4.03125,0.00011717372231174183,3.1246312501716655e-05,1.4435684229801067e-06,3.271343600366218e-05,7.2667,6.0667
4.03515625,0.00013670660187685971,1.6575077482261404e-05,2.195453032272833e-05,4.0509327553215855e-05,7.2667,6.0667
4.0390625,0.0001445312605539025,1.6575077482261404e-05,6.1020289452964075e-05,4.3932615724422077e-05,7.2667,6.0667
4.04296875,0.00014159701355001146,2.9290147832455955e-05,6.05312482856489e-05,4.1976451055161374e-05,7.2667,6.0667
4.046875,8.837782769512474e-05,2.293261265735868e-05,3.953124521858551e-05,3.757508054932481e-05,7.2667,6.0667
4.05078125,7.321755150835433e-05,1.3180556438544307e-05,2.391069499198903e-05,2.8801106665140778e-05,7.2667,6.0667
4.0546875,0.00011912988698100253,2.5866859661249734e-05,2.7823024330510433e-05,2.6355900828564898e-05,7.2667,6.0667
4.05859375,0.00013915180771343556,3.271343600366218e-05,2.8801106665140778e-05,2.9779188999771136e-05,7.2667,6.0667
4.0625,0.0001596627696131838,2.4399736159304212e-05,1.0735350601968427e-05,2.5866859661249734e-05,7.2667,6.0667
4.06640625,0.00010546550142366674,1.7064118649576578e-05,1.3180556438544307e-05,3.1246312501716655e-05,7.2667,6.0667
4.0703125,6.150933062027925e-05,9.54527255664928e-07,1.0246309434653254e-05,3.075727133440148e-05,7.2667,6.0667
4.07421875,0.00012402029865415427,-2.9578020828564744e-06,1.0735350601968427e-05,2.293261265735868e-05,7.2667,6.0667
4.078125,0.0001537942756054017,3.173535366903184e-05,4.4421656891737254e-05,2.8312065497825597e-05,7.2667,6.0667
4.08203125,0.00012010796931563288,4.588878039368278e-05,6.493261879148548e-05,3.320247717097736e-05,7.2667,6.0667
4.0859375,0.00010983810480201421,2.9779188999771136e-05,3.904220405127033e-05,3.320247717097736e-05,7.2667,6.0667
4.08984375,0.0001459696169283589,2.9290147832455955e-05,2.293261265735868e-05,2.9290147832455955e-05,7.2667,6.0667
4.09375,0.00013915180771343556,2.4888777326619376e-05,1.366959760585948e-05,3.3662751210803405e-05,7.2667,6.0667
4.09765625,0.00011521755764248112,1.9020283318837277e-05,4.377815426871152e-06,4.0509327553215855e-05,7.2667,6.0667
4.1015625,0.00014306413705195698,2.195453032272833e-05,3.1246312501716655e-05,3.708603938200963e-05,7.2667,6.0667
