timestamp,TP9,AF7,AF8,TP10,Valence,Arousal
0.0,-6.885499941863119e-05,7.079874091096368e-05,6.835285722133218e-05,-1.3190417651636465e-05,5.9286,6.9286
0.00390625,-6.836789546349272e-05,5.3221542870222094e-05,8.983725081712071e-05,-4.94623076218744e-07,5.9286,6.9286
0.0078125,-6.738332363927665e-05,4.63813596704052e-05,0.00010838865676813924,9.666887891966951e-07,5.9286,6.9286
0.01171875,-6.494780386358429e-05,5.565706264591449e-05,6.835285722133218e-05,9.666887891966951e-07,5.9286,6.9286
0.015625,-6.298902412909127e-05,6.981416908674762e-05,-8.309014186312594e-06,-1.3677521606774945e-05,5.9286,6.9286
0.01953125,-6.0066400398260395e-05,8.34945354863814e-05,-2.73475240924696e-05,-3.1741823602655e-05,5.9286,6.9286
0.0234375,-5.909219248798345e-05,8.153575575188838e-05,-6.350234451819574e-06,-3.0280511737239564e-05,5.9286,6.9286
0.02734375,-6.348649199816884e-05,7.7141456241703e-05,-7.519121080264313e-09,-2.1979016672007248e-05,5.9286,6.9286
0.03125,-6.738332363927665e-05,8.300743153124292e-05,-3.1741823602655e-05,-1.8558925072098815e-05,5.9286,6.9286
0.03515625,-6.348649199816884e-05,8.446874339665836e-05,-5.0790697422751135e-05,-1.9046029027237266e-05,5.9286,6.9286
0.0390625,-5.909219248798345e-05,8.10486517967499e-05,-2.7834628047608076e-05,-1.4651729517051876e-05,5.9286,6.9286
0.04296875,-5.176490533302808e-05,7.128584486610216e-05,-2.1004808761730286e-05,-8.796118141451046e-06,5.9286,6.9286
0.046875,-5.0790697422751135e-05,6.493276562142376e-05,4.386780389105126e-06,-1.1231637917143444e-05,5.9286,6.9286
0.05078125,-5.176490533302808e-05,7.7141456241703e-05,1.7082574964522848e-05,-1.7097613206683377e-05,5.9286,6.9286
0.0546875,-4.9319021643396595e-05,7.079874091096368e-05,1.0252755678645087e-05,-1.9533132982375746e-05,5.9286,6.9286
0.05859375,-4.443761817807271e-05,4.8827243360036704e-05,2.196397842984672e-05,-2.0020236937514227e-05,5.9286,6.9286
0.0625,-4.297630631265728e-05,4.492004780498979e-05,3.0265473495079048e-05,-1.0257430006866484e-05,5.9286,6.9286
0.06640625,-5.4200425108720465e-05,4.735556758068216e-05,2.1476874474708238e-05,-7.519121080264313e-09,5.9286,6.9286
0.0703125,-5.4200425108720465e-05,3.905407251544983e-05,1.7082574964522848e-05,-9.770326051728005e-06,5.9286,6.9286
0.07421875,-4.8831917688258114e-05,3.856696856031135e-05,2.782995371938668e-05,-1.8558925072098815e-05,5.9286,6.9286
0.078125,-4.785770977798115e-05,3.173714927443359e-05,3.222425322957207e-05,-2.2953224582284205e-05,5.9286,6.9286
0.08203125,-4.492472213321119e-05,6.345560123598148e-06,1.5134159143968958e-05,-2.930630382696262e-05,5.9286,6.9286
0.0859375,-4.8831917688258114e-05,8.293975944152067e-06,1.1226963588922018e-05,-1.8071821116960335e-05,5.9286,6.9286
0.08984375,-5.12778013778896e-05,-4.94623076218744e-07,1.1226963588922018e-05,-2.0020236937514227e-05,5.9286,6.9286
0.09375,-4.3463410267795763e-05,-1.0744533962004965e-05,1.7082574964522848e-05,-2.5399108271915707e-05,5.9286,6.9286
0.09765625,-3.906911075761036e-05,-8.309014186312594e-06,1.3662483364614416e-05,-2.8321732002746556e-05,5.9286,6.9286
0.1015625,-3.906911075761036e-05,-1.1231637917143444e-05,1.1226963588922018e-05,-2.637331618219265e-05,5.9286,6.9286
0.10546875,-4.3463410267795763e-05,-3.955621471274884e-05,7.319768033875106e-06,-1.9533132982375746e-05,5.9286,6.9286
0.109375,-3.809490284733341e-05,-3.955621471274884e-05,-1.4688309864957034e-06,-2.7834628047608076e-05,5.9286,6.9286
0.11328125,-3.1741823602655e-05,-2.8808835957885023e-05,3.899676433966647e-06,-2.2953224582284205e-05,5.9286,6.9286
0.1171875,-3.711033102311735e-05,-3.760779889219493e-05,7.319768033875106e-06,-1.3190417651636465e-05,5.9286,6.9286
0.12109375,-2.3440328537422686e-05,-3.076761569237804e-05,1.8554250743877388e-05,-1.2703313696497986e-05,5.9286,6.9286
0.125,-1.8071821116960335e-05,-4.443761817807271e-05,5.3609882993820856e-06,-2.3440328537422686e-05,5.9286,6.9286
0.12890625,-2.73475240924696e-05,-6.934210337376967e-05,-2.5399108271915707e-05,-1.6123405296406416e-05,5.9286,6.9286
0.1328125,-1.4164625561913397e-05,-6.397359595330732e-05,-3.271603151293195e-05,-5.376026541542615e-06,5.9286,6.9286
0.13671875,1.5134159143968958e-05,-5.176490533302808e-05,-3.858200680247189e-05,-1.0744533962004965e-05,5.9286,6.9286
0.140625,2.831705767452513e-05,-4.639639791256573e-05,-4.639639791256573e-05,-7.519121080264313e-09,5.9286,6.9286
0.14453125,3.173714927443359e-05,-8.057658608377196e-05,-7.177762314946206e-05,-7.821910231174115e-06,5.9286,6.9286
0.1484375,5.077565918059059e-05,-0.00010156351181048287,-0.00010303518758983741,-2.1004808761730286e-05,5.9286,6.9286
0.15234375,6.591733744563982e-05,-9.864088807965203e-05,-0.00013476949207141218,-1.3190417651636465e-05,5.9286,6.9286
0.15625,8.056154784161142e-05,-0.00011914070985122446,-0.00015526931384298462,-2.930630382696262e-05,5.9286,6.9286
0.16015625,0.00010449182512703145,-0.0001142593063859006,-0.0001533208980224307,-3.0280511737239564e-05,5.9286,6.9286
0.1640625,0.00011913603552300304,-0.00013379528416113522,-0.00015770483361867698,3.899676433966647e-06,5.9286,6.9286
0.16796875,0.00012597621872281997,-0.00017870212325932702,-0.00018847529410391387,1.5621263099107437e-05,5.9286,6.9286
0.171875,0.00012353033503318845,-0.0002011710886793316,-0.00023729969267109174,2.196397842984672e-05,5.9286,6.9286
0.17578125,0.00010888612463721682,-0.00019286959361409928,-0.0002651268015976195,3.613144878461898e-05,5.9286,6.9286
0.1796875,9.520575823758307e-05,-0.00017918922721446549,-0.0002680597892423895,3.954117647058831e-05,5.9286,6.9286
0.18359375,7.616724833142604e-05,-0.0001855423064591439,-0.00026952110110780496,3.954117647058831e-05,5.9286,6.9286
0.1875,4.832977549095912e-05,-0.00015673062570840002,-0.00025244137093614097,4.492004780498979e-05,5.9286,6.9286
0.19140625,1.6108367054245887e-05,-0.00014062510344701296,-0.0002333924971160448,4.8827243360036704e-05,5.9286,6.9286
0.1953125,-2.4414536447699617e-05,-0.00012646799700617982,-0.00021435398720988778,5.6144166601052943e-05,5.9286,6.9286
0.19921875,-6.250192017395278e-05,-0.00010206097967956047,-0.00019481800943465318,5.4195750780499055e-05,5.9286,6.9286
0.203125,-8.78935093247882e-05,-7.910491030441741e-05,-0.00016063782126344697,5.8102946335545964e-05,5.9286,6.9286
0.20703125,-0.00011279799452048517,-7.617192265964744e-05,-0.00012598089305104136,5.712873842526903e-05,5.9286,6.9286
0.2109375,-0.00014160967527122905,-4.8831917688258114e-05,-8.545798954909584e-05,4.540715176012824e-05,5.9286,6.9286
0.21484375,-0.00016112492521858543,-9.817270313572236e-07,-5.0790697422751135e-05,3.856696856031135e-05,5.9286,6.9286
0.21875,-0.00017577949952849616,9.755287809567476e-06,-2.930630382696262e-05,4.63813596704052e-05,5.9286,6.9286
0.22265625,-0.00019823810103456163,2.392275816433974e-05,1.3175379409475937e-05,5.3221542870222094e-05,5.9286,6.9286
0.2265625,-0.00021044679165484087,4.443294384985131e-05,3.0265473495079048e-05,4.003864433966592e-05,5.9286,6.9286
0.23046875,-0.0002202095985854886,5.126276313572907e-05,3.710565669489594e-05,3.417266905012596e-05,5.9286,6.9286
0.234375,-0.00022899819760585942,7.616724833142604e-05,6.298434980086983e-05,3.954117647058831e-05,5.9286,6.9286
0.23828125,-0.00022704978178530552,9.081145872739764e-05,9.129856268253612e-05,3.613144878461898e-05,5.9286,6.9286
0.2421875,-0.00023290539316090633,8.250996366216534e-05,0.00010838865676813924,3.514687696040292e-05,5.9286,6.9286
0.24609375,-0.000246575395646601,8.837593895170528e-05,0.00011180874836804769,2.4896966074616697e-05,5.9286,6.9286
0.25,-0.00025244137093614097,0.0001059531369924469,0.00011180874836804769,2.196397842984672e-05,5.9286,6.9286
0.25390625,-0.00024315530404669253,0.00011962313947814152,0.00011717725578851002,4.344837202563525e-05,5.9286,6.9286
0.2578125,-0.00023045950947127482,0.00012841173849851236,0.00012889884245365077,4.247416411535829e-05,5.9286,6.9286
0.26171875,-0.0002226554822751201,0.00014306631280842303,0.00012987305036392773,3.417266905012596e-05,5.9286,6.9286
0.265625,-0.00021727661094071864,0.0001415946370290685,0.0001308576221881438,2.343565420920126e-05,5.9286,6.9286
0.26953125,-0.00021435398720988778,0.0001357390256534677,0.00013915911725337617,1.2201171499198978e-05,5.9286,6.9286
0.2734375,-0.00020458081636530093,0.00013866164938429858,0.00014843482022888543,7.319768033875106e-06,5.9286,6.9286
0.27734375,-0.0002011710886793316,0.00012695042663309693,0.00013720033751888315,-4.888922586404135e-06,5.9286,6.9286
0.28125,-0.00019091081387960626,0.00012059734738841848,0.00011669015183337154,-1.6610509251544897e-05,5.9286,6.9286
0.28515625,-0.00017675370743877312,0.00010741444885786228,0.00010644024094758532,-2.1004808761730286e-05,5.9286,6.9286
0.2890625,-0.00017626660348363463,7.95873399313345e-05,8.983725081712071e-05,-2.7834628047608076e-05,5.9286,6.9286
0.29296875,-0.00017089809606317228,6.883996117647066e-05,8.398163944151988e-05,-3.222892755779347e-05,5.9286,6.9286
0.296875,-0.00015770483361867698,6.786575326619374e-05,9.765164192721454e-05,-2.2466120627145728e-05,5.9286,6.9286
0.30078125,-0.0001381895836713206,6.347145375600832e-05,0.00010838865676813924,-1.2216209741359505e-05,5.9286,6.9286
0.3046875,-0.00013330818020599672,5.516995869077601e-05,9.813874588235302e-05,-1.4651729517051876e-05,5.9286,6.9286
0.30859375,-0.0001377024797161821,4.980145127031366e-05,7.128584486610216e-05,-2.3440328537422686e-05,5.9286,6.9286
0.3125,-0.00012403247723048746,5.2236971046006034e-05,5.468285473563753e-05,-2.8808835957885023e-05,5.9286,6.9286
0.31640625,-0.0001142593063859006,4.492004780498979e-05,6.64044414007783e-05,-2.5399108271915707e-05,5.9286,6.9286
0.3203125,-0.00011621808612039362,2.5384070029755178e-05,5.95642582009614e-05,-2.3440328537422686e-05,5.9286,6.9286
0.32421875,-0.00010742948710002282,2.2948550254062778e-05,4.735556758068216e-05,-2.2953224582284205e-05,5.9286,6.9286
0.328125,-9.473369252460511e-05,2.7342849764248198e-05,4.296126807049677e-05,-2.0020236937514227e-05,5.9286,6.9286
0.33203125,-9.131360092469665e-05,2.343565420920126e-05,3.0752577450217525e-05,-2.2466120627145728e-05,5.9286,6.9286
0.3359375,-9.570790043488206e-05,2.196397842984672e-05,3.173714927443359e-05,-3.321349938200954e-05,5.9286,6.9286
0.33984375,-9.668210834515901e-05,2.440986211947822e-05,2.782995371938668e-05,-4.3463410267795763e-05,5.9286,6.9286
0.34375,-9.131360092469665e-05,1.952845865415435e-05,3.0265473495079048e-05,-4.004331866788732e-05,5.9286,6.9286
0.34765625,-8.838061327992668e-05,1.8056782874799806e-05,3.514687696040292e-05,-2.8808835957885023e-05,5.9286,6.9286
0.3515625,-8.740640536964974e-05,1.904135469901587e-05,3.1239681405356006e-05,-2.2466120627145728e-05,5.9286,6.9286
0.35546875,-8.643219745937279e-05,1.6595471009384367e-05,3.0265473495079048e-05,-3.125471964751652e-05,5.9286,6.9286
0.359375,-7.764359843900198e-05,1.1714067544060497e-05,4.492004780498979e-05,-3.418770729228649e-05,5.9286,6.9286
0.36328125,-7.471061079423203e-05,-9.283222096589525e-06,3.56443448294805e-05,-3.222892755779347e-05,5.9286,6.9286
0.3671875,-7.227509101853964e-05,-2.2953224582284205e-05,1.756967891966133e-05,-4.24892023575188e-05,5.9286,6.9286
0.37109375,-6.44606999084458e-05,-1.8558925072098815e-05,2.5871173984893658e-05,-3.613612311284039e-05,5.9286,6.9286
0.375,-6.348649199816884e-05,-1.6123405296406416e-05,2.9778369539940567e-05,-3.271603151293195e-05,5.9286,6.9286
0.37890625,-6.298902412909127e-05,-1.9533132982375746e-05,3.3198461139849e-05,-3.467481124742497e-05,5.9286,6.9286
0.3828125,-6.0553504353398876e-05,-2.8808835957885023e-05,3.1239681405356006e-05,-3.662322706797887e-05,5.9286,6.9286
0.38671875,-5.8594724618905855e-05,-3.370060333714802e-05,1.904135469901587e-05,-4.004331866788732e-05,5.9286,6.9286
0.390625,-6.20148162188143e-05,-4.004331866788732e-05,-3.9147146761271755e-06,-3.711033102311735e-05,5.9286,6.9286
0.39453125,-6.104060830853736e-05,-3.125471964751652e-05,-2.3440328537422686e-05,-4.200209840238034e-05,5.9286,6.9286
0.3984375,-5.713341275349043e-05,-3.760779889219493e-05,-2.4912004316777226e-05,-5.0790697422751135e-05,5.9286,6.9286
0.40234375,-5.3713321153581985e-05,-2.637331618219265e-05,-2.4912004316777226e-05,-4.0530422623025795e-05,5.9286,6.9286
0.40625,-4.639639791256573e-05,-5.376026541542615e-06,-1.3190417651636465e-05,-3.076761569237804e-05,5.9286,6.9286
0.41015625,-3.809490284733341e-05,-3.1741823602655e-05,2.9254685236897157e-06,-2.4912004316777226e-05,5.9286,6.9286
0.4140625,-4.101752657816426e-05,-3.222892755779347e-05,-6.350234451819574e-06,-2.6860420137331118e-05,5.9286,6.9286
0.41796875,-4.3950514222934244e-05,9.666887891966951e-07,-1.4164625561913397e-05,-3.271603151293195e-05,5.9286,6.9286
0.421875,-4.24892023575188e-05,-4.94623076218744e-07,-1.2703313696497986e-05,-2.8321732002746556e-05,5.9286,6.9286
0.42578125,-4.443761817807271e-05,-3.516191520256345e-05,-2.3440328537422686e-05,-3.1741823602655e-05,5.9286,6.9286
0.4296875,-4.785770977798115e-05,-3.125471964751652e-05,-3.321349938200954e-05,-3.711033102311735e-05,5.9286,6.9286
0.43359375,-5.0293229553673536e-05,-1.8071821116960335e-05,-2.7834628047608076e-05,-4.492472213321119e-05,5.9286,6.9286
0.4375,-5.12778013778896e-05,-2.3440328537422686e-05,-2.6860420137331118e-05,-4.297630631265728e-05,5.9286,6.9286
0.44140625,-4.8344813733119634e-05,-1.7584717161821854e-05,-2.2466120627145728e-05,-2.8808835957885023e-05,5.9286,6.9286
0.4453125,-3.516191520256345e-05,-1.3190417651636465e-05,-1.8558925072098815e-05,-1.6123405296406416e-05,5.9286,6.9286
0.44921875,-2.8808835957885023e-05,-1.9533132982375746e-05,-2.2953224582284205e-05,-9.770326051728005e-06,5.9286,6.9286
0.453125,-3.418770729228649e-05,-4.004331866788732e-05,-1.9533132982375746e-05,-1.6123405296406416e-05,5.9286,6.9286
0.45703125,-4.8344813733119634e-05,-5.4200425108720465e-05,-3.222892755779347e-05,-2.2953224582284205e-05,5.9286,6.9286
0.4609375,-3.711033102311735e-05,-4.8831917688258114e-05,-3.321349938200954e-05,-1.5625937427328834e-05,5.9286,6.9286
0.46484375,-2.2953224582284205e-05,-4.980612559853506e-05,-2.0517704806591836e-05,-3.9147146761271755e-06,5.9286,6.9286
0.46875,-2.4912004316777226e-05,-5.5672100888075006e-05,-3.222892755779347e-05,-1.4688309864957034e-06,5.9286,6.9286
0.47265625,-2.0020236937514227e-05,-6.543490781872274e-05,-3.906911075761036e-05,-4.94623076218744e-07,5.9286,6.9286
0.4765625,-1.8558925072098815e-05,-6.836789546349272e-05,-3.516191520256345e-05,-9.770326051728005e-06,5.9286,6.9286
0.48046875,-3.076761569237804e-05,-8.740640536964974e-05,-5.273911324330504e-05,-1.0257430006866484e-05,5.9286,6.9286
0.484375,-3.321349938200954e-05,-0.00010303518758983741,-7.32492989288166e-05,-8.309014186312594e-06,5.9286,6.9286
0.48828125,-1.4651729517051876e-05,-9.815378412451355e-05,-7.959201425955589e-05,5.3609882993820856e-06,5.9286,6.9286
0.4921875,-9.817270313572236e-07,-9.27749127901121e-05,-8.106369003891043e-05,2.440986211947822e-05,5.9286,6.9286
0.49609375,-5.8631304966810944e-06,-0.0001313494004715037,-0.00010742948710002282,2.392275816433974e-05,5.9286,6.9286
0.5,-1.0257430006866484e-05,-0.00017577949952849616,-0.00013721537576104367,2.880416162966361e-05,5.9286,6.9286
0.50390625,2.4383645685512364e-06,-0.00017333361583886465,-0.0001377024797161821,4.931434731517518e-05,5.9286,6.9286
0.5078125,3.417266905012596e-05,-0.00014404519504692144,-0.00013721537576104367,7.03116369558252e-05,5.9286,6.9286
0.51171875,6.689154535591678e-05,-0.00017577949952849616,-0.0002011710886793316,5.8102946335545964e-05,5.9286,6.9286
0.515625,7.128584486610216e-05,-0.00023729969267109174,-0.00025390268280155637,5.95642582009614e-05,5.9286,6.9286
0.51953125,6.689154535591678e-05,-0.0002534155788464179,-0.00025927119022201874,8.837593895170528e-05,5.9286,6.9286
0.5234375,8.300743153124292e-05,-0.00024706249960173947,-0.0002626912818219272,9.765164192721454e-05,5.9286,6.9286
0.52734375,0.00010155883748226147,-0.00025829698231174175,-0.0002832014675074387,8.837593895170528e-05,5.9286,6.9286
0.53125,0.00011083454045777074,-0.0002836885714625772,-0.0003139615640787365,6.835285722133218e-05,5.9286,6.9286
0.53515625,0.0001328060380086977,-0.00026903399715266644,-0.00031054147247882804,5.028855522545214e-05,5.9286,6.9286
0.5390625,0.0001489219241840239,-0.0002578098783566033,-0.00030370128927901114,4.39354759807737e-05,5.9286,6.9286
0.54296875,0.00015380332764934775,-0.0002568356704463263,-0.00029687146999313337,3.2711357184710546e-05,5.9286,6.9286
0.546875,0.00016503781035935008,-0.00024754960355687794,-0.0002973585739482719,1.2201171499198978e-05,5.9286,6.9286
0.55078125,0.0001762619291554132,-0.0002377867966262302,-0.00030077866554818034,-1.0257430006866484e-05,5.9286,6.9286
0.5546875,0.0001791949168001832,-0.0002250910020508125,-0.00029100549470359346,-3.858200680247189e-05,5.9286,6.9286
0.55859375,0.00017333930542458238,-0.0002119081035202563,-0.0002729411927077134,-5.8594724618905855e-05,5.9286,6.9286
0.5625,0.00016844753804531938,-0.00019823810103456163,-0.0002622041778667887,-8.007911821469437e-05,5.9286,6.9286
0.56640625,0.0001762619291554132,-0.00018456809854886696,-0.00026073250208743414,-0.00010303518758983741,5.9286,6.9286
0.5703125,0.0001791949168001832,-0.0001445322990020599,-0.00022362969018539704,-0.00010742948710002282,5.9286,6.9286
0.57421875,0.00016698622617990395,-9.864088807965203e-05,-0.00018505520250400545,-0.0001098650068757152,5.9286,6.9286
0.578125,0.00015917183506981012,-8.057658608377196e-05,-0.00018066090299382004,-0.00012403247723048746,5.9286,6.9286
0.58203125,0.00014843482022888543,-8.106369003891043e-05,-0.00015234669011215376,-0.0001381895836713206,5.9286,6.9286
0.5859375,0.00013476481774319073,-6.20148162188143e-05,-0.00011524387821011666,-0.0001294009846509498,5.9286,6.9286
0.58984375,0.00012206902316777302,-2.2953224582284205e-05,-0.00010595781132066828,-0.00013037519256122674,5.9286,6.9286
0.59375,0.00011328042414740223,-1.6610509251544897e-05,-0.00010206097967956047,-0.00014404519504692144,5.9286,6.9286
0.59765625,0.00010155883748226147,-1.3190417651636465e-05,-8.155079399404891e-05,-0.00014991117033646135,5.9286,6.9286
0.6015625,8.250996366216534e-05,7.319768033875106e-06,-4.9319021643396595e-05,-0.00014600397478141446,5.9286,6.9286
0.60546875,7.7141456241703e-05,1.4159951233691998e-05,-4.8831917688258114e-05,-0.00013233397229571976,5.9286,6.9286
0.609375,6.689154535591678e-05,2.5384070029755178e-05,-5.762051670862891e-05,-0.00012109948958571748,5.9286,6.9286
0.61328125,4.832977549095912e-05,3.3198461139849e-05,-4.200209840238034e-05,-0.0001142593063859006,5.9286,6.9286
0.6171875,3.417266905012596e-05,2.1476874474708238e-05,-4.639639791256573e-05,-0.00011573098216525514,5.9286,6.9286
0.62109375,2.343565420920126e-05,2.2948550254062778e-05,-3.906911075761036e-05,-0.00011474641034103908,5.9286,6.9286
0.625,1.4159951233691998e-05,2.831705767452513e-05,-1.8071821116960335e-05,-0.0001054707073655298,5.9286,6.9286
0.62890625,1.464156658274277e-06,3.0265473495079048e-05,5.3609882993820856e-06,-0.00010107640785534439,5.9286,6.9286
0.6328125,-1.1231637917143444e-05,3.2711357184710546e-05,9.755287809567476e-06,-9.815378412451355e-05,5.9286,6.9286
0.63671875,-2.1004808761730286e-05,1.4159951233691998e-05,-3.4276107209886958e-06,-9.864088807965203e-05,5.9286,6.9286
0.640625,-2.7834628047608076e-05,1.8056782874799806e-05,3.899676433966647e-06,-9.668210834515901e-05,5.9286,6.9286
0.64453125,-2.1491912716868767e-05,1.7082574964522848e-05,6.832664078736627e-06,-9.522079647974358e-05,5.9286,6.9286
0.6484375,-2.4414536447699617e-05,1.952845865415435e-05,7.319768033875106e-06,-8.78935093247882e-05,5.9286,6.9286
0.65234375,-4.101752657816426e-05,4.63813596704052e-05,1.1226963588922018e-05,-7.959201425955589e-05,5.9286,6.9286
0.65625,-3.955621471274884e-05,4.686846362554368e-05,1.6108367054245887e-05,-8.349920981460282e-05,5.9286,6.9286
0.66015625,-3.760779889219493e-05,3.905407251544983e-05,4.873884344243606e-06,-7.519771474937051e-05,5.9286,6.9286
0.6640625,-4.200209840238034e-05,3.173714927443359e-05,1.7082574964522848e-05,-5.8594724618905855e-05,5.9286,6.9286
0.66796875,-4.443761817807271e-05,3.2711357184710546e-05,2.5384070029755178e-05,-5.273911324330504e-05,5.9286,6.9286
0.671875,-4.297630631265728e-05,3.2711357184710546e-05,2.4896966074616697e-05,-5.3226217198443504e-05,5.9286,6.9286
0.67578125,-4.24892023575188e-05,2.1476874474708238e-05,2.0502666564431307e-05,-6.44606999084458e-05,5.9286,6.9286
0.6796875,-4.8344813733119634e-05,8.293975944152067e-06,1.8554250743877388e-05,-6.934210337376967e-05,5.9286,6.9286
0.68359375,-4.9319021643396595e-05,4.873884344243606e-06,1.1226963588922018e-05,-6.397359595330732e-05,5.9286,6.9286
0.6875,-4.7370605822842686e-05,3.4125724788281954e-06,1.464156658274277e-06,-5.713341275349043e-05,5.9286,6.9286
0.69140625,-5.468752906385893e-05,-1.5625937427328834e-05,1.3175379409475937e-05,-6.0066400398260395e-05,5.9286,6.9286
0.6953125,-5.909219248798345e-05,-6.350234451819574e-06,2.5871173984893658e-05,-6.250192017395278e-05,5.9286,6.9286
0.69921875,-6.348649199816884e-05,2.2948550254062778e-05,3.661855273975746e-05,-5.4200425108720465e-05,5.9286,6.9286
0.703125,-5.8594724618905855e-05,2.24510823849852e-05,3.1239681405356006e-05,-5.4200425108720465e-05,5.9286,6.9286
0.70703125,-5.664630879835195e-05,4.795848340582154e-07,1.5621263099107437e-05,-6.0066400398260395e-05,5.9286,6.9286
0.7109375,-5.176490533302808e-05,-4.94623076218744e-07,1.5134159143968958e-05,-5.176490533302808e-05,5.9286,6.9286
0.71484375,-4.150463053330274e-05,1.2201171499198978e-05,1.2688275454337456e-05,-3.467481124742497e-05,5.9286,6.9286
0.71875,-3.711033102311735e-05,9.268183854428997e-06,7.806871989013586e-06,-3.321349938200954e-05,5.9286,6.9286
0.72265625,-3.516191520256345e-05,5.858456168459668e-06,-4.94623076218744e-07,-3.222892755779347e-05,5.9286,6.9286
0.7265625,-4.3463410267795763e-05,8.293975944152067e-06,-7.519121080264313e-09,-2.73475240924696e-05,5.9286,6.9286
0.73046875,-4.589893004348813e-05,-4.888922586404135e-06,-1.9559349416341547e-06,-3.613612311284039e-05,5.9286,6.9286
0.734375,-3.613612311284039e-05,-5.8631304966810944e-06,-9.817270313572236e-07,-3.613612311284039e-05,5.9286,6.9286
0.73828125,-3.222892755779347e-05,6.832664078736627e-06,4.795848340582154e-07,-3.125471964751652e-05,5.9286,6.9286
0.7421875,-4.150463053330274e-05,1.4647055188830477e-05,-3.4276107209886958e-06,-3.467481124742497e-05,5.9286,6.9286
0.74609375,-4.200209840238034e-05,2.6358277940032108e-05,-4.94623076218744e-07,-2.637331618219265e-05,5.9286,6.9286
0.75,-3.564901915770191e-05,2.196397842984672e-05,-8.309014186312594e-06,-2.8808835957885023e-05,5.9286,6.9286
0.75390625,-3.370060333714802e-05,3.173714927443359e-05,-1.3677521606774945e-05,-3.516191520256345e-05,5.9286,6.9286
0.7578125,-3.418770729228649e-05,3.3198461139849e-05,1.4647055188830477e-05,-3.858200680247189e-05,5.9286,6.9286
0.76171875,-3.858200680247189e-05,1.6595471009384367e-05,3.514687696040292e-05,-3.809490284733341e-05,5.9286,6.9286
0.765625,-3.711033102311735e-05,2.0015562609292827e-05,-1.0744533962004965e-05,-4.589893004348813e-05,5.9286,6.9286
0.76953125,-3.418770729228649e-05,2.0015562609292827e-05,-4.639639791256573e-05,-4.589893004348813e-05,5.9286,6.9286
0.7734375,-4.3463410267795763e-05,-1.4651729517051876e-05,-3.906911075761036e-05,-3.906911075761036e-05,5.9286,6.9286
0.77734375,-4.492472213321119e-05,-2.1979016672007248e-05,-3.809490284733341e-05,-4.150463053330274e-05,5.9286,6.9286
0.78125,-4.101752657816426e-05,9.666887891966951e-07,-3.370060333714802e-05,-3.1741823602655e-05,5.9286,6.9286
0.78515625,-4.200209840238034e-05,-1.2703313696497986e-05,-5.0293229553673536e-05,-3.906911075761036e-05,5.9286,6.9286
0.7890625,-4.24892023575188e-05,-2.0517704806591836e-05,-6.836789546349272e-05,-4.7370605822842686e-05,5.9286,6.9286
0.79296875,-3.760779889219493e-05,-2.637331618219265e-05,-5.3713321153581985e-05,-4.200209840238034e-05,5.9286,6.9286
0.796875,-3.467481124742497e-05,-2.1979016672007248e-05,-4.688350186770421e-05,-3.760779889219493e-05,5.9286,6.9286
0.80078125,-2.4912004316777226e-05,-1.8071821116960335e-05,-5.0293229553673536e-05,-2.637331618219265e-05,5.9286,6.9286
0.8046875,-7.324442362096505e-06,-2.637331618219265e-05,-5.3226217198443504e-05,-2.2466120627145728e-05,5.9286,6.9286
0.80859375,-3.9147146761271755e-06,-3.516191520256345e-05,-5.909219248798345e-05,-3.613612311284039e-05,5.9286,6.9286
0.8125,-3.9147146761271755e-06,-3.662322706797887e-05,-6.543490781872274e-05,-3.858200680247189e-05,5.9286,6.9286
0.81640625,3.899676433966647e-06,-4.639639791256573e-05,-7.32492989288166e-05,-5.5672100888075006e-05,5.9286,6.9286
0.8203125,2.1476874474708238e-05,-6.44606999084458e-05,-9.424658856946663e-05,-5.762051670862891e-05,5.9286,6.9286
0.82421875,4.344837202563525e-05,-6.44606999084458e-05,-9.228780883497361e-05,-2.5399108271915707e-05,5.9286,6.9286
0.828125,5.712873842526903e-05,-8.057658608377196e-05,-0.00010303518758983741,-3.076761569237804e-05,5.9286,6.9286
0.83203125,6.932706513160914e-05,-9.619500439002053e-05,-0.00013086229651636523,-3.760779889219493e-05,5.9286,6.9286
0.8359375,9.325734241702914e-05,-0.00010449649945525286,-0.00013916379158159756,-2.4912004316777226e-05,5.9286,6.9286
0.83984375,0.00010009752561684604,-0.00013330818020599672,-0.0001528337940672922,-2.2466120627145728e-05,5.9286,6.9286
0.84375,0.0001069273449027238,-0.00014649107873655293,-0.00017089809606317228,-2.0020236937514227e-05,5.9286,6.9286
0.84765625,0.00013866164938429858,-0.0001704006281940947,-0.00020800090796520935,-3.1741823602655e-05,5.9286,6.9286
0.8515625,0.0001645507064042116,-0.00019384380152437622,-0.00025585109862211023,-4.5411826088349665e-05,5.9286,6.9286
0.85546875,0.00017431351333485934,-0.0002050679203204394,-0.0002641525936873426,-4.3463410267795763e-05,5.9286,6.9286
0.859375,0.0001860351000000001,-0.0002011710886793316,-0.00024608829169146253,-4.200209840238034e-05,5.9286,6.9286
0.86328125,0.00018456342422064557,-0.00019823810103456163,-0.00025633820257724876,-3.418770729228649e-05,5.9286,6.9286
0.8671875,0.0001787078128450447,-0.0002158152990753032,-0.00027147988084229795,-3.370060333714802e-05,5.9286,6.9286
0.87109375,0.0001728418375555048,-0.0001967767891691462,-0.0002314440812954909,-4.492472213321119e-05,5.9286,6.9286
0.875,0.00015965893902494861,-0.0001591765093980315,-0.00020067362081025401,-5.225200928816656e-05,5.9286,6.9286
0.87890625,0.00014306631280842303,-0.00014843949455710682,-0.00018602941041428238,-4.9319021643396595e-05,5.9286,6.9286
0.8828125,0.0001225561271229115,-0.00014404519504692144,-0.00017626660348363463,-5.5672100888075006e-05,5.9286,6.9286
0.88671875,0.00010790155281300076,-0.00010303518758983741,-0.0001381895836713206,-6.788079150835424e-05,5.9286,6.9286
0.890625,8.78888349965668e-05,-4.8831917688258114e-05,-9.668210834515901e-05,-5.8594724618905855e-05,5.9286,6.9286
0.89453125,5.8102946335545964e-05,-5.273911324330504e-05,-9.473369252460511e-05,-5.0790697422751135e-05,5.9286,6.9286
0.8984375,2.831705767452513e-05,-5.3713321153581985e-05,-6.982920732890815e-05,-5.3226217198443504e-05,5.9286,6.9286
0.90234375,1.1714067544060497e-05,-2.637331618219265e-05,-5.3226217198443504e-05,-5.6159204843213486e-05,5.9286,6.9286
0.90625,-1.4688309864957034e-06,-1.2216209741359505e-05,-3.906911075761036e-05,-6.152771226367584e-05,5.9286,6.9286
0.91015625,-1.5625937427328834e-05,1.4647055188830477e-05,-1.5625937427328834e-05,-5.8107620663767375e-05,5.9286,6.9286
0.9140625,-3.0280511737239564e-05,2.7342849764248198e-05,-2.930142851911114e-06,-5.273911324330504e-05,5.9286,6.9286
0.91796875,-4.9319021643396595e-05,1.6108367054245887e-05,1.4159951233691998e-05,-5.762051670862891e-05,5.9286,6.9286
0.921875,-6.738332363927665e-05,3.368556509498748e-05,2.831705767452513e-05,-6.0066400398260395e-05,5.9286,6.9286
0.92578125,-7.910491030441741e-05,3.56443448294805e-05,2.929126558480209e-05,-4.8344813733119634e-05,5.9286,6.9286
0.9296875,-7.519771474937051e-05,2.343565420920126e-05,3.2711357184710546e-05,-5.6159204843213486e-05,5.9286,6.9286
0.93359375,-8.691930141451127e-05,4.39354759807737e-05,4.344837202563525e-05,-6.0553504353398876e-05,5.9286,6.9286
0.9375,-0.00010937790292057672,5.516995869077601e-05,4.39354759807737e-05,-4.980612559853506e-05,5.9286,6.9286
0.94140625,-0.00010742948710002282,6.1025570066376814e-05,4.8827243360036704e-05,-4.0530422623025795e-05,5.9286,6.9286
0.9453125,-0.00010498360341039134,5.95642582009614e-05,5.3708646825360574e-05,-3.809490284733341e-05,5.9286,6.9286
0.94921875,-0.0001079165910551613,7.568014437628756e-05,5.7615842380407484e-05,-4.101752657816426e-05,5.9286,6.9286
0.953125,-0.00010645527918974588,7.811566415197995e-05,5.6631270556191424e-05,-3.564901915770191e-05,5.9286,6.9286
0.95703125,-0.0001098650068757152,7.03116369558252e-05,6.152303793545442e-05,-4.101752657816426e-05,5.9286,6.9286
0.9609375,-0.0001142593063859006,6.493276562142376e-05,7.665435228656452e-05,-4.3463410267795763e-05,5.9286,6.9286
0.96484375,-0.00011767939798580905,4.443294384985131e-05,7.079874091096368e-05,-4.200209840238034e-05,5.9286,6.9286
0.96875,-0.0001230479054062714,4.443294384985131e-05,5.565706264591449e-05,-4.9319021643396595e-05,5.9286,6.9286
0.97265625,-0.00011621808612039362,7.079874091096368e-05,6.053846611123836e-05,-4.101752657816426e-05,5.9286,6.9286
0.9765625,-0.00011474641034103908,5.3221542870222094e-05,5.3708646825360574e-05,-3.906911075761036e-05,5.9286,6.9286
0.98046875,-0.0001142593063859006,3.3198461139849e-05,3.710565669489594e-05,-4.3463410267795763e-05,5.9286,6.9286
0.984375,-0.00010498360341039134,5.468285473563753e-05,4.8827243360036704e-05,-3.711033102311735e-05,5.9286,6.9286
0.98828125,-9.961509598992898e-05,5.6631270556191424e-05,5.028855522545214e-05,-3.125471964751652e-05,5.9286,6.9286
0.9921875,-0.0001035222915449759,4.8827243360036704e-05,4.980145127031366e-05,-2.7834628047608076e-05,5.9286,6.9286
0.99609375,-0.00010595781132066828,4.980145127031366e-05,5.8590050290684445e-05,-1.9046029027237266e-05,5.9286,6.9286
1.0,-9.668210834515901e-05,4.832977549095912e-05,5.3221542870222094e-05,-2.3440328537422686e-05,5.9286,6.9286
1.00390625,-9.570790043488206e-05,3.465977300526444e-05,5.712873842526903e-05,-3.0280511737239564e-05,5.9286,6.9286
1.0078125,-9.912799203479051e-05,2.5384070029755178e-05,6.053846611123836e-05,-2.4912004316777226e-05,5.9286,6.9286
1.01171875,-9.961509598992898e-05,3.710565669489594e-05,4.686846362554368e-05,-2.7834628047608076e-05,5.9286,6.9286
1.015625,-9.765631625543596e-05,4.589425571526672e-05,5.6144166601052943e-05,-3.418770729228649e-05,5.9286,6.9286
1.01953125,-8.838061327992668e-05,3.80798646051729e-05,6.493276562142376e-05,-3.760779889219493e-05,5.9286,6.9286
1.0234375,-8.691930141451127e-05,1.6595471009384367e-05,4.980145127031366e-05,-4.443761817807271e-05,5.9286,6.9286
1.02734375,-9.815378412451355e-05,-7.821910231174115e-06,3.3198461139849e-05,-4.004331866788732e-05,5.9286,6.9286
1.03125,-9.961509598992898e-05,6.832664078736627e-06,3.0752577450217525e-05,-2.1491912716868767e-05,5.9286,6.9286
1.03515625,-9.619500439002053e-05,1.7082574964522848e-05,4.052574829480437e-05,-1.1729105786221026e-05,5.9286,6.9286
1.0390625,-8.886771723506516e-05,8.293975944152067e-06,4.296126807049677e-05,-1.4164625561913397e-05,5.9286,6.9286
1.04296875,-8.106369003891043e-05,6.832664078736627e-06,4.589425571526672e-05,-1.8558925072098815e-05,5.9286,6.9286
1.046875,-7.666939052872505e-05,4.795848340582154e-07,5.272407500114451e-05,-1.9533132982375746e-05,5.9286,6.9286
1.05078125,-7.227509101853964e-05,-2.0020236937514227e-05,4.344837202563525e-05,-1.6610509251544897e-05,5.9286,6.9286
1.0546875,-7.129051919432358e-05,-2.2466120627145728e-05,3.80798646051729e-05,-1.8558925072098815e-05,5.9286,6.9286
1.05859375,-7.959201425955589e-05,-6.350234451819574e-06,4.296126807049677e-05,-1.8071821116960335e-05,5.9286,6.9286
1.0625,-7.813070239414046e-05,-1.5138833472190355e-05,4.296126807049677e-05,-1.2703313696497986e-05,5.9286,6.9286
1.06640625,-6.689621968413817e-05,-3.564901915770191e-05,3.368556509498748e-05,-8.309014186312594e-06,5.9286,6.9286
1.0703125,-6.64091157289997e-05,-5.4200425108720465e-05,5.3609882993820856e-06,-2.1979016672007248e-05,5.9286,6.9286
1.07421875,-6.982920732890815e-05,-3.760779889219493e-05,1.0739859633783538e-05,-1.6610509251544897e-05,5.9286,6.9286
1.078125,-6.738332363927665e-05,-1.3190417651636465e-05,4.39354759807737e-05,-5.376026541542615e-06,5.9286,6.9286
1.08203125,-5.0790697422751135e-05,-2.7834628047608076e-05,5.077565918059059e-05,-1.2703313696497986e-05,5.9286,6.9286
1.0859375,-5.0293229553673536e-05,-3.564901915770191e-05,3.2711357184710546e-05,-1.4164625561913397e-05,5.9286,6.9286
1.08984375,-6.494780386358429e-05,-4.24892023575188e-05,1.904135469901587e-05,-2.1491912716868767e-05,5.9286,6.9286
1.09375,-6.250192017395278e-05,-4.7370605822842686e-05,2.9778369539940567e-05,-2.8808835957885023e-05,5.9286,6.9286
1.09765625,-6.104060830853736e-05,-4.101752657816426e-05,2.24510823849852e-05,-2.930630382696262e-05,5.9286,6.9286
1.1015625,-6.543490781872274e-05,-3.516191520256345e-05,2.440986211947822e-05,-4.3950514222934244e-05,5.9286,6.9286
1.10546875,-6.592201177386122e-05,-3.321349938200954e-05,3.1239681405356006e-05,-5.176490533302808e-05,5.9286,6.9286
1.109375,-6.20148162188143e-05,-3.125471964751652e-05,2.929126558480209e-05,-1.4164625561913397e-05,5.9286,6.9286
1.11328125,-5.762051670862891e-05,-2.6860420137331118e-05,2.6358277940032108e-05,-5.376026541542615e-06,5.9286,6.9286
1.1171875,-7.129051919432358e-05,-4.401818631265655e-06,2.880416162966361e-05,-2.930630382696262e-05,5.9286,6.9286
1.12109375,-7.519771474937051e-05,2.6358277940032108e-05,4.247416411535829e-05,-1.5625937427328834e-05,5.9286,6.9286
1.125,-6.397359595330732e-05,2.5384070029755178e-05,4.39354759807737e-05,4.795848340582154e-07,5.9286,6.9286
1.12890625,-4.8831917688258114e-05,1.8554250743877388e-05,3.514687696040292e-05,7.806871989013586e-06,5.9286,6.9286
1.1328125,-4.5411826088349665e-05,-8.796118141451046e-06,4.795848340582154e-07,-7.519121080264313e-09,5.9286,6.9286
1.13671875,-4.8344813733119634e-05,-3.1741823602655e-05,-2.637331618219265e-05,-6.837338406958025e-06,5.9286,6.9286
1.140625,-5.3713321153581985e-05,-5.176490533302808e-05,-3.564901915770191e-05,-9.817270313572236e-07,5.9286,6.9286
1.14453125,-6.20148162188143e-05,-6.64091157289997e-05,-5.0293229553673536e-05,2.4383645685512364e-06,5.9286,6.9286
1.1484375,-6.836789546349272e-05,-5.468752906385893e-05,-6.592201177386122e-05,-2.3927432492561166e-05,5.9286,6.9286
1.15234375,-6.348649199816884e-05,-7.471061079423203e-05,-7.471061079423203e-05,-4.980612559853506e-05,5.9286,6.9286
1.15625,-6.689621968413817e-05,-7.617192265964744e-05,-6.0553504353398876e-05,-2.5399108271915707e-05,5.9286,6.9286
1.16015625,-8.106369003891043e-05,-4.8344813733119634e-05,-6.0066400398260395e-05,-1.8558925072098815e-05,5.9286,6.9286
1.1640625,-7.129051919432358e-05,-3.1741823602655e-05,-6.934210337376967e-05,-2.2466120627145728e-05,5.9286,6.9286
1.16796875,-6.20148162188143e-05,-2.0517704806591836e-05,-5.713341275349043e-05,-1.2703313696497986e-05,5.9286,6.9286
1.171875,-6.934210337376967e-05,-8.796118141451046e-06,-5.664630879835195e-05,-1.4651729517051876e-05,5.9286,6.9286
1.17578125,-7.422350683909355e-05,-7.324442362096505e-06,-5.957929644312193e-05,-2.2466120627145728e-05,5.9286,6.9286
1.1796875,-7.031631128404662e-05,-4.401818631265655e-06,-4.200209840238034e-05,-2.1979016672007248e-05,5.9286,6.9286
1.18359375,-6.592201177386122e-05,-1.7097613206683377e-05,-4.3463410267795763e-05,-2.0020236937514227e-05,5.9286,6.9286
1.1875,-6.44606999084458e-05,-2.9793407782101096e-05,-6.250192017395278e-05,-1.4651729517051876e-05,5.9286,6.9286
1.19140625,-6.0553504353398876e-05,-7.324442362096505e-06,-6.494780386358429e-05,-1.3677521606774945e-05,5.9286,6.9286
1.1953125,-5.664630879835195e-05,-3.9147146761271755e-06,-5.664630879835195e-05,-2.1004808761730286e-05,5.9286,6.9286
1.19921875,-5.12778013778896e-05,-6.837338406958025e-06,-4.3463410267795763e-05,-1.6610509251544897e-05,5.9286,6.9286
1.203125,-5.664630879835195e-05,1.4647055188830477e-05,-2.3927432492561166e-05,-1.1729105786221026e-05,5.9286,6.9286
1.20703125,-6.934210337376967e-05,-6.837338406958025e-06,-4.3950514222934244e-05,-3.370060333714802e-05,5.9286,6.9286
1.2109375,-6.885499941863119e-05,-4.0530422623025795e-05,-7.32492989288166e-05,-3.418770729228649e-05,5.9286,6.9286
1.21484375,-6.0553504353398876e-05,-2.2953224582284205e-05,-6.738332363927665e-05,-2.1979016672007248e-05,5.9286,6.9286
1.21875,-4.639639791256573e-05,-2.8808835957885023e-05,-5.762051670862891e-05,-2.1491912716868767e-05,5.9286,6.9286
1.22265625,-4.200209840238034e-05,-4.5411826088349665e-05,-5.909219248798345e-05,-1.1729105786221026e-05,5.9286,6.9286
1.2265625,-5.225200928816656e-05,-2.8321732002746556e-05,-5.0293229553673536e-05,2.4383645685512364e-06,5.9286,6.9286
1.23046875,-5.0293229553673536e-05,-1.3677521606774945e-05,-3.662322706797887e-05,3.4125724788281954e-06,5.9286,6.9286
1.234375,-4.200209840238034e-05,-2.73475240924696e-05,-5.225200928816656e-05,-1.3677521606774945e-05,5.9286,6.9286
1.23828125,-4.200209840238034e-05,-3.467481124742497e-05,-6.348649199816884e-05,-1.7097613206683377e-05,5.9286,6.9286
1.2421875,-3.906911075761036e-05,-4.297630631265728e-05,-6.0553504353398876e-05,-2.1491912716868767e-05,5.9286,6.9286
1.24609375,-3.125471964751652e-05,-4.297630631265728e-05,-4.639639791256573e-05,-2.4912004316777226e-05,5.9286,6.9286
1.25,-3.711033102311735e-05,-4.785770977798115e-05,-6.397359595330732e-05,-2.7834628047608076e-05,5.9286,6.9286
1.25390625,-4.004331866788732e-05,-6.689621968413817e-05,-8.203789794918739e-05,-2.1979016672007248e-05,5.9286,6.9286
1.2578125,-4.3463410267795763e-05,-5.664630879835195e-05,-6.885499941863119e-05,-1.7584717161821854e-05,5.9286,6.9286
1.26171875,-5.5672100888075006e-05,-5.8594724618905855e-05,-6.250192017395278e-05,-2.5886212227054174e-05,5.9286,6.9286
1.265625,-5.762051670862891e-05,-6.836789546349272e-05,-6.348649199816884e-05,-1.7584717161821854e-05,5.9286,6.9286
1.26953125,-5.762051670862891e-05,-6.298902412909127e-05,-6.494780386358429e-05,-1.8558925072098815e-05,5.9286,6.9286
1.2734375,-5.5184996932936525e-05,-4.297630631265728e-05,-5.6159204843213486e-05,-2.637331618219265e-05,5.9286,6.9286
1.27734375,-5.3226217198443504e-05,-4.7370605822842686e-05,-6.836789546349272e-05,-3.321349938200954e-05,5.9286,6.9286
1.28125,-5.273911324330504e-05,-6.836789546349272e-05,-7.666939052872505e-05,-3.809490284733341e-05,5.9286,6.9286
1.28515625,-4.9319021643396595e-05,-6.104060830853736e-05,-6.592201177386122e-05,-2.930630382696262e-05,5.9286,6.9286
1.2890625,-3.662322706797887e-05,-6.20148162188143e-05,-6.836789546349272e-05,-2.4912004316777226e-05,5.9286,6.9286
1.29296875,-3.711033102311735e-05,-5.0790697422751135e-05,-6.689621968413817e-05,-1.8558925072098815e-05,5.9286,6.9286
1.296875,-4.639639791256573e-05,-5.3226217198443504e-05,-5.5672100888075006e-05,-2.2953224582284205e-05,5.9286,6.9286
1.30078125,-3.809490284733341e-05,-4.589893004348813e-05,-5.0790697422751135e-05,-2.8321732002746556e-05,5.9286,6.9286
1.3046875,-3.321349938200954e-05,-4.24892023575188e-05,-6.348649199816884e-05,-2.4912004316777226e-05,5.9286,6.9286
1.30859375,-4.688350186770421e-05,-6.152771226367584e-05,-7.422350683909355e-05,-2.6860420137331118e-05,5.9286,6.9286
1.3125,-6.0066400398260395e-05,-6.250192017395278e-05,-8.301210585946434e-05,-3.662322706797887e-05,5.9286,6.9286
1.31640625,-5.3226217198443504e-05,-4.7370605822842686e-05,-8.106369003891043e-05,-4.200209840238034e-05,5.9286,6.9286
1.3203125,-3.760779889219493e-05,-4.004331866788732e-05,-6.64091157289997e-05,-3.222892755779347e-05,5.9286,6.9286
1.32421875,-3.711033102311735e-05,-5.3713321153581985e-05,-7.031631128404662e-05,-2.637331618219265e-05,5.9286,6.9286
1.328125,-4.688350186770421e-05,-5.3713321153581985e-05,-7.568481870450896e-05,-2.0020236937514227e-05,5.9286,6.9286
1.33203125,-4.8344813733119634e-05,-4.3950514222934244e-05,-6.250192017395278e-05,-6.350234451819574e-06,5.9286,6.9286
1.3359375,-4.297630631265728e-05,-4.5411826088349665e-05,-4.980612559853506e-05,-5.8631304966810944e-06,5.9286,6.9286
1.33984375,-3.809490284733341e-05,-5.909219248798345e-05,-6.397359595330732e-05,-2.3927432492561166e-05,5.9286,6.9286
1.34375,-4.101752657816426e-05,-6.494780386358429e-05,-8.252500190432586e-05,-2.8808835957885023e-05,5.9286,6.9286
1.34765625,-4.589893004348813e-05,-4.589893004348813e-05,-7.031631128404662e-05,-2.637331618219265e-05,5.9286,6.9286
1.3515625,-5.273911324330504e-05,-5.957929644312193e-05,-6.104060830853736e-05,-2.7834628047608076e-05,5.9286,6.9286
1.35546875,-5.6159204843213486e-05,-6.64091157289997e-05,-6.592201177386122e-05,-1.9533132982375746e-05,5.9286,6.9286
1.359375,-5.468752906385893e-05,-6.0066400398260395e-05,-7.373640288395507e-05,-2.2953224582284205e-05,5.9286,6.9286
1.36328125,-5.3713321153581985e-05,-5.5184996932936525e-05,-6.788079150835424e-05,-2.2466120627145728e-05,5.9286,6.9286
1.3671875,-4.101752657816426e-05,-5.468752906385893e-05,-6.0066400398260395e-05,-1.5625937427328834e-05,5.9286,6.9286
1.37109375,-4.3950514222934244e-05,-6.689621968413817e-05,-6.20148162188143e-05,-2.0020236937514227e-05,5.9286,6.9286
1.375,-5.0790697422751135e-05,-6.689621968413817e-05,-6.494780386358429e-05,-1.7097613206683377e-05,5.9286,6.9286
1.37890625,-3.564901915770191e-05,-5.5184996932936525e-05,-4.8831917688258114e-05,-1.6610509251544897e-05,5.9286,6.9286
1.3828125,-3.321349938200954e-05,-5.762051670862891e-05,-4.0530422623025795e-05,-3.516191520256345e-05,5.9286,6.9286
1.38671875,-3.711033102311735e-05,-6.397359595330732e-05,-6.20148162188143e-05,-4.24892023575188e-05,5.9286,6.9286
1.390625,-2.4912004316777226e-05,-5.12778013778896e-05,-5.0293229553673536e-05,-3.321349938200954e-05,5.9286,6.9286
1.39453125,-1.8071821116960335e-05,-3.858200680247189e-05,-4.492472213321119e-05,-3.858200680247189e-05,5.9286,6.9286
1.3984375,-3.1741823602655e-05,-4.150463053330274e-05,-4.589893004348813e-05,-3.760779889219493e-05,5.9286,6.9286
1.40234375,-3.955621471274884e-05,-3.955621471274884e-05,-3.370060333714802e-05,-2.4912004316777226e-05,5.9286,6.9286
1.40625,-3.418770729228649e-05,-4.785770977798115e-05,-4.0530422623025795e-05,-3.321349938200954e-05,5.9286,6.9286
1.41015625,-3.467481124742497e-05,-6.494780386358429e-05,-4.8831917688258114e-05,-4.101752657816426e-05,5.9286,6.9286
1.4140625,-3.711033102311735e-05,-5.12778013778896e-05,-5.0293229553673536e-05,-3.662322706797887e-05,5.9286,6.9286
1.41796875,-2.930630382696262e-05,-5.3226217198443504e-05,-5.273911324330504e-05,-3.1741823602655e-05,5.9286,6.9286
1.421875,-3.858200680247189e-05,-5.957929644312193e-05,-4.150463053330274e-05,-2.5399108271915707e-05,5.9286,6.9286
1.42578125,-5.0790697422751135e-05,-4.9319021643396595e-05,-3.711033102311735e-05,-2.5886212227054174e-05,5.9286,6.9286
1.4296875,-3.662322706797887e-05,-5.762051670862891e-05,-5.909219248798345e-05,-3.222892755779347e-05,5.9286,6.9286
1.43359375,-3.564901915770191e-05,-4.8831917688258114e-05,-5.664630879835195e-05,-4.0530422623025795e-05,5.9286,6.9286
1.4375,-3.955621471274884e-05,-3.1741823602655e-05,-3.564901915770191e-05,-4.688350186770421e-05,5.9286,6.9286
1.44140625,-3.564901915770191e-05,-3.809490284733341e-05,-4.639639791256573e-05,-4.0530422623025795e-05,5.9286,6.9286
1.4453125,-4.3950514222934244e-05,-4.8831917688258114e-05,-5.5184996932936525e-05,-2.7834628047608076e-05,5.9286,6.9286
1.44921875,-3.760779889219493e-05,-4.589893004348813e-05,-5.225200928816656e-05,-2.8808835957885023e-05,5.9286,6.9286
1.453125,-2.73475240924696e-05,-4.0530422623025795e-05,-4.492472213321119e-05,-2.9793407782101096e-05,5.9286,6.9286
1.45703125,-3.0280511737239564e-05,-2.8321732002746556e-05,-2.4414536447699617e-05,-2.9793407782101096e-05,5.9286,6.9286
1.4609375,-2.6860420137331118e-05,-3.271603151293195e-05,-4.200209840238034e-05,-2.9793407782101096e-05,5.9286,6.9286
1.46484375,-1.8558925072098815e-05,-5.3713321153581985e-05,-4.785770977798115e-05,-2.73475240924696e-05,5.9286,6.9286
1.46875,-2.1004808761730286e-05,-5.0293229553673536e-05,-4.150463053330274e-05,-3.467481124742497e-05,5.9286,6.9286
1.47265625,-2.3927432492561166e-05,-3.1741823602655e-05,-4.24892023575188e-05,-3.222892755779347e-05,5.9286,6.9286
1.4765625,-3.858200680247189e-05,-2.930142851911114e-06,-2.637331618219265e-05,-2.8321732002746556e-05,5.9286,6.9286
1.48046875,-5.12778013778896e-05,-1.3190417651636465e-05,-2.1491912716868767e-05,-2.6860420137331118e-05,5.9286,6.9286
1.484375,-3.418770729228649e-05,-4.3463410267795763e-05,-3.467481124742497e-05,-2.8321732002746556e-05,5.9286,6.9286
1.48828125,-3.467481124742497e-05,-3.125471964751652e-05,-2.5399108271915707e-05,-2.73475240924696e-05,5.9286,6.9286
1.4921875,-3.809490284733341e-05,-3.662322706797887e-05,-3.906911075761036e-05,-2.2466120627145728e-05,5.9286,6.9286
1.49609375,-2.3927432492561166e-05,-3.271603151293195e-05,-5.762051670862891e-05,-2.0020236937514227e-05,5.9286,6.9286
1.5,-3.516191520256345e-05,-2.8321732002746556e-05,-4.492472213321119e-05,-2.6860420137331118e-05,5.9286,6.9286
1.50390625,-4.589893004348813e-05,-3.760779889219493e-05,-3.809490284733341e-05,-3.858200680247189e-05,5.9286,6.9286
1.5078125,-3.1741823602655e-05,-3.125471964751652e-05,-4.200209840238034e-05,-3.760779889219493e-05,5.9286,6.9286
1.51171875,-1.9046029027237266e-05,-2.6860420137331118e-05,-5.0293229553673536e-05,-2.2953224582284205e-05,5.9286,6.9286
1.515625,-1.4688309864957034e-06,-2.8808835957885023e-05,-6.836789546349272e-05,-2.1491912716868767e-05,5.9286,6.9286
1.51953125,-1.3190417651636465e-05,-3.516191520256345e-05,-9.522079647974358e-05,-3.662322706797887e-05,5.9286,6.9286
1.5234375,-4.492472213321119e-05,-3.955621471274884e-05,-9.082649696955817e-05,-3.662322706797887e-05,5.9286,6.9286
1.52734375,-3.418770729228649e-05,-2.4414536447699617e-05,-6.250192017395278e-05,-1.9533132982375746e-05,5.9286,6.9286
1.53125,-2.1491912716868767e-05,-6.20148162188143e-05,-3.760779889219493e-05,-1.2216209741359505e-05,5.9286,6.9286
1.53515625,-2.4912004316777226e-05,-7.519771474937051e-05,-2.5886212227054174e-05,-2.6860420137331118e-05,5.9286,6.9286
1.5390625,-3.076761569237804e-05,-4.5411826088349665e-05,-4.980612559853506e-05,-4.492472213321119e-05,5.9286,6.9286
1.54296875,-3.809490284733341e-05,-3.711033102311735e-05,-6.0553504353398876e-05,-3.711033102311735e-05,5.9286,6.9286
1.546875,-3.662322706797887e-05,-2.930630382696262e-05,-4.7370605822842686e-05,-3.906911075761036e-05,5.9286,6.9286
1.55078125,-3.662322706797887e-05,-1.0744533962004965e-05,-4.200209840238034e-05,-3.662322706797887e-05,5.9286,6.9286
1.5546875,-4.101752657816426e-05,8.781079899290546e-06,-2.73475240924696e-05,-2.4414536447699617e-05,5.9286,6.9286
1.55859375,-2.8321732002746556e-05,-4.3950514222934244e-05,-3.076761569237804e-05,-2.7834628047608076e-05,5.9286,6.9286
1.5625,-2.4912004316777226e-05,-5.468752906385893e-05,-5.6159204843213486e-05,-3.564901915770191e-05,5.9286,6.9286
1.56640625,-3.516191520256345e-05,-3.370060333714802e-05,-4.492472213321119e-05,-3.321349938200954e-05,5.9286,6.9286
1.5703125,-3.321349938200954e-05,-4.688350186770421e-05,-3.613612311284039e-05,-3.467481124742497e-05,5.9286,6.9286
1.57421875,-1.8071821116960335e-05,-4.200209840238034e-05,-4.5411826088349665e-05,-3.906911075761036e-05,5.9286,6.9286
1.578125,-3.0280511737239564e-05,-5.176490533302808e-05,-3.564901915770191e-05,-3.076761569237804e-05,5.9286,6.9286
1.58203125,-4.101752657816426e-05,-3.321349938200954e-05,-1.1231637917143444e-05,-4.0530422623025795e-05,5.9286,6.9286
1.5859375,-3.222892755779347e-05,-2.4912004316777226e-05,2.4383645685512364e-06,-3.955621471274884e-05,5.9286,6.9286
1.58984375,-3.760779889219493e-05,-6.44606999084458e-05,-3.0280511737239564e-05,-3.125471964751652e-05,5.9286,6.9286
1.59375,-3.613612311284039e-05,-6.64091157289997e-05,-4.101752657816426e-05,-2.930630382696262e-05,5.9286,6.9286
1.59765625,-3.418770729228649e-05,-2.8321732002746556e-05,-3.271603151293195e-05,-2.3927432492561166e-05,5.9286,6.9286
1.6015625,-3.125471964751652e-05,-3.858200680247189e-05,-3.467481124742497e-05,-3.1741823602655e-05,5.9286,6.9286
1.60546875,-1.8071821116960335e-05,-6.397359595330732e-05,-5.3226217198443504e-05,-3.222892755779347e-05,5.9286,6.9286
1.609375,-2.3440328537422686e-05,-5.273911324330504e-05,-5.4200425108720465e-05,-2.5886212227054174e-05,5.9286,6.9286
1.61328125,-3.760779889219493e-05,-7.227509101853964e-05,-4.3463410267795763e-05,-3.1741823602655e-05,5.9286,6.9286
1.6171875,-4.785770977798115e-05,-8.349920981460282e-05,-3.222892755779347e-05,-4.8831917688258114e-05,5.9286,6.9286
1.62109375,-4.200209840238034e-05,-3.125471964751652e-05,-1.9046029027237266e-05,-5.5184996932936525e-05,5.9286,6.9286
1.625,-2.2953224582284205e-05,-3.222892755779347e-05,-2.4912004316777226e-05,-4.3463410267795763e-05,5.9286,6.9286
1.62890625,-1.9533132982375746e-05,-7.471061079423203e-05,-3.125471964751652e-05,-4.297630631265728e-05,5.9286,6.9286
1.6328125,-2.5399108271915707e-05,-4.8344813733119634e-05,-2.930630382696262e-05,-5.0293229553673536e-05,5.9286,6.9286
1.63671875,-3.516191520256345e-05,-3.9147146761271755e-06,-6.837338406958025e-06,-5.5184996932936525e-05,5.9286,6.9286
1.640625,-4.639639791256573e-05,4.795848340582154e-07,1.1226963588922018e-05,-5.762051670862891e-05,5.9286,6.9286
1.64453125,-4.639639791256573e-05,8.781079899290546e-06,2.684538189517059e-05,-6.44606999084458e-05,5.9286,6.9286
1.6484375,-3.370060333714802e-05,4.003864433966592e-05,3.368556509498748e-05,-7.373640288395507e-05,5.9286,6.9286
1.65234375,-3.1741823602655e-05,4.198706016021981e-05,3.710565669489594e-05,-7.666939052872505e-05,5.9286,6.9286
1.65625,-4.5411826088349665e-05,6.005136215609988e-05,4.735556758068216e-05,-7.177762314946206e-05,5.9286,6.9286
1.66015625,-3.858200680247189e-05,6.1025570066376814e-05,6.1025570066376814e-05,-6.250192017395278e-05,5.9286,6.9286
1.6640625,-3.0280511737239564e-05,3.856696856031135e-05,7.177294882124064e-05,-5.176490533302808e-05,5.9286,6.9286
1.66796875,-3.0280511737239564e-05,4.784267153582064e-05,5.028855522545214e-05,-4.150463053330274e-05,5.9286,6.9286
1.671875,-2.930630382696262e-05,5.565706264591449e-05,3.56443448294805e-05,-5.5672100888075006e-05,5.9286,6.9286
1.67578125,-2.637331618219265e-05,6.20101418905929e-05,6.444566166628528e-05,-6.592201177386122e-05,5.9286,6.9286
1.6796875,-3.076761569237804e-05,5.3221542870222094e-05,6.541986957656224e-05,-5.8107620663767375e-05,5.9286,6.9286
1.68359375,-2.930630382696262e-05,4.686846362554368e-05,5.6631270556191424e-05,-6.104060830853736e-05,5.9286,6.9286
1.6875,-2.7834628047608076e-05,5.2236971046006034e-05,4.149995620508133e-05,-7.422350683909355e-05,5.9286,6.9286
1.69140625,-3.222892755779347e-05,3.710565669489594e-05,3.368556509498748e-05,-6.689621968413817e-05,5.9286,6.9286
1.6953125,-3.125471964751652e-05,7.27471567315176e-05,5.516995869077601e-05,-6.44606999084458e-05,5.9286,6.9286
1.69921875,-2.8808835957885023e-05,6.249724584573138e-05,4.198706016021981e-05,-7.08034152391851e-05,5.9286,6.9286
1.703125,-2.9793407782101096e-05,2.0989770519569757e-05,4.540715176012824e-05,-6.397359595330732e-05,5.9286,6.9286
1.70703125,-3.711033102311735e-05,3.661855273975746e-05,4.63813596704052e-05,-6.20148162188143e-05,5.9286,6.9286
1.7109375,-2.5886212227054174e-05,4.686846362554368e-05,4.735556758068216e-05,-5.5184996932936525e-05,5.9286,6.9286
1.71484375,-2.1979016672007248e-05,4.198706016021981e-05,6.298434980086983e-05,-5.3713321153581985e-05,5.9286,6.9286
1.71875,-2.637331618219265e-05,3.856696856031135e-05,3.465977300526444e-05,-6.494780386358429e-05,5.9286,6.9286
1.72265625,-2.930630382696262e-05,4.63813596704052e-05,4.735556758068216e-05,-6.836789546349272e-05,5.9286,6.9286
1.7265625,-2.8808835957885023e-05,4.63813596704052e-05,4.686846362554368e-05,-6.494780386358429e-05,5.9286,6.9286
1.73046875,-2.5399108271915707e-05,3.856696856031135e-05,2.0989770519569757e-05,-6.592201177386122e-05,5.9286,6.9286
1.734375,-2.5886212227054174e-05,3.173714927443359e-05,2.2948550254062778e-05,-6.885499941863119e-05,5.9286,6.9286
1.73828125,-1.9533132982375746e-05,3.856696856031135e-05,4.101285224994285e-05,-7.031631128404662e-05,5.9286,6.9286
1.7421875,-2.2466120627145728e-05,3.80798646051729e-05,4.686846362554368e-05,-6.0553504353398876e-05,5.9286,6.9286
1.74609375,-3.125471964751652e-05,1.952845865415435e-05,2.5871173984893658e-05,-5.4200425108720465e-05,5.9286,6.9286
1.75,-2.6860420137331118e-05,1.1714067544060497e-05,-1.9559349416341547e-06,-6.104060830853736e-05,5.9286,6.9286
1.75390625,-2.0517704806591836e-05,3.7592760650034416e-05,1.952845865415435e-05,-5.0790697422751135e-05,5.9286,6.9286
1.7578125,-2.3440328537422686e-05,4.198706016021981e-05,3.0752577450217525e-05,-4.3463410267795763e-05,5.9286,6.9286
1.76171875,-2.9793407782101096e-05,1.1714067544060497e-05,3.4125724788281954e-06,-4.639639791256573e-05,5.9286,6.9286
1.765625,-2.637331618219265e-05,1.5134159143968958e-05,1.0252755678645087e-05,-4.5411826088349665e-05,5.9286,6.9286
1.76953125,-2.1491912716868767e-05,2.2948550254062778e-05,9.268183854428997e-06,-4.980612559853506e-05,5.9286,6.9286
1.7734375,-2.3440328537422686e-05,4.003864433966592e-05,-9.817270313572236e-07,-4.639639791256573e-05,5.9286,6.9286
1.77734375,-2.4414536447699617e-05,3.954117647058831e-05,1.3662483364614416e-05,-4.150463053330274e-05,5.9286,6.9286
1.78125,-2.1979016672007248e-05,2.1476874474708238e-05,2.0015562609292827e-05,-3.564901915770191e-05,5.9286,6.9286
1.78515625,-1.9046029027237266e-05,1.0252755678645087e-05,8.293975944152067e-06,-4.3463410267795763e-05,5.9286,6.9286
1.7890625,-2.5399108271915707e-05,-9.283222096589525e-06,-5.376026541542615e-06,-5.5184996932936525e-05,5.9286,6.9286
1.79296875,-3.370060333714802e-05,-1.3677521606774945e-05,-2.8808835957885023e-05,-4.492472213321119e-05,5.9286,6.9286
1.796875,-3.0280511737239564e-05,8.293975944152067e-06,-2.3927432492561166e-05,-3.516191520256345e-05,5.9286,6.9286
1.80078125,-2.6860420137331118e-05,1.7082574964522848e-05,-4.401818631265655e-06,-3.760779889219493e-05,5.9286,6.9286
1.8046875,-2.8321732002746556e-05,-8.309014186312594e-06,-1.9559349416341547e-06,-3.613612311284039e-05,5.9286,6.9286
1.80859375,-2.4912004316777226e-05,-9.283222096589525e-06,-2.1004808761730286e-05,-4.004331866788732e-05,5.9286,6.9286
1.8125,-2.7834628047608076e-05,-2.4430388967726345e-06,-3.418770729228649e-05,-4.150463053330274e-05,5.9286,6.9286
1.81640625,-3.271603151293195e-05,1.464156658274277e-06,-1.7584717161821854e-05,-3.613612311284039e-05,5.9286,6.9286
1.8203125,-3.0280511737239564e-05,-7.519121080264313e-09,-1.4164625561913397e-05,-4.3950514222934244e-05,5.9286,6.9286
1.82421875,-2.5399108271915707e-05,-2.930142851911114e-06,-2.5399108271915707e-05,-4.297630631265728e-05,5.9286,6.9286
1.828125,-2.3440328537422686e-05,1.1226963588922018e-05,-4.150463053330274e-05,-3.858200680247189e-05,5.9286,6.9286
1.83203125,-2.3440328537422686e-05,9.268183854428997e-06,-3.076761569237804e-05,-4.24892023575188e-05,5.9286,6.9286
1.8359375,-2.2953224582284205e-05,2.1476874474708238e-05,-1.8071821116960335e-05,-4.0530422623025795e-05,5.9286,6.9286
1.83984375,-2.3927432492561166e-05,2.392275816433974e-05,-1.0744533962004965e-05,-3.564901915770191e-05,5.9286,6.9286
1.84375,-2.73475240924696e-05,4.795848340582154e-07,-9.770326051728005e-06,-3.906911075761036e-05,5.9286,6.9286
1.84765625,-2.8808835957885023e-05,8.293975944152067e-06,-2.8808835957885023e-05,-4.004331866788732e-05,5.9286,6.9286
1.8515625,-3.1741823602655e-05,3.710565669489594e-05,-2.1004808761730286e-05,-4.0530422623025795e-05,5.9286,6.9286
1.85546875,-2.3440328537422686e-05,1.2688275454337456e-05,-4.443761817807271e-05,-5.225200928816656e-05,5.9286,6.9286
1.859375,-1.8071821116960335e-05,1.464156658274277e-06,-5.0790697422751135e-05,-3.858200680247189e-05,5.9286,6.9286
1.86328125,-2.5886212227054174e-05,1.4159951233691998e-05,-2.0517704806591836e-05,-2.6860420137331118e-05,5.9286,6.9286
1.8671875,-2.9793407782101096e-05,-7.519121080264313e-09,-2.4912004316777226e-05,-4.3950514222934244e-05,5.9286,6.9286
1.87109375,-2.4414536447699617e-05,1.2688275454337456e-05,-3.125471964751652e-05,-3.955621471274884e-05,5.9286,6.9286
1.875,-2.1491912716868767e-05,2.684538189517059e-05,-2.9793407782101096e-05,-3.858200680247189e-05,5.9286,6.9286
1.87890625,-2.5886212227054174e-05,7.319768033875106e-06,-1.0257430006866484e-05,-3.467481124742497e-05,5.9286,6.9286
1.8828125,-2.6860420137331118e-05,-8.796118141451046e-06,1.1226963588922018e-05,-2.1979016672007248e-05,5.9286,6.9286
1.88671875,-1.9533132982375746e-05,1.4647055188830477e-05,4.795848340582154e-07,-2.0517704806591836e-05,5.9286,6.9286
1.890625,-1.9533132982375746e-05,1.5134159143968958e-05,-2.4430388967726345e-06,-1.8071821116960335e-05,5.9286,6.9286
1.89453125,-2.2953224582284205e-05,3.899676433966647e-06,6.345560123598148e-06,-9.770326051728005e-06,5.9286,6.9286
1.8984375,-2.5399108271915707e-05,-7.519121080264313e-09,4.873884344243606e-06,-7.324442362096505e-06,5.9286,6.9286
1.90234375,-2.6860420137331118e-05,-2.930142851911114e-06,-4.401818631265655e-06,-2.0020236937514227e-05,5.9286,6.9286
1.90625,-2.1979016672007248e-05,-5.376026541542615e-06,-7.324442362096505e-06,-2.4414536447699617e-05,5.9286,6.9286
1.91015625,-3.418770729228649e-05,-1.3190417651636465e-05,-1.6610509251544897e-05,-2.1491912716868767e-05,5.9286,6.9286
1.9140625,-4.0530422623025795e-05,-9.817270313572236e-07,-3.271603151293195e-05,-2.7834628047608076e-05,5.9286,6.9286
1.91796875,-2.637331618219265e-05,1.6595471009384367e-05,-1.7097613206683377e-05,-2.8321732002746556e-05,5.9286,6.9286
1.921875,-2.8321732002746556e-05,-1.6123405296406416e-05,-8.796118141451046e-06,-2.3440328537422686e-05,5.9286,6.9286
1.92578125,-3.271603151293195e-05,-3.271603151293195e-05,-1.9046029027237266e-05,-1.6123405296406416e-05,5.9286,6.9286
1.9296875,-2.9793407782101096e-05,-4.888922586404135e-06,-1.1231637917143444e-05,-1.4651729517051876e-05,5.9286,6.9286
1.93359375,-2.3927432492561166e-05,-6.350234451819574e-06,-4.401818631265655e-06,-2.0517704806591836e-05,5.9286,6.9286
1.9375,-2.0517704806591836e-05,-9.770326051728005e-06,-2.73475240924696e-05,-1.7097613206683377e-05,5.9286,6.9286
1.94140625,-2.637331618219265e-05,-8.796118141451046e-06,-2.8321732002746556e-05,-5.376026541542615e-06,5.9286,6.9286
1.9453125,-3.222892755779347e-05,-2.3440328537422686e-05,-1.0257430006866484e-05,-9.770326051728005e-06,5.9286,6.9286
1.94921875,-3.076761569237804e-05,-2.0020236937514227e-05,-1.7584717161821854e-05,-1.2703313696497986e-05,5.9286,6.9286
1.953125,-2.930630382696262e-05,-3.9147146761271755e-06,-1.4651729517051876e-05,-1.7584717161821854e-05,5.9286,6.9286
1.95703125,-4.004331866788732e-05,-1.7097613206683377e-05,-2.3927432492561166e-05,-2.8808835957885023e-05,5.9286,6.9286
1.9609375,-3.711033102311735e-05,-3.955621471274884e-05,-2.4414536447699617e-05,-1.9533132982375746e-05,5.9286,6.9286
1.96484375,-3.0280511737239564e-05,-4.9319021643396595e-05,-2.637331618219265e-05,-1.2703313696497986e-05,5.9286,6.9286
1.96875,-4.3463410267795763e-05,-4.3463410267795763e-05,-3.467481124742497e-05,-1.3677521606774945e-05,5.9286,6.9286
1.97265625,-4.639639791256573e-05,-2.3440328537422686e-05,-1.5138833472190355e-05,-1.6610509251544897e-05,5.9286,6.9286
1.9765625,-2.7834628047608076e-05,-1.7097613206683377e-05,-1.2216209741359505e-05,-2.3927432492561166e-05,5.9286,6.9286
1.98046875,-2.2953224582284205e-05,-2.1491912716868767e-05,-2.4414536447699617e-05,-3.564901915770191e-05,5.9286,6.9286
1.984375,-2.5886212227054174e-05,-2.4414536447699617e-05,-1.5138833472190355e-05,-2.9793407782101096e-05,5.9286,6.9286
1.98828125,-2.1491912716868767e-05,-1.4651729517051876e-05,3.4125724788281954e-06,-7.324442362096505e-06,5.9286,6.9286
1.9921875,-2.5886212227054174e-05,-2.930142851911114e-06,5.858456168459668e-06,-1.0257430006866484e-05,5.9286,6.9286
1.99609375,-3.321349938200954e-05,-1.6123405296406416e-05,1.904135469901587e-05,-2.1979016672007248e-05,5.9286,6.9286
2.0,-3.564901915770191e-05,-3.662322706797887e-05,1.0252755678645087e-05,-2.1004808761730286e-05,5.9286,6.9286
2.00390625,-3.321349938200954e-05,-2.1979016672007248e-05,-3.076761569237804e-05,-2.73475240924696e-05,5.9286,6.9286
2.0078125,-3.076761569237804e-05,-1.4164625561913397e-05,-3.125471964751652e-05,-2.73475240924696e-05,5.9286,6.9286
2.01171875,-2.8808835957885023e-05,-3.467481124742497e-05,-1.8558925072098815e-05,-1.6610509251544897e-05,5.9286,6.9286
2.015625,-2.8808835957885023e-05,-3.613612311284039e-05,4.795848340582154e-07,-1.5625937427328834e-05,5.9286,6.9286
2.01953125,-3.1741823602655e-05,-1.2216209741359505e-05,-2.4430388967726345e-06,-2.0020236937514227e-05,5.9286,6.9286
2.0234375,-2.7834628047608076e-05,-5.8631304966810944e-06,-1.5138833472190355e-05,-2.6860420137331118e-05,5.9286,6.9286
2.02734375,-2.0020236937514227e-05,-2.930142851911114e-06,-2.6860420137331118e-05,-2.73475240924696e-05,5.9286,6.9286
2.03125,-2.2466120627145728e-05,-5.8631304966810944e-06,-2.3927432492561166e-05,-1.5138833472190355e-05,5.9286,6.9286
2.03515625,-2.5886212227054174e-05,-2.1004808761730286e-05,-1.4164625561913397e-05,-1.2216209741359505e-05,5.9286,6.9286
2.0390625,-3.125471964751652e-05,-3.321349938200954e-05,-1.3190417651636465e-05,-2.0020236937514227e-05,5.9286,6.9286
2.04296875,-3.222892755779347e-05,-4.0530422623025795e-05,-1.6610509251544897e-05,-2.637331618219265e-05,5.9286,6.9286
2.046875,-3.076761569237804e-05,-3.1741823602655e-05,-4.3950514222934244e-05,-2.3440328537422686e-05,5.9286,6.9286
2.05078125,-2.4912004316777226e-05,-2.4430388967726345e-06,-3.858200680247189e-05,-4.401818631265655e-06,5.9286,6.9286
2.0546875,-2.1491912716868767e-05,8.293975944152067e-06,-1.7097613206683377e-05,9.666887891966951e-07,5.9286,6.9286
2.05859375,-3.125471964751652e-05,-1.4651729517051876e-05,-4.401818631265655e-06,-1.9559349416341547e-06,5.9286,6.9286
2.0625,-2.4912004316777226e-05,-2.8808835957885023e-05,-5.376026541542615e-06,-9.283222096589525e-06,5.9286,6.9286
2.06640625,-1.3190417651636465e-05,-5.376026541542615e-06,-1.9046029027237266e-05,-2.1004808761730286e-05,5.9286,6.9286
2.0703125,-1.8558925072098815e-05,8.293975944152067e-06,-3.222892755779347e-05,-1.9533132982375746e-05,5.9286,6.9286
2.07421875,-1.9046029027237266e-05,-8.309014186312594e-06,-2.3927432492561166e-05,-1.7584717161821854e-05,5.9286,6.9286
2.078125,-1.4651729517051876e-05,-1.4651729517051876e-05,-1.4688309864957034e-06,-1.7584717161821854e-05,5.9286,6.9286
2.08203125,-1.4164625561913397e-05,-1.7584717161821854e-05,-1.4688309864957034e-06,-4.888922586404135e-06,5.9286,6.9286
2.0859375,-1.4164625561913397e-05,-2.637331618219265e-05,-1.0744533962004965e-05,-1.0257430006866484e-05,5.9286,6.9286
2.08984375,-2.5399108271915707e-05,-3.076761569237804e-05,-1.8558925072098815e-05,-2.1491912716868767e-05,5.9286,6.9286
2.09375,-4.443761817807271e-05,-2.0020236937514227e-05,-2.1004808761730286e-05,-2.0020236937514227e-05,5.9286,6.9286
2.09765625,-4.297630631265728e-05,7.806871989013586e-06,-2.930142851911114e-06,-1.2703313696497986e-05,5.9286,6.9286
2.1015625,-2.3440328537422686e-05,2.343565420920126e-05,1.8554250743877388e-05,-1.3190417651636465e-05,5.9286,6.9286
2.10546875,-1.2216209741359505e-05,-2.4414536447699617e-05,-2.5886212227054174e-05,-1.3677521606774945e-05,5.9286,6.9286
2.109375,-1.6610509251544897e-05,-7.764359843900198e-05,-9.180070487983513e-05,-1.9559349416341547e-06,5.9286,6.9286
2.11328125,-2.4430388967726345e-06,-8.007911821469437e-05,-9.03393930144197e-05,5.3609882993820856e-06,5.9286,6.9286
2.1171875,5.858456168459668e-06,-8.155079399404891e-05,-9.228780883497361e-05,-6.350234451819574e-06,5.9286,6.9286
2.12109375,-3.9147146761271755e-06,-0.00012598089305104136,-0.00014843949455710682,-1.3677521606774945e-05,5.9286,6.9286
2.125,5.858456168459668e-06,-0.00016699090050812537,-0.00018260931881437393,-5.376026541542615e-06,5.9286,6.9286
2.12890625,1.5134159143968958e-05,-0.0001987252049897001,-0.00017918922721446549,1.6595471009384367e-05,5.9286,6.9286
2.1328125,1.6108367054245887e-05,-0.0002114209995651178,-0.00019969941289997705,2.0989770519569757e-05,5.9286,6.9286
2.13671875,2.5871173984893658e-05,-0.00022215801440604252,-0.00022606520996108946,7.319768033875106e-06,5.9286,6.9286
2.140625,4.344837202563525e-05,-0.00022606520996108946,-0.00022411679414053554,2.0989770519569757e-05,5.9286,6.9286
2.14453125,5.6631270556191424e-05,-0.00021435398720988778,-0.00022411679414053554,2.9778369539940567e-05,5.9286,6.9286
2.1484375,4.247416411535829e-05,-0.00024706249960173947,-0.0002441398758709086,2.9778369539940567e-05,5.9286,6.9286
2.15234375,4.003864433966592e-05,-0.0002626912818219272,-0.00024754960355687794,3.954117647058831e-05,5.9286,6.9286
2.15625,5.126276313572907e-05,-0.000249508383291371,-0.00023583838080567629,3.1239681405356006e-05,5.9286,6.9286
2.16015625,4.931434731517518e-05,-0.00023632548476081478,-0.00023876100453650714,5.3609882993820856e-06,5.9286,6.9286
2.1640625,2.9778369539940567e-05,-0.00023436670502632176,-0.00024169399218127712,1.0739859633783538e-05,5.9286,6.9286
2.16796875,3.899676433966647e-06,-0.00023290539316090633,-0.00023241828920576784,2.684538189517059e-05,5.9286,6.9286
2.171875,-1.9559349416341547e-06,-0.00021630240303044168,-0.00021727661094071864,2.24510823849852e-05,5.9286,6.9286
2.17578125,-4.94623076218744e-07,-0.00019530511338979167,-0.0001962793213000686,9.755287809567476e-06,5.9286,6.9286
2.1796875,-7.821910231174115e-06,-0.00018212221485923547,-0.00018260931881437393,1.2201171499198978e-05,5.9286,6.9286
2.18359375,-1.5138833472190355e-05,-0.00016747800446326386,-0.00017529239557335767,2.1476874474708238e-05,5.9286,6.9286
2.1875,-1.0744533962004965e-05,-0.00014697818269169142,-0.0001489265985122453,2.5384070029755178e-05,5.9286,6.9286
2.19140625,-1.4651729517051876e-05,-0.00013233397229571976,-0.00012646799700617982,9.755287809567476e-06,5.9286,6.9286
2.1953125,-3.418770729228649e-05,-0.0001254937890959029,-0.00013233397229571976,-1.0744533962004965e-05,5.9286,6.9286
2.19921875,-4.101752657816426e-05,-0.00011133668265506974,-0.00011816650194094753,-1.1231637917143444e-05,5.9286,6.9286
2.203125,-3.1741823602655e-05,-9.473369252460511e-05,-8.886771723506516e-05,-3.9147146761271755e-06,5.9286,6.9286
2.20703125,-3.760779889219493e-05,-8.594509350423431e-05,-8.349920981460282e-05,-1.7584717161821854e-05,5.9286,6.9286
2.2109375,-6.104060830853736e-05,-8.39863137697413e-05,-6.788079150835424e-05,-2.2953224582284205e-05,5.9286,6.9286
2.21484375,-6.934210337376967e-05,-7.519771474937051e-05,-5.6159204843213486e-05,-1.7584717161821854e-05,5.9286,6.9286
2.21875,-6.348649199816884e-05,-5.8594724618905855e-05,-5.12778013778896e-05,-2.3440328537422686e-05,5.9286,6.9286
2.22265625,-5.176490533302808e-05,-5.0293229553673536e-05,-3.711033102311735e-05,-2.1491912716868767e-05,5.9286,6.9286
2.2265625,-4.150463053330274e-05,-4.8344813733119634e-05,-3.613612311284039e-05,-2.0020236937514227e-05,5.9286,6.9286
2.23046875,-5.0293229553673536e-05,-4.004331866788732e-05,-3.906911075761036e-05,-2.7834628047608076e-05,5.9286,6.9286
2.234375,-4.8831917688258114e-05,-3.1741823602655e-05,-2.3440328537422686e-05,-2.1491912716868767e-05,5.9286,6.9286
2.23828125,-4.639639791256573e-05,-2.9793407782101096e-05,-1.5138833472190355e-05,-2.1004808761730286e-05,5.9286,6.9286
2.2421875,-5.8594724618905855e-05,-5.12778013778896e-05,-2.930630382696262e-05,-3.467481124742497e-05,5.9286,6.9286
2.24609375,-5.5184996932936525e-05,-5.225200928816656e-05,-2.73475240924696e-05,-3.222892755779347e-05,5.9286,6.9286
2.25,-4.9319021643396595e-05,-2.930630382696262e-05,-2.1004808761730286e-05,-2.1979016672007248e-05,5.9286,6.9286
2.25390625,-5.3713321153581985e-05,-3.418770729228649e-05,-1.6123405296406416e-05,-2.8321732002746556e-05,5.9286,6.9286
2.2578125,-6.0066400398260395e-05,-3.076761569237804e-05,-1.6123405296406416e-05,-4.688350186770421e-05,5.9286,6.9286
2.26171875,-5.5184996932936525e-05,-2.4912004316777226e-05,-9.770326051728005e-06,-4.3950514222934244e-05,5.9286,6.9286
2.265625,-5.0293229553673536e-05,-3.076761569237804e-05,-8.796118141451046e-06,-3.711033102311735e-05,5.9286,6.9286
2.26953125,-5.762051670862891e-05,-3.467481124742497e-05,-2.0517704806591836e-05,-4.785770977798115e-05,5.9286,6.9286
2.2734375,-5.909219248798345e-05,-3.125471964751652e-05,-2.0020236937514227e-05,-4.8344813733119634e-05,5.9286,6.9286
2.27734375,-5.3713321153581985e-05,-2.7834628047608076e-05,-1.4164625561913397e-05,-3.222892755779347e-05,5.9286,6.9286
2.28125,-4.200209840238034e-05,-2.8808835957885023e-05,-3.9147146761271755e-06,-1.3190417651636465e-05,5.9286,6.9286
2.28515625,-3.955621471274884e-05,-2.637331618219265e-05,-1.9559349416341547e-06,-1.5625937427328834e-05,5.9286,6.9286
2.2890625,-3.613612311284039e-05,-2.1004808761730286e-05,-1.0744533962004965e-05,-3.564901915770191e-05,5.9286,6.9286
2.29296875,-4.297630631265728e-05,-2.1979016672007248e-05,-9.817270313572236e-07,-3.760779889219493e-05,5.9286,6.9286
2.296875,-5.3226217198443504e-05,-2.2466120627145728e-05,1.3175379409475937e-05,-2.73475240924696e-05,5.9286,6.9286
2.30078125,-4.492472213321119e-05,-2.4414536447699617e-05,-2.4430388967726345e-06,-2.1004808761730286e-05,5.9286,6.9286
2.3046875,-4.785770977798115e-05,-3.564901915770191e-05,-9.770326051728005e-06,-3.0280511737239564e-05,5.9286,6.9286
2.30859375,-4.785770977798115e-05,-3.418770729228649e-05,-5.8631304966810944e-06,-3.271603151293195e-05,5.9286,6.9286
2.3125,-4.5411826088349665e-05,-2.2466120627145728e-05,-9.283222096589525e-06,-1.1729105786221026e-05,5.9286,6.9286
2.31640625,-4.443761817807271e-05,-1.3190417651636465e-05,-8.309014186312594e-06,-1.4164625561913397e-05,5.9286,6.9286
2.3203125,-3.418770729228649e-05,-6.837338406958025e-06,-1.8558925072098815e-05,-3.564901915770191e-05,5.9286,6.9286
2.32421875,-2.1491912716868767e-05,-1.3677521606774945e-05,-2.2953224582284205e-05,-3.1741823602655e-05,5.9286,6.9286
2.328125,-2.6860420137331118e-05,-1.3677521606774945e-05,-1.0257430006866484e-05,-2.8321732002746556e-05,5.9286,6.9286
2.33203125,-4.8831917688258114e-05,-3.1741823602655e-05,-2.4414536447699617e-05,-4.639639791256573e-05,5.9286,6.9286
2.3359375,-5.225200928816656e-05,-3.564901915770191e-05,-2.2466120627145728e-05,-3.809490284733341e-05,5.9286,6.9286
2.33984375,-3.516191520256345e-05,-1.8071821116960335e-05,-9.770326051728005e-06,-2.0020236937514227e-05,5.9286,6.9286
2.34375,-2.3927432492561166e-05,-2.1004808761730286e-05,-2.2466120627145728e-05,-2.7834628047608076e-05,5.9286,6.9286
2.34765625,-2.5886212227054174e-05,-2.3927432492561166e-05,-3.125471964751652e-05,-2.637331618219265e-05,5.9286,6.9286
2.3515625,-2.8808835957885023e-05,-2.930630382696262e-05,-3.076761569237804e-05,-2.2953224582284205e-05,5.9286,6.9286
2.35546875,-3.0280511737239564e-05,-2.1979016672007248e-05,-2.6860420137331118e-05,-3.418770729228649e-05,5.9286,6.9286
2.359375,-3.321349938200954e-05,-2.3927432492561166e-05,-1.8558925072098815e-05,-2.5886212227054174e-05,5.9286,6.9286
2.36328125,-2.5886212227054174e-05,-1.6123405296406416e-05,-1.7584717161821854e-05,-2.8808835957885023e-05,5.9286,6.9286
2.3671875,-2.0517704806591836e-05,-1.6610509251544897e-05,-2.8808835957885023e-05,-4.101752657816426e-05,5.9286,6.9286
2.37109375,-2.5399108271915707e-05,-3.321349938200954e-05,-2.1491912716868767e-05,-4.24892023575188e-05,5.9286,6.9286
2.375,-3.516191520256345e-05,-4.297630631265728e-05,-2.3927432492561166e-05,-5.4200425108720465e-05,5.9286,6.9286
2.37890625,-3.809490284733341e-05,-3.613612311284039e-05,-3.760779889219493e-05,-4.9319021643396595e-05,5.9286,6.9286
2.3828125,-3.125471964751652e-05,-3.125471964751652e-05,-3.760779889219493e-05,-3.516191520256345e-05,5.9286,6.9286
2.38671875,-3.0280511737239564e-05,-4.297630631265728e-05,-4.24892023575188e-05,-2.8808835957885023e-05,5.9286,6.9286
2.390625,-3.613612311284039e-05,-5.468752906385893e-05,-4.688350186770421e-05,-2.1004808761730286e-05,5.9286,6.9286
2.39453125,-3.516191520256345e-05,-5.664630879835195e-05,-3.564901915770191e-05,-2.8321732002746556e-05,5.9286,6.9286
2.3984375,-2.7834628047608076e-05,-4.8344813733119634e-05,-3.076761569237804e-05,-2.6860420137331118e-05,5.9286,6.9286
2.40234375,-2.9793407782101096e-05,-6.44606999084458e-05,-4.0530422623025795e-05,-2.930630382696262e-05,5.9286,6.9286
2.40625,-3.662322706797887e-05,-7.666939052872505e-05,-4.297630631265728e-05,-3.222892755779347e-05,5.9286,6.9286
2.41015625,-3.467481124742497e-05,-6.592201177386122e-05,-4.589893004348813e-05,-2.930630382696262e-05,5.9286,6.9286
2.4140625,-2.4912004316777226e-05,-5.0790697422751135e-05,-3.516191520256345e-05,-1.9533132982375746e-05,5.9286,6.9286
2.41796875,-2.1979016672007248e-05,-5.0293229553673536e-05,-3.1741823602655e-05,-2.1491912716868767e-05,5.9286,6.9286
2.421875,-2.2953224582284205e-05,-6.543490781872274e-05,-5.0293229553673536e-05,-3.125471964751652e-05,5.9286,6.9286
2.42578125,-1.4164625561913397e-05,-7.910491030441741e-05,-5.8594724618905855e-05,-2.1491912716868767e-05,5.9286,6.9286
2.4296875,-2.1979016672007248e-05,-0.00010449649945525286,-7.959201425955589e-05,-2.1004808761730286e-05,5.9286,6.9286
2.43359375,-2.0517704806591836e-05,-0.00010400939550011437,-8.203789794918739e-05,-1.8071821116960335e-05,5.9286,6.9286
2.4375,-1.2216209741359505e-05,-0.00010937790292057672,-9.716921230029749e-05,-2.3440328537422686e-05,5.9286,6.9286
2.44140625,7.319768033875106e-06,-0.00014209677922636754,-0.0001298880886060883,-3.809490284733341e-05,5.9286,6.9286
2.4453125,3.2711357184710546e-05,-0.00015966361335317,-0.00014209677922636754,-2.1491912716868767e-05,5.9286,6.9286
2.44921875,3.417266905012596e-05,-0.00017772791534905008,-0.00016209913312886237,-9.770326051728005e-06,5.9286,6.9286
2.453125,4.39354759807737e-05,-0.0001904237099244678,-0.00018896239805905237,-1.4688309864957034e-06,5.9286,6.9286
2.45703125,6.347145375600832e-05,-0.00021239520747539476,-0.00021532819512016474,7.806871989013586e-06,5.9286,6.9286
2.4609375,8.935014686198224e-05,-0.00025145679911192485,-0.00024071978427100016,-7.519121080264313e-09,5.9286,6.9286
2.46484375,0.00011132164441290921,-0.0002919900665278095,-0.0002788071679972533,5.3609882993820856e-06,5.9286,6.9286
2.46875,0.0001249916468986039,-0.0003310516581643396,-0.00032518568287479965,2.0015562609292827e-05,5.9286,6.9286
2.47265625,0.0001445276246738385,-0.00035302315571526663,-0.000354484467580682,2.0502666564431307e-05,5.9286,6.9286
2.4765625,0.00016113061480430314,-0.00036035044287022194,-0.0003471675443396658,2.24510823849852e-05,5.9286,6.9286
2.48046875,0.0001572234192492562,-0.0003852445641519798,-0.0003710874577111467,2.0989770519569757e-05,5.9286,6.9286
2.484375,0.0001577105232043947,-0.0003886646557518883,-0.0003989249305516136,2.0015562609292827e-05,5.9286,6.9286
2.48828125,0.00016113061480430314,-0.0003725487695765621,-0.0003808502646417944,3.905407251544983e-05,5.9286,6.9286
2.4921875,0.00016014604298008708,-0.0003666931582009613,-0.00035936587104600594,4.39354759807737e-05,5.9286,6.9286
2.49609375,0.00015087034000457782,-0.00036278596264591433,-0.00036035044287022194,3.0752577450217525e-05,5.9286,6.9286
2.5,0.00015429043160448622,-0.0003290928784298466,-0.0003471675443396658,3.222425322957207e-05,5.9286,6.9286
2.50390625,0.00016014604298008708,-0.00030077866554818034,-0.0003134744601235981,3.661855273975746e-05,5.9286,6.9286
2.5078125,0.00013915911725337617,-0.0003080955887891965,-0.0003002915615930418,5.3708646825360574e-05,5.9286,6.9286
2.51171875,0.00011717725578851002,-0.00031738165567864494,-0.000311515680389105,4.003864433966592e-05,5.9286,6.9286
2.515625,0.00011376752810254071,-0.0003002915615930418,-0.0003046858611032272,2.9778369539940567e-05,5.9286,6.9286
2.51953125,0.00011913603552300304,-0.0002509696951567864,-0.00028221689568322264,3.0752577450217525e-05,5.9286,6.9286
2.5234375,0.00011913603552300304,-0.00023193118525062937,-0.0002700185689768825,2.24510823849852e-05,5.9286,6.9286
2.52734375,0.00010741444885786228,-0.00024364240800183102,-0.00026073250208743414,1.7082574964522848e-05,5.9286,6.9286
2.53125,9.081145872739764e-05,-0.00023241828920576784,-0.00024120688822613866,1.1226963588922018e-05,5.9286,6.9286
2.53515625,7.568014437628756e-05,-0.00020653959609979395,-0.00023045950947127482,1.464156658274277e-06,5.9286,6.9286
2.5390625,6.298434980086983e-05,-0.0001796866950835431,-0.00022215801440604252,-1.2703313696497986e-05,5.9286,6.9286
2.54296875,4.492004780498979e-05,-0.00016893931632867926,-0.0001943309054795147,-2.3440328537422686e-05,5.9286,6.9286
2.546875,3.1239681405356006e-05,-0.00014697818269169142,-0.0001616120291737239,-1.0257430006866484e-05,5.9286,6.9286
2.55078125,2.684538189517059e-05,-0.00011035211083085368,-0.00014062510344701296,-8.796118141451046e-06,5.9286,6.9286
2.5546875,1.7082574964522848e-05,-9.27749127901121e-05,-0.000123545373275349,-2.5886212227054174e-05,5.9286,6.9286
2.55859375,-4.401818631265655e-06,-7.519771474937051e-05,-8.838061327992668e-05,-2.5886212227054174e-05,5.9286,6.9286
2.5625,-2.8808835957885023e-05,-5.273911324330504e-05,-6.152771226367584e-05,-2.3440328537422686e-05,5.9286,6.9286
2.56640625,-3.271603151293195e-05,-3.711033102311735e-05,-4.7370605822842686e-05,-2.8808835957885023e-05,5.9286,6.9286
2.5703125,-4.7370605822842686e-05,-3.809490284733341e-05,-2.930630382696262e-05,-3.662322706797887e-05,5.9286,6.9286
2.57421875,-6.982920732890815e-05,-6.837338406958025e-06,-1.4688309864957034e-06,-3.711033102311735e-05,5.9286,6.9286
2.578125,-8.447341772487977e-05,2.5384070029755178e-05,2.880416162966361e-05,-2.2953224582284205e-05,5.9286,6.9286
2.58203125,-9.716921230029749e-05,3.0265473495079048e-05,3.856696856031135e-05,-2.0020236937514227e-05,5.9286,6.9286
2.5859375,-0.00010840369501029977,3.368556509498748e-05,3.661855273975746e-05,-3.760779889219493e-05,5.9286,6.9286
2.58984375,-0.00010889079896543825,4.492004780498979e-05,4.39354759807737e-05,-4.785770977798115e-05,5.9286,6.9286
2.59375,-0.00011133668265506974,5.272407500114451e-05,4.63813596704052e-05,-4.8344813733119634e-05,5.9286,6.9286
2.59765625,-0.00012403247723048746,5.8590050290684445e-05,5.8590050290684445e-05,-5.0293229553673536e-05,5.9286,6.9286
2.6015625,-0.00013086229651636523,5.8590050290684445e-05,7.226005277637912e-05,-5.0293229553673536e-05,5.9286,6.9286
2.60546875,-0.00013525659602655065,5.1749867090867554e-05,6.591733744563982e-05,-6.494780386358429e-05,5.9286,6.9286
2.609375,-0.0001367282718059052,5.516995869077601e-05,7.616724833142604e-05,-6.298902412909127e-05,5.9286,6.9286
2.61328125,-0.00013916379158159756,7.568014437628756e-05,9.081145872739764e-05,-5.12778013778896e-05,5.9286,6.9286
2.6171875,-0.00014942406638132288,8.34945354863814e-05,8.056154784161142e-05,-6.104060830853736e-05,5.9286,6.9286
2.62109375,-0.0001508853782467383,7.861313202105754e-05,7.470593646601062e-05,-6.0553504353398876e-05,5.9286,6.9286
2.625,-0.00013965089553673603,7.616724833142604e-05,8.007444388647294e-05,-5.713341275349043e-05,5.9286,6.9286
2.62890625,-0.00012744220491645679,8.34945354863814e-05,8.250996366216534e-05,-6.543490781872274e-05,5.9286,6.9286
2.6328125,-0.00012646799700617982,9.277023846189066e-05,8.250996366216534e-05,-7.276219497367812e-05,5.9286,6.9286
2.63671875,-0.00013330818020599672,9.520575823758307e-05,9.520575823758307e-05,-7.276219497367812e-05,5.9286,6.9286
2.640625,-0.00012207369749599444,0.00010741444885786228,0.00011278295627832465,-5.909219248798345e-05,5.9286,6.9286
2.64453125,-0.00011279799452048517,0.00010399435725795387,0.00010302014934767691,-5.0293229553673536e-05,5.9286,6.9286
2.6484375,-0.00011573098216525514,8.398163944151988e-05,9.716453797207609e-05,-5.8107620663767375e-05,5.9286,6.9286
2.65234375,-0.0001225608014511329,9.66774340169376e-05,9.42315503273061e-05,-6.298902412909127e-05,5.9286,6.9286
2.65625,-0.00012403247723048746,0.00010058462957198452,8.983725081712071e-05,-6.298902412909127e-05,5.9286,6.9286
2.66015625,-0.00012207369749599444,8.495584735179684e-05,9.032435477225919e-05,-7.519771474937051e-05,5.9286,6.9286
2.6640625,-0.00011963817772030207,7.27471567315176e-05,7.27471567315176e-05,-7.276219497367812e-05,5.9286,6.9286
2.66796875,-0.00011573098216525514,7.226005277637912e-05,6.298434980086983e-05,-5.5672100888075006e-05,5.9286,6.9286
2.671875,-0.0001142593063859006,8.593005526207378e-05,6.737864931105526e-05,-5.3226217198443504e-05,5.9286,6.9286
2.67578125,-0.00010645527918974588,9.374444637216762e-05,7.7141456241703e-05,-5.4200425108720465e-05,5.9286,6.9286
2.6796875,-9.522079647974358e-05,9.325734241702914e-05,7.372136464179454e-05,-4.492472213321119e-05,5.9286,6.9286
2.68359375,-8.39863137697413e-05,8.593005526207378e-05,7.470593646601062e-05,-3.809490284733341e-05,5.9286,6.9286
2.6875,-8.643219745937279e-05,8.250996366216534e-05,7.323426068665606e-05,-4.5411826088349665e-05,5.9286,6.9286
2.69140625,-8.740640536964974e-05,8.641715921721226e-05,6.64044414007783e-05,-5.4200425108720465e-05,5.9286,6.9286
2.6953125,-8.838061327992668e-05,8.300743153124292e-05,7.910023597619602e-05,-5.0293229553673536e-05,5.9286,6.9286
2.69921875,-9.27749127901121e-05,8.78888349965668e-05,8.398163944151988e-05,-4.589893004348813e-05,5.9286,6.9286
2.703125,-9.131360092469665e-05,6.981416908674762e-05,7.03116369558252e-05,-5.957929644312193e-05,5.9286,6.9286
2.70703125,-9.522079647974358e-05,5.6631270556191424e-05,6.298434980086983e-05,-7.471061079423203e-05,5.9286,6.9286
2.7109375,-9.082649696955817e-05,7.811566415197995e-05,7.226005277637912e-05,-5.3226217198443504e-05,5.9286,6.9286
2.71484375,-7.471061079423203e-05,9.569286219272152e-05,8.78888349965668e-05,-3.321349938200954e-05,5.9286,6.9286
2.71875,-7.276219497367812e-05,0.0001069273449027238,9.471865428244459e-05,-4.443761817807271e-05,5.9286,6.9286
2.72265625,-8.301210585946434e-05,9.911295379262998e-05,8.202285970702686e-05,-5.762051670862891e-05,5.9286,6.9286
2.7265625,-7.666939052872505e-05,8.153575575188838e-05,7.762856019684148e-05,-4.785770977798115e-05,5.9286,6.9286
2.73046875,-6.298902412909127e-05,8.54429513069353e-05,7.420846859693302e-05,-4.0530422623025795e-05,5.9286,6.9286
2.734375,-6.0553504353398876e-05,0.00011034743650263226,7.372136464179454e-05,-3.858200680247189e-05,5.9286,6.9286
2.73828125,-6.152771226367584e-05,0.00011474173601281767,8.935014686198224e-05,-3.662322706797887e-05,5.9286,6.9286
2.7421875,-7.08034152391851e-05,0.00011278295627832465,0.00010009752561684604,-4.150463053330274e-05,5.9286,6.9286
2.74609375,-6.982920732890815e-05,0.00011571594392309463,0.00010790155281300076,-4.5411826088349665e-05,5.9286,6.9286
2.75,-6.494780386358429e-05,0.00010253304539253843,0.00011083454045777074,-4.639639791256573e-05,5.9286,6.9286
2.75390625,-6.543490781872274e-05,0.0001093732285923553,0.00010790155281300076,-2.930630382696262e-05,5.9286,6.9286
2.7578125,-5.3226217198443504e-05,0.0001308576221881438,0.00011328042414740223,-1.3190417651636465e-05,5.9286,6.9286
2.76171875,-4.101752657816426e-05,0.0001332931419638362,0.00011571594392309463,-2.3927432492561166e-05,5.9286,6.9286
2.765625,-4.3950514222934244e-05,0.00013037051823300538,0.00011913603552300304,-3.809490284733341e-05,5.9286,6.9286
2.76953125,-5.4200425108720465e-05,0.00012304323107804999,0.00011328042414740223,-4.0530422623025795e-05,5.9286,6.9286
2.7734375,-5.4200425108720465e-05,0.0001249916468986039,0.00010986033254749378,-3.809490284733341e-05,5.9286,6.9286
2.77734375,-4.8831917688258114e-05,0.00012646332267795843,0.00011522883996795615,-2.2953224582284205e-05,5.9286,6.9286
2.78125,-3.760779889219493e-05,0.00012841173849851236,0.00011913603552300304,-1.8071821116960335e-05,5.9286,6.9286
2.78515625,-3.370060333714802e-05,0.00011717725578851002,0.00011376752810254071,-2.8808835957885023e-05,5.9286,6.9286
2.7890625,-4.3950514222934244e-05,9.619033006179913e-05,0.00010009752561684604,-2.3440328537422686e-05,5.9286,6.9286
2.79296875,-4.785770977798115e-05,9.179603055161373e-05,9.277023846189066e-05,-1.8558925072098815e-05,5.9286,6.9286
2.796875,-4.443761817807271e-05,9.325734241702914e-05,8.300743153124292e-05,-3.1741823602655e-05,5.9286,6.9286
2.80078125,-4.150463053330274e-05,7.226005277637912e-05,7.323426068665606e-05,-3.0280511737239564e-05,5.9286,6.9286
2.8046875,-4.3950514222934244e-05,5.6631270556191424e-05,6.005136215609988e-05,-2.73475240924696e-05,5.9286,6.9286
2.80859375,-4.200209840238034e-05,4.832977549095912e-05,4.589425571526672e-05,-4.24892023575188e-05,5.9286,6.9286
2.8125,-5.468752906385893e-05,3.710565669489594e-05,3.613144878461898e-05,-3.809490284733341e-05,5.9286,6.9286
2.81640625,-5.664630879835195e-05,3.856696856031135e-05,4.052574829480437e-05,-3.076761569237804e-05,5.9286,6.9286
2.8203125,-4.3463410267795763e-05,2.5871173984893658e-05,4.198706016021981e-05,-3.955621471274884e-05,5.9286,6.9286
2.82421875,-4.004331866788732e-05,1.6108367054245887e-05,3.661855273975746e-05,-3.564901915770191e-05,5.9286,6.9286
2.828125,-3.711033102311735e-05,1.3175379409475937e-05,2.831705767452513e-05,-3.0280511737239564e-05,5.9286,6.9286
2.83203125,-3.613612311284039e-05,2.196397842984672e-05,1.3662483364614416e-05,-3.370060333714802e-05,5.9286,6.9286
2.8359375,-3.516191520256345e-05,1.952845865415435e-05,2.1476874474708238e-05,-3.222892755779347e-05,5.9286,6.9286
2.83984375,-3.271603151293195e-05,6.345560123598148e-06,1.4647055188830477e-05,-3.564901915770191e-05,5.9286,6.9286
2.84375,-2.930630382696262e-05,3.899676433966647e-06,-4.401818631265655e-06,-4.3463410267795763e-05,5.9286,6.9286
2.84765625,-3.0280511737239564e-05,-7.519121080264313e-09,2.9254685236897157e-06,-3.321349938200954e-05,5.9286,6.9286
2.8515625,-4.150463053330274e-05,-7.821910231174115e-06,-1.4688309864957034e-06,-3.467481124742497e-05,5.9286,6.9286
2.85546875,-4.0530422623025795e-05,4.795848340582154e-07,-7.821910231174115e-06,-4.3463410267795763e-05,5.9286,6.9286
2.859375,-3.516191520256345e-05,1.9512606134127566e-06,-8.796118141451046e-06,-3.858200680247189e-05,5.9286,6.9286
2.86328125,-3.858200680247189e-05,-1.4651729517051876e-05,-1.3677521606774945e-05,-3.516191520256345e-05,5.9286,6.9286
2.8671875,-3.906911075761036e-05,-2.4414536447699617e-05,-2.73475240924696e-05,-4.8831917688258114e-05,5.9286,6.9286
2.87109375,-4.0530422623025795e-05,-2.6860420137331118e-05,-4.004331866788732e-05,-5.468752906385893e-05,5.9286,6.9286
2.875,-4.3463410267795763e-05,-2.8321732002746556e-05,-3.076761569237804e-05,-4.150463053330274e-05,5.9286,6.9286
2.87890625,-4.639639791256573e-05,-2.930630382696262e-05,-1.8071821116960335e-05,-3.271603151293195e-05,5.9286,6.9286
2.8828125,-5.3226217198443504e-05,-2.7834628047608076e-05,-2.1979016672007248e-05,-3.809490284733341e-05,5.9286,6.9286
2.88671875,-5.3713321153581985e-05,-2.3927432492561166e-05,-3.370060333714802e-05,-2.2466120627145728e-05,5.9286,6.9286
2.890625,-4.0530422623025795e-05,-2.2466120627145728e-05,-3.711033102311735e-05,-6.837338406958025e-06,5.9286,6.9286
2.89453125,-2.637331618219265e-05,-1.5138833472190355e-05,-2.3927432492561166e-05,-2.5886212227054174e-05,5.9286,6.9286
2.8984375,-2.2466120627145728e-05,-9.283222096589525e-06,-2.1004808761730286e-05,-2.8808835957885023e-05,5.9286,6.9286
2.90234375,-3.0280511737239564e-05,-2.5886212227054174e-05,-4.004331866788732e-05,-2.5399108271915707e-05,5.9286,6.9286
2.90625,-4.004331866788732e-05,-3.662322706797887e-05,-3.906911075761036e-05,-4.004331866788732e-05,5.9286,6.9286
2.91015625,-4.004331866788732e-05,-4.004331866788732e-05,-2.7834628047608076e-05,-3.858200680247189e-05,5.9286,6.9286
2.9140625,-3.906911075761036e-05,-4.200209840238034e-05,-2.9793407782101096e-05,-2.637331618219265e-05,5.9286,6.9286
2.91796875,-4.101752657816426e-05,-3.613612311284039e-05,-3.271603151293195e-05,-2.7834628047608076e-05,5.9286,6.9286
2.921875,-3.760779889219493e-05,-2.7834628047608076e-05,-2.4414536447699617e-05,-2.637331618219265e-05,5.9286,6.9286
2.92578125,-2.5886212227054174e-05,-2.4912004316777226e-05,-2.2953224582284205e-05,-3.370060333714802e-05,5.9286,6.9286
2.9296875,-1.7097613206683377e-05,-3.467481124742497e-05,-4.0530422623025795e-05,-3.906911075761036e-05,5.9286,6.9286
2.93359375,-2.4414536447699617e-05,-3.418770729228649e-05,-4.297630631265728e-05,-2.5886212227054174e-05,5.9286,6.9286
2.9375,-2.6860420137331118e-05,-2.1979016672007248e-05,-2.637331618219265e-05,-2.5886212227054174e-05,5.9286,6.9286
2.94140625,-1.6123405296406416e-05,-1.7584717161821854e-05,-1.6123405296406416e-05,-2.5399108271915707e-05,5.9286,6.9286
2.9453125,-2.0517704806591836e-05,-3.711033102311735e-05,-2.7834628047608076e-05,-1.3677521606774945e-05,5.9286,6.9286
2.94921875,-4.200209840238034e-05,-4.639639791256573e-05,-4.3463410267795763e-05,-2.0517704806591836e-05,5.9286,6.9286
2.953125,-3.955621471274884e-05,-3.418770729228649e-05,-4.297630631265728e-05,-2.8808835957885023e-05,5.9286,6.9286
2.95703125,-3.125471964751652e-05,-3.711033102311735e-05,-4.24892023575188e-05,-3.418770729228649e-05,5.9286,6.9286
2.9609375,-3.271603151293195e-05,-3.760779889219493e-05,-5.225200928816656e-05,-4.3463410267795763e-05,5.9286,6.9286
2.96484375,-3.222892755779347e-05,-4.639639791256573e-05,-5.762051670862891e-05,-4.8344813733119634e-05,5.9286,6.9286
2.96875,-3.1741823602655e-05,-4.688350186770421e-05,-4.3463410267795763e-05,-3.613612311284039e-05,5.9286,6.9286
2.97265625,-3.564901915770191e-05,-2.637331618219265e-05,-3.955621471274884e-05,-2.0020236937514227e-05,5.9286,6.9286
2.9765625,-4.0530422623025795e-05,-1.8071821116960335e-05,-3.711033102311735e-05,-2.2466120627145728e-05,5.9286,6.9286
2.98046875,-3.076761569237804e-05,-3.370060333714802e-05,-2.930630382696262e-05,-2.5886212227054174e-05,5.9286,6.9286
2.984375,-2.5399108271915707e-05,-2.9793407782101096e-05,-3.1741823602655e-05,-1.9533132982375746e-05,5.9286,6.9286
2.98828125,-2.8321732002746556e-05,-2.3927432492561166e-05,-3.370060333714802e-05,-2.4414536447699617e-05,5.9286,6.9286
2.9921875,-2.2953224582284205e-05,-3.516191520256345e-05,-4.0530422623025795e-05,-3.760779889219493e-05,5.9286,6.9286
2.99609375,-2.9793407782101096e-05,-2.8808835957885023e-05,-2.9793407782101096e-05,-4.101752657816426e-05,5.9286,6.9286
3.0,-4.5411826088349665e-05,-1.7097613206683377e-05,-2.4912004316777226e-05,-4.150463053330274e-05,5.9286,6.9286
3.00390625,-3.662322706797887e-05,-2.637331618219265e-05,-3.955621471274884e-05,-3.613612311284039e-05,5.9286,6.9286
3.0078125,-2.4414536447699617e-05,-3.0280511737239564e-05,-4.297630631265728e-05,-4.639639791256573e-05,5.9286,6.9286
3.01171875,-2.4414536447699617e-05,-1.9533132982375746e-05,-3.516191520256345e-05,-5.713341275349043e-05,5.9286,6.9286
3.015625,-2.1979016672007248e-05,-1.5625937427328834e-05,-2.4912004316777226e-05,-4.8831917688258114e-05,5.9286,6.9286
3.01953125,-2.0020236937514227e-05,-1.0744533962004965e-05,-2.5399108271915707e-05,-4.0530422623025795e-05,5.9286,6.9286
3.0234375,-2.73475240924696e-05,-1.2703313696497986e-05,-3.418770729228649e-05,-2.637331618219265e-05,5.9286,6.9286
3.02734375,-2.8808835957885023e-05,-1.4651729517051876e-05,-3.321349938200954e-05,-2.4414536447699617e-05,5.9286,6.9286
3.03125,-1.9533132982375746e-05,-2.3440328537422686e-05,-3.370060333714802e-05,-2.637331618219265e-05,5.9286,6.9286
3.03515625,-2.5399108271915707e-05,-2.7834628047608076e-05,-3.955621471274884e-05,-2.6860420137331118e-05,5.9286,6.9286
3.0390625,-3.564901915770191e-05,-1.9046029027237266e-05,-4.5411826088349665e-05,-2.1979016672007248e-05,5.9286,6.9286
3.04296875,-3.564901915770191e-05,-2.1979016672007248e-05,-4.200209840238034e-05,-1.1231637917143444e-05,5.9286,6.9286
3.046875,-2.7834628047608076e-05,-2.73475240924696e-05,-3.613612311284039e-05,-1.6123405296406416e-05,5.9286,6.9286
3.05078125,-2.930630382696262e-05,-3.076761569237804e-05,-3.906911075761036e-05,-3.1741823602655e-05,5.9286,6.9286
3.0546875,-3.613612311284039e-05,-3.418770729228649e-05,-4.297630631265728e-05,-4.492472213321119e-05,5.9286,6.9286
3.05859375,-3.418770729228649e-05,-3.711033102311735e-05,-3.076761569237804e-05,-3.321349938200954e-05,5.9286,6.9286
3.0625,-3.125471964751652e-05,-3.222892755779347e-05,-3.370060333714802e-05,-1.2216209741359505e-05,5.9286,6.9286
3.06640625,-3.222892755779347e-05,-4.200209840238034e-05,-4.785770977798115e-05,-1.5625937427328834e-05,5.9286,6.9286
3.0703125,-2.8808835957885023e-05,-5.225200928816656e-05,-5.0293229553673536e-05,-2.0020236937514227e-05,5.9286,6.9286
3.07421875,-3.370060333714802e-05,-4.688350186770421e-05,-4.8831917688258114e-05,-2.637331618219265e-05,5.9286,6.9286
3.078125,-4.9319021643396595e-05,-3.955621471274884e-05,-3.809490284733341e-05,-3.321349938200954e-05,5.9286,6.9286
3.08203125,-5.176490533302808e-05,-5.225200928816656e-05,-5.4200425108720465e-05,-3.564901915770191e-05,5.9286,6.9286
3.0859375,-4.150463053330274e-05,-5.6159204843213486e-05,-6.20148162188143e-05,-3.125471964751652e-05,5.9286,6.9286
3.08984375,-4.297630631265728e-05,-5.762051670862891e-05,-5.468752906385893e-05,-3.906911075761036e-05,5.9286,6.9286
3.09375,-4.0530422623025795e-05,-6.298902412909127e-05,-5.8594724618905855e-05,-6.20148162188143e-05,5.9286,6.9286
3.09765625,-3.271603151293195e-05,-5.3226217198443504e-05,-5.3713321153581985e-05,-5.762051670862891e-05,5.9286,6.9286
3.1015625,-3.467481124742497e-05,-5.5672100888075006e-05,-5.176490533302808e-05,-2.9793407782101096e-05,5.9286,6.9286
3.10546875,-3.467481124742497e-05,-5.762051670862891e-05,-5.12778013778896e-05,-2.0020236937514227e-05,5.9286,6.9286
3.109375,-2.4912004316777226e-05,-4.589893004348813e-05,-4.785770977798115e-05,-3.076761569237804e-05,5.9286,6.9286
3.11328125,-1.9046029027237266e-05,-3.906911075761036e-05,-4.0530422623025795e-05,-2.5399108271915707e-05,5.9286,6.9286
3.1171875,-2.8321732002746556e-05,-3.955621471274884e-05,-3.760779889219493e-05,-3.1741823602655e-05,5.9286,6.9286
3.12109375,-3.0280511737239564e-05,-3.418770729228649e-05,-3.418770729228649e-05,-3.613612311284039e-05,5.9286,6.9286
3.125,-2.8808835957885023e-05,-4.5411826088349665e-05,-3.955621471274884e-05,-3.0280511737239564e-05,5.9286,6.9286
3.12890625,-2.8808835957885023e-05,-4.9319021643396595e-05,-5.0293229553673536e-05,-3.076761569237804e-05,5.9286,6.9286
3.1328125,-2.0020236937514227e-05,-3.418770729228649e-05,-4.200209840238034e-05,-1.6610509251544897e-05,5.9286,6.9286
3.13671875,-1.3677521606774945e-05,-3.370060333714802e-05,-3.711033102311735e-05,-1.4651729517051876e-05,5.9286,6.9286
3.140625,-1.0744533962004965e-05,-3.0280511737239564e-05,-3.222892755779347e-05,-1.2216209741359505e-05,5.9286,6.9286
3.14453125,-1.4164625561913397e-05,-3.809490284733341e-05,-3.613612311284039e-05,-1.3190417651636465e-05,5.9286,6.9286
3.1484375,-2.2953224582284205e-05,-4.492472213321119e-05,-3.906911075761036e-05,-2.3927432492561166e-05,5.9286,6.9286
3.15234375,-2.4414536447699617e-05,-3.0280511737239564e-05,-3.321349938200954e-05,-2.5886212227054174e-05,5.9286,6.9286
3.15625,-2.3440328537422686e-05,-3.613612311284039e-05,-3.858200680247189e-05,-3.0280511737239564e-05,5.9286,6.9286
3.16015625,-2.5399108271915707e-05,-3.955621471274884e-05,-4.443761817807271e-05,-3.076761569237804e-05,5.9286,6.9286
3.1640625,-3.321349938200954e-05,-3.125471964751652e-05,-4.200209840238034e-05,-2.1004808761730286e-05,5.9286,6.9286
3.16796875,-2.8808835957885023e-05,-3.906911075761036e-05,-4.639639791256573e-05,-2.0020236937514227e-05,5.9286,6.9286
3.171875,-2.1004808761730286e-05,-4.200209840238034e-05,-4.688350186770421e-05,-1.9046029027237266e-05,5.9286,6.9286
3.17578125,-2.7834628047608076e-05,-3.0280511737239564e-05,-3.662322706797887e-05,-2.73475240924696e-05,5.9286,6.9286
3.1796875,-2.6860420137331118e-05,-2.5886212227054174e-05,-3.125471964751652e-05,-3.125471964751652e-05,5.9286,6.9286
3.18359375,-1.9046029027237266e-05,-2.8808835957885023e-05,-3.564901915770191e-05,-1.8071821116960335e-05,5.9286,6.9286
3.1875,-1.7584717161821854e-05,-2.7834628047608076e-05,-4.101752657816426e-05,-2.1491912716868767e-05,5.9286,6.9286
3.19140625,-2.1491912716868767e-05,-1.7584717161821854e-05,-2.8321732002746556e-05,-1.6610509251544897e-05,5.9286,6.9286
3.1953125,-2.4912004316777226e-05,1.464156658274277e-06,9.666887891966951e-07,-8.796118141451046e-06,5.9286,6.9286
3.19921875,-1.2216209741359505e-05,6.345560123598148e-06,4.795848340582154e-07,-1.8071821116960335e-05,5.9286,6.9286
3.203125,-9.817270313572236e-07,-1.6610509251544897e-05,-4.004331866788732e-05,-3.125471964751652e-05,5.9286,6.9286
3.20703125,-3.9147146761271755e-06,-4.639639791256573e-05,-5.8594724618905855e-05,-2.9793407782101096e-05,5.9286,6.9286
3.2109375,-1.2216209741359505e-05,-4.7370605822842686e-05,-4.980612559853506e-05,-3.125471964751652e-05,5.9286,6.9286
3.21484375,-2.4912004316777226e-05,-3.076761569237804e-05,-4.492472213321119e-05,-4.492472213321119e-05,5.9286,6.9286
3.21875,-2.6860420137331118e-05,-1.9533132982375746e-05,-4.443761817807271e-05,-5.0293229553673536e-05,5.9286,6.9286
3.22265625,-2.5886212227054174e-05,-2.3927432492561166e-05,-4.297630631265728e-05,-3.613612311284039e-05,5.9286,6.9286
3.2265625,-2.0517704806591836e-05,-3.467481124742497e-05,-4.0530422623025795e-05,-3.1741823602655e-05,5.9286,6.9286
3.23046875,-2.1491912716868767e-05,-3.125471964751652e-05,-4.785770977798115e-05,-4.492472213321119e-05,5.9286,6.9286
3.234375,-2.7834628047608076e-05,-3.760779889219493e-05,-4.3950514222934244e-05,-4.980612559853506e-05,5.9286,6.9286
3.23828125,-2.2466120627145728e-05,-3.222892755779347e-05,-2.7834628047608076e-05,-4.150463053330274e-05,5.9286,6.9286
3.2421875,-2.7834628047608076e-05,-2.5399108271915707e-05,-3.076761569237804e-05,-4.3950514222934244e-05,5.9286,6.9286
3.24609375,-3.370060333714802e-05,-3.711033102311735e-05,-4.297630631265728e-05,-4.8344813733119634e-05,5.9286,6.9286
3.25,-2.637331618219265e-05,-2.4414536447699617e-05,-3.321349938200954e-05,-2.8808835957885023e-05,5.9286,6.9286
3.25390625,-1.6610509251544897e-05,-7.324442362096505e-06,-1.6610509251544897e-05,-2.1491912716868767e-05,5.9286,6.9286
3.2578125,-1.2703313696497986e-05,-3.4276107209886958e-06,-9.770326051728005e-06,-2.0020236937514227e-05,5.9286,6.9286
3.26171875,-1.9046029027237266e-05,-1.4164625561913397e-05,-2.1491912716868767e-05,-1.1231637917143444e-05,5.9286,6.9286
3.265625,-1.7097613206683377e-05,-2.3927432492561166e-05,-3.1741823602655e-05,-1.0744533962004965e-05,5.9286,6.9286
3.26953125,-1.9533132982375746e-05,-2.8808835957885023e-05,-2.73475240924696e-05,-2.73475240924696e-05,5.9286,6.9286
3.2734375,-3.321349938200954e-05,-2.9793407782101096e-05,-2.637331618219265e-05,-4.980612559853506e-05,5.9286,6.9286
3.27734375,-3.0280511737239564e-05,-3.222892755779347e-05,-3.564901915770191e-05,-4.5411826088349665e-05,5.9286,6.9286
3.28125,-2.1491912716868767e-05,-2.6860420137331118e-05,-3.906911075761036e-05,-3.125471964751652e-05,5.9286,6.9286
3.28515625,-2.3440328537422686e-05,-1.9046029027237266e-05,-3.1741823602655e-05,-3.0280511737239564e-05,5.9286,6.9286
3.2890625,-2.8321732002746556e-05,-3.0280511737239564e-05,-3.125471964751652e-05,-3.271603151293195e-05,5.9286,6.9286
3.29296875,-2.3440328537422686e-05,-2.6860420137331118e-05,-2.3440328537422686e-05,-3.125471964751652e-05,5.9286,6.9286
3.296875,-1.6123405296406416e-05,-1.4164625561913397e-05,-2.2953224582284205e-05,-2.637331618219265e-05,5.9286,6.9286
3.30078125,-2.1491912716868767e-05,-9.770326051728005e-06,-1.8558925072098815e-05,-7.821910231174115e-06,5.9286,6.9286
3.3046875,-2.9793407782101096e-05,-2.4912004316777226e-05,-2.4414536447699617e-05,-2.8808835957885023e-05,5.9286,6.9286
3.30859375,-4.0530422623025795e-05,-3.516191520256345e-05,-3.516191520256345e-05,-6.250192017395278e-05,5.9286,6.9286
3.3125,-4.3463410267795763e-05,-3.516191520256345e-05,-3.516191520256345e-05,-5.0790697422751135e-05,5.9286,6.9286
3.31640625,-3.1741823602655e-05,-2.1004808761730286e-05,-2.6860420137331118e-05,-2.6860420137331118e-05,5.9286,6.9286
3.3203125,-2.8321732002746556e-05,-2.2953224582284205e-05,-3.516191520256345e-05,-2.6860420137331118e-05,5.9286,6.9286
3.32421875,-2.930630382696262e-05,-4.101752657816426e-05,-4.3950514222934244e-05,-3.222892755779347e-05,5.9286,6.9286
3.328125,-3.613612311284039e-05,-4.0530422623025795e-05,-3.222892755779347e-05,-2.3440328537422686e-05,5.9286,6.9286
3.33203125,-3.711033102311735e-05,-3.076761569237804e-05,-2.9793407782101096e-05,-1.9046029027237266e-05,5.9286,6.9286
3.3359375,-3.321349938200954e-05,-2.9793407782101096e-05,-3.418770729228649e-05,-2.6860420137331118e-05,5.9286,6.9286
3.33984375,-3.321349938200954e-05,-2.9793407782101096e-05,-3.271603151293195e-05,-2.9793407782101096e-05,5.9286,6.9286
3.34375,-2.6860420137331118e-05,-2.2466120627145728e-05,-3.076761569237804e-05,-2.8808835957885023e-05,5.9286,6.9286
3.34765625,-2.1004808761730286e-05,-2.4912004316777226e-05,-3.222892755779347e-05,-3.564901915770191e-05,5.9286,6.9286
3.3515625,-2.637331618219265e-05,-3.125471964751652e-05,-3.1741823602655e-05,-3.809490284733341e-05,5.9286,6.9286
3.35546875,-3.613612311284039e-05,-2.8321732002746556e-05,-3.858200680247189e-05,-3.222892755779347e-05,5.9286,6.9286
3.359375,-3.467481124742497e-05,-1.9533132982375746e-05,-2.5399108271915707e-05,-1.7097613206683377e-05,5.9286,6.9286
3.36328125,-2.3440328537422686e-05,-2.2466120627145728e-05,-1.1729105786221026e-05,-1.0257430006866484e-05,5.9286,6.9286
3.3671875,-2.0020236937514227e-05,-3.321349938200954e-05,-2.637331618219265e-05,-6.837338406958025e-06,5.9286,6.9286
3.37109375,-2.73475240924696e-05,-3.711033102311735e-05,-3.760779889219493e-05,-1.1729105786221026e-05,5.9286,6.9286
3.375,-2.8808835957885023e-05,-2.8321732002746556e-05,-3.809490284733341e-05,-3.222892755779347e-05,5.9286,6.9286
3.37890625,-3.418770729228649e-05,-1.5138833472190355e-05,-2.8808835957885023e-05,-3.516191520256345e-05,5.9286,6.9286
3.3828125,-3.711033102311735e-05,-2.0020236937514227e-05,-2.8321732002746556e-05,-2.5399108271915707e-05,5.9286,6.9286
3.38671875,-3.125471964751652e-05,-3.662322706797887e-05,-4.101752657816426e-05,-2.5886212227054174e-05,5.9286,6.9286
3.390625,-3.271603151293195e-05,-3.613612311284039e-05,-4.101752657816426e-05,-3.760779889219493e-05,5.9286,6.9286
3.39453125,-3.467481124742497e-05,-2.5886212227054174e-05,-4.24892023575188e-05,-2.930630382696262e-05,5.9286,6.9286
3.3984375,-3.858200680247189e-05,-2.5886212227054174e-05,-4.3463410267795763e-05,-2.4912004316777226e-05,5.9286,6.9286
3.40234375,-4.150463053330274e-05,-3.613612311284039e-05,-4.5411826088349665e-05,-3.321349938200954e-05,5.9286,6.9286
3.40625,-3.1741823602655e-05,-2.2953224582284205e-05,-2.7834628047608076e-05,-3.0280511737239564e-05,5.9286,6.9286
3.41015625,-2.5886212227054174e-05,-1.7097613206683377e-05,-1.3190417651636465e-05,-2.73475240924696e-05,5.9286,6.9286
3.4140625,-3.711033102311735e-05,-4.3463410267795763e-05,-3.809490284733341e-05,-4.3463410267795763e-05,5.9286,6.9286
3.41796875,-5.12778013778896e-05,-3.955621471274884e-05,-3.271603151293195e-05,-4.980612559853506e-05,5.9286,6.9286
3.421875,-6.104060830853736e-05,-2.2953224582284205e-05,-1.3677521606774945e-05,-4.9319021643396595e-05,5.9286,6.9286
3.42578125,-6.592201177386122e-05,-7.519121080264313e-09,4.386780389105126e-06,-3.809490284733341e-05,5.9286,6.9286
3.4296875,-5.762051670862891e-05,1.3175379409475937e-05,2.0502666564431307e-05,-3.222892755779347e-05,5.9286,6.9286
3.43359375,-5.12778013778896e-05,2.0502666564431307e-05,3.173714927443359e-05,-3.955621471274884e-05,5.9286,6.9286
3.4375,-4.8831917688258114e-05,4.149995620508133e-05,4.784267153582064e-05,-4.004331866788732e-05,5.9286,6.9286
3.44140625,-4.785770977798115e-05,4.39354759807737e-05,5.272407500114451e-05,-3.955621471274884e-05,5.9286,6.9286
3.4453125,-5.0293229553673536e-05,3.0752577450217525e-05,4.443294384985131e-05,-3.858200680247189e-05,5.9286,6.9286
3.44921875,-4.7370605822842686e-05,3.80798646051729e-05,3.222425322957207e-05,-4.785770977798115e-05,5.9286,6.9286
3.453125,-4.150463053330274e-05,4.832977549095912e-05,4.198706016021981e-05,-5.176490533302808e-05,5.9286,6.9286
3.45703125,-4.3950514222934244e-05,3.80798646051729e-05,4.980145127031366e-05,-4.443761817807271e-05,5.9286,6.9286
3.4609375,-3.711033102311735e-05,5.028855522545214e-05,4.931434731517518e-05,-4.492472213321119e-05,5.9286,6.9286
3.46484375,-3.125471964751652e-05,5.6631270556191424e-05,4.980145127031366e-05,-4.004331866788732e-05,5.9286,6.9286
3.46875,-3.1741823602655e-05,4.492004780498979e-05,4.492004780498979e-05,-3.809490284733341e-05,5.9286,6.9286
3.47265625,-2.6860420137331118e-05,4.149995620508133e-05,3.56443448294805e-05,-3.613612311284039e-05,5.9286,6.9286
3.4765625,-2.4912004316777226e-05,4.63813596704052e-05,4.589425571526672e-05,-2.4414536447699617e-05,5.9286,6.9286
3.48046875,-2.930630382696262e-05,4.784267153582064e-05,5.126276313572907e-05,-3.711033102311735e-05,5.9286,6.9286
3.484375,-2.5399108271915707e-05,3.514687696040292e-05,3.661855273975746e-05,-5.468752906385893e-05,5.9286,6.9286
3.48828125,-2.1491912716868767e-05,2.4896966074616697e-05,3.173714927443359e-05,-3.418770729228649e-05,5.9286,6.9286
3.4921875,-2.4912004316777226e-05,2.880416162966361e-05,2.782995371938668e-05,-2.1491912716868767e-05,5.9286,6.9286
3.49609375,-2.6860420137331118e-05,3.613144878461898e-05,3.173714927443359e-05,-3.0280511737239564e-05,5.9286,6.9286
3.5,-3.125471964751652e-05,2.343565420920126e-05,2.440986211947822e-05,-3.760779889219493e-05,5.9286,6.9286
3.50390625,-3.760779889219493e-05,1.5621263099107437e-05,1.0739859633783538e-05,-4.492472213321119e-05,5.9286,6.9286
3.5078125,-3.0280511737239564e-05,2.24510823849852e-05,1.0739859633783538e-05,-4.004331866788732e-05,5.9286,6.9286
3.51171875,-2.1004808761730286e-05,2.24510823849852e-05,1.2201171499198978e-05,-4.785770977798115e-05,5.9286,6.9286
3.515625,-2.3927432492561166e-05,2.684538189517059e-05,1.904135469901587e-05,-4.589893004348813e-05,5.9286,6.9286
3.51953125,-2.3440328537422686e-05,2.880416162966361e-05,2.4896966074616697e-05,-2.1979016672007248e-05,5.9286,6.9286
3.5234375,-2.1491912716868767e-05,2.440986211947822e-05,2.7342849764248198e-05,-3.076761569237804e-05,5.9286,6.9286
3.52734375,-2.2466120627145728e-05,1.1714067544060497e-05,7.806871989013586e-06,-3.858200680247189e-05,5.9286,6.9286
3.53125,-2.0020236937514227e-05,2.4383645685512364e-06,-5.8631304966810944e-06,-3.271603151293195e-05,5.9286,6.9286
3.53515625,-2.8321732002746556e-05,-1.9559349416341547e-06,-3.9147146761271755e-06,-3.516191520256345e-05,5.9286,6.9286
3.5390625,-2.5886212227054174e-05,5.3609882993820856e-06,2.4383645685512364e-06,-2.0020236937514227e-05,5.9286,6.9286
3.54296875,-1.6610509251544897e-05,1.6595471009384367e-05,1.6595471009384367e-05,-1.1729105786221026e-05,5.9286,6.9286
3.546875,-2.1004808761730286e-05,4.873884344243606e-06,-3.9147146761271755e-06,-2.8321732002746556e-05,5.9286,6.9286
3.55078125,-1.7097613206683377e-05,-1.3190417651636465e-05,-1.4164625561913397e-05,-3.370060333714802e-05,5.9286,6.9286
3.5546875,-1.4164625561913397e-05,-9.283222096589525e-06,-1.4688309864957034e-06,-3.222892755779347e-05,5.9286,6.9286
3.55859375,-2.1004808761730286e-05,1.464156658274277e-06,-2.4430388967726345e-06,-3.418770729228649e-05,5.9286,6.9286
3.5625,-3.564901915770191e-05,-1.2703313696497986e-05,-1.3190417651636465e-05,-1.9046029027237266e-05,5.9286,6.9286
3.56640625,-3.613612311284039e-05,-1.4164625561913397e-05,-1.3190417651636465e-05,-1.4651729517051876e-05,5.9286,6.9286
3.5703125,-3.222892755779347e-05,-4.401818631265655e-06,-1.8071821116960335e-05,-3.662322706797887e-05,5.9286,6.9286
3.57421875,-4.7370605822842686e-05,-3.4276107209886958e-06,-2.6860420137331118e-05,-3.564901915770191e-05,5.9286,6.9286
3.578125,-4.3950514222934244e-05,-7.519121080264313e-09,-2.3440328537422686e-05,-3.0280511737239564e-05,5.9286,6.9286
3.58203125,-2.930630382696262e-05,-9.283222096589525e-06,-3.321349938200954e-05,-3.1741823602655e-05,5.9286,6.9286
3.5859375,-2.5886212227054174e-05,-1.6610509251544897e-05,-2.8321732002746556e-05,-2.5886212227054174e-05,5.9286,6.9286
3.58984375,-2.4912004316777226e-05,-1.5625937427328834e-05,-2.8321732002746556e-05,-3.125471964751652e-05,5.9286,6.9286
3.59375,-2.1491912716868767e-05,-6.350234451819574e-06,-3.711033102311735e-05,-3.370060333714802e-05,5.9286,6.9286
3.59765625,-2.0020236937514227e-05,-1.9559349416341547e-06,-2.4912004316777226e-05,-2.2466120627145728e-05,5.9286,6.9286
3.6015625,-2.3440328537422686e-05,-1.3677521606774945e-05,-2.0517704806591836e-05,-6.837338406958025e-06,5.9286,6.9286
3.60546875,-2.2466120627145728e-05,-2.637331618219265e-05,-2.4912004316777226e-05,-4.401818631265655e-06,5.9286,6.9286
3.609375,-3.1741823602655e-05,-3.760779889219493e-05,-4.589893004348813e-05,-2.930630382696262e-05,5.9286,6.9286
3.61328125,-2.73475240924696e-05,-2.5399108271915707e-05,-3.955621471274884e-05,-4.297630631265728e-05,5.9286,6.9286
3.6171875,-2.1491912716868767e-05,-5.8631304966810944e-06,-2.4414536447699617e-05,-3.955621471274884e-05,5.9286,6.9286
3.62109375,-2.3927432492561166e-05,-1.1729105786221026e-05,-2.8808835957885023e-05,-3.1741823602655e-05,5.9286,6.9286
3.625,-1.7097613206683377e-05,-1.6610509251544897e-05,-2.7834628047608076e-05,-2.8321732002746556e-05,5.9286,6.9286
3.62890625,-8.309014186312594e-06,-1.6123405296406416e-05,-2.2953224582284205e-05,-1.8071821116960335e-05,5.9286,6.9286
3.6328125,-6.350234451819574e-06,-7.324442362096505e-06,-1.3677521606774945e-05,-7.821910231174115e-06,5.9286,6.9286
3.63671875,-1.0744533962004965e-05,-1.0257430006866484e-05,-6.350234451819574e-06,-3.4276107209886958e-06,5.9286,6.9286
3.640625,-6.350234451819574e-06,-1.9046029027237266e-05,-1.2703313696497986e-05,-1.1231637917143444e-05,5.9286,6.9286
3.64453125,-1.1231637917143444e-05,-4.150463053330274e-05,-3.564901915770191e-05,-2.2953224582284205e-05,5.9286,6.9286
3.6484375,-1.3190417651636465e-05,-5.664630879835195e-05,-5.8107620663767375e-05,-1.1231637917143444e-05,5.9286,6.9286
3.65234375,-1.4688309864957034e-06,-6.250192017395278e-05,-7.519771474937051e-05,-1.6123405296406416e-05,5.9286,6.9286
3.65625,2.343565420920126e-05,-7.031631128404662e-05,-8.057658608377196e-05,-5.376026541542615e-06,5.9286,6.9286
3.66015625,4.39354759807737e-05,-7.568481870450896e-05,-8.349920981460282e-05,1.0739859633783538e-05,5.9286,6.9286
3.6640625,5.8590050290684445e-05,-0.0001035222915449759,-9.864088807965203e-05,1.0739859633783538e-05,5.9286,6.9286
3.66796875,6.493276562142376e-05,-0.00013379528416113522,-0.00012451958118562593,4.386780389105126e-06,5.9286,6.9286
3.671875,6.249724584573138e-05,-0.00013721537576104367,-0.00013330818020599672,1.3662483364614416e-05,5.9286,6.9286
3.67578125,9.325734241702914e-05,-0.00014160967527122905,-0.0001377024797161821,1.8056782874799806e-05,5.9286,6.9286
3.6796875,0.00011913603552300304,-0.00018505520250400545,-0.00019238248965896081,1.2201171499198978e-05,5.9286,6.9286
3.68359375,0.00011962313947814152,-0.00022118380649576556,-0.0002377867966262302,2.0989770519569757e-05,5.9286,6.9286
3.6875,0.00013231893405355925,-0.00022606520996108946,-0.00024023268031586172,5.077565918059059e-05,5.9286,6.9286
3.69140625,0.00014013332516365313,-0.00024023268031586172,-0.000246575395646601,7.811566415197995e-05,5.9286,6.9286
3.6953125,0.00012987305036392773,-0.00025585109862211023,-0.0002636654897322041,6.20101418905929e-05,5.9286,6.9286
3.69921875,0.00011669015183337154,-0.0002641525936873426,-0.0002753870763973449,3.613144878461898e-05,5.9286,6.9286
3.703125,0.00012011024343328,-0.0002680597892423895,-0.00028075558381780724,3.7592760650034416e-05,5.9286,6.9286
3.70703125,0.00011522883996795615,-0.0002617170739116502,-0.00027587418035248334,2.782995371938668e-05,5.9286,6.9286
3.7109375,9.619033006179913e-05,-0.0002587840862668802,-0.0002709927768871595,2.4383645685512364e-06,5.9286,6.9286
3.71484375,9.325734241702914e-05,-0.00024706249960173947,-0.00026903399715266644,-1.4688309864957034e-06,5.9286,6.9286
3.71875,8.641715921721226e-05,-0.00023681258871595325,-0.00025585109862211023,1.0739859633783538e-05,5.9286,6.9286
3.72265625,7.372136464179454e-05,-0.000224603898095674,-0.0002333924971160448,2.2948550254062778e-05,5.9286,6.9286
3.7265625,5.95642582009614e-05,-0.0002050679203204394,-0.0002182611827649347,1.7082574964522848e-05,5.9286,6.9286
3.73046875,4.686846362554368e-05,-0.0001899366059693293,-0.00021484109116502628,1.1714067544060497e-05,5.9286,6.9286
3.734375,4.784267153582064e-05,-0.00016454501681849388,-0.00018260931881437393,1.3662483364614416e-05,5.9286,6.9286
3.73828125,4.540715176012824e-05,-0.00015526931384298462,-0.00016454501681849388,-6.350234451819574e-06,5.9286,6.9286
3.7421875,2.2948550254062778e-05,-0.00015234669011215376,-0.00017382071979400314,-2.0517704806591836e-05,5.9286,6.9286
3.74609375,3.4125724788281954e-06,-0.0001294009846509498,-0.00015673062570840002,-2.637331618219265e-05,5.9286,6.9286
3.75,-1.1231637917143444e-05,-0.00010206097967956047,-0.00012744220491645679,-3.809490284733341e-05,5.9286,6.9286
3.75390625,-2.0517704806591836e-05,-7.568481870450896e-05,-0.00010400939550011437,-3.809490284733341e-05,5.9286,6.9286
3.7578125,-3.564901915770191e-05,-6.788079150835424e-05,-9.668210834515901e-05,-3.564901915770191e-05,5.9286,6.9286
3.76171875,-5.3713321153581985e-05,-6.397359595330732e-05,-8.497088559395736e-05,-4.785770977798115e-05,5.9286,6.9286
3.765625,-6.104060830853736e-05,-4.492472213321119e-05,-6.885499941863119e-05,-4.297630631265728e-05,5.9286,6.9286
3.76953125,-7.031631128404662e-05,-3.125471964751652e-05,-5.8594724618905855e-05,-3.1741823602655e-05,5.9286,6.9286
3.7734375,-7.715649448386353e-05,-2.6860420137331118e-05,-4.589893004348813e-05,-4.7370605822842686e-05,5.9286,6.9286
3.77734375,-6.738332363927665e-05,-1.0257430006866484e-05,-2.5886212227054174e-05,-5.762051670862891e-05,5.9286,6.9286
3.78125,-7.471061079423203e-05,2.4383645685512364e-06,-1.2216209741359505e-05,-5.468752906385893e-05,5.9286,6.9286
3.78515625,-9.082649696955817e-05,4.795848340582154e-07,-1.7097613206683377e-05,-6.250192017395278e-05,5.9286,6.9286
3.7890625,-9.961509598992898e-05,-1.4688309864957034e-06,-1.9533132982375746e-05,-7.177762314946206e-05,5.9286,6.9286
3.79296875,-0.00010889079896543825,1.8056782874799806e-05,-7.324442362096505e-06,-6.250192017395278e-05,5.9286,6.9286
3.796875,-0.00011133668265506974,3.661855273975746e-05,1.756967891966133e-05,-4.785770977798115e-05,5.9286,6.9286
3.80078125,-0.00010937790292057672,3.0752577450217525e-05,1.5621263099107437e-05,-5.0293229553673536e-05,5.9286,6.9286
3.8046875,-0.0001035222915449759,3.465977300526444e-05,9.755287809567476e-06,-4.8344813733119634e-05,5.9286,6.9286
3.80859375,-9.961509598992898e-05,3.954117647058831e-05,1.5621263099107437e-05,-5.4200425108720465e-05,5.9286,6.9286
3.8125,-9.716921230029749e-05,3.56443448294805e-05,7.806871989013586e-06,-6.738332363927665e-05,5.9286,6.9286
3.81640625,-9.765631625543596e-05,4.003864433966592e-05,1.3175379409475937e-05,-7.08034152391851e-05,5.9286,6.9286
3.8203125,-9.912799203479051e-05,3.661855273975746e-05,1.3175379409475937e-05,-6.397359595330732e-05,5.9286,6.9286
3.82421875,-9.180070487983513e-05,3.954117647058831e-05,2.0502666564431307e-05,-4.004331866788732e-05,5.9286,6.9286
3.828125,-9.03393930144197e-05,3.465977300526444e-05,2.929126558480209e-05,-3.516191520256345e-05,5.9286,6.9286
3.83203125,-9.375948461432815e-05,2.5871173984893658e-05,1.756967891966133e-05,-4.101752657816426e-05,5.9286,6.9286
3.8359375,-7.764359843900198e-05,4.589425571526672e-05,2.9778369539940567e-05,-3.809490284733341e-05,5.9286,6.9286
3.83984375,-8.155079399404891e-05,5.126276313572907e-05,3.417266905012596e-05,-4.980612559853506e-05,5.9286,6.9286
3.84375,-9.864088807965203e-05,3.661855273975746e-05,2.4896966074616697e-05,-4.785770977798115e-05,5.9286,6.9286
3.84765625,-8.78935093247882e-05,2.440986211947822e-05,1.6595471009384367e-05,-5.0293229553673536e-05,5.9286,6.9286
3.8515625,-7.617192265964744e-05,3.56443448294805e-05,1.2201171499198978e-05,-5.3713321153581985e-05,5.9286,6.9286
3.85546875,-6.885499941863119e-05,4.931434731517518e-05,2.5384070029755178e-05,-3.516191520256345e-05,5.9286,6.9286
3.859375,-6.64091157289997e-05,4.686846362554368e-05,2.9778369539940567e-05,-3.516191520256345e-05,5.9286,6.9286
3.86328125,-6.0066400398260395e-05,3.856696856031135e-05,2.684538189517059e-05,-5.0293229553673536e-05,5.9286,6.9286
3.8671875,-5.664630879835195e-05,2.831705767452513e-05,2.196397842984672e-05,-5.176490533302808e-05,5.9286,6.9286
3.87109375,-6.397359595330732e-05,1.8056782874799806e-05,1.1226963588922018e-05,-5.5184996932936525e-05,5.9286,6.9286
3.875,-7.471061079423203e-05,2.0989770519569757e-05,1.7082574964522848e-05,-4.785770977798115e-05,5.9286,6.9286
3.87890625,-6.298902412909127e-05,3.1239681405356006e-05,1.904135469901587e-05,-3.271603151293195e-05,5.9286,6.9286
3.8828125,-4.785770977798115e-05,2.440986211947822e-05,1.6595471009384367e-05,-4.785770977798115e-05,5.9286,6.9286
3.88671875,-4.004331866788732e-05,2.2948550254062778e-05,2.880416162966361e-05,-4.492472213321119e-05,5.9286,6.9286
3.890625,-4.5411826088349665e-05,3.899676433966647e-06,1.3175379409475937e-05,-3.711033102311735e-05,5.9286,6.9286
3.89453125,-5.3226217198443504e-05,-4.888922586404135e-06,-9.817270313572236e-07,-5.0790697422751135e-05,5.9286,6.9286
3.8984375,-4.3463410267795763e-05,1.6595471009384367e-05,1.0252755678645087e-05,-4.24892023575188e-05,5.9286,6.9286
3.90234375,-4.3950514222934244e-05,8.293975944152067e-06,9.268183854428997e-06,-3.906911075761036e-05,5.9286,6.9286
3.90625,-5.6159204843213486e-05,-3.4276107209886958e-06,-1.4688309864957034e-06,-4.3463410267795763e-05,5.9286,6.9286
3.91015625,-5.0790697422751135e-05,2.9254685236897157e-06,-2.930142851911114e-06,-3.809490284733341e-05,5.9286,6.9286
3.9140625,-3.467481124742497e-05,1.2688275454337456e-05,1.0739859633783538e-05,-3.125471964751652e-05,5.9286,6.9286
3.91796875,-4.5411826088349665e-05,5.858456168459668e-06,-3.4276107209886958e-06,-3.955621471274884e-05,5.9286,6.9286
3.921875,-6.982920732890815e-05,-5.376026541542615e-06,-1.3190417651636465e-05,-4.8831917688258114e-05,5.9286,6.9286
3.92578125,-6.298902412909127e-05,-3.4276107209886958e-06,-1.7097613206683377e-05,-4.200209840238034e-05,5.9286,6.9286
3.9296875,-4.297630631265728e-05,-4.401818631265655e-06,-1.8071821116960335e-05,-2.8808835957885023e-05,5.9286,6.9286
3.93359375,-4.0530422623025795e-05,-6.350234451819574e-06,-4.401818631265655e-06,-2.5886212227054174e-05,5.9286,6.9286
3.9375,-4.5411826088349665e-05,-6.837338406958025e-06,-3.4276107209886958e-06,-3.370060333714802e-05,5.9286,6.9286
3.94140625,-4.3463410267795763e-05,-1.0744533962004965e-05,-2.930142851911114e-06,-3.125471964751652e-05,5.9286,6.9286
3.9453125,-4.200209840238034e-05,-1.6123405296406416e-05,-1.3677521606774945e-05,-3.370060333714802e-05,5.9286,6.9286
3.94921875,-4.639639791256573e-05,-2.4414536447699617e-05,-2.1491912716868767e-05,-3.370060333714802e-05,5.9286,6.9286
3.953125,-4.443761817807271e-05,-2.5886212227054174e-05,-2.4414536447699617e-05,-3.418770729228649e-05,5.9286,6.9286
3.95703125,-2.8321732002746556e-05,-1.4651729517051876e-05,-1.8558925072098815e-05,-2.3440328537422686e-05,5.9286,6.9286
3.9609375,-3.321349938200954e-05,-1.6123405296406416e-05,-1.7584717161821854e-05,-2.5399108271915707e-05,5.9286,6.9286
3.96484375,-4.589893004348813e-05,-2.8808835957885023e-05,-2.8321732002746556e-05,-3.955621471274884e-05,5.9286,6.9286
3.96875,-3.222892755779347e-05,-2.9793407782101096e-05,-3.076761569237804e-05,-2.637331618219265e-05,5.9286,6.9286
3.97265625,-4.24892023575188e-05,-2.2953224582284205e-05,-2.7834628047608076e-05,-1.9533132982375746e-05,5.9286,6.9286
3.9765625,-4.688350186770421e-05,-1.4651729517051876e-05,-7.324442362096505e-06,-2.0020236937514227e-05,5.9286,6.9286
3.98046875,-3.906911075761036e-05,-1.3190417651636465e-05,-2.1979016672007248e-05,-1.6123405296406416e-05,5.9286,6.9286
3.984375,-4.8831917688258114e-05,-3.564901915770191e-05,-4.5411826088349665e-05,-3.125471964751652e-05,5.9286,6.9286
3.98828125,-4.688350186770421e-05,-3.809490284733341e-05,-3.564901915770191e-05,-4.0530422623025795e-05,5.9286,6.9286
3.9921875,-3.271603151293195e-05,-2.930630382696262e-05,-3.125471964751652e-05,-2.8321732002746556e-05,5.9286,6.9286
3.99609375,-3.125471964751652e-05,-3.370060333714802e-05,-3.613612311284039e-05,-4.3463410267795763e-05,5.9286,6.9286
4.0,-3.564901915770191e-05,-2.4912004316777226e-05,-3.467481124742497e-05,-4.3950514222934244e-05,5.9286,6.9286
4.00390625,-3.711033102311735e-05,-2.637331618219265e-05,-1.6610509251544897e-05,-1.0257430006866484e-05,5.9286,6.9286
4.0078125,-3.321349938200954e-05,-3.271603151293195e-05,-9.770326051728005e-06,-4.888922586404135e-06,5.9286,6.9286
