timestamp,TP9,AF7,AF8,TP10,Valence,Arousal
0.0,-4.1496085740444045e-05,-2.4391948607614254e-05,-3.073621312275884e-05,-3.659831353475242e-05,7.0667,4.7333
0.00390625,-3.659831353475242e-05,-1.2693124841687649e-05,-2.7335687342641335e-05,-3.855234700541696e-05,7.0667,4.7333
0.0078125,-4.832251435873961e-05,-2.8807556710154884e-05,-4.636848088807508e-05,-4.685064499122606e-05,7.0667,4.7333
0.01171875,-4.9312219623102167e-05,-2.7817851445792328e-05,-3.807018290226597e-05,-4.88046784618906e-05,7.0667,4.7333
0.015625,-6.54266514915694e-05,-2.04838816662852e-05,-1.451088120851459e-06,-5.5656484138246735e-05,7.0667,4.7333
0.01953125,-6.200074865339132e-05,-1.9037389356832234e-05,-5.35915506218052e-06,-5.712835350576029e-05,7.0667,4.7333
0.0234375,-4.5404152681773096e-05,-2.9771884916456853e-05,-5.322028656443122e-05,-5.126625309376669e-05,7.0667,4.7333
0.02734375,-3.855234700541696e-05,-2.04838816662852e-05,-3.5633985328450446e-05,-4.5404152681773096e-05,7.0667,4.7333
0.03125,-4.5404152681773096e-05,-1.7083355886167696e-05,-1.023155020981155e-05,-4.5886316784924085e-05,7.0667,4.7333
0.03515625,-7.567898294804304e-05,-5.517432003509576e-05,-2.1955751033798732e-05,-4.002421637293049e-05,7.0667,4.7333
0.0390625,-6.101104338902877e-05,-5.712835350576029e-05,5.375340497444114e-06,-2.7335687342641335e-05,7.0667,4.7333
0.04296875,-4.050638047608149e-05,-6.834501316853589e-05,-2.2437915136949725e-05,-3.41621159609369e-05,7.0667,4.7333
0.046875,-5.370245066758221e-05,-8.154108336003662e-05,-6.443694622720685e-05,-7.078121074235141e-05,7.0667,4.7333
0.05078125,-4.832251435873961e-05,-5.517432003509576e-05,-5.223058130006866e-05,-8.593131440451668e-05,7.0667,4.7333
0.0546875,-4.296795510795758e-05,-3.3679951857785924e-05,-3.41621159609369e-05,-5.517432003509576e-05,7.0667,4.7333
0.05859375,-5.223058130006866e-05,-5.027654782940413e-05,-3.12437542839704e-05,-6.004671518272678e-05,7.0667,4.7333
0.0625,-5.075871193255513e-05,-5.662081234454872e-05,-5.223058130006866e-05,-5.271274540321966e-05,7.0667,4.7333
0.06640625,-5.5656484138246735e-05,-5.322028656443122e-05,-7.468927768368048e-05,-3.7105854695964e-05,7.0667,4.7333
0.0703125,-5.41846147707332e-05,-6.004671518272678e-05,-6.347261802090486e-05,-4.441444741741054e-05,7.0667,4.7333
0.07421875,-5.223058130006866e-05,-6.151858455024033e-05,-3.3679951857785924e-05,-5.5656484138246735e-05,7.0667,4.7333
0.078125,-6.248291275654231e-05,-3.1725918387121396e-05,-3.12437542839704e-05,-5.1748417196917685e-05,7.0667,4.7333
0.08203125,-4.296795510795758e-05,-8.277516739147025e-06,-1.8529848195620658e-05,-3.319778775463493e-05,7.0667,4.7333
0.0859375,-2.342762040131228e-05,-1.7083355886167696e-05,-1.023155020981155e-05,-2.0001717563134207e-05,7.0667,4.7333
0.08984375,-4.050638047608149e-05,-4.832251435873961e-05,-4.7840350255588614e-05,-3.954205226977952e-05,7.0667,4.7333
0.09375,-6.687314380102237e-05,-4.636848088807508e-05,-5.126625309376669e-05,-6.101104338902877e-05,7.0667,4.7333
0.09765625,-5.223058130006866e-05,-2.2945456298161288e-05,-1.7083355886167696e-05,-4.296795510795758e-05,7.0667,4.7333
0.1015625,-3.12437542839704e-05,-3.0254049019607846e-05,-3.611614943160144e-05,-3.7105854695964e-05,7.0667,4.7333
0.10546875,-3.5151821225299456e-05,-2.7335687342641335e-05,-5.662081234454872e-05,-5.370245066758221e-05,7.0667,4.7333
0.109375,-4.3932283314259564e-05,-3.3679951857785924e-05,-5.761051760891128e-05,-5.223058130006866e-05,7.0667,4.7333
0.11328125,-4.4896611520561536e-05,-4.345011921110857e-05,-5.126625309376669e-05,-4.735818615243764e-05,7.0667,4.7333
0.1171875,-4.685064499122606e-05,-4.050638047608149e-05,-3.0254049019607846e-05,-4.3932283314259564e-05,7.0667,4.7333
0.12109375,-4.7840350255588614e-05,-2.5381653871976807e-05,-4.9312219623102167e-05,-4.1496085740444045e-05,7.0667,4.7333
0.125,-4.636848088807508e-05,-2.634598207827878e-05,-5.857484581521325e-05,-4.1496085740444045e-05,7.0667,4.7333
0.12890625,-5.1748417196917685e-05,-3.5151821225299456e-05,-4.002421637293049e-05,-4.5404152681773096e-05,7.0667,4.7333
0.1328125,-5.223058130006866e-05,-4.246041394674601e-05,-5.271274540321966e-05,-4.002421637293049e-05,7.0667,4.7333
0.13671875,-5.857484581521325e-05,-3.3679951857785924e-05,-4.1496085740444045e-05,-2.7817851445792328e-05,7.0667,4.7333
0.140625,-4.7840350255588614e-05,-1.4647158312352174e-05,-1.804768409246968e-05,-3.5633985328450446e-05,7.0667,4.7333
0.14453125,-3.905988816662852e-05,-4.636848088807508e-05,-6.101104338902877e-05,-5.517432003509576e-05,7.0667,4.7333
0.1484375,-4.735818615243764e-05,-4.636848088807508e-05,-6.981688253604945e-05,-5.126625309376669e-05,7.0667,4.7333
0.15234375,-4.1496085740444045e-05,-2.04838816662852e-05,-4.296795510795758e-05,-3.1725918387121396e-05,7.0667,4.7333
0.15625,-3.807018290226597e-05,-2.2945456298161288e-05,-3.905988816662852e-05,-3.659831353475242e-05,7.0667,4.7333
0.16015625,-4.3932283314259564e-05,-3.611614943160144e-05,-4.050638047608149e-05,-3.855234700541696e-05,7.0667,4.7333
0.1640625,-4.685064499122606e-05,-5.027654782940413e-05,-4.4896611520561536e-05,-3.220808249027237e-05,7.0667,4.7333
0.16796875,-4.4896611520561536e-05,-4.9312219623102167e-05,-5.223058130006866e-05,-3.659831353475242e-05,7.0667,4.7333
0.171875,-4.636848088807508e-05,-3.7105854695964e-05,-3.5151821225299456e-05,-3.659831353475242e-05,7.0667,4.7333
0.17578125,-4.296795510795758e-05,-2.6853523239490356e-05,-3.887285694666978e-06,-3.41621159609369e-05,7.0667,4.7333
0.1796875,-4.101392163729305e-05,-1.804768409246968e-05,-1.17034195773251e-05,-3.41621159609369e-05,7.0667,4.7333
0.18359375,-4.5404152681773096e-05,-1.609365062180514e-05,-3.7588018799114975e-05,-4.050638047608149e-05,7.0667,4.7333
0.1875,-4.002421637293049e-05,-2.8807556710154884e-05,-3.5151821225299456e-05,-4.197824984359502e-05,7.0667,4.7333
0.19140625,-4.441444741741054e-05,-2.830001554894332e-05,-2.5381653871976807e-05,-4.4896611520561536e-05,7.0667,4.7333
0.1953125,-5.075871193255513e-05,-1.4139617151140611e-05,-9.749386106660566e-06,-4.7840350255588614e-05,7.0667,4.7333
0.19921875,-3.41621159609369e-05,-1.9037389356832234e-05,-1.4139617151140611e-05,-4.7840350255588614e-05,7.0667,4.7333
0.203125,-3.1725918387121396e-05,-2.3909784504463274e-05,-3.7105854695964e-05,-4.1496085740444045e-05,7.0667,4.7333
0.20703125,-5.223058130006866e-05,-2.2945456298161288e-05,-4.3932283314259564e-05,-3.41621159609369e-05,7.0667,4.7333
0.2109375,-6.639097969787136e-05,-3.5633985328450446e-05,-4.441444741741054e-05,-4.197824984359502e-05,7.0667,4.7333
0.21484375,-6.933471843289846e-05,-2.9771884916456853e-05,-3.611614943160144e-05,-5.466677887388418e-05,7.0667,4.7333
0.21875,-6.687314380102237e-05,-2.04838816662852e-05,-2.9289720813305874e-05,-5.613864824139773e-05,7.0667,4.7333
0.22265625,-4.88046784618906e-05,-4.050638047608149e-05,-3.905988816662852e-05,-4.7840350255588614e-05,7.0667,4.7333
0.2265625,-3.954205226977952e-05,-4.5404152681773096e-05,-7.321740831616693e-05,-5.1748417196917685e-05,7.0667,4.7333
0.23046875,-4.685064499122606e-05,-3.0254049019607846e-05,-6.933471843289846e-05,-5.8092681712062254e-05,7.0667,4.7333
0.234375,-5.41846147707332e-05,-3.7105854695964e-05,-4.5404152681773096e-05,-4.9312219623102167e-05,7.0667,4.7333
0.23828125,-4.5886316784924085e-05,-4.1496085740444045e-05,-4.101392163729305e-05,-4.636848088807508e-05,7.0667,4.7333
0.2421875,-4.345011921110857e-05,-2.9289720813305874e-05,-4.050638047608149e-05,-5.126625309376669e-05,7.0667,4.7333
0.24609375,-4.002421637293049e-05,-3.5633985328450446e-05,-5.712835350576029e-05,-5.8092681712062254e-05,7.0667,4.7333
0.25,-3.855234700541696e-05,-4.1496085740444045e-05,-6.248291275654231e-05,-5.613864824139773e-05,7.0667,4.7333
0.25390625,-4.441444741741054e-05,-2.0991422827496763e-05,-4.5404152681773096e-05,-3.905988816662852e-05,7.0667,4.7333
0.2578125,-4.246041394674601e-05,-1.4139617151140611e-05,-2.7817851445792328e-05,-2.4899489768825817e-05,7.0667,4.7333
0.26171875,-5.5656484138246735e-05,-3.319778775463493e-05,-4.296795510795758e-05,-3.5151821225299456e-05,7.0667,4.7333
0.265625,-5.223058130006866e-05,-3.1725918387121396e-05,-5.027654782940413e-05,-4.4896611520561536e-05,7.0667,4.7333
0.26953125,-5.1748417196917685e-05,-3.12437542839704e-05,-5.613864824139773e-05,-5.271274540321966e-05,7.0667,4.7333
0.2734375,-5.075871193255513e-05,-4.101392163729305e-05,-4.5886316784924085e-05,-4.832251435873961e-05,7.0667,4.7333
0.27734375,-3.905988816662852e-05,-5.271274540321966e-05,-4.735818615243764e-05,-4.735818615243764e-05,7.0667,4.7333
0.28125,-7.029904663920042e-05,-6.200074865339132e-05,-7.664331115434501e-05,-6.101104338902877e-05,7.0667,4.7333
0.28515625,-6.687314380102237e-05,-3.073621312275884e-05,-5.370245066758221e-05,-5.857484581521325e-05,7.0667,4.7333
0.2890625,-3.3679951857785924e-05,-3.7105854695964e-05,-3.7105854695964e-05,-6.687314380102237e-05,7.0667,4.7333
0.29296875,-4.441444741741054e-05,-6.248291275654231e-05,-7.029904663920042e-05,-5.905700991836424e-05,7.0667,4.7333
0.296875,-5.1748417196917685e-05,-5.857484581521325e-05,-8.103354219882507e-05,-5.322028656443122e-05,7.0667,4.7333
0.30078125,-4.685064499122606e-05,-6.443694622720685e-05,-6.78628490653849e-05,-6.004671518272678e-05,7.0667,4.7333
0.3046875,-4.685064499122606e-05,-6.29650768596933e-05,-6.933471843289846e-05,-6.004671518272678e-05,7.0667,4.7333
0.30859375,-4.5886316784924085e-05,-5.322028656443122e-05,-7.225308010986496e-05,-6.200074865339132e-05,7.0667,4.7333
0.3125,-3.5151821225299456e-05,-3.611614943160144e-05,-3.954205226977952e-05,-4.9794383726253156e-05,7.0667,4.7333
0.31640625,-3.855234700541696e-05,-5.9564551079575806e-05,-1.9037389356832234e-05,-5.5656484138246735e-05,7.0667,4.7333
0.3203125,-5.9564551079575806e-05,-5.662081234454872e-05,-2.7335687342641335e-05,-5.517432003509576e-05,7.0667,4.7333
0.32421875,-5.761051760891128e-05,-4.5404152681773096e-05,-5.223058130006866e-05,-5.271274540321966e-05,7.0667,4.7333
0.328125,-4.101392163729305e-05,-6.29650768596933e-05,-5.857484581521325e-05,-6.200074865339132e-05,7.0667,4.7333
0.33203125,-3.855234700541696e-05,-4.735818615243764e-05,-4.101392163729305e-05,-5.712835350576029e-05,7.0667,4.7333
0.3359375,-5.126625309376669e-05,-5.075871193255513e-05,-4.002421637293049e-05,-5.517432003509576e-05,7.0667,4.7333
0.33984375,-4.832251435873961e-05,-5.5656484138246735e-05,-3.611614943160144e-05,-5.5656484138246735e-05,7.0667,4.7333
0.34375,-4.5404152681773096e-05,-4.197824984359502e-05,-5.126625309376669e-05,-5.761051760891128e-05,7.0667,4.7333
0.34765625,-4.9794383726253156e-05,-3.7105854695964e-05,-4.636848088807508e-05,-4.832251435873961e-05,7.0667,4.7333
0.3515625,-3.41621159609369e-05,-1.2185583680476086e-05,-2.5381653871976807e-05,-3.7105854695964e-05,7.0667,4.7333
0.35546875,-3.855234700541696e-05,-1.609365062180514e-05,-4.735818615243764e-05,-5.322028656443122e-05,7.0667,4.7333
0.359375,-4.685064499122606e-05,-2.4899489768825817e-05,-5.027654782940413e-05,-5.712835350576029e-05,7.0667,4.7333
0.36328125,-5.5656484138246735e-05,-3.855234700541696e-05,-5.1748417196917685e-05,-4.9794383726253156e-05,7.0667,4.7333
0.3671875,-5.8092681712062254e-05,-4.345011921110857e-05,-7.128875190356298e-05,-5.517432003509576e-05,7.0667,4.7333
0.37109375,-5.223058130006866e-05,-2.0991422827496763e-05,-4.685064499122606e-05,-5.370245066758221e-05,7.0667,4.7333
0.375,-4.9312219623102167e-05,-2.7335687342641335e-05,-3.611614943160144e-05,-6.347261802090486e-05,7.0667,4.7333
0.37890625,-4.197824984359502e-05,-2.04838816662852e-05,-3.41621159609369e-05,-6.200074865339132e-05,7.0667,4.7333
0.3828125,-3.41621159609369e-05,-1.9037389356832234e-05,-1.0739091371023122e-05,-4.050638047608149e-05,7.0667,4.7333
0.38671875,-3.807018290226597e-05,-4.345011921110857e-05,-4.101392163729305e-05,-4.345011921110857e-05,7.0667,4.7333
0.390625,-4.7840350255588614e-05,-5.761051760891128e-05,-5.761051760891128e-05,-3.611614943160144e-05,7.0667,4.7333
0.39453125,-6.004671518272678e-05,-3.807018290226597e-05,-3.611614943160144e-05,-3.073621312275884e-05,7.0667,4.7333
0.3984375,-6.443694622720685e-05,-4.5404152681773096e-05,-4.1496085740444045e-05,-4.9312219623102167e-05,7.0667,4.7333
0.40234375,-4.735818615243764e-05,-6.052887928587778e-05,-6.101104338902877e-05,-5.8092681712062254e-05,7.0667,4.7333
0.40625,-4.636848088807508e-05,-4.002421637293049e-05,-6.590881559472037e-05,-4.832251435873961e-05,7.0667,4.7333
0.41015625,-5.370245066758221e-05,-2.830001554894332e-05,-4.101392163729305e-05,-5.027654782940413e-05,7.0667,4.7333
0.4140625,-5.075871193255513e-05,-2.3909784504463274e-05,-1.17034195773251e-05,-7.225308010986496e-05,7.0667,4.7333
0.41796875,-4.832251435873961e-05,-2.1473586930647753e-05,-3.0254049019607846e-05,-5.466677887388418e-05,7.0667,4.7333
0.421875,-3.855234700541696e-05,-4.5404152681773096e-05,-6.395478212405585e-05,-4.296795510795758e-05,7.0667,4.7333
0.42578125,-3.905988816662852e-05,-6.004671518272678e-05,-5.761051760891128e-05,-4.9794383726253156e-05,7.0667,4.7333
0.4296875,-5.271274540321966e-05,-5.075871193255513e-05,-4.832251435873961e-05,-5.712835350576029e-05,7.0667,4.7333
0.43359375,-5.075871193255513e-05,-3.5633985328450446e-05,-4.5886316784924085e-05,-6.491911033035783e-05,7.0667,4.7333
0.4375,-4.88046784618906e-05,-4.101392163729305e-05,-3.319778775463493e-05,-5.613864824139773e-05,7.0667,4.7333
0.44140625,-5.027654782940413e-05,-4.685064499122606e-05,-4.002421637293049e-05,-4.441444741741054e-05,7.0667,4.7333
0.4453125,-4.88046784618906e-05,-3.905988816662852e-05,-6.101104338902877e-05,-4.832251435873961e-05,7.0667,4.7333
0.44921875,-4.050638047608149e-05,-3.269024659342337e-05,-5.126625309376669e-05,-4.832251435873961e-05,7.0667,4.7333
0.453125,-4.1496085740444045e-05,-4.101392163729305e-05,-4.88046784618906e-05,-4.7840350255588614e-05,7.0667,4.7333
0.45703125,-4.5886316784924085e-05,-4.050638047608149e-05,-3.5633985328450446e-05,-4.7840350255588614e-05,7.0667,4.7333
0.4609375,-4.101392163729305e-05,-3.1725918387121396e-05,-3.41621159609369e-05,-4.7840350255588614e-05,7.0667,4.7333
0.46484375,-3.855234700541696e-05,-1.7565519989318685e-05,-4.002421637293049e-05,-5.027654782940413e-05,7.0667,4.7333
0.46875,-4.002421637293049e-05,-2.7817851445792328e-05,-4.002421637293049e-05,-4.345011921110857e-05,7.0667,4.7333
0.47265625,-4.5886316784924085e-05,-5.1748417196917685e-05,-4.5404152681773096e-05,-4.5886316784924085e-05,7.0667,4.7333
0.4765625,-4.832251435873961e-05,-4.735818615243764e-05,-3.5151821225299456e-05,-4.88046784618906e-05,7.0667,4.7333
0.48046875,-3.855234700541696e-05,-2.7335687342641335e-05,-4.345011921110857e-05,-5.075871193255513e-05,7.0667,4.7333
0.484375,-3.220808249027237e-05,-2.830001554894332e-05,-5.662081234454872e-05,-5.517432003509576e-05,7.0667,4.7333
0.48828125,-3.1725918387121396e-05,-2.5381653871976807e-05,-6.491911033035783e-05,-5.027654782940413e-05,7.0667,4.7333
0.4921875,-3.269024659342337e-05,-8.785057900358588e-06,-4.050638047608149e-05,-4.101392163729305e-05,7.0667,4.7333
0.49609375,-4.441444741741054e-05,-1.5129322415503167e-05,-1.5129322415503167e-05,-4.002421637293049e-05,7.0667,4.7333
0.5,-5.466677887388418e-05,-3.319778775463493e-05,-3.319778775463493e-05,-4.636848088807508e-05,7.0667,4.7333
0.50390625,-4.7840350255588614e-05,-2.9289720813305874e-05,-5.126625309376669e-05,-4.685064499122606e-05,7.0667,4.7333
0.5078125,-4.197824984359502e-05,-2.7335687342641335e-05,-5.517432003509576e-05,-5.370245066758221e-05,7.0667,4.7333
0.51171875,-4.246041394674601e-05,-3.807018290226597e-05,-4.5404152681773096e-05,-6.29650768596933e-05,7.0667,4.7333
0.515625,-4.101392163729305e-05,-3.659831353475242e-05,-4.5404152681773096e-05,-5.517432003509576e-05,7.0667,4.7333
0.51953125,-4.7840350255588614e-05,-4.685064499122606e-05,-5.370245066758221e-05,-4.88046784618906e-05,7.0667,4.7333
0.5234375,-4.88046784618906e-05,-6.052887928587778e-05,-5.5656484138246735e-05,-4.88046784618906e-05,7.0667,4.7333
0.52734375,-4.441444741741054e-05,-4.685064499122606e-05,-6.78628490653849e-05,-4.5886316784924085e-05,7.0667,4.7333
0.53125,-4.1496085740444045e-05,-3.659831353475242e-05,-5.271274540321966e-05,-5.075871193255513e-05,7.0667,4.7333
0.53515625,-3.3679951857785924e-05,-3.220808249027237e-05,-1.561148651865416e-05,-4.832251435873961e-05,7.0667,4.7333
0.5390625,-3.905988816662852e-05,1.0273112703135723e-05,1.2709310276951242e-05,-4.101392163729305e-05,7.0667,4.7333
0.54296875,-4.7840350255588614e-05,2.456978820477602e-06,-1.1221255474174106e-05,-4.636848088807508e-05,7.0667,4.7333
0.546875,-4.4896611520561536e-05,-6.004671518272678e-05,-7.37249494773785e-05,-4.735818615243764e-05,7.0667,4.7333
0.55078125,-4.345011921110857e-05,-5.223058130006866e-05,-6.200074865339132e-05,-4.636848088807508e-05,7.0667,4.7333
0.5546875,-4.5404152681773096e-05,-5.517432003509576e-05,-4.296795510795758e-05,-3.905988816662852e-05,7.0667,4.7333
0.55859375,-5.027654782940413e-05,-7.128875190356298e-05,-5.370245066758221e-05,-3.7105854695964e-05,7.0667,4.7333
0.5625,-5.466677887388418e-05,-5.271274540321966e-05,-5.370245066758221e-05,-3.807018290226597e-05,7.0667,4.7333
0.56640625,-5.271274540321966e-05,-4.735818615243764e-05,-6.29650768596933e-05,-4.246041394674601e-05,7.0667,4.7333
0.5703125,-5.5656484138246735e-05,-4.735818615243764e-05,-7.128875190356298e-05,-5.370245066758221e-05,7.0667,4.7333
0.57421875,-5.466677887388418e-05,-3.5151821225299456e-05,-5.466677887388418e-05,-5.075871193255513e-05,7.0667,4.7333
0.578125,-5.271274540321966e-05,-2.342762040131228e-05,-4.9794383726253156e-05,-4.636848088807508e-05,7.0667,4.7333
0.58203125,-5.761051760891128e-05,-2.2437915136949725e-05,-6.395478212405585e-05,-3.954205226977952e-05,7.0667,4.7333
0.5859375,-5.370245066758221e-05,-2.1473586930647753e-05,-6.687314380102237e-05,-3.954205226977952e-05,7.0667,4.7333
0.58984375,-5.1748417196917685e-05,-2.58638179751278e-05,-5.662081234454872e-05,-5.271274540321966e-05,7.0667,4.7333
0.59375,-3.659831353475242e-05,-3.319778775463493e-05,-3.41621159609369e-05,-4.9312219623102167e-05,7.0667,4.7333
0.59765625,-3.855234700541696e-05,-5.662081234454872e-05,-4.246041394674601e-05,-4.636848088807508e-05,7.0667,4.7333
0.6015625,-4.050638047608149e-05,-6.004671518272678e-05,-4.735818615243764e-05,-3.659831353475242e-05,7.0667,4.7333
0.60546875,-3.220808249027237e-05,-4.9312219623102167e-05,-4.832251435873961e-05,-2.6853523239490356e-05,7.0667,4.7333
0.609375,-4.636848088807508e-05,-5.712835350576029e-05,-6.738068496223393e-05,-4.101392163729305e-05,7.0667,4.7333
0.61328125,-6.200074865339132e-05,-7.273524421301594e-05,-5.223058130006866e-05,-4.441444741741054e-05,7.0667,4.7333
0.6171875,-3.7588018799114975e-05,-6.200074865339132e-05,-2.0991422827496763e-05,-2.8807556710154884e-05,7.0667,4.7333
0.62109375,-3.905988816662852e-05,-8.494160914015413e-05,-4.197824984359502e-05,-4.345011921110857e-05,7.0667,4.7333
0.625,-5.075871193255513e-05,-9.032154544899671e-05,-6.151858455024033e-05,-5.8092681712062254e-05,7.0667,4.7333
0.62890625,-4.050638047608149e-05,-7.517144178683146e-05,-4.636848088807508e-05,-4.5404152681773096e-05,7.0667,4.7333
0.6328125,-3.905988816662852e-05,-8.298757566948959e-05,-4.345011921110857e-05,-4.9794383726253156e-05,7.0667,4.7333
0.63671875,-3.954205226977952e-05,-8.737780671396965e-05,-3.5633985328450446e-05,-5.41846147707332e-05,7.0667,4.7333
0.640625,-3.954205226977952e-05,-8.641347850766765e-05,-3.659831353475242e-05,-4.5886316784924085e-05,7.0667,4.7333
0.64453125,-2.830001554894332e-05,-7.37249494773785e-05,-3.7588018799114975e-05,-3.855234700541696e-05,7.0667,4.7333
0.6484375,-3.269024659342337e-05,-7.664331115434501e-05,-2.9771884916456853e-05,-4.345011921110857e-05,7.0667,4.7333
0.65234375,-3.5151821225299456e-05,-8.494160914015413e-05,-2.58638179751278e-05,-5.8092681712062254e-05,7.0667,4.7333
0.65625,-2.9771884916456853e-05,-7.907950872816053e-05,-3.0254049019607846e-05,-5.5656484138246735e-05,7.0667,4.7333
0.66015625,-3.220808249027237e-05,-9.666580996414131e-05,-4.636848088807508e-05,-6.29650768596933e-05,7.0667,4.7333
0.6640625,-4.246041394674601e-05,-0.00010399977974364844,-6.78628490653849e-05,-6.248291275654231e-05,7.0667,4.7333
0.66796875,-4.88046784618906e-05,-0.00010887217489127947,-8.154108336003662e-05,-5.075871193255513e-05,7.0667,4.7333
0.671875,-5.126625309376669e-05,-0.0001079078466849775,-6.491911033035783e-05,-5.5656484138246735e-05,7.0667,4.7333
0.67578125,-5.1748417196917685e-05,-9.032154544899671e-05,-3.464428006408789e-05,-4.3932283314259564e-05,7.0667,4.7333
0.6796875,-4.7840350255588614e-05,-8.006921399252309e-05,-3.807018290226597e-05,-3.659831353475242e-05,7.0667,4.7333
0.68359375,-5.613864824139773e-05,-8.250541156633861e-05,-6.981688253604945e-05,-5.41846147707332e-05,7.0667,4.7333
0.6875,-4.5404152681773096e-05,-8.593131440451668e-05,-7.177091600671397e-05,-6.151858455024033e-05,7.0667,4.7333
0.69140625,-4.5886316784924085e-05,-6.101104338902877e-05,-3.807018290226597e-05,-5.41846147707332e-05,7.0667,4.7333
0.6953125,-5.1748417196917685e-05,-5.370245066758221e-05,-2.58638179751278e-05,-2.4391948607614254e-05,7.0667,4.7333
0.69921875,-4.3932283314259564e-05,-8.83675119783322e-05,-5.761051760891128e-05,-1.317528894483864e-05,7.0667,4.7333
0.703125,-5.027654782940413e-05,-0.00011473427530327307,-7.907950872816053e-05,-3.12437542839704e-05,7.0667,4.7333
0.70703125,-4.4896611520561536e-05,-9.179341481651028e-05,-6.834501316853589e-05,-3.319778775463493e-05,7.0667,4.7333
0.7109375,-5.613864824139773e-05,-7.664331115434501e-05,-5.905700991836424e-05,-2.4391948607614254e-05,7.0667,4.7333
0.71484375,-7.078121074235141e-05,-9.471177649347677e-05,-7.420711358052949e-05,-3.3679951857785924e-05,7.0667,4.7333
0.71875,-5.027654782940413e-05,-9.179341481651028e-05,-7.468927768368048e-05,-4.050638047608149e-05,7.0667,4.7333
0.72265625,-4.5886316784924085e-05,-9.374744828717479e-05,-8.006921399252309e-05,-2.8807556710154884e-05,7.0667,4.7333
0.7265625,-5.5656484138246735e-05,-0.00010986188015564204,-9.275774302281223e-05,-3.611614943160144e-05,7.0667,4.7333
0.73046875,-6.54266514915694e-05,-0.00010057387690547037,-6.933471843289846e-05,-4.5886316784924085e-05,7.0667,4.7333
0.734375,-6.151858455024033e-05,-7.517144178683146e-05,-4.5404152681773096e-05,-3.659831353475242e-05,7.0667,4.7333
0.73828125,-5.613864824139773e-05,-6.738068496223393e-05,-5.466677887388418e-05,-3.220808249027237e-05,7.0667,4.7333
0.7421875,-6.443694622720685e-05,-8.54237732433051e-05,-5.517432003509576e-05,-3.5151821225299456e-05,7.0667,4.7333
0.74609375,-5.9564551079575806e-05,-8.006921399252309e-05,-6.347261802090486e-05,-3.1725918387121396e-05,7.0667,4.7333
0.75,-4.7840350255588614e-05,-6.687314380102237e-05,-5.613864824139773e-05,-3.1725918387121396e-05,7.0667,4.7333
0.75390625,-4.5886316784924085e-05,-6.200074865339132e-05,-4.050638047608149e-05,-3.905988816662852e-05,7.0667,4.7333
0.7578125,-4.101392163729305e-05,-5.370245066758221e-05,-4.197824984359502e-05,-4.5886316784924085e-05,7.0667,4.7333
0.76171875,-4.7840350255588614e-05,-7.95870498893721e-05,-6.29650768596933e-05,-5.1748417196917685e-05,7.0667,4.7333
0.765625,-5.517432003509576e-05,-8.20232474631876e-05,-7.37249494773785e-05,-3.807018290226597e-05,7.0667,4.7333
0.76953125,-5.613864824139773e-05,-5.517432003509576e-05,-5.712835350576029e-05,-3.611614943160144e-05,7.0667,4.7333
0.7734375,-5.8092681712062254e-05,-5.9564551079575806e-05,-5.223058130006866e-05,-4.9312219623102167e-05,7.0667,4.7333
0.77734375,-5.41846147707332e-05,-5.5656484138246735e-05,-3.7105854695964e-05,-4.101392163729305e-05,7.0667,4.7333
0.78125,-6.248291275654231e-05,-6.151858455024033e-05,-4.636848088807508e-05,-4.88046784618906e-05,7.0667,4.7333
0.78515625,-5.370245066758221e-05,-6.443694622720685e-05,-6.052887928587778e-05,-5.8092681712062254e-05,7.0667,4.7333
0.7890625,-4.9312219623102167e-05,-5.075871193255513e-05,-4.735818615243764e-05,-5.027654782940413e-05,7.0667,4.7333
0.79296875,-4.296795510795758e-05,-5.1748417196917685e-05,-3.3679951857785924e-05,-4.4896611520561536e-05,7.0667,4.7333
0.796875,-4.101392163729305e-05,-6.004671518272678e-05,-3.954205226977952e-05,-4.3932283314259564e-05,7.0667,4.7333
0.80078125,-6.151858455024033e-05,-5.370245066758221e-05,-3.5151821225299456e-05,-5.1748417196917685e-05,7.0667,4.7333
0.8046875,-5.1748417196917685e-05,-5.9564551079575806e-05,-3.659831353475242e-05,-4.1496085740444045e-05,7.0667,4.7333
0.80859375,-3.905988816662852e-05,-7.37249494773785e-05,-6.248291275654231e-05,-3.220808249027237e-05,7.0667,4.7333
0.8125,-4.197824984359502e-05,-7.517144178683146e-05,-6.004671518272678e-05,-4.345011921110857e-05,7.0667,4.7333
0.81640625,-4.3932283314259564e-05,-6.639097969787136e-05,-3.611614943160144e-05,-4.9312219623102167e-05,7.0667,4.7333
0.8203125,-4.735818615243764e-05,-6.29650768596933e-05,-2.8807556710154884e-05,-4.735818615243764e-05,7.0667,4.7333
0.82421875,-4.5886316784924085e-05,-7.177091600671397e-05,-4.685064499122606e-05,-5.075871193255513e-05,7.0667,4.7333
0.828125,-4.685064499122606e-05,-7.273524421301594e-05,-6.347261802090486e-05,-6.200074865339132e-05,7.0667,4.7333
0.83203125,-4.685064499122606e-05,-6.443694622720685e-05,-5.322028656443122e-05,-6.687314380102237e-05,7.0667,4.7333
0.8359375,-3.954205226977952e-05,-5.9564551079575806e-05,-4.002421637293049e-05,-6.639097969787136e-05,7.0667,4.7333
0.83984375,-3.1725918387121396e-05,-6.151858455024033e-05,-3.905988816662852e-05,-6.54266514915694e-05,7.0667,4.7333
0.84375,-3.0254049019607846e-05,-6.933471843289846e-05,-4.441444741741054e-05,-5.905700991836424e-05,7.0667,4.7333
0.84765625,-4.3932283314259564e-05,-7.811518052185855e-05,-5.223058130006866e-05,-5.905700991836424e-05,7.0667,4.7333
0.8515625,-4.5404152681773096e-05,-6.639097969787136e-05,-4.88046784618906e-05,-5.517432003509576e-05,7.0667,4.7333
0.85546875,-5.466677887388418e-05,-5.613864824139773e-05,-4.88046784618906e-05,-5.905700991836424e-05,7.0667,4.7333
0.859375,-6.78628490653849e-05,-7.567898294804304e-05,-6.29650768596933e-05,-7.517144178683146e-05,7.0667,4.7333
0.86328125,-5.126625309376669e-05,-7.321740831616693e-05,-6.491911033035783e-05,-6.639097969787136e-05,7.0667,4.7333
0.8671875,-5.370245066758221e-05,-5.905700991836424e-05,-5.517432003509576e-05,-5.370245066758221e-05,7.0667,4.7333
0.87109375,-5.857484581521325e-05,-5.8092681712062254e-05,-4.636848088807508e-05,-6.347261802090486e-05,7.0667,4.7333
0.875,-4.101392163729305e-05,-3.7588018799114975e-05,-2.58638179751278e-05,-5.322028656443122e-05,7.0667,4.7333
0.87890625,-3.269024659342337e-05,-3.12437542839704e-05,-5.841319165331505e-06,-3.855234700541696e-05,7.0667,4.7333
0.8828125,-5.027654782940413e-05,-4.735818615243764e-05,-3.611614943160144e-05,-5.466677887388418e-05,7.0667,4.7333
0.88671875,-6.491911033035783e-05,-6.54266514915694e-05,-7.273524421301594e-05,-6.29650768596933e-05,7.0667,4.7333
0.890625,-5.271274540321966e-05,-7.616114705119402e-05,-7.128875190356298e-05,-5.857484581521325e-05,7.0667,4.7333
0.89453125,-6.29650768596933e-05,-6.151858455024033e-05,-5.8092681712062254e-05,-6.443694622720685e-05,7.0667,4.7333
0.8984375,-6.882717727168688e-05,-4.101392163729305e-05,-4.3932283314259564e-05,-5.857484581521325e-05,7.0667,4.7333
0.90234375,-3.41621159609369e-05,-2.4899489768825817e-05,-3.7588018799114975e-05,-4.735818615243764e-05,7.0667,4.7333
0.90625,-2.0001717563134207e-05,-3.7588018799114975e-05,-6.004671518272678e-05,-4.197824984359502e-05,7.0667,4.7333
0.91015625,-3.7105854695964e-05,-4.832251435873961e-05,-6.248291275654231e-05,-4.441444741741054e-05,7.0667,4.7333
0.9140625,-3.807018290226597e-05,-4.441444741741054e-05,-4.88046784618906e-05,-5.027654782940413e-05,7.0667,4.7333
0.91796875,-3.954205226977952e-05,-6.004671518272678e-05,-5.761051760891128e-05,-6.639097969787136e-05,7.0667,4.7333
0.921875,-3.807018290226597e-05,-5.1748417196917685e-05,-4.296795510795758e-05,-6.933471843289846e-05,7.0667,4.7333
0.92578125,-3.905988816662852e-05,-5.223058130006866e-05,-4.832251435873961e-05,-5.9564551079575806e-05,7.0667,4.7333
0.9296875,-3.659831353475242e-05,-5.322028656443122e-05,-6.004671518272678e-05,-6.101104338902877e-05,7.0667,4.7333
0.93359375,-4.4896611520561536e-05,-4.7840350255588614e-05,-4.832251435873961e-05,-6.78628490653849e-05,7.0667,4.7333
0.9375,-6.933471843289846e-05,-6.200074865339132e-05,-3.7588018799114975e-05,-6.738068496223393e-05,7.0667,4.7333
0.94140625,-4.1496085740444045e-05,-3.464428006408789e-05,-2.0001717563134207e-05,-5.8092681712062254e-05,7.0667,4.7333
0.9453125,-3.7588018799114975e-05,-4.050638047608149e-05,-4.88046784618906e-05,-6.687314380102237e-05,7.0667,4.7333
0.94921875,-5.9564551079575806e-05,-7.859734462500955e-05,-7.859734462500955e-05,-5.613864824139773e-05,7.0667,4.7333
0.953125,-6.834501316853589e-05,-8.397728093385214e-05,-6.200074865339132e-05,-4.685064499122606e-05,7.0667,4.7333
0.95703125,-5.613864824139773e-05,-7.567898294804304e-05,-4.9794383726253156e-05,-5.322028656443122e-05,7.0667,4.7333
0.9609375,-3.7588018799114975e-05,-6.78628490653849e-05,-4.9312219623102167e-05,-5.271274540321966e-05,7.0667,4.7333
0.96484375,-4.685064499122606e-05,-6.052887928587778e-05,-6.395478212405585e-05,-4.4896611520561536e-05,7.0667,4.7333
0.96875,-5.517432003509576e-05,-7.177091600671397e-05,-6.248291275654231e-05,-4.050638047608149e-05,7.0667,4.7333
0.97265625,-4.9794383726253156e-05,-8.055137809567407e-05,-4.636848088807508e-05,-4.5886316784924085e-05,7.0667,4.7333
0.9765625,-4.002421637293049e-05,-6.590881559472037e-05,-3.7588018799114975e-05,-5.1748417196917685e-05,7.0667,4.7333
0.98046875,-4.002421637293049e-05,-5.5656484138246735e-05,-4.050638047608149e-05,-5.41846147707332e-05,7.0667,4.7333
0.984375,-4.88046784618906e-05,-4.685064499122606e-05,-4.9312219623102167e-05,-4.832251435873961e-05,7.0667,4.7333
0.98828125,-4.345011921110857e-05,-3.855234700541696e-05,-4.5404152681773096e-05,-4.1496085740444045e-05,7.0667,4.7333
0.9921875,-3.7105854695964e-05,-4.1496085740444045e-05,-3.855234700541696e-05,-4.3932283314259564e-05,7.0667,4.7333
0.99609375,-4.050638047608149e-05,-5.075871193255513e-05,-3.464428006408789e-05,-4.685064499122606e-05,7.0667,4.7333
1.0,-3.5151821225299456e-05,-4.296795510795758e-05,-3.12437542839704e-05,-4.296795510795758e-05,7.0667,4.7333
1.00390625,-3.855234700541696e-05,-4.3932283314259564e-05,-4.685064499122606e-05,-5.1748417196917685e-05,7.0667,4.7333
1.0078125,-4.9312219623102167e-05,-6.29650768596933e-05,-6.687314380102237e-05,-6.639097969787136e-05,7.0667,4.7333
1.01171875,-4.9312219623102167e-05,-6.347261802090486e-05,-4.101392163729305e-05,-6.29650768596933e-05,7.0667,4.7333
1.015625,-4.345011921110857e-05,-5.466677887388418e-05,-1.561148651865416e-05,-5.271274540321966e-05,7.0667,4.7333
1.01953125,-4.345011921110857e-05,-4.5886316784924085e-05,-3.611614943160144e-05,-4.735818615243764e-05,7.0667,4.7333
1.0234375,-4.5886316784924085e-05,-5.322028656443122e-05,-3.905988816662852e-05,-4.345011921110857e-05,7.0667,4.7333
1.02734375,-4.4896611520561536e-05,-4.685064499122606e-05,-3.464428006408789e-05,-4.4896611520561536e-05,7.0667,4.7333
1.03125,-3.855234700541696e-05,-4.002421637293049e-05,-2.3909784504463274e-05,-4.7840350255588614e-05,7.0667,4.7333
1.03515625,-3.7105854695964e-05,-3.5151821225299456e-05,-1.4647158312352174e-05,-4.7840350255588614e-05,7.0667,4.7333
1.0390625,-4.441444741741054e-05,-2.8807556710154884e-05,-2.3909784504463274e-05,-4.7840350255588614e-05,7.0667,4.7333
1.04296875,-4.296795510795758e-05,-2.8807556710154884e-05,-3.611614943160144e-05,-4.4896611520561536e-05,7.0667,4.7333
1.046875,-4.246041394674601e-05,-2.830001554894332e-05,-4.9312219623102167e-05,-5.075871193255513e-05,7.0667,4.7333
1.05078125,-5.223058130006866e-05,-4.1496085740444045e-05,-4.345011921110857e-05,-6.004671518272678e-05,7.0667,4.7333
1.0546875,-5.223058130006866e-05,-4.5886316784924085e-05,-2.9289720813305874e-05,-6.151858455024033e-05,7.0667,4.7333
1.05859375,-6.248291275654231e-05,-4.1496085740444045e-05,-2.7335687342641335e-05,-7.128875190356298e-05,7.0667,4.7333
1.0625,-5.517432003509576e-05,-3.319778775463493e-05,-2.3909784504463274e-05,-6.052887928587778e-05,7.0667,4.7333
1.06640625,-1.3657453047989633e-05,-4.876990959029527e-06,-3.41621159609369e-05,-3.12437542839704e-05,7.0667,4.7333
1.0703125,-2.4899489768825817e-05,-2.04838816662852e-05,-3.3679951857785924e-05,-3.319778775463493e-05,7.0667,4.7333
1.07421875,-5.223058130006866e-05,-4.7840350255588614e-05,-3.7588018799114975e-05,-5.027654782940413e-05,7.0667,4.7333
1.078125,-4.5886316784924085e-05,-3.3679951857785924e-05,-3.41621159609369e-05,-5.517432003509576e-05,7.0667,4.7333
1.08203125,-3.269024659342337e-05,-2.3909784504463274e-05,-4.9794383726253156e-05,-5.517432003509576e-05,7.0667,4.7333
1.0859375,-2.9289720813305874e-05,-3.073621312275884e-05,-6.052887928587778e-05,-5.322028656443122e-05,7.0667,4.7333
1.08984375,-3.073621312275884e-05,-3.5151821225299456e-05,-5.1748417196917685e-05,-5.271274540321966e-05,7.0667,4.7333
1.09375,-3.807018290226597e-05,-4.197824984359502e-05,-5.466677887388418e-05,-5.5656484138246735e-05,7.0667,4.7333
1.09765625,-4.296795510795758e-05,-2.8807556710154884e-05,-5.8092681712062254e-05,-5.517432003509576e-05,7.0667,4.7333
1.1015625,-4.441444741741054e-05,-1.3657453047989633e-05,-5.027654782940413e-05,-4.88046784618906e-05,7.0667,4.7333
1.10546875,-3.954205226977952e-05,-2.2945456298161288e-05,-4.4896611520561536e-05,-4.3932283314259564e-05,7.0667,4.7333
1.109375,-3.954205226977952e-05,-2.4391948607614254e-05,-4.441444741741054e-05,-5.1748417196917685e-05,7.0667,4.7333
1.11328125,-4.050638047608149e-05,-2.8807556710154884e-05,-4.3932283314259564e-05,-5.322028656443122e-05,7.0667,4.7333
1.1171875,-3.807018290226597e-05,-2.1955751033798732e-05,-4.246041394674601e-05,-5.027654782940413e-05,7.0667,4.7333
1.12109375,-3.7588018799114975e-05,-1.804768409246968e-05,-4.345011921110857e-05,-5.613864824139773e-05,7.0667,4.7333
1.125,-4.101392163729305e-05,-2.04838816662852e-05,-3.0254049019607846e-05,-4.88046784618906e-05,7.0667,4.7333
1.12890625,-5.1748417196917685e-05,-2.2437915136949725e-05,-3.611614943160144e-05,-3.855234700541696e-05,7.0667,4.7333
1.1328125,-6.200074865339132e-05,-3.0254049019607846e-05,-5.662081234454872e-05,-4.5886316784924085e-05,7.0667,4.7333
1.13671875,-5.662081234454872e-05,-1.9037389356832234e-05,-3.464428006408789e-05,-6.004671518272678e-05,7.0667,4.7333
1.140625,-2.5381653871976807e-05,-1.2693124841687649e-05,-3.220808249027237e-05,-4.3932283314259564e-05,7.0667,4.7333
1.14453125,-3.073621312275884e-05,-3.905988816662852e-05,-6.590881559472037e-05,-4.636848088807508e-05,7.0667,4.7333
1.1484375,-4.636848088807508e-05,-5.1748417196917685e-05,-7.712547525749599e-05,-5.8092681712062254e-05,7.0667,4.7333
1.15234375,-3.41621159609369e-05,-2.4899489768825817e-05,-4.5886316784924085e-05,-5.1748417196917685e-05,7.0667,4.7333
1.15625,-3.807018290226597e-05,-2.9771884916456853e-05,-3.5633985328450446e-05,-5.613864824139773e-05,7.0667,4.7333
1.16015625,-5.613864824139773e-05,-6.54266514915694e-05,-4.685064499122606e-05,-5.322028656443122e-05,7.0667,4.7333
1.1640625,-5.662081234454872e-05,-5.905700991836424e-05,-6.248291275654231e-05,-5.1748417196917685e-05,7.0667,4.7333
1.16796875,-4.9312219623102167e-05,-5.075871193255513e-05,-6.738068496223393e-05,-5.322028656443122e-05,7.0667,4.7333
1.171875,-4.3932283314259564e-05,-4.441444741741054e-05,-6.004671518272678e-05,-4.5404152681773096e-05,7.0667,4.7333
1.17578125,-3.954205226977952e-05,-3.41621159609369e-05,-4.636848088807508e-05,-4.197824984359502e-05,7.0667,4.7333
1.1796875,-4.101392163729305e-05,-3.7588018799114975e-05,-4.735818615243764e-05,-4.5404152681773096e-05,7.0667,4.7333
1.18359375,-5.466677887388418e-05,-4.7840350255588614e-05,-7.616114705119402e-05,-4.735818615243764e-05,7.0667,4.7333
1.1875,-5.712835350576029e-05,-3.7588018799114975e-05,-7.273524421301594e-05,-4.685064499122606e-05,7.0667,4.7333
1.19140625,-5.613864824139773e-05,-3.269024659342337e-05,-4.246041394674601e-05,-4.735818615243764e-05,7.0667,4.7333
1.1953125,-5.857484581521325e-05,-4.002421637293049e-05,-2.9771884916456853e-05,-5.126625309376669e-05,7.0667,4.7333
1.19921875,-4.832251435873961e-05,-3.5633985328450446e-05,-4.050638047608149e-05,-4.9312219623102167e-05,7.0667,4.7333
1.203125,-4.4896611520561536e-05,-2.342762040131228e-05,-3.659831353475242e-05,-4.9794383726253156e-05,7.0667,4.7333
1.20703125,-5.662081234454872e-05,-2.3909784504463274e-05,-5.271274540321966e-05,-5.223058130006866e-05,7.0667,4.7333
1.2109375,-5.027654782940413e-05,-1.9519553459983214e-05,-7.078121074235141e-05,-5.223058130006866e-05,7.0667,4.7333
1.21484375,-4.832251435873961e-05,-1.17034195773251e-05,-4.345011921110857e-05,-5.223058130006866e-05,7.0667,4.7333
1.21875,-5.761051760891128e-05,5.029453498130749e-07,-5.075871193255513e-05,-4.9312219623102167e-05,7.0667,4.7333
1.22265625,-5.075871193255513e-05,1.9535738895246812e-05,-6.395478212405585e-05,-4.5886316784924085e-05,7.0667,4.7333
1.2265625,-4.5404152681773096e-05,2.1997313527122907e-05,-5.761051760891128e-05,-5.466677887388418e-05,7.0667,4.7333
1.23046875,-5.41846147707332e-05,2.100760826276035e-05,-6.933471843289846e-05,-6.491911033035783e-05,7.0667,4.7333
1.234375,-5.126625309376669e-05,2.6387544571602957e-05,-6.151858455024033e-05,-6.052887928587778e-05,7.0667,4.7333
1.23828125,-4.4896611520561536e-05,3.565017076371404e-05,-2.9771884916456853e-05,-4.9794383726253156e-05,7.0667,4.7333
1.2421875,-4.685064499122606e-05,4.298414054322117e-05,-4.101392163729305e-05,-4.735818615243764e-05,7.0667,4.7333
1.24609375,-5.271274540321966e-05,3.516800666056305e-05,-5.5656484138246735e-05,-4.735818615243764e-05,7.0667,4.7333
1.25,-5.8092681712062254e-05,1.758170542458228e-05,-4.5886316784924085e-05,-4.5404152681773096e-05,7.0667,4.7333
1.25390625,-5.027654782940413e-05,1.4181179644464784e-05,-3.611614943160144e-05,-4.1496085740444045e-05,7.0667,4.7333
1.2578125,-4.345011921110857e-05,6.365045761806662e-06,-3.659831353475242e-05,-4.1496085740444045e-05,7.0667,4.7333
1.26171875,-4.050638047608149e-05,7.3293739681086405e-06,-4.296795510795758e-05,-3.269024659342337e-05,7.0667,4.7333
1.265625,-4.002421637293049e-05,7.83691512932021e-06,-5.8092681712062254e-05,-2.634598207827878e-05,7.0667,4.7333
1.26953125,-5.1748417196917685e-05,-9.749386106660566e-06,-6.738068496223393e-05,-3.220808249027237e-05,7.0667,4.7333
1.2734375,-4.735818615243764e-05,-1.3657453047989633e-05,-5.857484581521325e-05,-3.3679951857785924e-05,7.0667,4.7333
1.27734375,-3.5151821225299456e-05,-2.634598207827878e-05,-6.687314380102237e-05,-3.5151821225299456e-05,7.0667,4.7333
1.28125,-3.5633985328450446e-05,-4.636848088807508e-05,-9.374744828717479e-05,-3.807018290226597e-05,7.0667,4.7333
1.28515625,-3.3679951857785924e-05,-4.5404152681773096e-05,-0.00011229807772945756,-3.319778775463493e-05,7.0667,4.7333
1.2890625,-2.7817851445792328e-05,-4.88046784618906e-05,-0.00011082620836194399,-2.4899489768825817e-05,7.0667,4.7333
1.29296875,-4.1496085740444045e-05,-7.37249494773785e-05,-0.00011229807772945756,-3.073621312275884e-05,7.0667,4.7333
1.296875,-4.88046784618906e-05,-8.884967608148317e-05,-0.00011569860350957503,-2.8807556710154884e-05,7.0667,4.7333
1.30078125,-4.345011921110857e-05,-8.349511683070116e-05,-0.00011912450634775311,-1.804768409246968e-05,7.0667,4.7333
1.3046875,-4.002421637293049e-05,-8.83675119783322e-05,-0.00013523893821622033,-1.5129322415503167e-05,7.0667,4.7333
1.30859375,-3.5633985328450446e-05,-9.080370955214771e-05,-0.00015673330639353017,-1.804768409246968e-05,7.0667,4.7333
1.3125,-3.319778775463493e-05,-7.859734462500955e-05,-0.00012546877086289768,-1.561148651865416e-05,7.0667,4.7333
1.31640625,-4.1496085740444045e-05,-8.884967608148317e-05,-0.0001020457462729839,-1.0739091371023122e-05,7.0667,4.7333
1.3203125,-4.441444741741054e-05,-9.618364586099031e-05,-0.0001279049684367132,-1.9037389356832234e-05,7.0667,4.7333
1.32421875,-3.3679951857785924e-05,-6.395478212405585e-05,-0.00011960667045090408,-2.1473586930647753e-05,7.0667,4.7333
1.328125,-4.832251435873961e-05,-6.78628490653849e-05,-0.00012645847612726023,-2.58638179751278e-05,7.0667,4.7333
1.33203125,-6.151858455024033e-05,-7.712547525749599e-05,-0.00012255040918593118,-3.464428006408789e-05,7.0667,4.7333
1.3359375,-5.322028656443122e-05,-5.905700991836424e-05,-9.128587365529869e-05,-3.3679951857785924e-05,7.0667,4.7333
1.33984375,-4.7840350255588614e-05,-4.832251435873961e-05,-8.103354219882507e-05,-3.7588018799114975e-05,7.0667,4.7333
1.34375,-4.296795510795758e-05,-4.197824984359502e-05,-7.859734462500955e-05,-3.659831353475242e-05,7.0667,4.7333
1.34765625,-4.345011921110857e-05,-3.41621159609369e-05,-7.763301641870756e-05,-3.5633985328450446e-05,7.0667,4.7333
1.3515625,-4.5886316784924085e-05,-2.634598207827878e-05,-5.613864824139773e-05,-3.905988816662852e-05,7.0667,4.7333
1.35546875,-4.5886316784924085e-05,-1.8529848195620658e-05,-4.050638047608149e-05,-3.7105854695964e-05,7.0667,4.7333
1.359375,-4.246041394674601e-05,5.8828816586556766e-06,-4.101392163729305e-05,-3.41621159609369e-05,7.0667,4.7333
1.36328125,-3.269024659342337e-05,2.004328005645838e-05,-2.342762040131228e-05,-3.5151821225299456e-05,7.0667,4.7333
1.3671875,-3.7105854695964e-05,2.395134699778744e-05,-2.9771884916456853e-05,-3.954205226977952e-05,7.0667,4.7333
1.37109375,-3.905988816662852e-05,3.565017076371404e-05,-2.9289720813305874e-05,-3.954205226977952e-05,7.0667,4.7333
1.375,-3.269024659342337e-05,2.9305906248569462e-05,-3.887285694666978e-06,-3.3679951857785924e-05,7.0667,4.7333
1.37890625,-3.855234700541696e-05,3.0777775616083004e-05,-9.749386106660566e-06,-3.807018290226597e-05,7.0667,4.7333
1.3828125,-4.441444741741054e-05,4.1030107072556644e-05,-2.5381653871976807e-05,-4.1496085740444045e-05,7.0667,4.7333
1.38671875,-3.954205226977952e-05,2.004328005645838e-05,-2.3909784504463274e-05,-3.464428006408789e-05,7.0667,4.7333
1.390625,-3.611614943160144e-05,2.491567520408941e-05,-7.313188532845046e-06,-3.659831353475242e-05,7.0667,4.7333
1.39453125,-5.271274540321966e-05,4.394846874952315e-05,1.8571410688944836e-05,-4.345011921110857e-05,7.0667,4.7333
1.3984375,-4.101392163729305e-05,5.0318110322728304e-05,1.7099541321431294e-05,-3.611614943160144e-05,7.0667,4.7333
1.40234375,-1.0739091371023122e-05,3.565017076371404e-05,-8.277516739147025e-06,-3.319778775463493e-05,7.0667,4.7333
1.40625,-2.4899489768825817e-05,2.100760826276035e-05,-2.6853523239490356e-05,-4.345011921110857e-05,7.0667,4.7333
1.41015625,-3.5151821225299456e-05,3.8593909498741125e-05,-2.342762040131228e-05,-3.220808249027237e-05,7.0667,4.7333
1.4140625,-2.4391948607614254e-05,4.394846874952315e-05,-1.561148651865416e-05,-2.7335687342641335e-05,7.0667,4.7333
1.41796875,-3.12437542839704e-05,2.2479477630273897e-05,-2.1473586930647753e-05,-4.345011921110857e-05,7.0667,4.7333
1.421875,-2.9771884916456853e-05,1.8089246585793843e-05,-3.12437542839704e-05,-5.466677887388418e-05,7.0667,4.7333
1.42578125,-2.3909784504463274e-05,3.0295611512932018e-05,-2.2945456298161288e-05,-5.1748417196917685e-05,7.0667,4.7333
1.4296875,-1.8529848195620658e-05,3.321397318989852e-05,-2.0001717563134207e-05,-5.126625309376669e-05,7.0667,4.7333
1.43359375,-1.561148651865416e-05,4.199443527885862e-05,-8.785057900358588e-06,-5.466677887388418e-05,7.0667,4.7333
1.4375,-2.58638179751278e-05,4.298414054322117e-05,1.6617377218280304e-05,-4.9312219623102167e-05,7.0667,4.7333
1.44140625,-3.7105854695964e-05,3.760420423437857e-05,2.9391429236285945e-06,-4.345011921110857e-05,7.0667,4.7333
1.4453125,-3.659831353475242e-05,4.054794296940566e-05,-7.795352635996039e-06,-4.296795510795758e-05,7.0667,4.7333
1.44921875,-2.7817851445792328e-05,5.1739225574120696e-05,-4.369449797817964e-06,-4.246041394674601e-05,7.0667,4.7333
1.453125,-2.2945456298161288e-05,5.8591031250476845e-05,2.0781246662082253e-08,-4.101392163729305e-05,7.0667,4.7333
1.45703125,-2.3909784504463274e-05,4.7374371587701226e-05,4.411012291142135e-06,-4.9312219623102167e-05,7.0667,4.7333
1.4609375,-2.9289720813305874e-05,3.66398760280766e-05,-5.35915506218052e-06,-5.517432003509576e-05,7.0667,4.7333
1.46484375,-3.1725918387121396e-05,1.9053574792095822e-05,-2.4899489768825817e-05,-5.271274540321966e-05,7.0667,4.7333
1.46875,-3.464428006408789e-05,2.148977236591134e-05,-2.0991422827496763e-05,-4.002421637293049e-05,7.0667,4.7333
1.47265625,-3.1725918387121396e-05,2.834157804226749e-05,5.029453498130749e-07,-3.611614943160144e-05,7.0667,4.7333
1.4765625,-2.6853523239490356e-05,2.9305906248569462e-05,2.9391429236285945e-06,-4.735818615243764e-05,7.0667,4.7333
1.48046875,-2.5381653871976807e-05,3.420367845426108e-05,4.411012291142135e-06,-4.832251435873961e-05,7.0667,4.7333
1.484375,-2.58638179751278e-05,2.1997313527122907e-05,-1.3657453047989633e-05,-4.3932283314259564e-05,7.0667,4.7333
1.48828125,-3.073621312275884e-05,2.1997313527122907e-05,-1.317528894483864e-05,-3.855234700541696e-05,7.0667,4.7333
1.4921875,-3.855234700541696e-05,1.7099541321431294e-05,-1.8529848195620658e-05,-4.636848088807508e-05,7.0667,4.7333
1.49609375,-4.9794383726253156e-05,1.0273112703135723e-05,-2.58638179751278e-05,-6.052887928587778e-05,7.0667,4.7333
1.5,-5.322028656443122e-05,1.8571410688944836e-05,-2.4391948607614254e-05,-5.9564551079575806e-05,7.0667,4.7333
1.50390625,-4.197824984359502e-05,1.8089246585793843e-05,-3.269024659342337e-05,-4.9312219623102167e-05,7.0667,4.7333
1.5078125,-3.905988816662852e-05,1.8571410688944836e-05,-9.26722200350958e-06,-5.075871193255513e-05,7.0667,4.7333
1.51171875,-5.223058130006866e-05,1.1719605012588686e-05,-1.317528894483864e-05,-6.248291275654231e-05,7.0667,4.7333
1.515625,-4.101392163729305e-05,1.4181179644464784e-05,-3.3679951857785924e-05,-6.491911033035783e-05,7.0667,4.7333
1.51953125,-3.269024659342337e-05,2.1997313527122907e-05,-1.8529848195620658e-05,-5.370245066758221e-05,7.0667,4.7333
1.5234375,-4.246041394674601e-05,1.4663343747615775e-05,-2.634598207827878e-05,-5.271274540321966e-05,7.0667,4.7333
1.52734375,-4.246041394674601e-05,1.1719605012588686e-05,-2.6853523239490356e-05,-5.712835350576029e-05,7.0667,4.7333
1.53125,-3.5633985328450446e-05,2.2961641733424883e-05,-1.2185583680476086e-05,-5.370245066758221e-05,7.0667,4.7333
1.53515625,-3.5151821225299456e-05,1.9053574792095822e-05,5.8828816586556766e-06,-4.441444741741054e-05,7.0667,4.7333
1.5390625,-3.3679951857785924e-05,1.1719605012588686e-05,-1.451088120851459e-06,-4.246041394674601e-05,7.0667,4.7333
1.54296875,-2.830001554894332e-05,6.365045761806662e-06,-3.269024659342337e-05,-4.9794383726253156e-05,7.0667,4.7333
1.546875,-3.319778775463493e-05,2.456978820477602e-06,-4.197824984359502e-05,-5.466677887388418e-05,7.0667,4.7333
1.55078125,-3.319778775463493e-05,1.974814717326616e-06,-3.319778775463493e-05,-5.761051760891128e-05,7.0667,4.7333
1.5546875,-3.220808249027237e-05,-4.369449797817964e-06,-2.0001717563134207e-05,-5.466677887388418e-05,7.0667,4.7333
1.55859375,-3.905988816662852e-05,-1.17034195773251e-05,-2.1955751033798732e-05,-5.322028656443122e-05,7.0667,4.7333
1.5625,-3.12437542839704e-05,-1.2693124841687649e-05,-2.9771884916456853e-05,-5.271274540321966e-05,7.0667,4.7333
1.56640625,-2.8807556710154884e-05,2.456978820477602e-06,-3.855234700541696e-05,-4.7840350255588614e-05,7.0667,4.7333
1.5703125,-3.7105854695964e-05,1.1719605012588686e-05,-2.58638179751278e-05,-4.636848088807508e-05,7.0667,4.7333
1.57421875,-3.7588018799114975e-05,1.974814717326616e-06,-1.5129322415503167e-05,-4.735818615243764e-05,7.0667,4.7333
1.578125,-3.611614943160144e-05,-6.323483268482491e-06,-1.7565519989318685e-05,-4.7840350255588614e-05,7.0667,4.7333
1.58203125,-4.296795510795758e-05,-6.323483268482491e-06,-3.220808249027237e-05,-4.5886316784924085e-05,7.0667,4.7333
1.5859375,-4.3932283314259564e-05,-2.9229574883650002e-06,-3.5633985328450446e-05,-4.9312219623102167e-05,7.0667,4.7333
1.58984375,-3.611614943160144e-05,5.8828816586556766e-06,-4.050638047608149e-05,-5.712835350576029e-05,7.0667,4.7333
1.59375,-3.5633985328450446e-05,6.847209864957655e-06,-4.050638047608149e-05,-5.761051760891128e-05,7.0667,4.7333
1.59765625,-4.735818615243764e-05,2.456978820477602e-06,-2.2945456298161288e-05,-5.761051760891128e-05,7.0667,4.7333
1.6015625,-4.9312219623102167e-05,6.365045761806662e-06,-2.8807556710154884e-05,-5.370245066758221e-05,7.0667,4.7333
1.60546875,-4.050638047608149e-05,7.3293739681086405e-06,-4.296795510795758e-05,-4.296795510795758e-05,7.0667,4.7333
1.609375,-3.319778775463493e-05,-7.795352635996039e-06,-2.6853523239490356e-05,-4.636848088807508e-05,7.0667,4.7333
1.61328125,-2.5381653871976807e-05,4.411012291142135e-06,-1.4647158312352174e-05,-4.441444741741054e-05,7.0667,4.7333
1.6171875,-3.5633985328450446e-05,2.395134699778744e-05,-2.1955751033798732e-05,-3.905988816662852e-05,7.0667,4.7333
1.62109375,-4.3932283314259564e-05,1.6617377218280304e-05,-2.0001717563134207e-05,-3.659831353475242e-05,7.0667,4.7333
1.625,-3.7105854695964e-05,1.0273112703135723e-05,-2.7817851445792328e-05,-4.246041394674601e-05,7.0667,4.7333
1.62890625,-3.855234700541696e-05,1.2709310276951242e-05,-3.807018290226597e-05,-5.1748417196917685e-05,7.0667,4.7333
1.6328125,-3.464428006408789e-05,7.3293739681086405e-06,-2.0001717563134207e-05,-5.517432003509576e-05,7.0667,4.7333
1.63671875,-2.6853523239490356e-05,-9.689240177004663e-07,-7.795352635996039e-06,-5.466677887388418e-05,7.0667,4.7333
1.640625,-2.04838816662852e-05,4.411012291142135e-06,-1.8529848195620658e-05,-5.271274540321966e-05,7.0667,4.7333
1.64453125,-2.5381653871976807e-05,-4.876990959029527e-06,-4.735818615243764e-05,-5.857484581521325e-05,7.0667,4.7333
1.6484375,-2.8807556710154884e-05,8.319079232471197e-06,-4.5404152681773096e-05,-5.517432003509576e-05,7.0667,4.7333
1.65234375,-3.0254049019607846e-05,1.8571410688944836e-05,-2.9771884916456853e-05,-4.246041394674601e-05,7.0667,4.7333
1.65625,-3.905988816662852e-05,-1.9332522240024446e-06,-2.9771884916456853e-05,-4.050638047608149e-05,7.0667,4.7333
1.66015625,-4.7840350255588614e-05,-6.83102442969406e-06,-3.5633985328450446e-05,-4.636848088807508e-05,7.0667,4.7333
1.6640625,-4.296795510795758e-05,-7.795352635996039e-06,-4.735818615243764e-05,-4.9312219623102167e-05,7.0667,4.7333
1.66796875,-2.8807556710154884e-05,-3.887285694666978e-06,-5.075871193255513e-05,-4.832251435873961e-05,7.0667,4.7333
1.671875,-4.3932283314259564e-05,2.0781246662082253e-08,-3.1725918387121396e-05,-5.271274540321966e-05,7.0667,4.7333
1.67578125,-5.41846147707332e-05,-2.4407933852140148e-06,-2.2945456298161288e-05,-5.712835350576029e-05,7.0667,4.7333
1.6796875,-3.5633985328450446e-05,-3.887285694666978e-06,-3.464428006408789e-05,-4.88046784618906e-05,7.0667,4.7333
1.68359375,-4.296795510795758e-05,-2.9229574883650002e-06,-4.3932283314259564e-05,-4.050638047608149e-05,7.0667,4.7333
1.6875,-5.712835350576029e-05,-7.795352635996039e-06,-4.636848088807508e-05,-3.954205226977952e-05,7.0667,4.7333
1.69140625,-5.466677887388418e-05,-1.4647158312352174e-05,-5.027654782940413e-05,-4.296795510795758e-05,7.0667,4.7333
1.6953125,-4.002421637293049e-05,-2.1473586930647753e-05,-4.441444741741054e-05,-4.636848088807508e-05,7.0667,4.7333
1.69921875,-3.464428006408789e-05,-3.1725918387121396e-05,-4.4896611520561536e-05,-5.857484581521325e-05,7.0667,4.7333
1.703125,-3.220808249027237e-05,-1.17034195773251e-05,-5.517432003509576e-05,-5.466677887388418e-05,7.0667,4.7333
1.70703125,-2.7817851445792328e-05,8.319079232471197e-06,-4.002421637293049e-05,-4.1496085740444045e-05,7.0667,4.7333
1.7109375,-3.7105854695964e-05,-5.35915506218052e-06,-4.101392163729305e-05,-4.5886316784924085e-05,7.0667,4.7333
1.71484375,-4.636848088807508e-05,-2.2945456298161288e-05,-3.807018290226597e-05,-4.636848088807508e-05,7.0667,4.7333
1.71875,-5.126625309376669e-05,-1.9519553459983214e-05,-4.1496085740444045e-05,-4.735818615243764e-05,7.0667,4.7333
1.72265625,-5.1748417196917685e-05,-1.804768409246968e-05,-5.41846147707332e-05,-4.735818615243764e-05,7.0667,4.7333
1.7265625,-4.3932283314259564e-05,-2.9229574883650002e-06,-5.322028656443122e-05,-4.002421637293049e-05,7.0667,4.7333
1.73046875,-4.3932283314259564e-05,-3.4051215915159857e-06,-4.88046784618906e-05,-4.3932283314259564e-05,7.0667,4.7333
1.734375,-5.1748417196917685e-05,-5.35915506218052e-06,-4.1496085740444045e-05,-5.370245066758221e-05,7.0667,4.7333
1.73828125,-4.050638047608149e-05,3.42130702677958e-06,-4.050638047608149e-05,-4.3932283314259564e-05,7.0667,4.7333
1.7421875,-4.050638047608149e-05,-1.9332522240024446e-06,-3.611614943160144e-05,-4.4896611520561536e-05,7.0667,4.7333
1.74609375,-4.9794383726253156e-05,-1.4139617151140611e-05,-6.639097969787136e-05,-5.761051760891128e-05,7.0667,4.7333
1.75,-4.9794383726253156e-05,-3.5151821225299456e-05,-7.616114705119402e-05,-5.905700991836424e-05,7.0667,4.7333
1.75390625,-4.7840350255588614e-05,-4.735818615243764e-05,-5.027654782940413e-05,-5.712835350576029e-05,7.0667,4.7333
1.7578125,-3.7588018799114975e-05,-3.611614943160144e-05,-5.223058130006866e-05,-6.54266514915694e-05,7.0667,4.7333
1.76171875,-3.5151821225299456e-05,-2.634598207827878e-05,-5.613864824139773e-05,-5.8092681712062254e-05,7.0667,4.7333
1.765625,-4.7840350255588614e-05,-2.7817851445792328e-05,-5.761051760891128e-05,-4.4896611520561536e-05,7.0667,4.7333
1.76953125,-4.345011921110857e-05,-1.7565519989318685e-05,-4.1496085740444045e-05,-4.441444741741054e-05,7.0667,4.7333
1.7734375,-4.101392163729305e-05,-2.5381653871976807e-05,-3.855234700541696e-05,-4.5404152681773096e-05,7.0667,4.7333
1.77734375,-4.7840350255588614e-05,-4.197824984359502e-05,-4.636848088807508e-05,-4.246041394674601e-05,7.0667,4.7333
1.78125,-4.5886316784924085e-05,-3.319778775463493e-05,-5.075871193255513e-05,-4.345011921110857e-05,7.0667,4.7333
1.78515625,-3.1725918387121396e-05,-1.3657453047989633e-05,-5.322028656443122e-05,-5.370245066758221e-05,7.0667,4.7333
1.7890625,-3.073621312275884e-05,-2.58638179751278e-05,-4.7840350255588614e-05,-4.5886316784924085e-05,7.0667,4.7333
1.79296875,-3.659831353475242e-05,-2.634598207827878e-05,-4.296795510795758e-05,-2.7817851445792328e-05,7.0667,4.7333
1.796875,-4.4896611520561536e-05,-1.9037389356832234e-05,-3.7588018799114975e-05,-4.1496085740444045e-05,7.0667,4.7333
1.80078125,-4.9312219623102167e-05,-5.712835350576029e-05,-6.882717727168688e-05,-4.7840350255588614e-05,7.0667,4.7333
1.8046875,-5.370245066758221e-05,-7.468927768368048e-05,-8.641347850766765e-05,-6.101104338902877e-05,7.0667,4.7333
1.80859375,-5.712835350576029e-05,-3.7588018799114975e-05,-7.712547525749599e-05,-7.811518052185855e-05,7.0667,4.7333
1.8125,-4.002421637293049e-05,-2.634598207827878e-05,-6.981688253604945e-05,-3.855234700541696e-05,7.0667,4.7333
1.81640625,-4.636848088807508e-05,-6.491911033035783e-05,-8.349511683070116e-05,-2.7817851445792328e-05,7.0667,4.7333
1.8203125,-5.857484581521325e-05,-8.445944503700311e-05,-0.00010887217489127947,-4.050638047608149e-05,7.0667,4.7333
1.82421875,-6.004671518272678e-05,-9.128587365529869e-05,-0.00012450444265659573,-4.4896611520561536e-05,7.0667,4.7333
1.828125,-6.639097969787136e-05,-7.859734462500955e-05,-0.00011229807772945756,-4.197824984359502e-05,7.0667,4.7333
1.83203125,-6.200074865339132e-05,-5.370245066758221e-05,-9.227557891966125e-05,-3.12437542839704e-05,7.0667,4.7333
1.8359375,-5.662081234454872e-05,-6.151858455024033e-05,-0.00010887217489127947,-4.345011921110857e-05,7.0667,4.7333
1.83984375,-4.832251435873961e-05,-6.395478212405585e-05,-0.00011082620836194399,-4.685064499122606e-05,7.0667,4.7333
1.84375,-4.9794383726253156e-05,-6.738068496223393e-05,-0.00011620614467078661,-4.345011921110857e-05,7.0667,4.7333
1.84765625,-5.5656484138246735e-05,-5.905700991836424e-05,-0.00012402227855344471,-4.88046784618906e-05,7.0667,4.7333
1.8515625,-4.1496085740444045e-05,-5.075871193255513e-05,-0.00011181591362630655,-4.9312219623102167e-05,7.0667,4.7333
1.85546875,-3.7588018799114975e-05,-3.464428006408789e-05,-9.714797406729229e-05,-3.855234700541696e-05,7.0667,4.7333
1.859375,-4.5404152681773096e-05,-2.0001717563134207e-05,-9.570148175783933e-05,-3.073621312275884e-05,7.0667,4.7333
1.86328125,-4.441444741741054e-05,-3.659831353475242e-05,-8.983938134584573e-05,-4.296795510795758e-05,7.0667,4.7333
1.8671875,-4.685064499122606e-05,-4.345011921110857e-05,-9.958417164110781e-05,-5.027654782940413e-05,7.0667,4.7333
1.87109375,-4.296795510795758e-05,-4.101392163729305e-05,-8.933184018463416e-05,-4.296795510795758e-05,7.0667,4.7333
1.875,-5.075871193255513e-05,-2.634598207827878e-05,-4.9312219623102167e-05,-4.101392163729305e-05,7.0667,4.7333
1.87890625,-5.613864824139773e-05,-1.609365062180514e-05,-5.271274540321966e-05,-4.101392163729305e-05,7.0667,4.7333
1.8828125,-3.220808249027237e-05,-2.4899489768825817e-05,-6.29650768596933e-05,-3.319778775463493e-05,7.0667,4.7333
1.88671875,-2.9771884916456853e-05,-4.685064499122606e-05,-7.273524421301594e-05,-2.2945456298161288e-05,7.0667,4.7333
1.890625,-3.807018290226597e-05,-4.685064499122606e-05,-6.687314380102237e-05,-2.5381653871976807e-05,7.0667,4.7333
1.89453125,-3.905988816662852e-05,-4.246041394674601e-05,-5.027654782940413e-05,-3.12437542839704e-05,7.0667,4.7333
1.8984375,-3.3679951857785924e-05,-3.0254049019607846e-05,-3.954205226977952e-05,-4.3932283314259564e-05,7.0667,4.7333
1.90234375,-2.2945456298161288e-05,-2.2437915136949725e-05,-4.246041394674601e-05,-4.296795510795758e-05,7.0667,4.7333
1.90625,-2.4899489768825817e-05,-2.634598207827878e-05,-5.271274540321966e-05,-2.830001554894332e-05,7.0667,4.7333
1.91015625,-3.807018290226597e-05,-2.0001717563134207e-05,-4.685064499122606e-05,-3.3679951857785924e-05,7.0667,4.7333
1.9140625,-4.9794383726253156e-05,-1.804768409246968e-05,-3.807018290226597e-05,-4.296795510795758e-05,7.0667,4.7333
1.91796875,-5.662081234454872e-05,-2.9289720813305874e-05,-5.223058130006866e-05,-4.3932283314259564e-05,7.0667,4.7333
1.921875,-6.151858455024033e-05,-2.0991422827496763e-05,-4.735818615243764e-05,-4.345011921110857e-05,7.0667,4.7333
1.92578125,-6.639097969787136e-05,-1.8529848195620658e-05,-5.761051760891128e-05,-5.41846147707332e-05,7.0667,4.7333
1.9296875,-5.613864824139773e-05,-3.807018290226597e-05,-6.395478212405585e-05,-5.761051760891128e-05,7.0667,4.7333
1.93359375,-3.5633985328450446e-05,-5.466677887388418e-05,-3.073621312275884e-05,-3.5151821225299456e-05,7.0667,4.7333
1.9375,-3.807018290226597e-05,-7.321740831616693e-05,-4.246041394674601e-05,-3.659831353475242e-05,7.0667,4.7333
1.94140625,-3.954205226977952e-05,-0.00010349223858243687,-6.78628490653849e-05,-6.004671518272678e-05,7.0667,4.7333
1.9453125,-4.636848088807508e-05,-0.00011425211120012207,-7.128875190356298e-05,-6.687314380102237e-05,7.0667,4.7333
1.94921875,-3.1725918387121396e-05,-8.983938134584573e-05,-4.7840350255588614e-05,-5.857484581521325e-05,7.0667,4.7333
1.953125,-3.073621312275884e-05,-9.861984343480583e-05,-3.41621159609369e-05,-6.981688253604945e-05,7.0667,4.7333
1.95703125,-5.027654782940413e-05,-9.618364586099031e-05,-5.613864824139773e-05,-7.907950872816053e-05,7.0667,4.7333
1.9609375,-3.0254049019607846e-05,-6.004671518272678e-05,-2.0991422827496763e-05,-3.220808249027237e-05,7.0667,4.7333
1.96484375,-1.1221255474174106e-05,-7.37249494773785e-05,-1.8529848195620658e-05,9.283407438773174e-06,7.0667,4.7333
1.96875,-4.9794383726253156e-05,-0.00012546877086289768,-7.95870498893721e-05,-2.6853523239490356e-05,7.0667,4.7333
1.97265625,-7.664331115434501e-05,-0.00010595381321431295,-7.907950872816053e-05,-6.151858455024033e-05,7.0667,4.7333
1.9765625,-6.200074865339132e-05,-7.273524421301594e-05,-4.9312219623102167e-05,-3.855234700541696e-05,7.0667,4.7333
1.98046875,-4.441444741741054e-05,-8.593131440451668e-05,-9.275774302281223e-05,-1.2693124841687649e-05,7.0667,4.7333
1.984375,-4.441444741741054e-05,-8.298757566948959e-05,-0.00011374457003891053,-3.905988816662852e-05,7.0667,4.7333
1.98828125,-3.3679951857785924e-05,-4.4896611520561536e-05,-4.832251435873961e-05,-3.220808249027237e-05,7.0667,4.7333
1.9921875,-3.659831353475242e-05,-6.200074865339132e-05,-5.662081234454872e-05,-2.9289720813305874e-05,7.0667,4.7333
1.99609375,-5.271274540321966e-05,-7.95870498893721e-05,-9.179341481651028e-05,-4.685064499122606e-05,7.0667,4.7333
2.0,-6.29650768596933e-05,-4.9312219623102167e-05,-8.641347850766765e-05,-4.101392163729305e-05,7.0667,4.7333
2.00390625,-5.027654782940413e-05,-3.0254049019607846e-05,-9.666580996414131e-05,-3.5633985328450446e-05,7.0667,4.7333
2.0078125,-4.636848088807508e-05,-4.735818615243764e-05,-0.00011034404425879301,-4.636848088807508e-05,7.0667,4.7333
2.01171875,-5.223058130006866e-05,-3.855234700541696e-05,-0.00010009171280231935,-6.200074865339132e-05,7.0667,4.7333
2.015625,-4.197824984359502e-05,-3.0254049019607846e-05,-7.177091600671397e-05,-4.4896611520561536e-05,7.0667,4.7333
2.01953125,-3.220808249027237e-05,-2.3909784504463274e-05,-6.491911033035783e-05,-3.0254049019607846e-05,7.0667,4.7333
2.0234375,-2.3909784504463274e-05,-6.83102442969406e-06,-5.905700991836424e-05,-4.441444741741054e-05,7.0667,4.7333
2.02734375,-2.1473586930647753e-05,1.5145507850766762e-05,-2.58638179751278e-05,-4.5404152681773096e-05,7.0667,4.7333
2.03125,-3.7588018799114975e-05,2.148977236591134e-05,-3.5151821225299456e-05,-3.269024659342337e-05,7.0667,4.7333
2.03515625,-3.7105854695964e-05,1.467273556115053e-06,-3.905988816662852e-05,-3.7105854695964e-05,7.0667,4.7333
2.0390625,-5.761051760891128e-05,-2.7817851445792328e-05,-6.29650768596933e-05,-4.5886316784924085e-05,7.0667,4.7333
2.04296875,-7.029904663920042e-05,-2.6853523239490356e-05,-9.714797406729229e-05,-5.712835350576029e-05,7.0667,4.7333
2.046875,-5.322028656443122e-05,-9.749386106660566e-06,-5.905700991836424e-05,-6.101104338902877e-05,7.0667,4.7333
2.05078125,-9.689240177004663e-07,2.834157804226749e-05,6.847209864957655e-06,-4.685064499122606e-05,7.0667,4.7333
2.0546875,5.029453498130749e-07,2.148977236591134e-05,1.974814717326616e-06,-3.611614943160144e-05,7.0667,4.7333
2.05859375,-4.050638047608149e-05,-3.954205226977952e-05,-5.712835350576029e-05,-3.4051215915159857e-06,7.0667,4.7333
2.0625,-7.321740831616693e-05,-6.981688253604945e-05,-0.00010935433899443046,-8.785057900358588e-06,7.0667,4.7333
2.06640625,-6.590881559472037e-05,-3.12437542839704e-05,-9.714797406729229e-05,-2.4391948607614254e-05,7.0667,4.7333
2.0703125,-4.002421637293049e-05,-1.609365062180514e-05,-7.225308010986496e-05,-1.804768409246968e-05,7.0667,4.7333
2.07421875,-3.611614943160144e-05,-3.4051215915159857e-06,-4.9794383726253156e-05,-2.4391948607614254e-05,7.0667,4.7333
2.078125,-3.0254049019607846e-05,2.6387544571602957e-05,-3.073621312275884e-05,-4.5886316784924085e-05,7.0667,4.7333
2.08203125,-2.8807556710154884e-05,5.3211094941634235e-05,5.375340497444114e-06,-1.3657453047989633e-05,7.0667,4.7333
2.0859375,-5.8092681712062254e-05,2.6869708674753944e-05,-2.04838816662852e-05,-2.2437915136949725e-05,7.0667,4.7333
2.08984375,-3.611614943160144e-05,-7.313188532845046e-06,-5.027654782940413e-05,-8.154108336003662e-05,7.0667,4.7333
2.09375,-3.659831353475242e-05,-2.2437915136949725e-05,-4.9794383726253156e-05,-4.050638047608149e-05,7.0667,4.7333
2.09765625,-4.050638047608149e-05,-1.3657453047989633e-05,-4.050638047608149e-05,-1.023155020981155e-05,7.0667,4.7333
2.1015625,-2.9771884916456853e-05,-2.1473586930647753e-05,-5.905700991836424e-05,-4.832251435873961e-05,7.0667,4.7333
2.10546875,-3.659831353475242e-05,-2.6853523239490356e-05,-8.397728093385214e-05,-2.7335687342641335e-05,7.0667,4.7333
2.109375,-5.9564551079575806e-05,-2.9771884916456853e-05,-6.200074865339132e-05,-4.101392163729305e-05,7.0667,4.7333
2.11328125,-5.41846147707332e-05,2.2961641733424883e-05,5.8828816586556766e-06,-8.54237732433051e-05,7.0667,4.7333
2.1171875,2.443351110093843e-05,0.0001196228558861677,0.00010594462159151597,-4.88046784618906e-05,7.0667,4.7333
2.12109375,3.0777775616083004e-05,6.884336270695048e-05,3.808636833752956e-05,-7.313188532845046e-06,7.0667,4.7333
2.125,-1.8529848195620658e-05,2.7351872777904933e-05,-3.659831353475242e-05,-2.4899489768825817e-05,7.0667,4.7333
2.12890625,-7.616114705119402e-05,-2.2437915136949725e-05,-8.593131440451668e-05,-8.349511683070116e-05,7.0667,4.7333
2.1328125,-0.00012546877086289768,-7.664331115434501e-05,-0.000145009105569543,-5.613864824139773e-05,7.0667,4.7333
2.13671875,-0.00012402227855344471,-2.342762040131228e-05,-9.032154544899671e-05,-2.342762040131228e-05,7.0667,4.7333
2.140625,-5.857484581521325e-05,2.148977236591134e-05,-2.1955751033798732e-05,-2.634598207827878e-05,7.0667,4.7333
2.14453125,9.283407438773174e-06,2.588000341039139e-05,-2.6853523239490356e-05,-2.04838816662852e-05,7.0667,4.7333
2.1484375,-4.867599145494808e-07,1.2227146173800257e-05,-6.101104338902877e-05,-2.342762040131228e-05,7.0667,4.7333
2.15234375,5.8828816586556766e-06,3.1259939719233994e-05,-4.246041394674601e-05,-2.6853523239490356e-05,7.0667,4.7333
2.15625,-3.319778775463493e-05,1.7099541321431294e-05,-6.347261802090486e-05,-7.321740831616693e-05,7.0667,4.7333
2.16015625,-7.128875190356298e-05,2.3443805836575873e-05,-6.101104338902877e-05,-6.687314380102237e-05,7.0667,4.7333
2.1640625,-4.1496085740444045e-05,4.6410043381399246e-05,-5.027654782940413e-05,-2.04838816662852e-05,7.0667,4.7333
2.16796875,3.369613729304952e-05,0.00012010501998931869,-2.9229574883650002e-06,-2.830001554894332e-05,7.0667,4.7333
2.171875,1.5145507850766762e-05,9.716415950255589e-05,-1.5129322415503167e-05,-5.223058130006866e-05,7.0667,4.7333
2.17578125,-6.491911033035783e-05,6.932552681010147e-05,-2.9289720813305874e-05,-4.636848088807508e-05,7.0667,4.7333
2.1796875,-2.634598207827878e-05,0.00011228888610666055,2.7351872777904933e-05,-3.855234700541696e-05,7.0667,4.7333
2.18359375,-2.4407933852140148e-06,6.394559050125886e-05,-2.8807556710154884e-05,2.456978820477602e-06,7.0667,4.7333
2.1875,-2.7335687342641335e-05,4.785653569085221e-05,-4.685064499122606e-05,-1.317528894483864e-05,7.0667,4.7333
2.19140625,-6.882717727168688e-05,4.394846874952315e-05,-4.101392163729305e-05,-0.0001249866067597467,7.0667,4.7333
2.1953125,-7.616114705119402e-05,2.9305906248569462e-05,-6.443694622720685e-05,-0.00010643597731746396,7.0667,4.7333
2.19921875,-6.834501316853589e-05,5.0318110322728304e-05,-3.659831353475242e-05,-6.323483268482491e-06,7.0667,4.7333
2.203125,-5.126625309376669e-05,5.2728930838483245e-05,-2.5381653871976807e-05,6.24990981918059e-05,7.0667,4.7333
2.20703125,-1.9332522240024446e-06,5.2221389677271686e-05,-5.712835350576029e-05,4.394846874952315e-05,7.0667,4.7333
2.2109375,-3.807018290226597e-05,9.851094529640604e-07,-0.00011326240593575951,-8.933184018463416e-05,7.0667,4.7333
2.21484375,-3.5633985328450446e-05,2.53978393072404e-05,-7.37249494773785e-05,-0.00014353723620202943,7.0667,4.7333
2.21875,-7.313188532845046e-06,9.569229013504234e-05,-1.317528894483864e-05,-6.882717727168688e-05,7.0667,4.7333
2.22265625,-4.002421637293049e-05,6.445313166247044e-05,-5.466677887388418e-05,-5.905700991836424e-05,7.0667,4.7333
2.2265625,-4.4896611520561536e-05,6.493529576562141e-05,-8.250541156633861e-05,1.467273556115053e-06,7.0667,4.7333
2.23046875,-3.5151821225299456e-05,0.00011424291957732509,-2.7817851445792328e-05,1.4181179644464784e-05,7.0667,4.7333
2.234375,-2.0991422827496763e-05,0.00019628694828717477,7.66594965896086e-05,3.615771192492561e-05,7.0667,4.7333
2.23828125,-1.5129322415503167e-05,0.0001586781482413977,4.1030107072556644e-05,5.029453498130749e-07,7.0667,4.7333
2.2421875,6.847209864957655e-06,7.762382479591058e-05,-5.1748417196917685e-05,-0.00010986188015564204,7.0667,4.7333
2.24609375,-6.323483268482491e-06,0.00011619695304798962,-5.712835350576029e-05,-7.517144178683146e-05,7.0667,4.7333
2.25,-3.659831353475242e-05,0.00014304588047608149,-1.9037389356832234e-05,1.0755276806286715e-05,7.0667,4.7333
2.25390625,-6.54266514915694e-05,0.00011327859137102311,-3.954205226977952e-05,-3.073621312275884e-05,7.0667,4.7333
2.2578125,-0.00011326240593575951,0.00012987518734264134,-5.370245066758221e-05,-0.00011912450634775311,7.0667,4.7333
2.26171875,-1.5129322415503167e-05,0.0002958919011749447,0.00011571478894483863,2.6387544571602957e-05,7.0667,4.7333
2.265625,3.9076073601892115e-05,0.0002099398055237659,3.1259939719233994e-05,8.983018972304875e-05,7.0667,4.7333
2.26953125,-8.103354219882507e-05,-3.4051215915159857e-06,-0.0001904086624399176,-4.296795510795758e-05,7.0667,4.7333
2.2734375,-6.981688253604945e-05,5.0318110322728304e-05,-0.00013232057653925382,-3.7105854695964e-05,7.0667,4.7333
2.27734375,-2.8807556710154884e-05,0.00014403558574044403,-4.197824984359502e-05,-4.101392163729305e-05,7.0667,4.7333
2.28125,-3.3679951857785924e-05,0.00018113684462500954,-3.3679951857785924e-05,-4.246041394674601e-05,7.0667,4.7333
2.28515625,-6.248291275654231e-05,0.0001996874740672923,-3.319778775463493e-05,-1.7565519989318685e-05,7.0667,4.7333
2.2890625,-2.04838816662852e-05,0.0001996874740672923,-1.2693124841687649e-05,-2.1473586930647753e-05,7.0667,4.7333
2.29296875,-1.2185583680476086e-05,0.00020067717933165485,-1.561148651865416e-05,-6.004671518272678e-05,7.0667,4.7333
2.296875,2.491567520408941e-05,0.00027439753299763486,4.542033811703669e-05,3.516800666056305e-05,7.0667,4.7333
2.30078125,-1.5129322415503167e-05,0.00019577940712596322,-3.1725918387121396e-05,3.565017076371404e-05,7.0667,4.7333
2.3046875,-7.420711358052949e-05,0.00015720627887388418,-8.593131440451668e-05,-6.004671518272678e-05,7.0667,4.7333
2.30859375,-8.593131440451668e-05,0.00020603173858243688,-4.101392163729305e-05,-5.8092681712062254e-05,7.0667,4.7333
2.3125,-8.737780671396965e-05,0.00016258621518272677,-5.5656484138246735e-05,8.319079232471197e-06,7.0667,4.7333
2.31640625,-2.0001717563134207e-05,0.00011228888610666055,-7.859734462500955e-05,-2.4391948607614254e-05,7.0667,4.7333
2.3203125,-4.369449797817964e-06,0.0001303573514457923,-6.981688253604945e-05,-4.9794383726253156e-05,7.0667,4.7333
2.32421875,-2.7335687342641335e-05,0.00017136667727168687,-4.88046784618906e-05,-5.370245066758221e-05,7.0667,4.7333
2.328125,-7.078121074235141e-05,0.0001621040510795758,-5.8092681712062254e-05,-6.347261802090486e-05,7.0667,4.7333
2.33203125,-4.735818615243764e-05,0.00016893047969787135,-6.052887928587778e-05,1.467273556115053e-06,7.0667,4.7333
2.3359375,-4.197824984359502e-05,0.00015329821193255512,-7.37249494773785e-05,2.1997313527122907e-05,7.0667,4.7333
2.33984375,-5.857484581521325e-05,0.00015134417846189056,-8.006921399252309e-05,-1.0739091371023122e-05,7.0667,4.7333
2.34375,-5.1748417196917685e-05,0.00018017251641870756,-6.052887928587778e-05,-1.1221255474174106e-05,7.0667,4.7333
2.34765625,-5.370245066758221e-05,0.00019481507891966126,-4.832251435873961e-05,1.974814717326616e-06,7.0667,4.7333
2.3515625,-6.639097969787136e-05,0.00016015001760891125,-6.248291275654231e-05,-1.2693124841687649e-05,7.0667,4.7333
2.35546875,-5.322028656443122e-05,0.00015720627887388418,-4.296795510795758e-05,-1.3657453047989633e-05,7.0667,4.7333
2.359375,-5.271274540321966e-05,0.00015966785350576026,-4.4896611520561536e-05,-2.4899489768825817e-05,7.0667,4.7333
2.36328125,-7.616114705119402e-05,0.00013134705671015486,-5.857484581521325e-05,-2.1955751033798732e-05,7.0667,4.7333
2.3671875,-8.494160914015413e-05,0.0001083808191653315,-7.712547525749599e-05,-2.04838816662852e-05,7.0667,4.7333
2.37109375,-6.882717727168688e-05,0.00010594462159151597,-7.763301641870756e-05,-3.464428006408789e-05,7.0667,4.7333
2.375,-7.225308010986496e-05,0.00011667911715114061,-7.273524421301594e-05,-3.7588018799114975e-05,7.0667,4.7333
2.37890625,-6.981688253604945e-05,0.00012644928450446325,-6.004671518272678e-05,-3.12437542839704e-05,7.0667,4.7333
2.3828125,-6.933471843289846e-05,0.00010985268853284503,-8.83675119783322e-05,-2.6853523239490356e-05,7.0667,4.7333
2.38671875,-8.20232474631876e-05,7.615195542839703e-05,-0.00011082620836194399,-3.319778775463493e-05,7.0667,4.7333
2.390625,-9.128587365529869e-05,5.468296430914778e-05,-8.055137809567407e-05,-3.807018290226597e-05,7.0667,4.7333
2.39453125,-9.323990712596323e-05,4.7374371587701226e-05,-6.590881559472037e-05,-3.954205226977952e-05,7.0667,4.7333
2.3984375,-9.227557891966125e-05,4.836407685206378e-05,-7.321740831616693e-05,-3.073621312275884e-05,7.0667,4.7333
2.40234375,-9.179341481651028e-05,5.3211094941634235e-05,-6.882717727168688e-05,-3.1725918387121396e-05,7.0667,4.7333
2.40625,-9.666580996414131e-05,4.004040180819409e-05,-6.933471843289846e-05,-4.197824984359502e-05,7.0667,4.7333
2.41015625,-0.00010349223858243687,3.321397318989852e-05,-6.590881559472037e-05,-3.807018290226597e-05,7.0667,4.7333
2.4140625,-0.0001049641079499504,3.273180908674753e-05,-7.078121074235141e-05,-3.7588018799114975e-05,7.0667,4.7333
2.41796875,-0.00010399977974364844,1.4181179644464784e-05,-6.834501316853589e-05,-4.197824984359502e-05,7.0667,4.7333
2.421875,-0.00010399977974364844,-6.83102442969406e-06,-7.811518052185855e-05,-4.88046784618906e-05,7.0667,4.7333
2.42578125,-9.958417164110781e-05,-6.83102442969406e-06,-8.445944503700311e-05,-5.41846147707332e-05,7.0667,4.7333
2.4296875,-9.958417164110781e-05,1.5627671953917748e-05,-6.151858455024033e-05,-5.662081234454872e-05,7.0667,4.7333
2.43359375,-0.00010448194384679941,1.8089246585793843e-05,-6.29650768596933e-05,-5.662081234454872e-05,7.0667,4.7333
2.4375,-0.00010595381321431295,1.6617377218280304e-05,-6.590881559472037e-05,-4.832251435873961e-05,7.0667,4.7333
2.44140625,-0.00010935433899443046,9.283407438773174e-06,-7.763301641870756e-05,-3.807018290226597e-05,7.0667,4.7333
2.4453125,-0.00011473427530327307,-2.1955751033798732e-05,-8.884967608148317e-05,-4.101392163729305e-05,7.0667,4.7333
2.44921875,-0.00011521643940642405,-4.1496085740444045e-05,-7.567898294804304e-05,-4.441444741741054e-05,7.0667,4.7333
2.453125,-0.00011668830877393759,-5.075871193255513e-05,-7.37249494773785e-05,-4.5404152681773096e-05,7.0667,4.7333
2.45703125,-0.00011717047287708859,-5.8092681712062254e-05,-7.273524421301594e-05,-4.101392163729305e-05,7.0667,4.7333
2.4609375,-0.00012107853981841765,-7.517144178683146e-05,-6.395478212405585e-05,-3.269024659342337e-05,7.0667,4.7333
2.46484375,-0.00012402227855344471,-9.179341481651028e-05,-6.347261802090486e-05,-2.3909784504463274e-05,7.0667,4.7333
2.46875,-0.00011521643940642405,-0.0001020457462729839,-7.420711358052949e-05,-1.5129322415503167e-05,7.0667,4.7333
2.47265625,-0.00011034404425879301,-0.00012059637571526665,-7.859734462500955e-05,-1.7565519989318685e-05,7.0667,4.7333
2.4765625,-0.00010595381321431295,-0.00013280274064240483,-8.006921399252309e-05,-1.9037389356832234e-05,7.0667,4.7333
2.48046875,-9.910200753795683e-05,-0.00016112353743801021,-8.54237732433051e-05,-1.317528894483864e-05,7.0667,4.7333
2.484375,-9.519394059662775e-05,-0.00018454656202792402,-0.0001020457462729839,-8.277516739147025e-06,7.0667,4.7333
2.48828125,-9.128587365529869e-05,-0.0001904086624399176,-0.00011326240593575951,-8.785057900358588e-06,7.0667,4.7333
2.4921875,-8.689564261081864e-05,-0.00021142086651407645,-0.00013280274064240483,-2.9229574883650002e-06,7.0667,4.7333
2.49609375,-7.763301641870756e-05,-0.0002382697939421683,-0.0001386648410543984,1.4181179644464784e-05,7.0667,4.7333
2.5,-7.95870498893721e-05,-0.00024022382741283285,-0.00013523893821622033,2.004328005645838e-05,7.0667,4.7333
2.50390625,-8.006921399252309e-05,-0.00025194802823682005,-0.0001533074035553521,1.8571410688944836e-05,7.0667,4.7333
2.5078125,-8.298757566948959e-05,-0.000287095253650721,-0.0001816282003509575,2.3443805836575873e-05,7.0667,4.7333
2.51171875,-9.323990712596323e-05,-0.00030369184962233926,-0.00017480177173266191,2.8823742145418472e-05,7.0667,4.7333
2.515625,-8.983938134584573e-05,-0.0003051637189898528,-0.00014744530314335851,2.978807035172045e-05,7.0667,4.7333
2.51953125,-8.349511683070116e-05,-0.00030564588309300373,-0.00016307757090867477,2.2479477630273897e-05,7.0667,4.7333
2.5234375,-8.20232474631876e-05,-0.0002792791197680628,-0.00018310006971847105,1.9535738895246812e-05,7.0667,4.7333
2.52734375,-8.298757566948959e-05,-0.00025976416211947816,-0.0001528252394522011,2.53978393072404e-05,7.0667,4.7333
2.53125,-7.664331115434501e-05,-0.0002543842258106355,-0.00013133087127489127,1.8571410688944836e-05,7.0667,4.7333
2.53515625,-7.567898294804304e-05,-0.00024999399476615547,-0.00014158320273136493,1.1237440909437701e-05,7.0667,4.7333
2.5390625,-7.859734462500955e-05,-0.00023240769353017468,-0.00013181303537804229,1.1719605012588686e-05,7.0667,4.7333
2.54296875,-8.006921399252309e-05,-0.00021776513102922103,-0.0001308487071717403,5.029453498130749e-07,7.0667,4.7333
2.546875,-7.712547525749599e-05,-0.00018845462896925307,-0.00012889467370107575,-1.2693124841687649e-05,7.0667,4.7333
2.55078125,-6.834501316853589e-05,-0.00017624826404211488,-8.788534787518119e-05,-1.2185583680476086e-05,7.0667,4.7333
2.5546875,-6.738068496223393e-05,-0.00017723796930647743,-6.933471843289846e-05,-8.277516739147025e-06,7.0667,4.7333
2.55859375,-6.981688253604945e-05,-0.0001537895676585031,-5.517432003509576e-05,-1.4647158312352174e-05,7.0667,4.7333
2.5625,-7.177091600671397e-05,-0.00013181303537804229,-5.466677887388418e-05,-2.1473586930647753e-05,7.0667,4.7333
2.56640625,-6.834501316853589e-05,-0.0001337670688487068,-6.491911033035783e-05,-2.3909784504463274e-05,7.0667,4.7333
2.5703125,-7.420711358052949e-05,-0.0001386648410543984,-5.027654782940413e-05,-2.830001554894332e-05,7.0667,4.7333
2.57421875,-7.859734462500955e-05,-0.0001337670688487068,-3.464428006408789e-05,-3.611614943160144e-05,7.0667,4.7333
2.578125,-7.811518052185855e-05,-0.00011130837246509499,-3.807018290226597e-05,-3.905988816662852e-05,7.0667,4.7333
2.58203125,-7.517144178683146e-05,-9.910200753795683e-05,-3.905988816662852e-05,-3.7588018799114975e-05,7.0667,4.7333
2.5859375,-7.029904663920042e-05,-0.00010057387690547037,-2.6853523239490356e-05,-3.855234700541696e-05,7.0667,4.7333
2.58984375,-7.078121074235141e-05,-8.788534787518119e-05,-2.04838816662852e-05,-4.1496085740444045e-05,7.0667,4.7333
2.59375,-7.712547525749599e-05,-9.032154544899671e-05,-2.2945456298161288e-05,-4.197824984359502e-05,7.0667,4.7333
2.59765625,-8.006921399252309e-05,-8.983938134584573e-05,-2.3909784504463274e-05,-4.441444741741054e-05,7.0667,4.7333
2.6015625,-7.37249494773785e-05,-8.055137809567407e-05,-1.8529848195620658e-05,-4.441444741741054e-05,7.0667,4.7333
2.60546875,-6.738068496223393e-05,-7.468927768368048e-05,-2.342762040131228e-05,-4.197824984359502e-05,7.0667,4.7333
2.609375,-5.613864824139773e-05,-5.322028656443122e-05,-1.7565519989318685e-05,-4.4896611520561536e-05,7.0667,4.7333
2.61328125,-4.636848088807508e-05,-4.5404152681773096e-05,-4.369449797817964e-06,-4.5886316784924085e-05,7.0667,4.7333
2.6171875,-4.9312219623102167e-05,-5.517432003509576e-05,2.0525444159609368e-05,-3.0254049019607846e-05,7.0667,4.7333
2.62109375,-5.905700991836424e-05,-5.857484581521325e-05,8.319079232471197e-06,-2.5381653871976807e-05,7.0667,4.7333
2.625,-6.395478212405585e-05,-5.322028656443122e-05,-1.2185583680476086e-05,-3.1725918387121396e-05,7.0667,4.7333
2.62890625,-5.41846147707332e-05,-5.126625309376669e-05,-2.9229574883650002e-06,-3.464428006408789e-05,7.0667,4.7333
2.6328125,-4.246041394674601e-05,-4.7840350255588614e-05,-4.867599145494808e-07,-3.464428006408789e-05,7.0667,4.7333
2.63671875,-4.246041394674601e-05,-5.223058130006866e-05,7.3293739681086405e-06,-3.319778775463493e-05,7.0667,4.7333
2.640625,-4.4896611520561536e-05,-4.832251435873961e-05,6.365045761806662e-06,-3.41621159609369e-05,7.0667,4.7333
2.64453125,-4.345011921110857e-05,-4.832251435873961e-05,-4.876990959029527e-06,-3.7105854695964e-05,7.0667,4.7333
2.6484375,-4.5404152681773096e-05,-6.29650768596933e-05,6.847209864957655e-06,-3.5151821225299456e-05,7.0667,4.7333
2.65234375,-4.9312219623102167e-05,-5.5656484138246735e-05,1.4181179644464784e-05,-3.659831353475242e-05,7.0667,4.7333
2.65625,-4.296795510795758e-05,-4.4896611520561536e-05,9.283407438773174e-06,-3.855234700541696e-05,7.0667,4.7333
2.66015625,-4.101392163729305e-05,-6.443694622720685e-05,3.42130702677958e-06,-3.855234700541696e-05,7.0667,4.7333
2.6640625,-4.345011921110857e-05,-7.321740831616693e-05,-1.451088120851459e-06,-3.7105854695964e-05,7.0667,4.7333
2.66796875,-3.905988816662852e-05,-5.1748417196917685e-05,7.3293739681086405e-06,-3.5633985328450446e-05,7.0667,4.7333
2.671875,-3.659831353475242e-05,-3.7588018799114975e-05,1.8571410688944836e-05,-3.611614943160144e-05,7.0667,4.7333
2.67578125,-4.1496085740444045e-05,-3.905988816662852e-05,2.6869708674753944e-05,-3.319778775463493e-05,7.0667,4.7333
2.6796875,-4.246041394674601e-05,-4.4896611520561536e-05,2.8823742145418472e-05,-2.58638179751278e-05,7.0667,4.7333
2.68359375,-3.954205226977952e-05,-4.5886316784924085e-05,9.283407438773174e-06,-2.9289720813305874e-05,7.0667,4.7333
2.6875,-4.002421637293049e-05,-5.905700991836424e-05,1.2709310276951242e-05,-3.269024659342337e-05,7.0667,4.7333
2.69140625,-4.002421637293049e-05,-5.370245066758221e-05,1.6135213115129318e-05,-3.3679951857785924e-05,7.0667,4.7333
2.6953125,-3.954205226977952e-05,-3.3679951857785924e-05,8.319079232471197e-06,-3.855234700541696e-05,7.0667,4.7333
2.69921875,-3.855234700541696e-05,-3.7588018799114975e-05,1.6617377218280304e-05,-3.659831353475242e-05,7.0667,4.7333
2.703125,-3.954205226977952e-05,-5.517432003509576e-05,2.0781246662082253e-08,-3.269024659342337e-05,7.0667,4.7333
2.70703125,-4.345011921110857e-05,-5.223058130006866e-05,-9.26722200350958e-06,-3.611614943160144e-05,7.0667,4.7333
2.7109375,-4.345011921110857e-05,-3.807018290226597e-05,1.467273556115053e-06,-3.611614943160144e-05,7.0667,4.7333
2.71484375,-4.735818615243764e-05,-5.126625309376669e-05,-4.867599145494808e-07,-2.9771884916456853e-05,7.0667,4.7333
2.71875,-5.075871193255513e-05,-5.662081234454872e-05,5.8828816586556766e-06,-2.3909784504463274e-05,7.0667,4.7333
2.72265625,-4.5404152681773096e-05,-5.466677887388418e-05,2.0781246662082253e-08,-2.9289720813305874e-05,7.0667,4.7333
2.7265625,-3.7105854695964e-05,-5.027654782940413e-05,1.467273556115053e-06,-3.5633985328450446e-05,7.0667,4.7333
2.73046875,-3.12437542839704e-05,-4.5886316784924085e-05,2.0781246662082253e-08,-3.12437542839704e-05,7.0667,4.7333
2.734375,-3.269024659342337e-05,-4.685064499122606e-05,8.319079232471197e-06,-2.6853523239490356e-05,7.0667,4.7333
2.73828125,-3.464428006408789e-05,-4.002421637293049e-05,3.0777775616083004e-05,-1.804768409246968e-05,7.0667,4.7333
2.7421875,-3.7588018799114975e-05,-4.88046784618906e-05,2.2961641733424883e-05,-1.9037389356832234e-05,7.0667,4.7333
2.74609375,-3.855234700541696e-05,-5.712835350576029e-05,9.851094529640604e-07,-2.58638179751278e-05,7.0667,4.7333
2.75,-3.464428006408789e-05,-3.073621312275884e-05,4.893176394293121e-06,-1.8529848195620658e-05,7.0667,4.7333
2.75390625,-3.269024659342337e-05,-2.5381653871976807e-05,3.369613729304952e-05,-1.6601191783016716e-05,7.0667,4.7333
2.7578125,-3.855234700541696e-05,-3.5151821225299456e-05,4.199443527885862e-05,-2.342762040131228e-05,7.0667,4.7333
2.76171875,-3.464428006408789e-05,-4.4896611520561536e-05,2.6387544571602957e-05,-2.5381653871976807e-05,7.0667,4.7333
2.765625,-2.1955751033798732e-05,-4.002421637293049e-05,2.9391429236285945e-06,-2.7335687342641335e-05,7.0667,4.7333
2.76953125,-2.9771884916456853e-05,-3.7105854695964e-05,4.411012291142135e-06,-3.659831353475242e-05,7.0667,4.7333
2.7734375,-4.101392163729305e-05,-4.197824984359502e-05,1.5627671953917748e-05,-3.807018290226597e-05,7.0667,4.7333
2.77734375,-3.611614943160144e-05,-4.197824984359502e-05,1.6135213115129318e-05,-3.1725918387121396e-05,7.0667,4.7333
2.78125,-3.220808249027237e-05,-4.345011921110857e-05,3.42130702677958e-06,-3.659831353475242e-05,7.0667,4.7333
2.78515625,-3.5151821225299456e-05,-3.855234700541696e-05,-1.6601191783016716e-05,-4.002421637293049e-05,7.0667,4.7333
2.7890625,-3.659831353475242e-05,-2.9771884916456853e-05,-2.58638179751278e-05,-3.611614943160144e-05,7.0667,4.7333
2.79296875,-2.9771884916456853e-05,-3.5633985328450446e-05,2.456978820477602e-06,-3.319778775463493e-05,7.0667,4.7333
2.796875,-2.4899489768825817e-05,-2.342762040131228e-05,2.0525444159609368e-05,-2.6853523239490356e-05,7.0667,4.7333
2.80078125,-2.9289720813305874e-05,-2.9229574883650002e-06,1.5627671953917748e-05,-2.4391948607614254e-05,7.0667,4.7333
2.8046875,-3.12437542839704e-05,-9.749386106660566e-06,1.974814717326616e-06,-3.073621312275884e-05,7.0667,4.7333
2.80859375,-2.3909784504463274e-05,-1.317528894483864e-05,-8.785057900358588e-06,-3.5633985328450446e-05,7.0667,4.7333
2.8125,-2.1473586930647753e-05,-2.0991422827496763e-05,2.004328005645838e-05,-2.8807556710154884e-05,7.0667,4.7333
2.81640625,-2.830001554894332e-05,-2.4899489768825817e-05,3.0295611512932018e-05,-2.0001717563134207e-05,7.0667,4.7333
2.8203125,-2.342762040131228e-05,-3.319778775463493e-05,1.1719605012588686e-05,-2.830001554894332e-05,7.0667,4.7333
2.82421875,-1.8529848195620658e-05,-3.659831353475242e-05,-2.9229574883650002e-06,-2.58638179751278e-05,7.0667,4.7333
2.828125,-2.634598207827878e-05,-4.197824984359502e-05,-9.689240177004663e-07,-1.609365062180514e-05,7.0667,4.7333
2.83203125,-2.7817851445792328e-05,-3.659831353475242e-05,1.3191474380102235e-05,-2.3909784504463274e-05,7.0667,4.7333
2.8359375,-2.58638179751278e-05,-2.7817851445792328e-05,2.3443805836575873e-05,-1.9519553459983214e-05,7.0667,4.7333
2.83984375,-2.0991422827496763e-05,-2.9289720813305874e-05,2.834157804226749e-05,-1.4139617151140611e-05,7.0667,4.7333
2.84375,-1.561148651865416e-05,-1.8529848195620658e-05,1.8089246585793843e-05,-1.609365062180514e-05,7.0667,4.7333
2.84765625,-1.7083355886167696e-05,-2.4899489768825817e-05,1.4181179644464784e-05,-1.317528894483864e-05,7.0667,4.7333
2.8515625,-1.804768409246968e-05,-3.1725918387121396e-05,2.2479477630273897e-05,-2.0001717563134207e-05,7.0667,4.7333
2.85546875,-2.5381653871976807e-05,-8.277516739147025e-06,3.273180908674753e-05,-2.0991422827496763e-05,7.0667,4.7333
2.859375,-2.8807556710154884e-05,-4.867599145494808e-07,4.445600991073472e-05,-1.1221255474174106e-05,7.0667,4.7333
2.86328125,-3.220808249027237e-05,-3.12437542839704e-05,8.801243335622181e-06,-1.317528894483864e-05,7.0667,4.7333
2.8671875,-2.5381653871976807e-05,-3.1725918387121396e-05,-1.8529848195620658e-05,-3.1725918387121396e-05,7.0667,4.7333
2.87109375,-2.04838816662852e-05,-2.1473586930647753e-05,-3.887285694666978e-06,-3.7588018799114975e-05,7.0667,4.7333
2.875,-3.12437542839704e-05,-3.220808249027237e-05,1.1719605012588686e-05,-2.830001554894332e-05,7.0667,4.7333
2.87890625,-3.220808249027237e-05,-3.41621159609369e-05,2.0781246662082253e-08,-2.5381653871976807e-05,7.0667,4.7333
2.8828125,-3.464428006408789e-05,-4.197824984359502e-05,-1.3657453047989633e-05,-3.41621159609369e-05,7.0667,4.7333
2.88671875,-3.3679951857785924e-05,-2.9771884916456853e-05,-1.6601191783016716e-05,-3.5151821225299456e-05,7.0667,4.7333
2.890625,-3.319778775463493e-05,-2.58638179751278e-05,2.9391429236285945e-06,-3.073621312275884e-05,7.0667,4.7333
2.89453125,-3.659831353475242e-05,-2.58638179751278e-05,2.443351110093843e-05,-2.8807556710154884e-05,7.0667,4.7333
2.8984375,-2.8807556710154884e-05,-1.0739091371023122e-05,2.491567520408941e-05,-3.073621312275884e-05,7.0667,4.7333
2.90234375,-2.3909784504463274e-05,-6.323483268482491e-06,1.9535738895246812e-05,-3.073621312275884e-05,7.0667,4.7333
2.90625,-1.8529848195620658e-05,-9.749386106660566e-06,2.100760826276035e-05,-2.1955751033798732e-05,7.0667,4.7333
2.91015625,-2.1955751033798732e-05,-5.841319165331505e-06,2.100760826276035e-05,-2.342762040131228e-05,7.0667,4.7333
2.9140625,-2.5381653871976807e-05,7.83691512932021e-06,2.8823742145418472e-05,-2.4391948607614254e-05,7.0667,4.7333
2.91796875,-1.2693124841687649e-05,1.2709310276951242e-05,4.151227117570764e-05,2.9391429236285945e-06,7.0667,4.7333
2.921875,-2.04838816662852e-05,9.283407438773174e-06,9.790948599984737e-06,-1.7565519989318685e-05,7.0667,4.7333
2.92578125,-2.4899489768825817e-05,-6.83102442969406e-06,-1.6601191783016716e-05,-5.1748417196917685e-05,7.0667,4.7333
2.9296875,-1.317528894483864e-05,-1.5129322415503167e-05,-8.785057900358588e-06,-4.002421637293049e-05,7.0667,4.7333
2.93359375,-1.317528894483864e-05,-6.83102442969406e-06,-4.867599145494808e-07,-3.220808249027237e-05,7.0667,4.7333
2.9375,-2.2945456298161288e-05,-2.634598207827878e-05,3.928848187991143e-06,-2.9289720813305874e-05,7.0667,4.7333
2.94140625,-2.0001717563134207e-05,-2.6853523239490356e-05,-8.277516739147025e-06,-2.4899489768825817e-05,7.0667,4.7333
2.9453125,-1.804768409246968e-05,-7.795352635996039e-06,-2.1955751033798732e-05,-2.7335687342641335e-05,7.0667,4.7333
2.94921875,-2.1473586930647753e-05,-1.023155020981155e-05,-1.561148651865416e-05,-3.5151821225299456e-05,7.0667,4.7333
2.953125,-2.0001717563134207e-05,-2.4407933852140148e-06,3.42130702677958e-06,-2.58638179751278e-05,7.0667,4.7333
2.95703125,-2.4899489768825817e-05,-1.1221255474174106e-05,1.9053574792095822e-05,-1.7565519989318685e-05,7.0667,4.7333
2.9609375,-3.5633985328450446e-05,-3.3679951857785924e-05,9.851094529640604e-07,-3.220808249027237e-05,7.0667,4.7333
2.96484375,-4.296795510795758e-05,-3.855234700541696e-05,-1.2185583680476086e-05,-4.4896611520561536e-05,7.0667,4.7333
2.96875,-3.269024659342337e-05,-2.7335687342641335e-05,-1.7565519989318685e-05,-3.807018290226597e-05,7.0667,4.7333
2.97265625,-1.6601191783016716e-05,-1.9332522240024446e-06,-1.17034195773251e-05,-1.7083355886167696e-05,7.0667,4.7333
2.9765625,-2.2945456298161288e-05,-5.35915506218052e-06,-4.369449797817964e-06,-5.35915506218052e-06,7.0667,4.7333
2.98046875,-2.3909784504463274e-05,-1.3657453047989633e-05,-7.313188532845046e-06,-2.3909784504463274e-05,7.0667,4.7333
2.984375,-2.0991422827496763e-05,-1.9332522240024446e-06,-7.313188532845046e-06,-4.636848088807508e-05,7.0667,4.7333
2.98828125,-2.1955751033798732e-05,-3.4051215915159857e-06,-1.1221255474174106e-05,-4.9794383726253156e-05,7.0667,4.7333
2.9921875,-2.0001717563134207e-05,-5.841319165331505e-06,-7.795352635996039e-06,-4.9794383726253156e-05,7.0667,4.7333
2.99609375,-1.7565519989318685e-05,1.7099541321431294e-05,4.411012291142135e-06,-2.9771884916456853e-05,7.0667,4.7333
3.0,-1.4139617151140611e-05,3.0295611512932018e-05,9.790948599984737e-06,-2.04838816662852e-05,7.0667,4.7333
3.00390625,-9.26722200350958e-06,2.7834036881055923e-05,3.928848187991143e-06,-3.220808249027237e-05,7.0667,4.7333
3.0078125,-6.323483268482491e-06,3.0295611512932018e-05,-5.35915506218052e-06,-4.246041394674601e-05,7.0667,4.7333
3.01171875,-7.795352635996039e-06,3.1742103822384983e-05,2.9391429236285945e-06,-3.855234700541696e-05,7.0667,4.7333
3.015625,-1.0739091371023122e-05,2.9305906248569462e-05,2.2479477630273897e-05,-2.8807556710154884e-05,7.0667,4.7333
3.01953125,-1.2693124841687649e-05,1.7099541321431294e-05,2.6869708674753944e-05,-2.5381653871976807e-05,7.0667,4.7333
3.0234375,-1.3657453047989633e-05,1.8089246585793843e-05,9.851094529640604e-07,-2.6853523239490356e-05,7.0667,4.7333
3.02734375,-1.317528894483864e-05,1.6135213115129318e-05,-2.0991422827496763e-05,-1.2185583680476086e-05,7.0667,4.7333
3.03125,-6.83102442969406e-06,2.0525444159609368e-05,-1.2185583680476086e-05,-6.83102442969406e-06,7.0667,4.7333
3.03515625,-2.4407933852140148e-06,4.346630464637216e-05,1.0755276806286715e-05,-4.867599145494808e-07,7.0667,4.7333
3.0390625,-1.6601191783016716e-05,3.7122040131227586e-05,1.2709310276951242e-05,-2.342762040131228e-05,7.0667,4.7333
3.04296875,-1.804768409246968e-05,2.8823742145418472e-05,5.375340497444114e-06,-3.5633985328450446e-05,7.0667,4.7333
3.046875,-1.8529848195620658e-05,3.420367845426108e-05,5.029453498130749e-07,-2.1473586930647753e-05,7.0667,4.7333
3.05078125,-2.4899489768825817e-05,3.66398760280766e-05,9.851094529640604e-07,-2.3909784504463274e-05,7.0667,4.7333
3.0546875,-2.7817851445792328e-05,3.224964498359655e-05,2.0781246662082253e-08,-3.319778775463493e-05,7.0667,4.7333
3.05859375,-2.58638179751278e-05,3.66398760280766e-05,8.801243335622181e-06,-9.749386106660566e-06,7.0667,4.7333
3.0625,-1.609365062180514e-05,5.1739225574120696e-05,2.148977236591134e-05,1.8571410688944836e-05,7.0667,4.7333
3.06640625,-8.785057900358588e-06,5.8591031250476845e-05,1.3191474380102235e-05,-4.867599145494808e-07,7.0667,4.7333
3.0703125,5.029453498130749e-07,6.102722882429236e-05,1.9053574792095822e-05,-1.451088120851459e-06,7.0667,4.7333
3.07421875,3.928848187991143e-06,6.58996239719234e-05,2.8823742145418472e-05,1.3673638483253221e-05,7.0667,4.7333
3.078125,9.851094529640604e-07,6.688932923628596e-05,3.9558237705043105e-05,2.0525444159609368e-05,7.0667,4.7333
3.08203125,-9.689240177004663e-07,7.66594965896086e-05,3.0777775616083004e-05,3.369613729304952e-05,7.0667,4.7333
3.0859375,-6.83102442969406e-06,7.371575785458151e-05,1.3191474380102235e-05,2.7351872777904933e-05,7.0667,4.7333
3.08984375,-5.841319165331505e-06,6.54174598687724e-05,9.283407438773174e-06,9.790948599984737e-06,7.0667,4.7333
3.09375,-5.35915506218052e-06,5.711916188296329e-05,9.283407438773174e-06,1.2227146173800257e-05,7.0667,4.7333
3.09765625,-1.0739091371023122e-05,6.298126229495688e-05,1.758170542458228e-05,2.2961641733424883e-05,7.0667,4.7333
3.1015625,-7.313188532845046e-06,7.224388848706797e-05,9.283407438773174e-06,2.6387544571602957e-05,7.0667,4.7333
3.10546875,-1.9332522240024446e-06,6.493529576562141e-05,-3.887285694666978e-06,3.224964498359655e-05,7.0667,4.7333
3.109375,-5.841319165331505e-06,4.9810569161516744e-05,-9.749386106660566e-06,3.1259939719233994e-05,7.0667,4.7333
3.11328125,-8.785057900358588e-06,5.8591031250476845e-05,5.029453498130749e-07,2.443351110093843e-05,7.0667,4.7333
3.1171875,-2.9229574883650002e-06,7.518762722209506e-05,1.758170542458228e-05,3.66398760280766e-05,7.0667,4.7333
3.12109375,-8.785057900358588e-06,7.41979219577325e-05,-4.876990959029527e-06,3.615771192492561e-05,7.0667,4.7333
3.125,-1.4647158312352174e-05,6.833582154573892e-05,-1.561148651865416e-05,2.834157804226749e-05,7.0667,4.7333
3.12890625,-1.17034195773251e-05,6.394559050125886e-05,-7.795352635996039e-06,4.394846874952315e-05,7.0667,4.7333
3.1328125,-1.17034195773251e-05,6.638178807507438e-05,-2.9229574883650002e-06,3.0295611512932018e-05,7.0667,4.7333
3.13671875,-6.83102442969406e-06,8.104972763408865e-05,5.029453498130749e-07,7.83691512932021e-06,7.0667,4.7333
3.140625,-1.0739091371023122e-05,7.371575785458151e-05,-9.26722200350958e-06,8.319079232471197e-06,7.0667,4.7333
3.14453125,-1.7083355886167696e-05,6.638178807507438e-05,-1.8529848195620658e-05,1.3191474380102235e-05,7.0667,4.7333
3.1484375,-2.04838816662852e-05,6.199155703059434e-05,-1.5129322415503167e-05,2.6869708674753944e-05,7.0667,4.7333
3.15234375,-1.8529848195620658e-05,5.2221389677271686e-05,-1.0739091371023122e-05,3.928848187991143e-06,7.0667,4.7333
3.15625,-1.0739091371023122e-05,6.833582154573892e-05,2.456978820477602e-06,1.974814717326616e-06,7.0667,4.7333
3.16015625,-3.887285694666978e-06,8.495779457541772e-05,1.2709310276951242e-05,2.1997313527122907e-05,7.0667,4.7333
3.1640625,-1.4139617151140611e-05,7.1279560280766e-05,-3.4051215915159857e-06,1.1719605012588686e-05,7.0667,4.7333
3.16796875,-2.3909784504463274e-05,6.445313166247044e-05,-1.6601191783016716e-05,2.1997313527122907e-05,7.0667,4.7333
3.171875,-2.2945456298161288e-05,7.323359375143053e-05,-6.323483268482491e-06,3.565017076371404e-05,7.0667,4.7333
3.17578125,-1.7083355886167696e-05,8.104972763408865e-05,2.978807035172045e-05,7.83691512932021e-06,7.0667,4.7333
3.1796875,-3.4051215915159857e-06,6.737149333943693e-05,1.6135213115129318e-05,1.5627671953917748e-05,7.0667,4.7333
3.18359375,2.456978820477602e-06,4.054794296940566e-05,-1.561148651865416e-05,2.7351872777904933e-05,7.0667,4.7333
3.1875,8.319079232471197e-06,5.3693259044785225e-05,-9.749386106660566e-06,1.3673638483253221e-05,7.0667,4.7333
3.19140625,1.0755276806286715e-05,6.980769091325245e-05,7.83691512932021e-06,2.004328005645838e-05,7.0667,4.7333
3.1953125,1.0755276806286715e-05,4.9810569161516744e-05,1.5145507850766762e-05,2.3443805836575873e-05,7.0667,4.7333
3.19921875,1.1237440909437701e-05,3.1259939719233994e-05,4.893176394293121e-06,2.2479477630273897e-05,7.0667,4.7333
3.203125,1.1237440909437701e-05,3.1259939719233994e-05,-9.26722200350958e-06,2.395134699778744e-05,7.0667,4.7333
3.20703125,9.790948599984737e-06,3.516800666056305e-05,-1.023155020981155e-05,2.6387544571602957e-05,7.0667,4.7333
3.2109375,1.0273112703135723e-05,3.321397318989852e-05,-4.369449797817964e-06,1.758170542458228e-05,7.0667,4.7333
3.21484375,1.2709310276951242e-05,3.9558237705043105e-05,-9.26722200350958e-06,2.9391429236285945e-06,7.0667,4.7333
3.21875,1.6617377218280304e-05,3.9076073601892115e-05,-1.6601191783016716e-05,2.0781246662082253e-08,7.0667,4.7333
3.22265625,2.1997313527122907e-05,3.321397318989852e-05,-2.04838816662852e-05,2.8823742145418472e-05,7.0667,4.7333
3.2265625,7.3293739681086405e-06,3.0777775616083004e-05,-1.9519553459983214e-05,4.411012291142135e-06,7.0667,4.7333
3.23046875,1.974814717326616e-06,1.2709310276951242e-05,-2.1473586930647753e-05,-3.0254049019607846e-05,7.0667,4.7333
3.234375,4.893176394293121e-06,1.0755276806286715e-05,-1.3657453047989633e-05,-1.0739091371023122e-05,7.0667,4.7333
3.23828125,5.029453498130749e-07,1.8571410688944836e-05,-1.17034195773251e-05,-3.4051215915159857e-06,7.0667,4.7333
3.2421875,-1.451088120851459e-06,-2.9229574883650002e-06,-2.830001554894332e-05,2.0781246662082253e-08,7.0667,4.7333
3.24609375,-2.4407933852140148e-06,-4.876990959029527e-06,-3.220808249027237e-05,4.893176394293121e-06,7.0667,4.7333
3.25,-3.887285694666978e-06,-4.876990959029527e-06,-3.41621159609369e-05,2.0781246662082253e-08,7.0667,4.7333
3.25390625,-3.887285694666978e-06,-7.313188532845046e-06,-3.1725918387121396e-05,-4.876990959029527e-06,7.0667,4.7333
3.2578125,-4.369449797817964e-06,5.029453498130749e-07,-2.04838816662852e-05,-9.26722200350958e-06,7.0667,4.7333
3.26171875,-5.35915506218052e-06,6.365045761806662e-06,-1.561148651865416e-05,-5.35915506218052e-06,7.0667,4.7333
3.265625,-5.841319165331505e-06,5.375340497444114e-06,-1.7083355886167696e-05,-2.9229574883650002e-06,7.0667,4.7333
3.26953125,-5.35915506218052e-06,4.893176394293121e-06,-3.887285694666978e-06,-6.83102442969406e-06,7.0667,4.7333
3.2734375,-7.795352635996039e-06,1.0755276806286715e-05,2.456978820477602e-06,-1.1221255474174106e-05,7.0667,4.7333
3.27734375,-8.785057900358588e-06,9.283407438773174e-06,-2.9229574883650002e-06,-1.5129322415503167e-05,7.0667,4.7333
3.28125,-2.9229574883650002e-06,1.4181179644464784e-05,-8.785057900358588e-06,-1.5129322415503167e-05,7.0667,4.7333
3.28515625,5.029453498130749e-07,1.5145507850766762e-05,-9.26722200350958e-06,-1.3657453047989633e-05,7.0667,4.7333
3.2890625,5.029453498130749e-07,1.7099541321431294e-05,-9.689240177004663e-07,-1.3657453047989633e-05,7.0667,4.7333
3.29296875,1.467273556115053e-06,3.0295611512932018e-05,1.3191474380102235e-05,-5.35915506218052e-06,7.0667,4.7333
3.296875,-3.4051215915159857e-06,1.5145507850766762e-05,2.148977236591134e-05,-6.83102442969406e-06,7.0667,4.7333
3.30078125,-6.83102442969406e-06,1.0273112703135723e-05,-9.26722200350958e-06,-2.1955751033798732e-05,7.0667,4.7333
3.3046875,-1.17034195773251e-05,1.4181179644464784e-05,-2.0991422827496763e-05,-2.5381653871976807e-05,7.0667,4.7333
3.30859375,-1.4139617151140611e-05,1.1237440909437701e-05,-7.795352635996039e-06,-1.7083355886167696e-05,7.0667,4.7333
3.3125,-1.2185583680476086e-05,1.1237440909437701e-05,-3.4051215915159857e-06,-1.3657453047989633e-05,7.0667,4.7333
3.31640625,-5.35915506218052e-06,1.9053574792095822e-05,7.83691512932021e-06,-1.4139617151140611e-05,7.0667,4.7333
3.3203125,-6.83102442969406e-06,2.0525444159609368e-05,4.411012291142135e-06,-2.1473586930647753e-05,7.0667,4.7333
3.32421875,-9.749386106660566e-06,1.8571410688944836e-05,-3.220808249027237e-05,-2.0991422827496763e-05,7.0667,4.7333
3.328125,-4.876990959029527e-06,3.760420423437857e-05,-4.246041394674601e-05,-1.9519553459983214e-05,7.0667,4.7333
3.33203125,-8.785057900358588e-06,2.100760826276035e-05,-2.04838816662852e-05,-2.7817851445792328e-05,7.0667,4.7333
3.3359375,-1.6601191783016716e-05,-3.4051215915159857e-06,-2.4391948607614254e-05,-3.905988816662852e-05,7.0667,4.7333
3.33984375,-1.2185583680476086e-05,9.851094529640604e-07,-2.830001554894332e-05,-3.464428006408789e-05,7.0667,4.7333
3.34375,-6.83102442969406e-06,-1.9332522240024446e-06,-3.7588018799114975e-05,-2.5381653871976807e-05,7.0667,4.7333
3.34765625,-2.0001717563134207e-05,-9.26722200350958e-06,-4.7840350255588614e-05,-3.269024659342337e-05,7.0667,4.7333
3.3515625,-2.9771884916456853e-05,-1.451088120851459e-06,-3.3679951857785924e-05,-3.7588018799114975e-05,7.0667,4.7333
3.35546875,-2.342762040131228e-05,4.411012291142135e-06,-1.9519553459983214e-05,-3.855234700541696e-05,7.0667,4.7333
3.359375,-2.2437915136949725e-05,-6.83102442969406e-06,-3.464428006408789e-05,-3.269024659342337e-05,7.0667,4.7333
3.36328125,-2.634598207827878e-05,-1.561148651865416e-05,-5.027654782940413e-05,-2.9289720813305874e-05,7.0667,4.7333
3.3671875,-2.58638179751278e-05,-2.1955751033798732e-05,-4.832251435873961e-05,-3.5633985328450446e-05,7.0667,4.7333
3.37109375,-2.4391948607614254e-05,3.42130702677958e-06,-2.1473586930647753e-05,-3.659831353475242e-05,7.0667,4.7333
3.375,-2.6853523239490356e-05,5.029453498130749e-07,-1.3657453047989633e-05,-4.002421637293049e-05,7.0667,4.7333
3.37890625,-2.830001554894332e-05,-1.7565519989318685e-05,-2.8807556710154884e-05,-3.5151821225299456e-05,7.0667,4.7333
3.3828125,-2.1955751033798732e-05,-1.9332522240024446e-06,-2.830001554894332e-05,-2.830001554894332e-05,7.0667,4.7333
3.38671875,-2.3909784504463274e-05,-5.841319165331505e-06,-4.296795510795758e-05,-4.5404152681773096e-05,7.0667,4.7333
3.390625,-3.073621312275884e-05,-3.4051215915159857e-06,-3.5151821225299456e-05,-4.4896611520561536e-05,7.0667,4.7333
3.39453125,-3.0254049019607846e-05,5.029453498130749e-07,-3.1725918387121396e-05,-4.050638047608149e-05,7.0667,4.7333
3.3984375,-2.9289720813305874e-05,-2.2437915136949725e-05,-4.9794383726253156e-05,-4.1496085740444045e-05,7.0667,4.7333
3.40234375,-2.6853523239490356e-05,-2.0001717563134207e-05,-3.954205226977952e-05,-3.1725918387121396e-05,7.0667,4.7333
3.40625,-2.9289720813305874e-05,-2.1473586930647753e-05,-4.441444741741054e-05,-2.9289720813305874e-05,7.0667,4.7333
3.41015625,-3.220808249027237e-05,-3.0254049019607846e-05,-4.296795510795758e-05,-3.41621159609369e-05,7.0667,4.7333
3.4140625,-2.4391948607614254e-05,-2.8807556710154884e-05,-3.464428006408789e-05,-3.41621159609369e-05,7.0667,4.7333
3.41796875,-2.7335687342641335e-05,-3.5633985328450446e-05,-3.659831353475242e-05,-3.3679951857785924e-05,7.0667,4.7333
3.421875,-2.58638179751278e-05,-3.611614943160144e-05,-4.5886316784924085e-05,-3.855234700541696e-05,7.0667,4.7333
3.42578125,-1.2693124841687649e-05,-4.050638047608149e-05,-7.468927768368048e-05,-4.5404152681773096e-05,7.0667,4.7333
3.4296875,-1.6601191783016716e-05,-3.269024659342337e-05,-6.882717727168688e-05,-4.636848088807508e-05,7.0667,4.7333
3.43359375,-2.58638179751278e-05,-1.9519553459983214e-05,-4.197824984359502e-05,-3.659831353475242e-05,7.0667,4.7333
3.4375,-2.6853523239490356e-05,-2.3909784504463274e-05,-2.9289720813305874e-05,-3.1725918387121396e-05,7.0667,4.7333
3.44140625,-3.220808249027237e-05,-3.3679951857785924e-05,-4.296795510795758e-05,-4.197824984359502e-05,7.0667,4.7333
3.4453125,-3.12437542839704e-05,-2.8807556710154884e-05,-5.370245066758221e-05,-4.246041394674601e-05,7.0667,4.7333
3.44921875,-2.1473586930647753e-05,-4.3932283314259564e-05,-6.052887928587778e-05,-3.855234700541696e-05,7.0667,4.7333
3.453125,-1.9519553459983214e-05,-4.1496085740444045e-05,-5.466677887388418e-05,-4.197824984359502e-05,7.0667,4.7333
3.45703125,-2.2945456298161288e-05,-2.4899489768825817e-05,-4.197824984359502e-05,-3.954205226977952e-05,7.0667,4.7333
3.4609375,-2.0991422827496763e-05,-3.41621159609369e-05,-5.027654782940413e-05,-4.1496085740444045e-05,7.0667,4.7333
3.46484375,-1.9037389356832234e-05,-2.7817851445792328e-05,-5.41846147707332e-05,-4.101392163729305e-05,7.0667,4.7333
3.46875,-2.1473586930647753e-05,-2.9771884916456853e-05,-5.5656484138246735e-05,-3.319778775463493e-05,7.0667,4.7333
3.47265625,-2.7335687342641335e-05,-4.296795510795758e-05,-4.735818615243764e-05,-3.5633985328450446e-05,7.0667,4.7333
3.4765625,-2.8807556710154884e-05,-3.5633985328450446e-05,-2.9771884916456853e-05,-3.659831353475242e-05,7.0667,4.7333
3.48046875,-2.7817851445792328e-05,-3.659831353475242e-05,-4.296795510795758e-05,-3.464428006408789e-05,7.0667,4.7333
3.484375,-2.58638179751278e-05,-4.101392163729305e-05,-5.517432003509576e-05,-3.269024659342337e-05,7.0667,4.7333
3.48828125,-2.634598207827878e-05,-3.5151821225299456e-05,-4.685064499122606e-05,-3.1725918387121396e-05,7.0667,4.7333
3.4921875,-2.9771884916456853e-05,-2.1473586930647753e-05,-3.073621312275884e-05,-3.0254049019607846e-05,7.0667,4.7333
3.49609375,-3.220808249027237e-05,-1.7083355886167696e-05,-2.9289720813305874e-05,-3.269024659342337e-05,7.0667,4.7333
3.5,-3.12437542839704e-05,-1.2693124841687649e-05,-4.735818615243764e-05,-3.954205226977952e-05,7.0667,4.7333
3.50390625,-2.830001554894332e-05,1.974814717326616e-06,-4.88046784618906e-05,-3.855234700541696e-05,7.0667,4.7333
3.5078125,-2.7817851445792328e-05,-2.4407933852140148e-06,-4.832251435873961e-05,-4.002421637293049e-05,7.0667,4.7333
3.51171875,-1.561148651865416e-05,1.1719605012588686e-05,-4.441444741741054e-05,-3.905988816662852e-05,7.0667,4.7333
3.515625,-2.0001717563134207e-05,1.8571410688944836e-05,-3.659831353475242e-05,-4.88046784618906e-05,7.0667,4.7333
3.51953125,-3.073621312275884e-05,9.851094529640604e-07,-4.9312219623102167e-05,-5.857484581521325e-05,7.0667,4.7333
3.5234375,-2.6853523239490356e-05,-6.83102442969406e-06,-5.1748417196917685e-05,-5.223058130006866e-05,7.0667,4.7333
3.52734375,-3.659831353475242e-05,-1.4139617151140611e-05,-4.246041394674601e-05,-5.271274540321966e-05,7.0667,4.7333
3.53125,-4.735818615243764e-05,-2.4391948607614254e-05,-3.5633985328450446e-05,-5.223058130006866e-05,7.0667,4.7333
3.53515625,-3.5633985328450446e-05,-4.296795510795758e-05,-2.9289720813305874e-05,-5.223058130006866e-05,7.0667,4.7333
3.5390625,-2.9289720813305874e-05,-5.613864824139773e-05,-5.517432003509576e-05,-5.027654782940413e-05,7.0667,4.7333
3.54296875,-2.4899489768825817e-05,-5.41846147707332e-05,-7.273524421301594e-05,-4.685064499122606e-05,7.0667,4.7333
3.546875,-2.0001717563134207e-05,-5.370245066758221e-05,-6.151858455024033e-05,-4.636848088807508e-05,7.0667,4.7333
3.55078125,-2.7335687342641335e-05,-3.5633985328450446e-05,-4.345011921110857e-05,-4.3932283314259564e-05,7.0667,4.7333
3.5546875,-3.3679951857785924e-05,-3.12437542839704e-05,-3.269024659342337e-05,-4.345011921110857e-05,7.0667,4.7333
3.55859375,-2.6853523239490356e-05,-4.002421637293049e-05,-3.7105854695964e-05,-4.685064499122606e-05,7.0667,4.7333
3.5625,-2.2945456298161288e-05,-4.636848088807508e-05,-3.905988816662852e-05,-4.9312219623102167e-05,7.0667,4.7333
3.56640625,-2.5381653871976807e-05,-4.685064499122606e-05,-6.151858455024033e-05,-4.9312219623102167e-05,7.0667,4.7333
3.5703125,-3.1725918387121396e-05,-4.197824984359502e-05,-6.29650768596933e-05,-4.5886316784924085e-05,7.0667,4.7333
3.57421875,-3.1725918387121396e-05,-4.1496085740444045e-05,-4.3932283314259564e-05,-4.4896611520561536e-05,7.0667,4.7333
3.578125,-2.9289720813305874e-05,-4.197824984359502e-05,-3.905988816662852e-05,-4.636848088807508e-05,7.0667,4.7333
3.58203125,-3.0254049019607846e-05,-4.735818615243764e-05,-5.613864824139773e-05,-4.832251435873961e-05,7.0667,4.7333
3.5859375,-2.58638179751278e-05,-6.347261802090486e-05,-6.834501316853589e-05,-4.9794383726253156e-05,7.0667,4.7333
3.58984375,-2.2437915136949725e-05,-6.29650768596933e-05,-6.639097969787136e-05,-4.5404152681773096e-05,7.0667,4.7333
3.59375,-2.1955751033798732e-05,-6.004671518272678e-05,-6.004671518272678e-05,-4.246041394674601e-05,7.0667,4.7333
3.59765625,-2.3909784504463274e-05,-6.78628490653849e-05,-6.882717727168688e-05,-4.197824984359502e-05,7.0667,4.7333
3.6015625,-2.634598207827878e-05,-6.200074865339132e-05,-8.20232474631876e-05,-4.4896611520561536e-05,7.0667,4.7333
3.60546875,-2.04838816662852e-05,-7.517144178683146e-05,-9.910200753795683e-05,-3.855234700541696e-05,7.0667,4.7333
3.609375,-2.0991422827496763e-05,-0.00010301007447928589,-0.00010544627205310141,-3.073621312275884e-05,7.0667,4.7333
3.61328125,-2.0001717563134207e-05,-9.618364586099031e-05,-7.95870498893721e-05,-3.905988816662852e-05,7.0667,4.7333
3.6171875,-1.17034195773251e-05,-8.494160914015413e-05,-9.910200753795683e-05,-3.5633985328450446e-05,7.0667,4.7333
3.62109375,-1.17034195773251e-05,-0.00010301007447928589,-0.00012107853981841765,-3.3679951857785924e-05,7.0667,4.7333
3.625,-1.609365062180514e-05,-0.00012011421161211566,-0.00013133087127489127,-4.246041394674601e-05,7.0667,4.7333
3.62890625,-2.1955751033798732e-05,-0.00010153820511177232,-0.00013818267695124743,-3.269024659342337e-05,7.0667,4.7333
3.6328125,-2.6853523239490356e-05,-0.00010105604100862135,-0.0001308487071717403,-2.634598207827878e-05,7.0667,4.7333
3.63671875,-2.342762040131228e-05,-0.00012351473739223315,-0.000144526941466392,-3.1725918387121396e-05,7.0667,4.7333
3.640625,-2.5381653871976807e-05,-0.00013818267695124743,-0.0001586873398641947,-3.12437542839704e-05,7.0667,4.7333
3.64453125,-3.220808249027237e-05,-0.00014257290799572748,-0.00016942183542381935,-3.954205226977952e-05,7.0667,4.7333
3.6484375,-3.220808249027237e-05,-0.0001479274672465095,-0.00017967416688029295,-4.441444741741054e-05,7.0667,4.7333
3.65234375,-2.9289720813305874e-05,-0.0001391470051575494,-0.00017089370479133288,-4.441444741741054e-05,7.0667,4.7333
3.65625,-3.1725918387121396e-05,-0.00013036654306858932,-0.00016404189911497672,-4.101392163729305e-05,7.0667,4.7333
3.66015625,-3.0254049019607846e-05,-0.00014206536683451592,-0.00017038616363012133,-3.7588018799114975e-05,7.0667,4.7333
3.6640625,-2.4899489768825817e-05,-0.00014011133336385136,-0.000178709838673991,-3.659831353475242e-05,7.0667,4.7333
3.66796875,-2.58638179751278e-05,-0.0001308487071717403,-0.00016355973501182573,-3.1725918387121396e-05,7.0667,4.7333
3.671875,-3.220808249027237e-05,-0.00012107853981841765,-0.0001479274672465095,-3.659831353475242e-05,7.0667,4.7333
3.67578125,-3.3679951857785924e-05,-0.00011229807772945756,-0.00013622864348058288,-4.345011921110857e-05,7.0667,4.7333
3.6796875,-2.6853523239490356e-05,-9.861984343480583e-05,-0.0001308487071717403,-4.101392163729305e-05,7.0667,4.7333
3.68359375,-2.7817851445792328e-05,-7.664331115434501e-05,-0.00012595093496604867,-3.611614943160144e-05,7.0667,4.7333
3.6875,-3.954205226977952e-05,-7.763301641870756e-05,-0.00012156070392156863,-4.345011921110857e-05,7.0667,4.7333
3.69140625,-4.345011921110857e-05,-8.055137809567407e-05,-0.00011181591362630655,-4.5404152681773096e-05,7.0667,4.7333
3.6953125,-3.7105854695964e-05,-6.54266514915694e-05,-7.859734462500955e-05,-4.197824984359502e-05,7.0667,4.7333
3.69921875,-3.855234700541696e-05,-5.370245066758221e-05,-7.273524421301594e-05,-4.5404152681773096e-05,7.0667,4.7333
3.703125,-4.5404152681773096e-05,-5.466677887388418e-05,-8.445944503700311e-05,-5.8092681712062254e-05,7.0667,4.7333
3.70703125,-3.659831353475242e-05,-4.246041394674601e-05,-8.737780671396965e-05,-6.54266514915694e-05,7.0667,4.7333
3.7109375,-3.0254049019607846e-05,-3.269024659342337e-05,-7.907950872816053e-05,-6.395478212405585e-05,7.0667,4.7333
3.71484375,-2.9771884916456853e-05,-1.5129322415503167e-05,-6.248291275654231e-05,-6.347261802090486e-05,7.0667,4.7333
3.71875,-2.4899489768825817e-05,6.365045761806662e-06,-5.223058130006866e-05,-5.027654782940413e-05,7.0667,4.7333
3.72265625,-3.220808249027237e-05,-1.317528894483864e-05,-4.88046784618906e-05,-4.5886316784924085e-05,7.0667,4.7333
3.7265625,-3.7588018799114975e-05,-1.1221255474174106e-05,-4.246041394674601e-05,-4.7840350255588614e-05,7.0667,4.7333
3.73046875,-3.220808249027237e-05,3.928848187991143e-06,-1.9037389356832234e-05,-4.345011921110857e-05,7.0667,4.7333
3.734375,-3.12437542839704e-05,-5.841319165331505e-06,4.893176394293121e-06,-4.4896611520561536e-05,7.0667,4.7333
3.73828125,-3.464428006408789e-05,-6.83102442969406e-06,-7.795352635996039e-06,-4.735818615243764e-05,7.0667,4.7333
3.7421875,-3.7105854695964e-05,-1.17034195773251e-05,-3.0254049019607846e-05,-4.832251435873961e-05,7.0667,4.7333
3.74609375,-4.050638047608149e-05,-7.795352635996039e-06,-2.8807556710154884e-05,-4.9312219623102167e-05,7.0667,4.7333
3.75,-4.197824984359502e-05,6.847209864957655e-06,-1.6601191783016716e-05,-4.735818615243764e-05,7.0667,4.7333
3.75390625,-4.735818615243764e-05,3.928848187991143e-06,-4.876990959029527e-06,-4.101392163729305e-05,7.0667,4.7333
3.7578125,-4.5404152681773096e-05,1.2709310276951242e-05,-1.9332522240024446e-06,-4.345011921110857e-05,7.0667,4.7333
3.76171875,-3.1725918387121396e-05,2.588000341039139e-05,-9.749386106660566e-06,-5.662081234454872e-05,7.0667,4.7333
3.765625,-3.0254049019607846e-05,2.3443805836575873e-05,-1.8529848195620658e-05,-5.857484581521325e-05,7.0667,4.7333
3.76953125,-3.7105854695964e-05,2.588000341039139e-05,-1.2185583680476086e-05,-5.466677887388418e-05,7.0667,4.7333
3.7734375,-4.246041394674601e-05,1.7099541321431294e-05,2.9391429236285945e-06,-5.712835350576029e-05,7.0667,4.7333
3.77734375,-4.1496085740444045e-05,1.758170542458228e-05,8.319079232471197e-06,-5.075871193255513e-05,7.0667,4.7333
3.78125,-4.1496085740444045e-05,1.6617377218280304e-05,7.3293739681086405e-06,-4.4896611520561536e-05,7.0667,4.7333
3.78515625,-4.4896611520561536e-05,3.42130702677958e-06,-7.313188532845046e-06,-5.126625309376669e-05,7.0667,4.7333
3.7890625,-4.1496085740444045e-05,-3.887285694666978e-06,-1.8529848195620658e-05,-5.613864824139773e-05,7.0667,4.7333
3.79296875,-4.345011921110857e-05,-1.5129322415503167e-05,-1.2693124841687649e-05,-5.075871193255513e-05,7.0667,4.7333
3.796875,-4.441444741741054e-05,-1.9519553459983214e-05,-1.023155020981155e-05,-4.9312219623102167e-05,7.0667,4.7333
3.80078125,-3.464428006408789e-05,-6.323483268482491e-06,-9.26722200350958e-06,-4.88046784618906e-05,7.0667,4.7333
3.8046875,-3.3679951857785924e-05,-1.9332522240024446e-06,-2.0991422827496763e-05,-4.296795510795758e-05,7.0667,4.7333
3.80859375,-3.855234700541696e-05,-2.9229574883650002e-06,-2.1473586930647753e-05,-3.7105854695964e-05,7.0667,4.7333
3.8125,-3.5633985328450446e-05,-7.313188532845046e-06,-9.749386106660566e-06,-3.3679951857785924e-05,7.0667,4.7333
3.81640625,-2.634598207827878e-05,4.411012291142135e-06,3.42130702677958e-06,-3.41621159609369e-05,7.0667,4.7333
3.8203125,-3.0254049019607846e-05,5.375340497444114e-06,6.847209864957655e-06,-4.1496085740444045e-05,7.0667,4.7333
3.82421875,-3.41621159609369e-05,6.365045761806662e-06,-1.3657453047989633e-05,-4.685064499122606e-05,7.0667,4.7333
3.828125,-3.464428006408789e-05,1.6135213115129318e-05,-7.313188532845046e-06,-4.4896611520561536e-05,7.0667,4.7333
3.83203125,-3.659831353475242e-05,1.8571410688944836e-05,8.801243335622181e-06,-3.7105854695964e-05,7.0667,4.7333
3.8359375,-4.1496085740444045e-05,2.9391429236285945e-06,1.2227146173800257e-05,-3.12437542839704e-05,7.0667,4.7333
3.83984375,-4.5404152681773096e-05,-1.6601191783016716e-05,3.928848187991143e-06,-3.1725918387121396e-05,7.0667,4.7333
3.84375,-3.905988816662852e-05,-9.749386106660566e-06,-1.5129322415503167e-05,-4.1496085740444045e-05,7.0667,4.7333
3.84765625,-3.659831353475242e-05,-5.35915506218052e-06,-1.4647158312352174e-05,-5.027654782940413e-05,7.0667,4.7333
3.8515625,-3.611614943160144e-05,-6.323483268482491e-06,-5.841319165331505e-06,-4.7840350255588614e-05,7.0667,4.7333
3.85546875,-3.1725918387121396e-05,2.9391429236285945e-06,3.928848187991143e-06,-4.5404152681773096e-05,7.0667,4.7333
3.859375,-3.1725918387121396e-05,8.319079232471197e-06,5.8828816586556766e-06,-4.4896611520561536e-05,7.0667,4.7333
3.86328125,-3.5633985328450446e-05,6.847209864957655e-06,-1.561148651865416e-05,-4.345011921110857e-05,7.0667,4.7333
3.8671875,-3.807018290226597e-05,-7.795352635996039e-06,-2.2945456298161288e-05,-4.685064499122606e-05,7.0667,4.7333
3.87109375,-4.246041394674601e-05,-7.795352635996039e-06,-1.3657453047989633e-05,-5.027654782940413e-05,7.0667,4.7333
3.875,-4.345011921110857e-05,-6.323483268482491e-06,-2.0991422827496763e-05,-5.271274540321966e-05,7.0667,4.7333
3.87890625,-3.269024659342337e-05,-1.17034195773251e-05,-2.6853523239490356e-05,-5.5656484138246735e-05,7.0667,4.7333
3.8828125,-2.7335687342641335e-05,-3.4051215915159857e-06,-2.342762040131228e-05,-4.9312219623102167e-05,7.0667,4.7333
3.88671875,-3.1725918387121396e-05,-2.4407933852140148e-06,-3.3679951857785924e-05,-4.5404152681773096e-05,7.0667,4.7333
3.890625,-3.319778775463493e-05,-4.369449797817964e-06,-2.634598207827878e-05,-4.197824984359502e-05,7.0667,4.7333
3.89453125,-3.7588018799114975e-05,-1.609365062180514e-05,-1.023155020981155e-05,-4.735818615243764e-05,7.0667,4.7333
3.8984375,-3.807018290226597e-05,-6.323483268482491e-06,-2.2945456298161288e-05,-5.662081234454872e-05,7.0667,4.7333
3.90234375,-3.319778775463493e-05,-1.451088120851459e-06,-3.0254049019607846e-05,-5.9564551079575806e-05,7.0667,4.7333
3.90625,-4.296795510795758e-05,-2.1473586930647753e-05,-2.830001554894332e-05,-5.761051760891128e-05,7.0667,4.7333
3.91015625,-4.88046784618906e-05,-2.7335687342641335e-05,-3.855234700541696e-05,-4.88046784618906e-05,7.0667,4.7333
3.9140625,-4.296795510795758e-05,-3.073621312275884e-05,-4.4896611520561536e-05,-4.9312219623102167e-05,7.0667,4.7333
3.91796875,-3.855234700541696e-05,-2.634598207827878e-05,-4.441444741741054e-05,-4.832251435873961e-05,7.0667,4.7333
3.921875,-4.050638047608149e-05,-1.5129322415503167e-05,-3.855234700541696e-05,-4.197824984359502e-05,7.0667,4.7333
3.92578125,-3.905988816662852e-05,-1.9332522240024446e-06,-4.296795510795758e-05,-4.5404152681773096e-05,7.0667,4.7333
3.9296875,-3.3679951857785924e-05,4.893176394293121e-06,-4.246041394674601e-05,-5.322028656443122e-05,7.0667,4.7333
3.93359375,-3.220808249027237e-05,8.801243335622181e-06,-2.8807556710154884e-05,-5.712835350576029e-05,7.0667,4.7333
3.9375,-2.9771884916456853e-05,1.1719605012588686e-05,-2.0991422827496763e-05,-5.41846147707332e-05,7.0667,4.7333
3.94140625,-2.7817851445792328e-05,3.928848187991143e-06,-3.12437542839704e-05,-4.5886316784924085e-05,7.0667,4.7333
3.9453125,-3.12437542839704e-05,8.319079232471197e-06,-4.050638047608149e-05,-4.5886316784924085e-05,7.0667,4.7333
3.94921875,-3.5151821225299456e-05,7.3293739681086405e-06,-2.9771884916456853e-05,-4.88046784618906e-05,7.0667,4.7333
3.953125,-3.0254049019607846e-05,2.0781246662082253e-08,-2.2437915136949725e-05,-4.685064499122606e-05,7.0667,4.7333
3.95703125,-2.8807556710154884e-05,2.9391429236285945e-06,-9.26722200350958e-06,-4.636848088807508e-05,7.0667,4.7333
3.9609375,-3.5151821225299456e-05,2.456978820477602e-06,-2.04838816662852e-05,-4.5886316784924085e-05,7.0667,4.7333
3.96484375,-3.464428006408789e-05,-3.887285694666978e-06,-4.3932283314259564e-05,-5.322028656443122e-05,7.0667,4.7333
3.96875,-2.6853523239490356e-05,5.8828816586556766e-06,-3.659831353475242e-05,-5.223058130006866e-05,7.0667,4.7333
3.97265625,-1.6601191783016716e-05,7.3293739681086405e-06,-5.841319165331505e-06,-3.464428006408789e-05,7.0667,4.7333
3.9765625,-1.6601191783016716e-05,-9.26722200350958e-06,-1.9332522240024446e-06,-2.7335687342641335e-05,7.0667,4.7333
3.98046875,-2.7335687342641335e-05,-1.17034195773251e-05,-1.6601191783016716e-05,-2.7335687342641335e-05,7.0667,4.7333
3.984375,-2.6853523239490356e-05,-1.17034195773251e-05,-2.8807556710154884e-05,-2.6853523239490356e-05,7.0667,4.7333
3.98828125,-1.9037389356832234e-05,-7.795352635996039e-06,-3.5633985328450446e-05,-3.464428006408789e-05,7.0667,4.7333
3.9921875,-1.6601191783016716e-05,-1.451088120851459e-06,-2.4391948607614254e-05,-4.3932283314259564e-05,7.0667,4.7333
3.99609375,-1.3657453047989633e-05,3.42130702677958e-06,-1.2693124841687649e-05,-4.735818615243764e-05,7.0667,4.7333
4.0,-1.5129322415503167e-05,3.42130702677958e-06,-1.8529848195620658e-05,-4.3932283314259564e-05,7.0667,4.7333
4.00390625,-2.4899489768825817e-05,5.029453498130749e-07,-3.905988816662852e-05,-4.296795510795758e-05,7.0667,4.7333
4.0078125,-2.4391948607614254e-05,4.893176394293121e-06,-4.4896611520561536e-05,-4.246041394674601e-05,7.0667,4.7333
4.01171875,-2.3909784504463274e-05,4.411012291142135e-06,-3.954205226977952e-05,-3.659831353475242e-05,7.0667,4.7333
