timestamp,TP9,AF7,AF8,TP10,Valence,Arousal
0.0,2.978221963225752e-05,5.175339253223464e-05,6.689186355687795e-05,2.6852729912260583e-05,3.4375,3.625
0.00390625,2.538798505226211e-05,5.2727114967574535e-05,6.933033085221631e-05,9.758491602960206e-06,3.4375,3.625
0.0078125,3.2220686927595894e-05,5.6147627112230054e-05,7.665405515220869e-05,1.1223236462958681e-05,3.4375,3.625
0.01171875,4.1991200936903894e-05,6.738288598153653e-05,8.446880187685964e-05,2.4414262616922207e-05,3.4375,3.625
0.015625,3.515017664759284e-05,7.372456543221174e-05,8.593354673685812e-05,1.7082215902952577e-05,3.4375,3.625
0.01953125,2.245849533226516e-05,7.617135514152738e-05,8.495982430151822e-05,8.784769167620312e-06,3.4375,3.625
0.0234375,3.2220686927595894e-05,9.27662486121919e-05,9.569573833218884e-05,1.1714258887617261e-05,3.4375,3.625
0.02734375,3.8570688792248374e-05,9.667778318150601e-05,0.00010301946263218122,1.4152726182955624e-05,3.4375,3.625
0.03125,2.978221963225752e-05,9.423099347219039e-05,0.00010107201776150143,1.5134771032272787e-05,3.4375,3.625
0.03515625,3.173798691691458e-05,9.472201589684897e-05,9.569573833218884e-05,1.0249514027618786e-05,3.4375,3.625
0.0390625,3.466747663691153e-05,0.00010058099533684284,9.618676075684743e-05,1.5134771032272787e-05,3.4375,3.625
0.04296875,3.2220686927595894e-05,0.00010400150748149838,0.00010301946263218122,1.757323832761116e-05,3.4375,3.625
0.046875,3.320273177691305e-05,0.00010155471777218275,0.00011083420935683218,6.346301872281941e-06,3.4375,3.625
0.05078125,3.368543178759437e-05,0.00010008997291218428,0.00011181625420614932,6.829001882963261e-06,3.4375,3.625
0.0546875,2.978221963225752e-05,9.569573833218884e-05,0.00010839574206149382,1.2205281312275836e-05,3.4375,3.625
0.05859375,2.1967472907606577e-05,8.837201403219648e-05,0.00010594895235217817,1.317900374761573e-05,3.4375,3.625
0.0625,1.9037983187609632e-05,8.446880187685964e-05,0.0001044842074921797,1.0740536452277367e-05,3.4375,3.625
0.06640625,2.8317474772259047e-05,8.446880187685964e-05,0.00010839574206149382,7.811046732280416e-06,3.4375,3.625
0.0703125,2.587900747692069e-05,9.27662486121919e-05,0.0001210874233768215,1.5134771032272787e-05,3.4375,3.625
0.07421875,2.099375047226668e-05,9.27662486121919e-05,0.00011815793365682454,2.245849533226516e-05,3.4375,3.625
0.078125,4.150017851224531e-05,8.886303645685506e-05,0.00010155471777218275,1.7082215902952577e-05,3.4375,3.625
0.08203125,2.0011705622949528e-05,8.593354673685812e-05,9.667778318150601e-05,4.390534587624892e-06,3.4375,3.625
0.0859375,3.89951216296631e-06,8.397777945220106e-05,0.00010253676262149991,1.2687981322957157e-05,3.4375,3.625
0.08984375,3.368543178759437e-05,9.179252617685201e-05,9.765150561684592e-05,1.6599515892271263e-05,3.4375,3.625
0.09375,4.296492337224379e-05,8.397777945220106e-05,9.472201589684897e-05,1.0249514027618786e-05,3.4375,3.625
0.09765625,2.245849533226516e-05,6.933033085221631e-05,9.569573833218884e-05,9.275791592278892e-06,3.4375,3.625
0.1015625,2.587900747692069e-05,7.665405515220869e-05,9.27662486121919e-05,7.811046732280416e-06,3.4375,3.625
0.10546875,4.150017851224531e-05,8.593354673685812e-05,9.472201589684897e-05,1.3670026172274312e-05,3.4375,3.625
0.109375,3.271170935225447e-05,8.153931215686269e-05,9.325727103685048e-05,2.4414262616922207e-05,3.4375,3.625
0.11328125,1.806426075226973e-05,7.324186542153043e-05,9.032778131685353e-05,1.610849346761268e-05,3.4375,3.625
0.1171875,2.587900747692069e-05,7.372456543221174e-05,8.837201403219648e-05,3.89951216296631e-06,3.4375,3.625
0.12109375,2.8317474772259047e-05,7.860982243686575e-05,8.739829159685658e-05,1.2687981322957157e-05,3.4375,3.625
0.125,2.4414262616922207e-05,8.593354673685812e-05,9.667778318150601e-05,3.4176454212252946e-05,3.4375,3.625
0.12890625,3.1246964492256e-05,8.10482897322041e-05,9.765150561684592e-05,3.2220686927595894e-05,3.4375,3.625
0.1328125,2.6361707487602e-05,6.98213532768749e-05,8.349507944151974e-05,2.099375047226668e-05,3.4375,3.625
0.13671875,2.734375233691915e-05,7.958354487220565e-05,7.811880001220717e-05,2.099375047226668e-05,3.4375,3.625
0.140625,3.368543178759437e-05,8.446880187685964e-05,8.007456729686421e-05,2.1967472907606577e-05,3.4375,3.625
0.14453125,3.759696635690848e-05,7.617135514152738e-05,8.64245691615167e-05,2.245849533226516e-05,3.4375,3.625
0.1484375,2.8317474772259047e-05,7.177712056153195e-05,8.056558972152279e-05,2.2941195342946472e-05,3.4375,3.625
0.15234375,2.587900747692069e-05,6.298032898756385e-05,6.98213532768749e-05,2.6361707487602e-05,3.4375,3.625
0.15625,3.271170935225447e-05,4.8332880387579107e-05,6.640084113221938e-05,2.4896962627603528e-05,3.4375,3.625
0.16015625,2.782645234760048e-05,5.2727114967574535e-05,6.640084113221938e-05,1.9529005612268207e-05,3.4375,3.625
0.1640625,2.8808497196917625e-05,6.200660655222395e-05,6.786558599221785e-05,2.1967472907606577e-05,3.4375,3.625
0.16796875,4.6385435516899315e-05,7.128609813687338e-05,7.421558785687033e-05,2.6361707487602e-05,3.4375,3.625
0.171875,4.150017851224531e-05,6.347135141222243e-05,6.689186355687795e-05,2.6361707487602e-05,3.4375,3.625
0.17578125,2.4414262616922207e-05,5.321813739223311e-05,5.8103394396887107e-05,2.05027280476081e-05,3.4375,3.625
0.1796875,2.8808497196917625e-05,6.200660655222395e-05,5.956813925688559e-05,2.2941195342946472e-05,3.4375,3.625
0.18359375,3.1246964492256e-05,6.591814112153805e-05,5.9077116832227e-05,2.1967472907606577e-05,3.4375,3.625
0.1875,3.0273242056916103e-05,6.00508392675669e-05,6.298032898756385e-05,2.6852729912260583e-05,3.4375,3.625
0.19140625,2.6361707487602e-05,4.735915795223921e-05,5.8586094407568424e-05,2.4896962627603528e-05,3.4375,3.625
0.1953125,2.538798505226211e-05,4.150017851224531e-05,4.589441309224074e-05,8.784769167620312e-06,3.4375,3.625
0.19921875,3.1246964492256e-05,4.735915795223921e-05,4.686813552758063e-05,1.757323832761116e-05,3.4375,3.625
0.203125,4.052645607690542e-05,4.686813552758063e-05,5.0288647672236166e-05,2.929119720759894e-05,3.4375,3.625
0.20703125,4.442966823224226e-05,4.1991200936903894e-05,5.126237010757606e-05,3.075594206759741e-05,3.4375,3.625
0.2109375,3.71059439322499e-05,4.150017851224531e-05,4.931492523689627e-05,3.515017664759284e-05,3.4375,3.625
0.21484375,2.4414262616922207e-05,2.538798505226211e-05,3.271170935225447e-05,3.075594206759741e-05,3.4375,3.625
0.21875,1.2687981322957157e-05,1.4610448676279403e-06,1.4152726182955624e-05,3.1246964492256e-05,3.4375,3.625
0.22265625,6.829001882963261e-06,-1.1230636447699744e-05,9.70022442969359e-07,4.052645607690542e-05,3.4375,3.625
0.2265625,9.758491602960206e-06,-2.246589531700622e-05,-1.3677426157015378e-05,5.4682882252231574e-05,3.4375,3.625
0.23046875,1.2687981322957157e-05,-5.077874766765854e-05,-4.149925608300912e-05,6.151558412756538e-05,3.4375,3.625
0.234375,1.0249514027618786e-05,-7.665313272297248e-05,-7.372364300297554e-05,7.225982057221327e-05,3.4375,3.625
0.23828125,1.1223236462958681e-05,-9.960635047226676e-05,-9.618583832761123e-05,9.716048319218734e-05,3.4375,3.625
0.2421875,1.806426075226973e-05,-0.00011718328879224844,-0.00011571854393224997,0.00010497522991683828,3.4375,3.625
0.24609375,1.854696076295105e-05,-0.00013183073739223317,-0.0001259717579522393,0.00010546625234149687,3.4375,3.625
0.25,1.757323832761116e-05,-0.0001479429308522164,-0.00013426920468757156,0.00011621048878614477,3.4375,3.625
0.25390625,2.6852729912260583e-05,-0.0001596608897322042,-0.0001581961448722057,0.0001210874233768215,3.4375,3.625
0.2578125,2.343221776760505e-05,-0.00017430833833218895,-0.0001738256383215076,0.00011864895608148313,3.4375,3.625
0.26171875,1.610849346761268e-05,-0.0001694314037415122,-0.00016259037945220113,0.0001152284439368276,3.4375,3.625
0.265625,2.929119720759894e-05,-0.00015624870000152593,-0.00015233716543221182,0.00011229895421683065,3.4375,3.625
0.26953125,3.8079666367589796e-05,-0.0001518544654215305,-0.00014647818599221793,0.00010301946263218122,3.4375,3.625
0.2734375,2.978221963225752e-05,-0.00012450701309224083,-0.00013378650467689023,0.00010400150748149838,3.4375,3.625
0.27734375,2.929119720759894e-05,-0.00011035058691691466,-0.00012401599066758223,0.00010643997477683674,3.4375,3.625
0.28125,4.052645607690542e-05,-0.0001083948196322576,-0.00010595635233691923,9.521303832150755e-05,3.4375,3.625
0.28515625,4.2473900947585204e-05,-8.446787944762344e-05,-8.935313645227745e-05,6.835660841687642e-05,3.4375,3.625
0.2890625,4.003543365224685e-05,-8.153838972762649e-05,-8.446787944762344e-05,5.6147627112230054e-05,3.4375,3.625
0.29296875,3.515017664759284e-05,-7.567941028763261e-05,-7.421466542763411e-05,4.979762524757758e-05,3.4375,3.625
0.296875,3.0273242056916103e-05,-4.979670281834138e-05,-5.7120427118333745e-05,4.1009156087586744e-05,3.4375,3.625
0.30078125,3.906171121690695e-05,-3.2719109336995535e-05,-3.613962148165107e-05,4.1009156087586744e-05,3.4375,3.625
0.3046875,4.1991200936903894e-05,-1.3186403732356797e-05,-6.836401867704324e-06,3.8079666367589796e-05,3.4375,3.625
0.30859375,3.075594206759741e-05,3.89951216296631e-06,1.2205281312275836e-05,3.173798691691458e-05,3.4375,3.625
0.3125,3.368543178759437e-05,1.610849346761268e-05,1.9037983187609632e-05,2.8317474772259047e-05,3.4375,3.625
0.31640625,3.515017664759284e-05,3.173798691691458e-05,2.2941195342946472e-05,2.4896962627603528e-05,3.4375,3.625
0.3203125,2.8808497196917625e-05,4.540339066758216e-05,4.345594579690237e-05,2.1967472907606577e-05,3.4375,3.625
0.32421875,3.173798691691458e-05,5.8103394396887107e-05,5.8103394396887107e-05,1.2205281312275836e-05,3.4375,3.625
0.328125,2.8317474772259047e-05,6.591814112153805e-05,5.4682882252231574e-05,5.3642570229647856e-06,3.4375,3.625
0.33203125,3.0273242056916103e-05,7.518931029221022e-05,7.910084486152431e-05,1.2687981322957157e-05,3.4375,3.625
0.3359375,3.8079666367589796e-05,8.349507944151974e-05,9.08188037415121e-05,1.0740536452277367e-05,3.4375,3.625
0.33984375,4.052645607690542e-05,7.617135514152738e-05,8.153931215686269e-05,-1.4684448523690036e-06,3.4375,3.625
0.34375,4.296492337224379e-05,8.251303459220258e-05,8.593354673685812e-05,-9.765891587701272e-06,3.4375,3.625
0.34765625,3.8079666367589796e-05,9.423099347219039e-05,9.667778318150601e-05,-4.947224170291094e-07,3.4375,3.625
0.3515625,2.4414262616922207e-05,9.569573833218884e-05,9.765150561684592e-05,7.811046732280416e-06,3.4375,3.625
0.35546875,2.1967472907606577e-05,9.814252804150447e-05,9.618676075684743e-05,-3.699992370535199e-09,3.4375,3.625
0.359375,2.734375233691915e-05,0.00010351048505683979,0.0001044842074921797,-6.836401867704324e-06,3.4375,3.625
0.36328125,2.4896962627603528e-05,0.00010008997291218428,0.00010546625234149687,-5.8626794323644306e-06,3.4375,3.625
0.3671875,2.978221963225752e-05,0.00010693099720149532,0.0001088867644861524,4.390534587624892e-06,3.4375,3.625
0.37109375,3.1246964492256e-05,0.00011132523178149074,0.0001132809990661478,4.390534587624892e-06,3.4375,3.625
0.375,3.271170935225447e-05,0.00010107201776150143,0.00010643997477683674,-4.947224170291094e-07,3.4375,3.625
0.37890625,3.8079666367589796e-05,9.86252280521858e-05,0.00010497522991683828,-4.397934572365955e-06,3.4375,3.625
0.3828125,3.6132221496910005e-05,0.00010253676262149991,0.00011181625420614932,5.855279447623367e-06,3.4375,3.625
0.38671875,3.6132221496910005e-05,0.00010301946263218122,0.0001093694644968337,1.2205281312275836e-05,3.4375,3.625
0.390625,3.71059439322499e-05,0.00010351048505683979,0.00010058099533684284,1.4643748607614206e-05,3.4375,3.625
0.39453125,2.8317474772259047e-05,9.032778131685353e-05,9.130150375219344e-05,6.829001882963261e-06,3.4375,3.625
0.3984375,1.806426075226973e-05,8.153931215686269e-05,8.495982430151822e-05,-8.792169152361378e-06,3.4375,3.625
0.40234375,2.343221776760505e-05,8.788931402151517e-05,9.179252617685201e-05,-5.371657007705849e-06,3.4375,3.625
0.40625,4.1991200936903894e-05,9.814252804150447e-05,0.00010301946263218122,6.346301872281941e-06,3.4375,3.625
0.41015625,3.6132221496910005e-05,9.765150561684592e-05,0.00010546625234149687,2.434767302967835e-06,3.4375,3.625
0.4140625,2.2941195342946472e-05,9.325727103685048e-05,0.00010546625234149687,-4.397934572365955e-06,3.4375,3.625
0.41796875,3.075594206759741e-05,0.00010400150748149838,0.00011035150934615086,1.4610448676279403e-06,3.4375,3.625
0.421875,3.320273177691305e-05,0.00011083420935683218,0.00011229895421683065,8.784769167620312e-06,3.4375,3.625
0.42578125,3.0273242056916103e-05,0.00010204574019684134,0.00010253676262149991,1.4610448676279403e-06,3.4375,3.625
0.4296875,2.8808497196917625e-05,9.618676075684743e-05,9.667778318150601e-05,-3.699992370535199e-09,3.4375,3.625
0.43359375,2.6852729912260583e-05,0.00010546625234149687,9.86252280521858e-05,9.758491602960206e-06,3.4375,3.625
0.4375,3.466747663691153e-05,9.472201589684897e-05,9.716048319218734e-05,4.390534587624892e-06,3.4375,3.625
0.44140625,4.003543365224685e-05,7.860982243686575e-05,8.886303645685506e-05,1.4610448676279403e-06,3.4375,3.625
0.4453125,2.1476450482947995e-05,8.935405888151365e-05,8.397777945220106e-05,1.2205281312275836e-05,3.4375,3.625
0.44921875,2.782645234760048e-05,9.179252617685201e-05,9.569573833218884e-05,2.2941195342946472e-05,3.4375,3.625
0.453125,4.393864580758368e-05,7.421558785687033e-05,9.22835486015106e-05,1.610849346761268e-05,3.4375,3.625
0.45703125,3.564119907225142e-05,6.98213532768749e-05,7.518931029221022e-05,-9.774224277104295e-07,3.4375,3.625
0.4609375,3.6614921507591315e-05,7.958354487220565e-05,7.421558785687033e-05,1.317900374761573e-05,3.4375,3.625
0.46484375,3.8570688792248374e-05,7.714507757686727e-05,7.56803327168688e-05,2.1967472907606577e-05,3.4375,3.625
0.46875,2.0011705622949528e-05,6.396237383688102e-05,6.98213532768749e-05,2.0011705622949528e-05,3.4375,3.625
0.47265625,2.538798505226211e-05,5.224441495689322e-05,6.396237383688102e-05,1.2687981322957157e-05,3.4375,3.625
0.4765625,3.320273177691305e-05,4.686813552758063e-05,6.00508392675669e-05,1.0249514027618786e-05,3.4375,3.625
0.48046875,2.6361707487602e-05,3.71059439322499e-05,5.2727114967574535e-05,3.6132221496910005e-05,3.4375,3.625
0.484375,3.1246964492256e-05,2.734375233691915e-05,4.540339066758216e-05,4.393864580758368e-05,3.4375,3.625
0.48828125,3.0273242056916103e-05,1.4643748607614206e-05,2.4414262616922207e-05,3.515017664759284e-05,3.4375,3.625
0.4921875,2.05027280476081e-05,-1.1230636447699744e-05,-2.442167287708898e-06,4.1991200936903894e-05,3.4375,3.625
0.49609375,2.587900747692069e-05,-3.028064204165717e-05,-2.0510128032349166e-05,6.8847630841535e-05,3.4375,3.625
0.5,2.6852729912260583e-05,-6.103196168764786e-05,-5.565568225833527e-05,6.249762897688253e-05,3.4375,3.625
0.50390625,2.782645234760048e-05,-7.07941532829786e-05,-7.421466542763411e-05,6.835660841687642e-05,3.4375,3.625
0.5078125,4.2473900947585204e-05,-7.031145327229728e-05,-8.251211216296639e-05,9.130150375219344e-05,3.4375,3.625
0.51171875,4.6385435516899315e-05,-9.032685888761733e-05,-0.0001035095626276036,8.300405701686117e-05,3.4375,3.625
0.515625,3.906171121690695e-05,-9.423007104295419e-05,-0.0001142537990722515,8.007456729686421e-05,3.4375,3.625
0.51953125,2.734375233691915e-05,-0.00011669226636758988,-0.00012939227009689484,8.397777945220106e-05,3.4375,3.625
0.5234375,2.782645234760048e-05,-0.00013964548411688415,-0.00013866343926756698,8.593354673685812e-05,3.4375,3.625
0.52734375,3.6614921507591315e-05,-0.00012353329065690092,-0.0001249980355168994,9.22835486015106e-05,3.4375,3.625
0.53125,3.515017664759284e-05,-0.00011962175608758681,-0.00012841022524757767,9.130150375219344e-05,3.4375,3.625
0.53515625,3.368543178759437e-05,-0.00012304226823224234,-0.0001308570149568933,8.593354673685812e-05,3.4375,3.625
0.5390625,4.150017851224531e-05,-0.00010790379720759902,-0.00012401599066758223,7.910084486152431e-05,3.4375,3.625
0.54296875,3.954441122758827e-05,-9.27653261829557e-05,-0.00011132430935225455,8.251303459220258e-05,3.4375,3.625
0.546875,3.075594206759741e-05,-9.765058318760971e-05,-9.911532804760818e-05,8.739829159685658e-05,3.4375,3.625
0.55078125,2.978221963225752e-05,-9.325634860761428e-05,-8.935313645227745e-05,7.617135514152738e-05,3.4375,3.625
0.5546875,3.173798691691458e-05,-8.104736730296792e-05,-7.518838786297402e-05,6.786558599221785e-05,3.4375,3.625
0.55859375,4.589441309224074e-05,-6.200568412298775e-05,-5.126144767833986e-05,7.177712056153195e-05,3.4375,3.625
0.5625,4.979762524757758e-05,-3.857808877698944e-05,-2.0027428021667852e-05,7.665405515220869e-05,3.4375,3.625
0.56640625,3.8570688792248374e-05,-2.8324874757000117e-05,-1.6115893452353744e-05,6.249762897688253e-05,3.4375,3.625
0.5703125,3.173798691691458e-05,-9.765891587701272e-06,-1.4651148592355272e-05,3.6614921507591315e-05,3.4375,3.625
0.57421875,2.929119720759894e-05,1.317900374761573e-05,1.0740536452277367e-05,2.782645234760048e-05,3.4375,3.625
0.578125,2.734375233691915e-05,1.9037983187609632e-05,2.8317474772259047e-05,1.2205281312275836e-05,3.4375,3.625
0.58203125,2.4896962627603528e-05,2.3923240192263632e-05,3.075594206759741e-05,-4.947224170291094e-07,3.4375,3.625
0.5859375,1.610849346761268e-05,3.2220686927595894e-05,3.466747663691153e-05,5.855279447623367e-06,3.4375,3.625
0.58984375,2.4414262616922207e-05,5.4682882252231574e-05,4.686813552758063e-05,6.346301872281941e-06,3.4375,3.625
0.59375,4.589441309224074e-05,6.640084113221938e-05,6.151558412756538e-05,1.1223236462958681e-05,3.4375,3.625
0.59765625,5.126237010757606e-05,6.396237383688102e-05,6.444507384756233e-05,1.757323832761116e-05,3.4375,3.625
0.6015625,3.954441122758827e-05,7.421558785687033e-05,6.933033085221631e-05,8.784769167620312e-06,3.4375,3.625
0.60546875,2.3923240192263632e-05,7.811880001220717e-05,7.079507571221479e-05,-1.4684448523690036e-06,3.4375,3.625
0.609375,1.4643748607614206e-05,7.372456543221174e-05,7.128609813687338e-05,-3.4242121370260603e-06,3.4375,3.625
0.61328125,1.4643748607614206e-05,8.056558972152279e-05,8.153931215686269e-05,-3.906912147707373e-06,3.4375,3.625
0.6171875,1.9037983187609632e-05,8.788931402151517e-05,8.64245691615167e-05,-6.836401867704324e-06,3.4375,3.625
0.62109375,2.8808497196917625e-05,8.690726917219801e-05,8.153931215686269e-05,-6.353701857023005e-06,3.4375,3.625
0.625,3.8570688792248374e-05,8.251303459220258e-05,8.349507944151974e-05,-5.371657007705849e-06,3.4375,3.625
0.62890625,3.564119907225142e-05,8.593354673685812e-05,8.983675889219495e-05,-4.397934572365955e-06,3.4375,3.625
0.6328125,3.173798691691458e-05,8.690726917219801e-05,9.130150375219344e-05,5.3642570229647856e-06,3.4375,3.625
0.63671875,2.782645234760048e-05,8.397777945220106e-05,8.983675889219495e-05,8.784769167620312e-06,3.4375,3.625
0.640625,2.6361707487602e-05,8.935405888151365e-05,9.08188037415121e-05,9.70022442969359e-07,3.4375,3.625
0.64453125,1.9529005612268207e-05,7.470661028152891e-05,9.032778131685353e-05,-7.81844671702148e-06,3.4375,3.625
0.6484375,2.0011705622949528e-05,8.056558972152279e-05,9.27662486121919e-05,1.56174710429541e-05,3.4375,3.625
0.65234375,2.734375233691915e-05,9.179252617685201e-05,9.423099347219039e-05,2.782645234760048e-05,3.4375,3.625
0.65625,2.343221776760505e-05,6.933033085221631e-05,7.225982057221327e-05,1.4610448676279403e-06,3.4375,3.625
0.66015625,1.7082215902952577e-05,6.444507384756233e-05,5.8586094407568424e-05,4.873224322880461e-07,3.4375,3.625
0.6640625,2.587900747692069e-05,6.444507384756233e-05,5.8586094407568424e-05,2.3923240192263632e-05,3.4375,3.625
0.66796875,2.8317474772259047e-05,3.954441122758827e-05,3.564119907225142e-05,2.782645234760048e-05,3.4375,3.625
0.671875,1.757323832761116e-05,6.829001882963261e-06,1.1223236462958681e-05,2.782645234760048e-05,3.4375,3.625
0.67578125,1.9037983187609632e-05,-1.6606915877012326e-05,-1.0256914012359849e-05,3.564119907225142e-05,3.4375,3.625
0.6796875,2.6361707487602e-05,-3.418385419699401e-05,-3.662232149233238e-05,5.8103394396887107e-05,3.4375,3.625
0.68359375,2.978221963225752e-05,-5.077874766765854e-05,-5.028772524299996e-05,6.0541861692225476e-05,3.4375,3.625
0.6875,3.564119907225142e-05,-5.4190937398336804e-05,-5.272619253833833e-05,5.8586094407568424e-05,3.4375,3.625
0.69140625,3.368543178759437e-05,-6.639991870298317e-05,-6.542619626764328e-05,8.495982430151822e-05,3.4375,3.625
0.6953125,2.6361707487602e-05,-0.00010058007290760664,-8.983583646295875e-05,9.814252804150447e-05,3.4375,3.625
0.69921875,3.075594206759741e-05,-0.00010546532991226066,-9.569481590295264e-05,0.00010008997291218428,3.4375,3.625
0.703125,3.075594206759741e-05,-9.960635047226676e-05,-0.0001030268626169223,9.08188037415121e-05,3.4375,3.625
0.70703125,3.515017664759284e-05,-0.00010595635233691923,-0.00010546532991226066,8.203033458152127e-05,3.4375,3.625
0.7109375,4.296492337224379e-05,-0.0001030268626169223,-9.667686075226981e-05,9.27662486121919e-05,3.4375,3.625
0.71484375,4.003543365224685e-05,-0.00011181533177691314,-0.00011181533177691314,8.349507944151974e-05,3.4375,3.625
0.71875,3.466747663691153e-05,-0.00010742109719691771,-0.0001093685420675975,8.10482897322041e-05,3.4375,3.625
0.72265625,3.564119907225142e-05,-9.472109346761276e-05,-9.765058318760971e-05,8.739829159685658e-05,3.4375,3.625
0.7265625,3.906171121690695e-05,-9.81416056122683e-05,-9.765058318760971e-05,8.251303459220258e-05,3.4375,3.625
0.73046875,4.1009156087586744e-05,-9.472109346761276e-05,-9.618583832761123e-05,7.811880001220717e-05,3.4375,3.625
0.734375,4.393864580758368e-05,-9.08178813122759e-05,-9.423007104295419e-05,7.128609813687338e-05,3.4375,3.625
0.73828125,5.224441495689322e-05,-9.08178813122759e-05,-9.08178813122759e-05,7.56803327168688e-05,3.4375,3.625
0.7421875,5.565660468757147e-05,-7.665313272297248e-05,-8.983583646295875e-05,7.811880001220717e-05,3.4375,3.625
0.74609375,4.052645607690542e-05,-8.788839159227896e-05,-9.423007104295419e-05,7.714507757686727e-05,3.4375,3.625
0.75,3.075594206759741e-05,-9.374737103227287e-05,-8.886211402761887e-05,8.544252431219953e-05,3.4375,3.625
0.75390625,3.906171121690695e-05,-7.421466542763411e-05,-8.300313458762497e-05,7.763610000152586e-05,3.4375,3.625
0.7578125,4.492069065690084e-05,-8.64236467322805e-05,-9.423007104295419e-05,6.591814112153805e-05,3.4375,3.625
0.76171875,4.735915795223921e-05,-8.64236467322805e-05,-8.983583646295875e-05,5.956813925688559e-05,3.4375,3.625
0.765625,4.393864580758368e-05,-7.274992056763565e-05,-7.714415514763106e-05,5.6147627112230054e-05,3.4375,3.625
0.76953125,4.8332880387579107e-05,-8.837109160296028e-05,-7.617043271229118e-05,6.786558599221785e-05,3.4375,3.625
0.7734375,4.7850180376897796e-05,-9.27653261829557e-05,-8.446787944762344e-05,5.4682882252231574e-05,3.4375,3.625
0.77734375,4.492069065690084e-05,-7.909992243228814e-05,-7.909992243228814e-05,5.6147627112230054e-05,3.4375,3.625
0.78125,5.8586094407568424e-05,-6.493517384298471e-05,-6.835568598764022e-05,6.347135141222243e-05,3.4375,3.625
0.78515625,6.444507384756233e-05,-6.835568598764022e-05,-7.811787758297097e-05,5.6147627112230054e-05,3.4375,3.625
0.7890625,5.8103394396887107e-05,-7.031145327229728e-05,-7.47056878522927e-05,6.151558412756538e-05,3.4375,3.625
0.79296875,5.565660468757147e-05,-6.591721869230186e-05,-5.761144954299233e-05,5.712134954756994e-05,3.4375,3.625
0.796875,4.931492523689627e-05,-6.445247383230338e-05,-6.054093926298928e-05,3.71059439322499e-05,3.4375,3.625
0.80078125,4.589441309224074e-05,-5.028772524299996e-05,-5.517298224765396e-05,3.075594206759741e-05,3.4375,3.625
0.8046875,6.200660655222395e-05,-4.1990278507667696e-05,-4.149925608300912e-05,4.6385435516899315e-05,3.4375,3.625
0.80859375,5.663864953688863e-05,-5.126144767833986e-05,-4.6384513087663124e-05,5.712134954756994e-05,3.4375,3.625
0.8125,4.052645607690542e-05,-5.565568225833527e-05,-4.0034511223010644e-05,5.565660468757147e-05,3.4375,3.625
0.81640625,5.956813925688559e-05,-5.9076194402990804e-05,-4.540246823834596e-05,4.6385435516899315e-05,3.4375,3.625
0.8203125,6.689186355687795e-05,-5.4190937398336804e-05,-4.979670281834138e-05,4.7850180376897796e-05,3.4375,3.625
0.82421875,4.979762524757758e-05,-4.4919768227664644e-05,-4.345502336766617e-05,5.0288647672236166e-05,3.4375,3.625
0.828125,4.296492337224379e-05,-5.272619253833833e-05,-4.78492579476616e-05,4.003543365224685e-05,3.4375,3.625
0.83203125,5.4682882252231574e-05,-3.857808877698944e-05,-4.1990278507667696e-05,3.6614921507591315e-05,3.4375,3.625
0.8359375,5.224441495689322e-05,-3.613962148165107e-05,-3.4674876621652594e-05,4.052645607690542e-05,3.4375,3.625
0.83984375,5.0288647672236166e-05,-5.028772524299996e-05,-3.2228086912336964e-05,5.3709159816891685e-05,3.4375,3.625
0.84375,4.442966823224226e-05,-4.052553364766923e-05,-3.808706635233086e-05,4.979762524757758e-05,3.4375,3.625
0.84765625,5.4682882252231574e-05,-3.125436447699707e-05,-2.8815897181658696e-05,4.2473900947585204e-05,3.4375,3.625
0.8515625,5.4682882252231574e-05,-2.29569177416648e-05,-2.0027428021667852e-05,4.979762524757758e-05,3.4375,3.625
0.85546875,4.393864580758368e-05,-1.2212681297016903e-05,-8.792169152361378e-06,5.3709159816891685e-05,3.4375,3.625
0.859375,5.0288647672236166e-05,-1.269538130769822e-05,-4.397934572365955e-06,5.8103394396887107e-05,3.4375,3.625
0.86328125,5.419185982757301e-05,-9.774224277104295e-07,-3.699992370535199e-09,5.321813739223311e-05,3.4375,3.625
0.8671875,5.4682882252231574e-05,1.806426075226973e-05,1.9037983187609632e-05,4.345594579690237e-05,3.4375,3.625
0.87109375,5.224441495689322e-05,1.854696076295105e-05,2.4414262616922207e-05,5.565660468757147e-05,3.4375,3.625
0.875,4.296492337224379e-05,1.317900374761573e-05,2.1476450482947995e-05,7.177712056153195e-05,3.4375,3.625
0.87890625,2.8317474772259047e-05,-4.947224170291094e-07,1.5134771032272787e-05,5.4682882252231574e-05,3.4375,3.625
0.8828125,3.075594206759741e-05,-9.765891587701272e-06,1.1714258887617261e-05,4.6385435516899315e-05,3.4375,3.625
0.88671875,3.466747663691153e-05,1.0740536452277367e-05,2.6852729912260583e-05,4.686813552758063e-05,3.4375,3.625
0.890625,4.2473900947585204e-05,5.175339253223464e-05,4.7850180376897796e-05,5.3709159816891685e-05,3.4375,3.625
0.89453125,3.6614921507591315e-05,3.1246964492256e-05,3.6132221496910005e-05,4.296492337224379e-05,3.4375,3.625
0.8984375,2.782645234760048e-05,2.538798505226211e-05,4.540339066758216e-05,3.2220686927595894e-05,3.4375,3.625
0.90234375,2.6361707487602e-05,5.2727114967574535e-05,6.689186355687795e-05,4.052645607690542e-05,3.4375,3.625
0.90625,1.6599515892271263e-05,5.565660468757147e-05,6.640084113221938e-05,3.0273242056916103e-05,3.4375,3.625
0.91015625,1.317900374761573e-05,7.079507571221479e-05,7.714507757686727e-05,3.368543178759437e-05,3.4375,3.625
0.9140625,1.9529005612268207e-05,8.788931402151517e-05,9.814252804150447e-05,4.052645607690542e-05,3.4375,3.625
0.91796875,8.784769167620312e-06,8.690726917219801e-05,0.00010008997291218428,2.4414262616922207e-05,3.4375,3.625
0.921875,1.9520672922865214e-06,9.814252804150447e-05,0.00011425472150148769,1.1714258887617261e-05,3.4375,3.625
0.92578125,1.2205281312275836e-05,0.0001093694644968337,0.00012939319252613102,5.855279447623367e-06,3.4375,3.625
0.9296875,1.1223236462958681e-05,0.00012841114767681385,0.0001367169168261234,1.4610448676279403e-06,3.4375,3.625
0.93359375,9.275791592278892e-06,0.00013915538412146176,0.00014501436356145566,-1.074793643701843e-05,3.4375,3.625
0.9375,1.4643748607614206e-05,0.00013476114954146635,0.0001528291102861066,-2.490436261234459e-05,3.4375,3.625
0.94140625,1.317900374761573e-05,0.00014550538598611423,0.00015722334486610202,-3.076334205233848e-05,3.4375,3.625
0.9453125,1.757323832761116e-05,0.00014940859814145107,0.00015966181216144038,-3.028064204165717e-05,3.4375,3.625
0.94921875,2.0011705622949528e-05,0.00015429385514610506,0.00016650283645075145,-2.978961961699859e-05,3.4375,3.625
0.953125,1.757323832761116e-05,0.00016845028132143124,0.00017382656075074382,-3.808706635233086e-05,3.4375,3.625
0.95703125,1.4152726182955624e-05,0.00016650283645075145,0.00018115028505073617,-4.9314002807660065e-05,3.4375,3.625
0.9609375,2.2941195342946472e-05,0.00016747655888609133,0.00018358875234607454,-5.468195982299538e-05,3.4375,3.625
0.96484375,2.978221963225752e-05,0.00017968554019073772,0.00018407977477073314,-5.028772524299996e-05,3.4375,3.625
0.96875,2.8317474772259047e-05,0.00018505349720607304,0.00018895670936140986,-4.735823552300301e-05,3.4375,3.625
0.97265625,2.8317474772259047e-05,0.00018212400748607608,0.00019579773365072093,-4.979670281834138e-05,3.4375,3.625
0.9765625,2.6361707487602e-05,0.00017968554019073772,0.00019921824579537643,-4.979670281834138e-05,3.4375,3.625
0.98046875,2.587900747692069e-05,0.0001909124766460669,0.00020409518038605318,-5.077874766765854e-05,3.4375,3.625
0.984375,1.5134771032272787e-05,0.00019628875607537953,0.0002026304355260547,-4.979670281834138e-05,3.4375,3.625
0.98828125,1.5134771032272787e-05,0.00019042145422140834,0.00019628875607537953,-4.979670281834138e-05,3.4375,3.625
0.9921875,2.782645234760048e-05,0.00018944773178606846,0.00019384196636606387,-5.565568225833527e-05,3.4375,3.625
0.99609375,3.320273177691305e-05,0.00018895670936140986,0.00019189452149538408,-6.103196168764786e-05,3.4375,3.625
1.0,2.782645234760048e-05,0.00017870349534142055,0.0001874919645014114,-5.370823738765549e-05,3.4375,3.625
1.00390625,2.343221776760505e-05,0.00018115028505073617,0.00018944773178606846,-4.149925608300912e-05,3.4375,3.625
1.0078125,2.929119720759894e-05,0.00017236181589074534,0.00018993875421072703,-3.906911120164801e-05,3.4375,3.625
1.01171875,3.0273242056916103e-05,0.00016015283458609898,0.00017284451590142665,-3.7113343916990964e-05,3.4375,3.625
1.015625,3.1246964492256e-05,0.0001577143672907606,0.0001694323261707484,-3.028064204165717e-05,3.4375,3.625
1.01953125,3.0273242056916103e-05,0.00015526757758144497,0.00017333553832608523,-3.2719109336995535e-05,3.4375,3.625
1.0234375,2.929119720759894e-05,0.0001591791121507591,0.0001689413037460898,-3.2228086912336964e-05,3.4375,3.625
1.02734375,3.1246964492256e-05,0.00015575860000610357,0.0001640560467414358,-3.3210131761654114e-05,3.4375,3.625
1.03125,2.3923240192263632e-05,0.0001538028327214465,0.00015575860000610357,-3.564859905699248e-05,3.4375,3.625
1.03515625,2.245849533226516e-05,0.0001528291102861066,0.00015039064299076824,-3.369283177233544e-05,3.4375,3.625
1.0390625,3.271170935225447e-05,0.00015429385514610506,0.00015819706730144193,-2.490436261234459e-05,3.4375,3.625
1.04296875,2.3923240192263632e-05,0.00015332013271076518,0.00015575860000610357,-2.3439617752346114e-05,3.4375,3.625
1.046875,2.978221963225752e-05,0.0001489175757167925,0.0001528291102861066,-2.3439617752346114e-05,3.4375,3.625
1.05078125,4.540339066758216e-05,0.00014550538598611423,0.00014989962056610964,-1.6606915877012326e-05,3.4375,3.625
1.0546875,3.368543178759437e-05,0.0001303669149614709,0.0001371996168368047,-1.6115893452353744e-05,3.4375,3.625
1.05859375,3.0273242056916103e-05,0.00013085793738612948,0.0001371996168368047,-8.301146727702797e-06,3.4375,3.625
1.0625,2.587900747692069e-05,0.00013183165982146939,0.0001371996168368047,-6.836401867704324e-06,3.4375,3.625
1.06640625,2.4896962627603528e-05,0.00013183165982146939,0.00013183165982146939,-9.283191577019955e-06,3.4375,3.625
1.0703125,2.782645234760048e-05,0.00012499895794613558,0.00012987589253681233,-6.836401867704324e-06,3.4375,3.625
1.07421875,2.2941195342946472e-05,0.00011229895421683065,0.00012890217010147245,-7.327424292362902e-06,3.4375,3.625
1.078125,3.0273242056916103e-05,0.00011913997850614171,0.00012255216823681996,-2.933189712367479e-06,3.4375,3.625
1.08203125,3.0273242056916103e-05,0.00011767523364614322,0.00011278997664148923,5.3642570229647856e-06,3.4375,3.625
1.0859375,2.782645234760048e-05,0.00010790471963683523,0.00010351048505683979,2.434767302967835e-06,3.4375,3.625
1.08984375,2.4896962627603528e-05,9.86252280521858e-05,9.814252804150447e-05,-6.353701857023005e-06,3.4375,3.625
1.09375,2.2941195342946472e-05,8.593354673685812e-05,9.911625047684438e-05,-5.371657007705849e-06,3.4375,3.625
1.09765625,3.2220686927595894e-05,9.618676075684743e-05,0.00010008997291218428,-3.906912147707373e-06,3.4375,3.625
1.1015625,3.6132221496910005e-05,0.00011474574392614627,9.716048319218734e-05,-9.774224277104295e-07,3.4375,3.625
1.10546875,2.4896962627603528e-05,9.911625047684438e-05,9.27662486121919e-05,4.390534587624892e-06,3.4375,3.625
1.109375,3.1246964492256e-05,8.056558972152279e-05,9.130150375219344e-05,2.9257897276264157e-06,3.4375,3.625
1.11328125,4.589441309224074e-05,8.446880187685964e-05,8.397777945220106e-05,1.9520672922865214e-06,3.4375,3.625
1.1171875,3.466747663691153e-05,9.179252617685201e-05,8.007456729686421e-05,-3.699992370535199e-09,3.4375,3.625
1.12109375,3.368543178759437e-05,9.86252280521858e-05,8.056558972152279e-05,9.70022442969359e-07,3.4375,3.625
1.125,4.052645607690542e-05,8.64245691615167e-05,7.958354487220565e-05,1.0249514027618786e-05,3.4375,3.625
1.12890625,3.075594206759741e-05,7.714507757686727e-05,7.470661028152891e-05,1.1223236462958681e-05,3.4375,3.625
1.1328125,2.587900747692069e-05,8.007456729686421e-05,6.8847630841535e-05,5.3642570229647856e-06,3.4375,3.625
1.13671875,3.173798691691458e-05,7.128609813687338e-05,7.714507757686727e-05,9.758491602960206e-06,3.4375,3.625
1.140625,2.6361707487602e-05,5.8586094407568424e-05,8.056558972152279e-05,1.4152726182955624e-05,3.4375,3.625
1.14453125,2.6361707487602e-05,6.298032898756385e-05,6.8847630841535e-05,1.610849346761268e-05,3.4375,3.625
1.1484375,3.075594206759741e-05,6.396237383688102e-05,6.640084113221938e-05,9.275791592278892e-06,3.4375,3.625
1.15234375,3.271170935225447e-05,6.0541861692225476e-05,6.444507384756233e-05,3.416812152284997e-06,3.4375,3.625
1.15625,2.8317474772259047e-05,5.6147627112230054e-05,5.6147627112230054e-05,1.1714258887617261e-05,3.4375,3.625
1.16015625,2.8808497196917625e-05,5.565660468757147e-05,5.4682882252231574e-05,1.5134771032272787e-05,3.4375,3.625
1.1640625,3.271170935225447e-05,5.663864953688863e-05,5.712134954756994e-05,1.317900374761573e-05,3.4375,3.625
1.16796875,2.587900747692069e-05,5.517390467689016e-05,6.151558412756538e-05,1.7082215902952577e-05,3.4375,3.625
1.171875,2.1476450482947995e-05,5.321813739223311e-05,5.6147627112230054e-05,1.610849346761268e-05,3.4375,3.625
1.17578125,2.343221776760505e-05,4.931492523689627e-05,5.224441495689322e-05,2.05027280476081e-05,3.4375,3.625
1.1796875,2.6361707487602e-05,5.0779670096894744e-05,4.8332880387579107e-05,3.271170935225447e-05,3.4375,3.625
1.18359375,3.271170935225447e-05,5.663864953688863e-05,5.0779670096894744e-05,2.343221776760505e-05,3.4375,3.625
1.1875,3.6132221496910005e-05,5.126237010757606e-05,4.8332880387579107e-05,2.4896962627603528e-05,3.4375,3.625
1.19140625,3.173798691691458e-05,4.052645607690542e-05,3.2220686927595894e-05,3.0273242056916103e-05,3.4375,3.625
1.1953125,2.4414262616922207e-05,2.4414262616922207e-05,2.2941195342946472e-05,2.099375047226668e-05,3.4375,3.625
1.19921875,2.2941195342946472e-05,1.0249514027618786e-05,3.89951216296631e-06,2.05027280476081e-05,3.4375,3.625
1.203125,2.343221776760505e-05,5.855279447623367e-06,-3.906912147707373e-06,3.0273242056916103e-05,3.4375,3.625
1.20703125,1.757323832761116e-05,-1.9536405597009274e-05,-2.539538503700317e-05,2.978221963225752e-05,3.4375,3.625
1.2109375,2.05027280476081e-05,-4.735823552300301e-05,-5.028772524299996e-05,4.931492523689627e-05,3.4375,3.625
1.21484375,2.05027280476081e-05,-6.591721869230186e-05,-7.714415514763106e-05,6.98213532768749e-05,3.4375,3.625
1.21875,1.757323832761116e-05,-9.569481590295264e-05,-0.0001093685420675975,5.8103394396887107e-05,3.4375,3.625
1.22265625,1.757323832761116e-05,-0.00011864803365224692,-0.0001308570149568933,6.542711869687948e-05,3.4375,3.625
1.2265625,2.099375047226668e-05,-0.00013329548225223166,-0.0001420839514122225,8.10482897322041e-05,3.4375,3.625
1.23046875,3.173798691691458e-05,-0.0001528281878568704,-0.00015917818972152286,8.837201403219648e-05,3.4375,3.625
1.234375,3.4176454212252946e-05,-0.0001816320626321813,-0.00019042885420614942,7.714507757686727e-05,3.4375,3.625
1.23828125,2.587900747692069e-05,-0.00018749936448615246,-0.0001909115542168307,8.495982430151822e-05,3.4375,3.625
1.2421875,2.0011705622949528e-05,-0.00018602629721217671,-0.00018798206449683377,9.667778318150601e-05,3.4375,3.625
1.24609375,2.587900747692069e-05,-0.00018847308692149234,-0.00019579681122148474,8.983675889219495e-05,3.4375,3.625
1.25,2.782645234760048e-05,-0.0001821230850568399,-0.0001914025766414893,9.667778318150601e-05,3.4375,3.625
1.25390625,1.9529005612268207e-05,-0.00017089614860151068,-0.00017529038318150607,9.765150561684592e-05,3.4375,3.625
1.2578125,2.538798505226211e-05,-0.00016015191215686277,-0.00016454614673685819,9.667778318150601e-05,3.4375,3.625
1.26171875,2.4414262616922207e-05,-0.0001586871672968643,-0.00016112563459220268,9.86252280521858e-05,3.4375,3.625
1.265625,1.9037983187609632e-05,-0.00013866343926756698,-0.00014159292898756394,9.325727103685048e-05,3.4375,3.625
1.26953125,3.173798691691458e-05,-0.00012450701309224083,-0.00012841022524757767,7.714507757686727e-05,3.4375,3.625
1.2734375,3.466747663691153e-05,-0.0001083948196322576,-0.00011376277664759293,6.396237383688102e-05,3.4375,3.625
1.27734375,2.2941195342946472e-05,-8.544160188296333e-05,-8.935313645227745e-05,6.396237383688102e-05,3.4375,3.625
1.28125,2.8317474772259047e-05,-6.00499168383307e-05,-7.324094299229423e-05,5.175339253223464e-05,3.4375,3.625
1.28515625,4.6385435516899315e-05,-3.4674876621652594e-05,-5.6146704682993856e-05,3.8079666367589796e-05,3.4375,3.625
1.2890625,4.442966823224226e-05,4.873224322880461e-07,-1.8071660737010797e-05,2.4896962627603528e-05,3.4375,3.625
1.29296875,3.8570688792248374e-05,1.4152726182955624e-05,1.9520672922865214e-06,1.2687981322957157e-05,3.4375,3.625
1.296875,3.71059439322499e-05,1.1223236462958681e-05,4.881557012283466e-06,1.0249514027618786e-05,3.4375,3.625
1.30078125,3.8570688792248374e-05,2.929119720759894e-05,2.978221963225752e-05,-2.442167287708898e-06,3.4375,3.625
1.3046875,3.8079666367589796e-05,5.419185982757301e-05,5.0779670096894744e-05,-1.4684448523690036e-06,3.4375,3.625
1.30859375,3.8570688792248374e-05,6.689186355687795e-05,5.3709159816891685e-05,3.89951216296631e-06,3.4375,3.625
1.3125,4.589441309224074e-05,7.763610000152586e-05,6.933033085221631e-05,-3.906912147707373e-06,3.4375,3.625
1.31640625,3.954441122758827e-05,6.933033085221631e-05,7.811880001220717e-05,-1.514217101701385e-05,3.4375,3.625
1.3203125,3.6614921507591315e-05,8.397777945220106e-05,7.910084486152431e-05,-1.708961588769364e-05,3.4375,3.625
1.32421875,4.150017851224531e-05,0.00010204574019684134,9.032778131685353e-05,-9.765891587701272e-06,3.4375,3.625
1.328125,4.2473900947585204e-05,9.423099347219039e-05,9.86252280521858e-05,-9.283191577019955e-06,3.4375,3.625
1.33203125,3.6614921507591315e-05,9.911625047684438e-05,9.667778318150601e-05,-1.514217101701385e-05,3.4375,3.625
1.3359375,2.929119720759894e-05,9.472201589684897e-05,0.00010008997291218428,-1.758063831235222e-05,3.4375,3.625
1.33984375,2.343221776760505e-05,0.0001044842074921797,0.00010741369721217665,-1.5624871027695166e-05,3.4375,3.625
1.34375,2.2941195342946472e-05,0.00012304319066147853,0.00011571946636148618,-1.1230636447699744e-05,3.4375,3.625
1.34765625,2.4896962627603528e-05,0.00011767523364614322,0.0001259726803814755,-1.3186403732356797e-05,3.4375,3.625
1.3515625,2.2941195342946472e-05,0.00011571946636148618,0.00012353421308613713,-1.1230636447699744e-05,3.4375,3.625
1.35546875,3.173798691691458e-05,0.0001152284439368276,0.00010839574206149382,-1.514217101701385e-05,3.4375,3.625
1.359375,3.6132221496910005e-05,0.00010594895235217817,0.00010790471963683523,-1.514217101701385e-05,3.4375,3.625
1.36328125,3.2220686927595894e-05,0.00010643997477683674,0.00011425472150148769,-9.283191577019955e-06,3.4375,3.625
1.3671875,3.6614921507591315e-05,0.00010107201776150143,0.00011767523364614322,-1.3677426157015378e-05,3.4375,3.625
1.37109375,3.8079666367589796e-05,9.960727290150296e-05,0.00011181625420614932,-1.1230636447699744e-05,3.4375,3.625
1.375,2.734375233691915e-05,9.960727290150296e-05,0.0001044842074921797,-1.1721658872358324e-05,3.4375,3.625
1.37890625,2.3923240192263632e-05,0.00010107201776150143,0.00010594895235217817,-1.074793643701843e-05,3.4375,3.625
1.3828125,3.0273242056916103e-05,9.911625047684438e-05,9.179252617685201e-05,-6.836401867704324e-06,3.4375,3.625
1.38671875,3.1246964492256e-05,0.00010643997477683674,8.837201403219648e-05,-1.074793643701843e-05,3.4375,3.625
1.390625,3.271170935225447e-05,0.00011132523178149074,9.911625047684438e-05,-1.1230636447699744e-05,3.4375,3.625
1.39453125,3.368543178759437e-05,0.0001044842074921797,0.00010008997291218428,9.70022442969359e-07,3.4375,3.625
1.3984375,3.564119907225142e-05,0.00010008997291218428,9.814252804150447e-05,1.2687981322957157e-05,3.4375,3.625
1.40234375,3.564119907225142e-05,9.472201589684897e-05,9.472201589684897e-05,8.784769167620312e-06,3.4375,3.625
1.40625,2.978221963225752e-05,8.837201403219648e-05,9.032778131685353e-05,-3.699992370535199e-09,3.4375,3.625
1.41015625,2.734375233691915e-05,8.935405888151365e-05,8.544252431219953e-05,-5.8626794323644306e-06,3.4375,3.625
1.4140625,3.173798691691458e-05,8.690726917219801e-05,7.860982243686575e-05,-2.933189712367479e-06,3.4375,3.625
1.41796875,3.564119907225142e-05,7.421558785687033e-05,6.98213532768749e-05,6.346301872281941e-06,3.4375,3.625
1.421875,2.8317474772259047e-05,7.177712056153195e-05,6.98213532768749e-05,5.3642570229647856e-06,3.4375,3.625
1.42578125,2.0011705622949528e-05,6.933033085221631e-05,6.98213532768749e-05,3.89951216296631e-06,3.4375,3.625
1.4296875,2.343221776760505e-05,6.689186355687795e-05,6.689186355687795e-05,-9.774224277104295e-07,3.4375,3.625
1.43359375,3.2220686927595894e-05,7.811880001220717e-05,7.275084299687185e-05,4.881557012283466e-06,3.4375,3.625
1.4375,2.8317474772259047e-05,7.177712056153195e-05,7.225982057221327e-05,1.4643748607614206e-05,3.4375,3.625
1.44140625,2.4414262616922207e-05,5.956813925688559e-05,6.738288598153653e-05,1.2205281312275836e-05,3.4375,3.625
1.4453125,3.368543178759437e-05,7.714507757686727e-05,7.128609813687338e-05,1.3670026172274312e-05,3.4375,3.625
1.44921875,3.8570688792248374e-05,7.421558785687033e-05,7.811880001220717e-05,1.2205281312275836e-05,3.4375,3.625
1.453125,3.320273177691305e-05,6.640084113221938e-05,8.056558972152279e-05,7.811046732280416e-06,3.4375,3.625
1.45703125,2.782645234760048e-05,7.031237570153348e-05,7.324186542153043e-05,1.1714258887617261e-05,3.4375,3.625
1.4609375,3.906171121690695e-05,7.128609813687338e-05,7.324186542153043e-05,1.9037983187609632e-05,3.4375,3.625
1.46484375,4.8332880387579107e-05,7.372456543221174e-05,7.518931029221022e-05,2.3923240192263632e-05,3.4375,3.625
1.46875,3.4176454212252946e-05,6.835660841687642e-05,6.591814112153805e-05,2.1476450482947995e-05,3.4375,3.625
1.47265625,3.271170935225447e-05,7.225982057221327e-05,6.347135141222243e-05,1.0740536452277367e-05,3.4375,3.625
1.4765625,3.320273177691305e-05,6.249762897688253e-05,5.9077116832227e-05,4.881557012283466e-06,3.4375,3.625
1.48046875,3.0273242056916103e-05,4.1991200936903894e-05,5.4682882252231574e-05,1.0249514027618786e-05,3.4375,3.625
1.484375,3.4176454212252946e-05,4.931492523689627e-05,5.712134954756994e-05,1.854696076295105e-05,3.4375,3.625
1.48828125,3.466747663691153e-05,4.882390281223769e-05,5.419185982757301e-05,1.6599515892271263e-05,3.4375,3.625
1.4921875,3.271170935225447e-05,3.906171121690695e-05,5.419185982757301e-05,2.3923240192263632e-05,3.4375,3.625
1.49609375,3.6614921507591315e-05,3.71059439322499e-05,5.175339253223464e-05,3.2220686927595894e-05,3.4375,3.625
1.5,3.466747663691153e-05,2.782645234760048e-05,3.2220686927595894e-05,2.1967472907606577e-05,3.4375,3.625
1.50390625,3.1246964492256e-05,2.05027280476081e-05,2.6852729912260583e-05,2.2941195342946472e-05,3.4375,3.625
1.5078125,2.8808497196917625e-05,1.7082215902952577e-05,1.2687981322957157e-05,2.978221963225752e-05,3.4375,3.625
1.51171875,2.4414262616922207e-05,-4.397934572365955e-06,-1.269538130769822e-05,3.320273177691305e-05,3.4375,3.625
1.515625,2.929119720759894e-05,-2.735115232166022e-05,-3.125436447699707e-05,4.979762524757758e-05,3.4375,3.625
1.51953125,2.538798505226211e-05,-6.591721869230186e-05,-6.39614514076448e-05,5.8103394396887107e-05,3.4375,3.625
1.5234375,2.2941195342946472e-05,-9.86243056229496e-05,-8.593262430762192e-05,6.396237383688102e-05,3.4375,3.625
1.52734375,3.0273242056916103e-05,-0.0001142537990722515,-0.00011278905421225303,8.153931215686269e-05,3.4375,3.625
1.53125,3.271170935225447e-05,-0.00014354869627222097,-0.0001474602308415351,8.300405701686117e-05,3.4375,3.625
1.53515625,3.564119907225142e-05,-0.0001586871672968643,-0.00015526665515220878,7.714507757686727e-05,3.4375,3.625
1.5390625,3.515017664759284e-05,-0.00015331921028152897,-0.0001518544654215305,8.397777945220106e-05,3.4375,3.625
1.54296875,3.271170935225447e-05,-0.00017333461589684904,-0.00017236089346150916,8.544252431219953e-05,3.4375,3.625
1.546875,2.929119720759894e-05,-0.00019530578879682614,-0.0001855435972014954,8.690726917219801e-05,3.4375,3.625
1.55078125,2.8808497196917625e-05,-0.00017821987290150303,-0.0001635724243015183,9.27662486121919e-05,3.4375,3.625
1.5546875,3.466747663691153e-05,-0.00015917818972152286,-0.0001577134448615244,9.423099347219039e-05,3.4375,3.625
1.55859375,2.343221776760505e-05,-0.00016454614673685819,-0.00016308140187685973,0.00010546625234149687,3.4375,3.625
1.5625,1.854696076295105e-05,-0.00014550446355687802,-0.00015575767757686736,9.86252280521858e-05,3.4375,3.625
1.56640625,3.320273177691305e-05,-0.00012206854579690245,-0.00014012818412756546,8.007456729686421e-05,3.4375,3.625
1.5703125,2.929119720759894e-05,-0.00012792752523689633,-0.00012792752523689633,7.958354487220565e-05,3.4375,3.625
1.57421875,1.7082215902952577e-05,-0.00011376277664759293,-0.00012401599066758223,7.910084486152431e-05,3.4375,3.625
1.578125,2.0011705622949528e-05,-9.569481590295264e-05,-9.960635047226676e-05,6.933033085221631e-05,3.4375,3.625
1.58203125,2.4414262616922207e-05,-8.544160188296333e-05,-7.909992243228814e-05,6.103288411688406e-05,3.4375,3.625
1.5859375,2.3923240192263632e-05,-5.4190937398336804e-05,-5.4190937398336804e-05,5.565660468757147e-05,3.4375,3.625
1.58984375,2.8317474772259047e-05,-2.539538503700317e-05,-2.539538503700317e-05,4.150017851224531e-05,3.4375,3.625
1.59375,3.320273177691305e-05,-1.8071660737010797e-05,-2.636910747234306e-05,2.343221776760505e-05,3.4375,3.625
1.59765625,3.6132221496910005e-05,8.29374674296173e-06,-9.765891587701272e-06,1.2205281312275836e-05,3.4375,3.625
1.6015625,2.4896962627603528e-05,3.075594206759741e-05,2.3923240192263632e-05,9.758491602960206e-06,3.4375,3.625
1.60546875,1.9037983187609632e-05,4.393864580758368e-05,3.4176454212252946e-05,8.784769167620312e-06,3.4375,3.625
1.609375,3.1246964492256e-05,5.956813925688559e-05,3.954441122758827e-05,4.873224322880461e-07,3.4375,3.625
1.61328125,2.8808497196917625e-05,6.98213532768749e-05,5.712134954756994e-05,-2.442167287708898e-06,3.4375,3.625
1.6171875,3.075594206759741e-05,6.493609627222091e-05,6.542711869687948e-05,-2.442167287708898e-06,3.4375,3.625
1.62109375,3.906171121690695e-05,6.689186355687795e-05,6.738288598153653e-05,-9.774224277104295e-07,3.4375,3.625
1.625,3.2220686927595894e-05,8.446880187685964e-05,7.225982057221327e-05,2.9257897276264157e-06,3.4375,3.625
1.62890625,3.2220686927595894e-05,8.739829159685658e-05,8.544252431219953e-05,4.873224322880461e-07,3.4375,3.625
1.6328125,3.320273177691305e-05,8.983675889219495e-05,9.667778318150601e-05,4.873224322880461e-07,3.4375,3.625
1.63671875,2.978221963225752e-05,8.739829159685658e-05,9.667778318150601e-05,-1.9594672770275847e-06,3.4375,3.625
1.640625,3.075594206759741e-05,9.569573833218884e-05,8.837201403219648e-05,4.873224322880461e-07,3.4375,3.625
1.64453125,3.173798691691458e-05,0.00010351048505683979,8.983675889219495e-05,1.9520672922865214e-06,3.4375,3.625
1.6484375,3.6132221496910005e-05,9.814252804150447e-05,9.960727290150296e-05,-1.9594672770275847e-06,3.4375,3.625
1.65234375,3.368543178759437e-05,9.911625047684438e-05,9.765150561684592e-05,-8.301146727702797e-06,3.4375,3.625
1.65625,3.0273242056916103e-05,0.00010058099533684284,8.690726917219801e-05,-1.0256914012359849e-05,3.4375,3.625
1.66015625,3.0273242056916103e-05,0.00010253676262149991,9.22835486015106e-05,-7.327424292362902e-06,3.4375,3.625
1.6640625,2.782645234760048e-05,0.00010253676262149991,0.00010058099533684284,-1.9594672770275847e-06,3.4375,3.625
1.66796875,3.0273242056916103e-05,0.00010351048505683979,9.423099347219039e-05,4.873224322880461e-07,3.4375,3.625
1.671875,2.929119720759894e-05,9.325727103685048e-05,9.472201589684897e-05,9.70022442969359e-07,3.4375,3.625
1.67578125,2.587900747692069e-05,9.032778131685353e-05,0.00010546625234149687,-9.774224277104295e-07,3.4375,3.625
1.6796875,2.8808497196917625e-05,9.911625047684438e-05,9.374829346150906e-05,3.416812152284997e-06,3.4375,3.625
1.68359375,3.320273177691305e-05,9.814252804150447e-05,8.495982430151822e-05,1.0740536452277367e-05,3.4375,3.625
1.6875,3.759696635690848e-05,9.423099347219039e-05,0.00010107201776150143,1.317900374761573e-05,3.4375,3.625
1.69140625,3.368543178759437e-05,9.27662486121919e-05,9.667778318150601e-05,1.2687981322957157e-05,3.4375,3.625
1.6953125,2.8317474772259047e-05,9.22835486015106e-05,8.153931215686269e-05,9.758491602960206e-06,3.4375,3.625
1.69921875,2.6361707487602e-05,0.00010204574019684134,8.446880187685964e-05,1.3670026172274312e-05,3.4375,3.625
1.703125,2.587900747692069e-05,0.00010301946263218122,8.886303645685506e-05,1.4643748607614206e-05,3.4375,3.625
1.70703125,2.4896962627603528e-05,9.08188037415121e-05,8.788931402151517e-05,8.29374674296173e-06,3.4375,3.625
1.7109375,2.3923240192263632e-05,8.446880187685964e-05,8.544252431219953e-05,7.811046732280416e-06,3.4375,3.625
1.71484375,2.4896962627603528e-05,8.203033458152127e-05,7.518931029221022e-05,9.758491602960206e-06,3.4375,3.625
1.71875,2.343221776760505e-05,8.10482897322041e-05,7.177712056153195e-05,1.4643748607614206e-05,3.4375,3.625
1.72265625,1.806426075226973e-05,7.56803327168688e-05,7.763610000152586e-05,1.9529005612268207e-05,3.4375,3.625
1.7265625,2.0011705622949528e-05,7.372456543221174e-05,8.056558972152279e-05,1.9037983187609632e-05,3.4375,3.625
1.73046875,2.734375233691915e-05,8.007456729686421e-05,7.470661028152891e-05,2.099375047226668e-05,3.4375,3.625
1.734375,2.6361707487602e-05,8.056558972152279e-05,6.493609627222091e-05,1.5134771032272787e-05,3.4375,3.625
1.73828125,3.075594206759741e-05,7.617135514152738e-05,7.031237570153348e-05,8.784769167620312e-06,3.4375,3.625
1.7421875,3.075594206759741e-05,7.128609813687338e-05,7.079507571221479e-05,9.275791592278892e-06,3.4375,3.625
1.74609375,2.8317474772259047e-05,6.493609627222091e-05,7.225982057221327e-05,1.0249514027618786e-05,3.4375,3.625
1.75,2.3923240192263632e-05,6.396237383688102e-05,8.153931215686269e-05,1.854696076295105e-05,3.4375,3.625
1.75390625,2.4896962627603528e-05,6.493609627222091e-05,7.421558785687033e-05,1.806426075226973e-05,3.4375,3.625
1.7578125,3.0273242056916103e-05,6.444507384756233e-05,6.933033085221631e-05,1.6599515892271263e-05,3.4375,3.625
1.76171875,2.8317474772259047e-05,7.128609813687338e-05,6.591814112153805e-05,1.9037983187609632e-05,3.4375,3.625
1.765625,2.6361707487602e-05,8.056558972152279e-05,6.396237383688102e-05,1.610849346761268e-05,3.4375,3.625
1.76953125,3.1246964492256e-05,8.10482897322041e-05,6.444507384756233e-05,7.320024307621835e-06,3.4375,3.625
1.7734375,2.978221963225752e-05,6.542711869687948e-05,5.956813925688559e-05,1.4152726182955624e-05,3.4375,3.625
1.77734375,3.1246964492256e-05,6.103288411688406e-05,5.761237197222853e-05,1.854696076295105e-05,3.4375,3.625
1.78125,3.0273242056916103e-05,6.542711869687948e-05,6.249762897688253e-05,1.757323832761116e-05,3.4375,3.625
1.78515625,1.757323832761116e-05,5.761237197222853e-05,6.249762897688253e-05,2.099375047226668e-05,3.4375,3.625
1.7890625,2.4896962627603528e-05,5.321813739223311e-05,6.249762897688253e-05,2.2941195342946472e-05,3.4375,3.625
1.79296875,3.515017664759284e-05,5.8586094407568424e-05,6.591814112153805e-05,2.782645234760048e-05,3.4375,3.625
1.796875,3.271170935225447e-05,5.712134954756994e-05,5.712134954756994e-05,2.587900747692069e-05,3.4375,3.625
1.80078125,3.466747663691153e-05,5.517390467689016e-05,5.224441495689322e-05,1.6599515892271263e-05,3.4375,3.625
1.8046875,3.6614921507591315e-05,5.321813739223311e-05,5.419185982757301e-05,1.7082215902952577e-05,3.4375,3.625
1.80859375,3.271170935225447e-05,4.7850180376897796e-05,5.712134954756994e-05,2.099375047226668e-05,3.4375,3.625
1.8125,3.2220686927595894e-05,3.954441122758827e-05,5.419185982757301e-05,2.0011705622949528e-05,3.4375,3.625
1.81640625,3.320273177691305e-05,4.1991200936903894e-05,5.224441495689322e-05,2.6852729912260583e-05,3.4375,3.625
1.8203125,3.515017664759284e-05,4.882390281223769e-05,5.321813739223311e-05,2.8808497196917625e-05,3.4375,3.625
1.82421875,3.466747663691153e-05,4.931492523689627e-05,5.0288647672236166e-05,2.4896962627603528e-05,3.4375,3.625
1.828125,3.0273242056916103e-05,5.4682882252231574e-05,5.321813739223311e-05,2.734375233691915e-05,3.4375,3.625
1.83203125,3.4176454212252946e-05,5.8586094407568424e-05,5.0779670096894744e-05,2.4896962627603528e-05,3.4375,3.625
1.8359375,3.1246964492256e-05,4.931492523689627e-05,4.589441309224074e-05,2.2941195342946472e-05,3.4375,3.625
1.83984375,2.6361707487602e-05,4.393864580758368e-05,5.0779670096894744e-05,2.734375233691915e-05,3.4375,3.625
1.84375,4.003543365224685e-05,5.8103394396887107e-05,6.200660655222395e-05,2.538798505226211e-05,3.4375,3.625
1.84765625,4.345594579690237e-05,7.128609813687338e-05,7.324186542153043e-05,1.9529005612268207e-05,3.4375,3.625
1.8515625,2.6361707487602e-05,5.126237010757606e-05,5.3709159816891685e-05,2.8317474772259047e-05,3.4375,3.625
1.85546875,2.3923240192263632e-05,2.8808497196917625e-05,3.4176454212252946e-05,4.003543365224685e-05,3.4375,3.625
1.859375,3.564119907225142e-05,4.686813552758063e-05,5.956813925688559e-05,4.150017851224531e-05,3.4375,3.625
1.86328125,3.271170935225447e-05,5.517390467689016e-05,6.835660841687642e-05,4.6385435516899315e-05,3.4375,3.625
1.8671875,2.343221776760505e-05,4.1991200936903894e-05,5.712134954756994e-05,5.9077116832227e-05,3.4375,3.625
1.87109375,2.4414262616922207e-05,4.393864580758368e-05,6.835660841687642e-05,7.763610000152586e-05,3.4375,3.625
1.875,2.6361707487602e-05,5.3709159816891685e-05,7.421558785687033e-05,8.690726917219801e-05,3.4375,3.625
1.87890625,2.6852729912260583e-05,5.8586094407568424e-05,7.910084486152431e-05,8.886303645685506e-05,3.4375,3.625
1.8828125,2.587900747692069e-05,6.347135141222243e-05,8.397777945220106e-05,9.618676075684743e-05,3.4375,3.625
1.88671875,2.3923240192263632e-05,6.933033085221631e-05,8.886303645685506e-05,0.00010008997291218428,3.4375,3.625
1.890625,1.854696076295105e-05,6.200660655222395e-05,8.544252431219953e-05,0.0001044842074921797,3.4375,3.625
1.89453125,1.4643748607614206e-05,6.151558412756538e-05,8.397777945220106e-05,0.00011035150934615086,3.4375,3.625
1.8984375,1.2687981322957157e-05,6.689186355687795e-05,9.618676075684743e-05,0.00011229895421683065,3.4375,3.625
1.90234375,1.6599515892271263e-05,6.591814112153805e-05,9.130150375219344e-05,0.00011278997664148923,3.4375,3.625
1.90625,1.56174710429541e-05,7.421558785687033e-05,9.716048319218734e-05,0.00011669318879682606,3.4375,3.625
1.91015625,1.7082215902952577e-05,8.593354673685812e-05,0.0001088867644861524,0.00011425472150148769,3.4375,3.625
1.9140625,2.1967472907606577e-05,8.251303459220258e-05,0.00010693099720149532,0.00010643997477683674,3.4375,3.625
1.91796875,2.6361707487602e-05,6.786558599221785e-05,9.765150561684592e-05,9.86252280521858e-05,3.4375,3.625
1.921875,2.8808497196917625e-05,6.835660841687642e-05,8.690726917219801e-05,9.472201589684897e-05,3.4375,3.625
1.92578125,2.099375047226668e-05,6.298032898756385e-05,8.397777945220106e-05,8.935405888151365e-05,3.4375,3.625
1.9296875,2.1476450482947995e-05,6.347135141222243e-05,8.788931402151517e-05,8.300405701686117e-05,3.4375,3.625
1.93359375,2.4896962627603528e-05,6.8847630841535e-05,9.374829346150906e-05,7.910084486152431e-05,3.4375,3.625
1.9375,2.1476450482947995e-05,5.419185982757301e-05,8.64245691615167e-05,8.153931215686269e-05,3.4375,3.625
1.94140625,2.05027280476081e-05,6.00508392675669e-05,7.665405515220869e-05,8.446880187685964e-05,3.4375,3.625
1.9453125,1.9529005612268207e-05,6.640084113221938e-05,7.910084486152431e-05,7.470661028152891e-05,3.4375,3.625
1.94921875,2.05027280476081e-05,6.151558412756538e-05,8.349507944151974e-05,7.518931029221022e-05,3.4375,3.625
1.953125,2.099375047226668e-05,6.396237383688102e-05,8.64245691615167e-05,8.64245691615167e-05,3.4375,3.625
1.95703125,1.317900374761573e-05,4.979762524757758e-05,7.763610000152586e-05,7.518931029221022e-05,3.4375,3.625
1.9609375,1.7082215902952577e-05,4.931492523689627e-05,7.225982057221327e-05,5.956813925688559e-05,3.4375,3.625
1.96484375,2.538798505226211e-05,5.8103394396887107e-05,7.079507571221479e-05,6.396237383688102e-05,3.4375,3.625
1.96875,2.6361707487602e-05,5.2727114967574535e-05,7.225982057221327e-05,7.177712056153195e-05,3.4375,3.625
1.97265625,2.4896962627603528e-05,4.979762524757758e-05,6.396237383688102e-05,6.298032898756385e-05,3.4375,3.625
1.9765625,2.587900747692069e-05,4.6385435516899315e-05,6.151558412756538e-05,5.6147627112230054e-05,3.4375,3.625
1.98046875,3.173798691691458e-05,4.6385435516899315e-05,6.689186355687795e-05,5.8103394396887107e-05,3.4375,3.625
1.984375,3.0273242056916103e-05,4.7850180376897796e-05,6.493609627222091e-05,6.103288411688406e-05,3.4375,3.625
1.98828125,2.6361707487602e-05,5.419185982757301e-05,6.786558599221785e-05,6.98213532768749e-05,3.4375,3.625
1.9921875,2.734375233691915e-05,5.956813925688559e-05,6.640084113221938e-05,6.103288411688406e-05,3.4375,3.625
1.99609375,2.538798505226211e-05,4.442966823224226e-05,5.3709159816891685e-05,5.3709159816891685e-05,3.4375,3.625
2.0,2.2941195342946472e-05,4.2473900947585204e-05,5.712134954756994e-05,6.00508392675669e-05,3.4375,3.625
2.00390625,2.2941195342946472e-05,4.882390281223769e-05,5.956813925688559e-05,5.761237197222853e-05,3.4375,3.625
2.0078125,2.4896962627603528e-05,5.175339253223464e-05,5.321813739223311e-05,5.8103394396887107e-05,3.4375,3.625
2.01171875,2.538798505226211e-05,4.492069065690084e-05,4.492069065690084e-05,4.979762524757758e-05,3.4375,3.625
2.015625,2.538798505226211e-05,4.296492337224379e-05,4.345594579690237e-05,4.492069065690084e-05,3.4375,3.625
2.01953125,2.734375233691915e-05,4.735915795223921e-05,4.882390281223769e-05,4.589441309224074e-05,3.4375,3.625
2.0234375,3.0273242056916103e-05,3.906171121690695e-05,4.589441309224074e-05,4.589441309224074e-05,3.4375,3.625
2.02734375,2.978221963225752e-05,4.052645607690542e-05,4.492069065690084e-05,4.7850180376897796e-05,3.4375,3.625
2.03125,3.075594206759741e-05,4.7850180376897796e-05,4.7850180376897796e-05,4.345594579690237e-05,3.4375,3.625
2.03515625,2.8317474772259047e-05,3.759696635690848e-05,3.759696635690848e-05,4.442966823224226e-05,3.4375,3.625
2.0390625,2.4896962627603528e-05,3.1246964492256e-05,3.71059439322499e-05,4.686813552758063e-05,3.4375,3.625
2.04296875,3.564119907225142e-05,5.761237197222853e-05,5.419185982757301e-05,4.442966823224226e-05,3.4375,3.625
2.046875,3.8570688792248374e-05,7.128609813687338e-05,5.8103394396887107e-05,4.345594579690237e-05,3.4375,3.625
2.05078125,3.0273242056916103e-05,4.296492337224379e-05,3.954441122758827e-05,4.345594579690237e-05,3.4375,3.625
2.0546875,2.6361707487602e-05,3.2220686927595894e-05,3.271170935225447e-05,5.126237010757606e-05,3.4375,3.625
2.05859375,2.538798505226211e-05,4.540339066758216e-05,4.442966823224226e-05,6.249762897688253e-05,3.4375,3.625
2.0625,2.3923240192263632e-05,4.979762524757758e-05,5.3709159816891685e-05,6.689186355687795e-05,3.4375,3.625
2.06640625,2.4414262616922207e-05,5.9077116832227e-05,6.298032898756385e-05,6.933033085221631e-05,3.4375,3.625
2.0703125,2.2941195342946472e-05,5.419185982757301e-05,6.933033085221631e-05,7.079507571221479e-05,3.4375,3.625
2.07421875,1.9529005612268207e-05,5.3709159816891685e-05,6.200660655222395e-05,6.8847630841535e-05,3.4375,3.625
2.078125,2.099375047226668e-05,6.444507384756233e-05,6.0541861692225476e-05,6.542711869687948e-05,3.4375,3.625
2.08203125,1.9037983187609632e-05,5.517390467689016e-05,6.00508392675669e-05,6.00508392675669e-05,3.4375,3.625
2.0859375,2.0011705622949528e-05,4.003543365224685e-05,5.4682882252231574e-05,5.565660468757147e-05,3.4375,3.625
2.08984375,2.05027280476081e-05,3.368543178759437e-05,5.126237010757606e-05,5.517390467689016e-05,3.4375,3.625
2.09375,2.245849533226516e-05,3.8570688792248374e-05,4.979762524757758e-05,5.419185982757301e-05,3.4375,3.625
2.09765625,2.587900747692069e-05,3.6132221496910005e-05,4.442966823224226e-05,4.979762524757758e-05,3.4375,3.625
2.1015625,2.587900747692069e-05,4.150017851224531e-05,4.1009156087586744e-05,4.8332880387579107e-05,3.4375,3.625
2.10546875,2.538798505226211e-05,4.735915795223921e-05,4.686813552758063e-05,4.492069065690084e-05,3.4375,3.625
2.109375,2.1476450482947995e-05,4.345594579690237e-05,5.175339253223464e-05,4.589441309224074e-05,3.4375,3.625
2.11328125,2.4414262616922207e-05,4.003543365224685e-05,4.735915795223921e-05,4.686813552758063e-05,3.4375,3.625
2.1171875,3.1246964492256e-05,4.296492337224379e-05,4.296492337224379e-05,4.1991200936903894e-05,3.4375,3.625
2.12109375,2.8317474772259047e-05,4.540339066758216e-05,4.150017851224531e-05,3.759696635690848e-05,3.4375,3.625
2.125,2.734375233691915e-05,4.296492337224379e-05,5.0779670096894744e-05,3.368543178759437e-05,3.4375,3.625
2.12890625,2.782645234760048e-05,3.71059439322499e-05,4.931492523689627e-05,3.466747663691153e-05,3.4375,3.625
2.1328125,2.8808497196917625e-05,3.6132221496910005e-05,3.466747663691153e-05,3.320273177691305e-05,3.4375,3.625
2.13671875,2.8808497196917625e-05,4.735915795223921e-05,3.4176454212252946e-05,2.978221963225752e-05,3.4375,3.625
2.140625,2.1967472907606577e-05,4.6385435516899315e-05,4.296492337224379e-05,3.320273177691305e-05,3.4375,3.625
2.14453125,2.099375047226668e-05,4.8332880387579107e-05,4.492069065690084e-05,3.0273242056916103e-05,3.4375,3.625
2.1484375,2.538798505226211e-05,5.419185982757301e-05,4.931492523689627e-05,3.368543178759437e-05,3.4375,3.625
2.15234375,2.8317474772259047e-05,4.1009156087586744e-05,5.321813739223311e-05,4.540339066758216e-05,3.4375,3.625
2.15625,3.368543178759437e-05,4.492069065690084e-05,5.9077116832227e-05,4.296492337224379e-05,3.4375,3.625
2.16015625,2.8808497196917625e-05,4.686813552758063e-05,5.663864953688863e-05,3.271170935225447e-05,3.4375,3.625
2.1640625,2.587900747692069e-05,4.686813552758063e-05,3.4176454212252946e-05,3.6132221496910005e-05,3.4375,3.625
2.16796875,3.173798691691458e-05,4.540339066758216e-05,3.2220686927595894e-05,3.954441122758827e-05,3.4375,3.625
2.171875,3.2220686927595894e-05,4.6385435516899315e-05,3.8570688792248374e-05,3.4176454212252946e-05,3.4375,3.625
2.17578125,3.075594206759741e-05,5.224441495689322e-05,3.8079666367589796e-05,3.466747663691153e-05,3.4375,3.625
2.1796875,2.8808497196917625e-05,3.954441122758827e-05,3.564119907225142e-05,2.978221963225752e-05,3.4375,3.625
2.18359375,3.0273242056916103e-05,3.71059439322499e-05,4.003543365224685e-05,3.466747663691153e-05,3.4375,3.625
2.1875,3.271170935225447e-05,4.686813552758063e-05,4.1991200936903894e-05,4.686813552758063e-05,3.4375,3.625
2.19140625,3.173798691691458e-05,4.882390281223769e-05,3.8079666367589796e-05,3.71059439322499e-05,3.4375,3.625
2.1953125,3.4176454212252946e-05,3.906171121690695e-05,3.1246964492256e-05,2.343221776760505e-05,3.4375,3.625
2.19921875,3.515017664759284e-05,3.466747663691153e-05,3.564119907225142e-05,2.6361707487602e-05,3.4375,3.625
2.203125,3.0273242056916103e-05,3.906171121690695e-05,4.735915795223921e-05,3.466747663691153e-05,3.4375,3.625
2.20703125,2.978221963225752e-05,3.1246964492256e-05,4.2473900947585204e-05,3.173798691691458e-05,3.4375,3.625
2.2109375,3.515017664759284e-05,3.271170935225447e-05,4.735915795223921e-05,2.05027280476081e-05,3.4375,3.625
2.21484375,2.782645234760048e-05,3.954441122758827e-05,5.3709159816891685e-05,2.2941195342946472e-05,3.4375,3.625
2.21875,2.05027280476081e-05,2.782645234760048e-05,2.8317474772259047e-05,3.320273177691305e-05,3.4375,3.625
2.22265625,2.3923240192263632e-05,2.8808497196917625e-05,2.4414262616922207e-05,3.515017664759284e-05,3.4375,3.625
2.2265625,2.6361707487602e-05,3.71059439322499e-05,4.492069065690084e-05,3.515017664759284e-05,3.4375,3.625
2.23046875,2.538798505226211e-05,2.8808497196917625e-05,4.052645607690542e-05,3.906171121690695e-05,3.4375,3.625
2.234375,2.1967472907606577e-05,2.782645234760048e-05,3.320273177691305e-05,3.71059439322499e-05,3.4375,3.625
2.23828125,2.2941195342946472e-05,3.759696635690848e-05,4.296492337224379e-05,3.0273242056916103e-05,3.4375,3.625
2.2421875,2.4896962627603528e-05,4.931492523689627e-05,4.1009156087586744e-05,3.4176454212252946e-05,3.4375,3.625
2.24609375,1.757323832761116e-05,3.271170935225447e-05,3.466747663691153e-05,4.589441309224074e-05,3.4375,3.625
2.25,1.9037983187609632e-05,1.854696076295105e-05,2.929119720759894e-05,4.296492337224379e-05,3.4375,3.625
2.25390625,2.6361707487602e-05,2.4896962627603528e-05,3.075594206759741e-05,3.515017664759284e-05,3.4375,3.625
2.2578125,2.782645234760048e-05,3.0273242056916103e-05,4.052645607690542e-05,3.759696635690848e-05,3.4375,3.625
2.26171875,2.8808497196917625e-05,2.734375233691915e-05,4.150017851224531e-05,4.1009156087586744e-05,3.4375,3.625
2.265625,2.782645234760048e-05,2.8317474772259047e-05,4.052645607690542e-05,3.906171121690695e-05,3.4375,3.625
2.26953125,2.538798505226211e-05,2.978221963225752e-05,3.71059439322499e-05,3.906171121690695e-05,3.4375,3.625
2.2734375,2.8808497196917625e-05,2.2941195342946472e-05,3.466747663691153e-05,3.6132221496910005e-05,3.4375,3.625
2.27734375,2.929119720759894e-05,2.587900747692069e-05,3.271170935225447e-05,3.1246964492256e-05,3.4375,3.625
2.28125,2.6852729912260583e-05,2.8808497196917625e-05,3.759696635690848e-05,3.368543178759437e-05,3.4375,3.625
2.28515625,2.587900747692069e-05,3.515017664759284e-05,3.466747663691153e-05,3.8079666367589796e-05,3.4375,3.625
2.2890625,2.4414262616922207e-05,3.320273177691305e-05,3.2220686927595894e-05,4.1009156087586744e-05,3.4375,3.625
2.29296875,3.0273242056916103e-05,4.931492523689627e-05,4.052645607690542e-05,4.003543365224685e-05,3.4375,3.625
2.296875,2.782645234760048e-05,4.345594579690237e-05,4.1991200936903894e-05,3.954441122758827e-05,3.4375,3.625
2.30078125,2.1476450482947995e-05,2.343221776760505e-05,4.150017851224531e-05,3.759696635690848e-05,3.4375,3.625
2.3046875,2.8808497196917625e-05,3.271170935225447e-05,4.1009156087586744e-05,3.6132221496910005e-05,3.4375,3.625
2.30859375,3.1246964492256e-05,3.6614921507591315e-05,3.71059439322499e-05,3.466747663691153e-05,3.4375,3.625
2.3125,2.734375233691915e-05,2.734375233691915e-05,3.954441122758827e-05,3.271170935225447e-05,3.4375,3.625
2.31640625,2.4896962627603528e-05,1.9529005612268207e-05,3.515017664759284e-05,3.2220686927595894e-05,3.4375,3.625
2.3203125,2.1476450482947995e-05,2.343221776760505e-05,2.734375233691915e-05,3.320273177691305e-05,3.4375,3.625
2.32421875,2.2941195342946472e-05,2.6852729912260583e-05,2.8317474772259047e-05,3.4176454212252946e-05,3.4375,3.625
2.328125,2.6361707487602e-05,2.929119720759894e-05,3.4176454212252946e-05,3.271170935225447e-05,3.4375,3.625
2.33203125,2.6361707487602e-05,2.4896962627603528e-05,3.075594206759741e-05,2.4414262616922207e-05,3.4375,3.625
2.3359375,2.8317474772259047e-05,2.8317474772259047e-05,2.6361707487602e-05,2.245849533226516e-05,3.4375,3.625
2.33984375,2.978221963225752e-05,2.3923240192263632e-05,3.0273242056916103e-05,3.173798691691458e-05,3.4375,3.625
2.34375,2.8317474772259047e-05,3.6614921507591315e-05,2.8808497196917625e-05,3.0273242056916103e-05,3.4375,3.625
2.34765625,2.4896962627603528e-05,5.712134954756994e-05,3.759696635690848e-05,2.6361707487602e-05,3.4375,3.625
2.3515625,2.6361707487602e-05,3.271170935225447e-05,3.906171121690695e-05,3.075594206759741e-05,3.4375,3.625
2.35546875,3.173798691691458e-05,1.757323832761116e-05,2.8808497196917625e-05,2.8808497196917625e-05,3.4375,3.625
2.359375,3.515017664759284e-05,2.1967472907606577e-05,2.782645234760048e-05,2.4414262616922207e-05,3.4375,3.625
2.36328125,3.6132221496910005e-05,2.734375233691915e-05,3.320273177691305e-05,2.734375233691915e-05,3.4375,3.625
2.3671875,4.052645607690542e-05,3.71059439322499e-05,3.564119907225142e-05,2.6361707487602e-05,3.4375,3.625
2.37109375,4.1991200936903894e-05,3.271170935225447e-05,3.173798691691458e-05,3.1246964492256e-05,3.4375,3.625
2.375,3.6614921507591315e-05,2.8317474772259047e-05,2.587900747692069e-05,3.759696635690848e-05,3.4375,3.625
2.37890625,3.4176454212252946e-05,2.6852729912260583e-05,2.538798505226211e-05,3.173798691691458e-05,3.4375,3.625
2.3828125,3.320273177691305e-05,2.538798505226211e-05,2.4896962627603528e-05,2.782645234760048e-05,3.4375,3.625
2.38671875,2.929119720759894e-05,2.734375233691915e-05,2.8808497196917625e-05,2.3923240192263632e-05,3.4375,3.625
2.390625,2.929119720759894e-05,2.3923240192263632e-05,2.3923240192263632e-05,2.245849533226516e-05,3.4375,3.625
2.39453125,2.929119720759894e-05,2.1967472907606577e-05,2.4896962627603528e-05,2.6852729912260583e-05,3.4375,3.625
2.3984375,2.929119720759894e-05,2.6852729912260583e-05,3.320273177691305e-05,2.3923240192263632e-05,3.4375,3.625
2.40234375,2.929119720759894e-05,1.854696076295105e-05,2.978221963225752e-05,2.782645234760048e-05,3.4375,3.625
2.40625,2.4414262616922207e-05,2.0011705622949528e-05,2.734375233691915e-05,2.6852729912260583e-05,3.4375,3.625
2.41015625,3.173798691691458e-05,2.538798505226211e-05,2.587900747692069e-05,2.6361707487602e-05,3.4375,3.625
2.4140625,3.271170935225447e-05,1.7082215902952577e-05,2.782645234760048e-05,3.6614921507591315e-05,3.4375,3.625
2.41796875,2.0011705622949528e-05,3.466747663691153e-05,4.150017851224531e-05,4.150017851224531e-05,3.4375,3.625
2.421875,2.8317474772259047e-05,6.0541861692225476e-05,5.175339253223464e-05,3.6614921507591315e-05,3.4375,3.625
2.42578125,4.003543365224685e-05,3.759696635690848e-05,2.3923240192263632e-05,2.978221963225752e-05,3.4375,3.625
2.4296875,3.368543178759437e-05,-1.4684448523690036e-06,-2.4421662601663274e-05,3.271170935225447e-05,3.4375,3.625
2.43359375,3.6132221496910005e-05,-2.246589531700622e-05,-4.735823552300301e-05,3.2220686927595894e-05,3.4375,3.625
2.4375,3.954441122758827e-05,-5.810247196765091e-05,-6.786466356298165e-05,2.05027280476081e-05,3.4375,3.625
2.44140625,4.589441309224074e-05,-9.374737103227287e-05,-0.00010449160747692076,1.806426075226973e-05,3.4375,3.625
2.4453125,6.298032898756385e-05,-0.00011718328879224844,-0.00014257497383688108,2.734375233691915e-05,3.4375,3.625
2.44921875,7.031237570153348e-05,-0.00014501344113221945,-0.00017333461589684904,2.245849533226516e-05,3.4375,3.625
2.453125,6.933033085221631e-05,-0.000171378848612192,-0.00020409425795681697,1.1223236462958681e-05,3.4375,3.625
2.45703125,7.665405515220869e-05,-0.00020068206822613873,-0.00023241543272144657,1.4643748607614206e-05,3.4375,3.625
2.4609375,8.251303459220258e-05,-0.00023241543272144657,-0.000269525076646067,7.811046732280416e-06,3.4375,3.625
2.46484375,7.714507757686727e-05,-0.00023779171215075915,-0.00028612829253070877,3.89951216296631e-06,3.4375,3.625
2.46875,7.372456543221174e-05,-0.00023876543458609904,-0.0002846635476707103,3.89951216296631e-06,3.4375,3.625
2.47265625,7.665405515220869e-05,-0.0002582981401907378,-0.0003056609981353475,-1.1230636447699744e-05,3.4375,3.625
2.4765625,7.763610000152586e-05,-0.00025390390561074236,-0.000312011,-8.301146727702797e-06,3.4375,3.625
2.48046875,7.470661028152891e-05,-0.00023437120000610362,-0.00029491676169069966,-9.283191577019955e-06,3.4375,3.625
2.484375,7.128609813687338e-05,-0.00023632696729076067,-0.00028856675982604716,-1.856268316166938e-05,3.4375,3.625
2.48828125,7.470661028152891e-05,-0.00023339747757076374,-0.0002890577822507057,-2.735115232166022e-05,3.4375,3.625
2.4921875,7.470661028152891e-05,-0.00021483849440146488,-0.00027684880094605937,-3.662232149233238e-05,3.4375,3.625
2.49609375,7.617135514152738e-05,-0.00018896410934615094,-0.00024755390374608987,-3.808706635233086e-05,3.4375,3.625
2.5,6.835660841687642e-05,-0.00016796665888151372,-0.0002290032429907683,-3.808706635233086e-05,3.4375,3.625
2.50390625,6.396237383688102e-05,-0.0001596608897322042,-0.00022558273084611276,-3.613962148165107e-05,3.4375,3.625
2.5078125,6.103288411688406e-05,-0.0001518544654215305,-0.00020262951309681852,-4.6867213098344435e-05,3.4375,3.625
2.51171875,5.712134954756994e-05,-0.00013964548411688415,-0.00017919359533684294,-4.9314002807660065e-05,3.4375,3.625
2.515625,6.444507384756233e-05,-0.0001308570149568933,-0.0001655198691721981,-4.345502336766617e-05,3.4375,3.625
2.51953125,6.8847630841535e-05,-0.0001093685420675975,-0.00013964548411688415,-4.9314002807660065e-05,3.4375,3.625
2.5234375,6.591814112153805e-05,-7.031145327229728e-05,-0.00011815701122758833,-4.540246823834596e-05,3.4375,3.625
2.52734375,6.103288411688406e-05,-4.78492579476616e-05,-9.715956076295113e-05,-4.296400094300759e-05,3.4375,3.625
2.53125,5.6147627112230054e-05,-3.125436447699707e-05,-7.324094299229423e-05,-4.540246823834596e-05,3.4375,3.625
2.53515625,5.126237010757606e-05,-2.7833852332341535e-05,-5.1752470102998435e-05,-5.077874766765854e-05,3.4375,3.625
2.5390625,4.589441309224074e-05,-1.9045383172350692e-05,-3.7113343916990964e-05,-5.321721496299691e-05,3.4375,3.625
2.54296875,4.589441309224074e-05,3.89951216296631e-06,-2.8815897181658696e-05,-4.9314002807660065e-05,3.4375,3.625
2.546875,4.979762524757758e-05,1.4643748607614206e-05,-1.269538130769822e-05,-5.370823738765549e-05,3.4375,3.625
2.55078125,4.8332880387579107e-05,1.9037983187609632e-05,6.346301872281941e-06,-5.126144767833986e-05,3.4375,3.625
2.5546875,4.492069065690084e-05,2.8808497196917625e-05,1.4152726182955624e-05,-4.78492579476616e-05,3.4375,3.625
2.55859375,4.540339066758216e-05,3.71059439322499e-05,1.806426075226973e-05,-4.589349066300454e-05,3.4375,3.625
2.5625,4.442966823224226e-05,4.589441309224074e-05,2.538798505226211e-05,-3.906911120164801e-05,3.4375,3.625
2.56640625,4.2473900947585204e-05,4.979762524757758e-05,3.4176454212252946e-05,-3.7113343916990964e-05,3.4375,3.625
2.5703125,4.296492337224379e-05,5.956813925688559e-05,4.393864580758368e-05,-3.418385419699401e-05,3.4375,3.625
2.57421875,3.6132221496910005e-05,7.324186542153043e-05,4.735915795223921e-05,-3.028064204165717e-05,3.4375,3.625
2.578125,3.173798691691458e-05,5.761237197222853e-05,4.540339066758216e-05,-2.5886407461661744e-05,3.4375,3.625
2.58203125,2.929119720759894e-05,4.345594579690237e-05,5.0779670096894744e-05,-2.3439617752346114e-05,3.4375,3.625
2.5859375,3.271170935225447e-05,5.8103394396887107e-05,6.103288411688406e-05,-1.708961588769364e-05,3.4375,3.625
2.58984375,3.173798691691458e-05,6.98213532768749e-05,7.079507571221479e-05,-1.5624871027695166e-05,3.4375,3.625
2.59375,2.4414262616922207e-05,7.177712056153195e-05,7.031237570153348e-05,-2.1492172881666326e-05,3.4375,3.625
2.59765625,3.173798691691458e-05,6.542711869687948e-05,5.8586094407568424e-05,-2.197487289234764e-05,3.4375,3.625
2.6015625,3.759696635690848e-05,7.860982243686575e-05,5.8586094407568424e-05,-1.9045383172350692e-05,3.4375,3.625
2.60546875,3.368543178759437e-05,9.179252617685201e-05,6.98213532768749e-05,-1.514217101701385e-05,3.4375,3.625
2.609375,2.587900747692069e-05,7.617135514152738e-05,7.470661028152891e-05,-1.3186403732356797e-05,3.4375,3.625
2.61328125,2.4414262616922207e-05,7.518931029221022e-05,7.128609813687338e-05,-1.6606915877012326e-05,3.4375,3.625
2.6171875,3.2220686927595894e-05,8.397777945220106e-05,7.470661028152891e-05,-1.074793643701843e-05,3.4375,3.625
2.62109375,3.466747663691153e-05,8.544252431219953e-05,8.251303459220258e-05,-1.4684448523690036e-06,3.4375,3.625
2.625,3.0273242056916103e-05,7.958354487220565e-05,8.446880187685964e-05,4.873224322880461e-07,3.4375,3.625
2.62890625,3.173798691691458e-05,7.958354487220565e-05,8.64245691615167e-05,5.3642570229647856e-06,3.4375,3.625
2.6328125,3.2220686927595894e-05,8.446880187685964e-05,9.22835486015106e-05,4.390534587624892e-06,3.4375,3.625
2.63671875,3.0273242056916103e-05,7.372456543221174e-05,8.739829159685658e-05,4.390534587624892e-06,3.4375,3.625
2.640625,2.734375233691915e-05,8.10482897322041e-05,8.153931215686269e-05,1.0249514027618786e-05,3.4375,3.625
2.64453125,2.8808497196917625e-05,9.325727103685048e-05,8.153931215686269e-05,8.784769167620312e-06,3.4375,3.625
2.6484375,3.075594206759741e-05,8.64245691615167e-05,8.056558972152279e-05,7.811046732280416e-06,3.4375,3.625
2.65234375,2.6361707487602e-05,7.665405515220869e-05,8.007456729686421e-05,1.2687981322957157e-05,3.4375,3.625
2.65625,2.4896962627603528e-05,8.10482897322041e-05,8.056558972152279e-05,1.56174710429541e-05,3.4375,3.625
2.66015625,2.8808497196917625e-05,8.983675889219495e-05,8.251303459220258e-05,1.4643748607614206e-05,3.4375,3.625
2.6640625,3.0273242056916103e-05,7.518931029221022e-05,8.64245691615167e-05,1.4152726182955624e-05,3.4375,3.625
2.66796875,2.4414262616922207e-05,7.225982057221327e-05,7.811880001220717e-05,9.758491602960206e-06,3.4375,3.625
2.671875,2.3923240192263632e-05,8.203033458152127e-05,7.470661028152891e-05,8.784769167620312e-06,3.4375,3.625
2.67578125,2.734375233691915e-05,7.079507571221479e-05,7.811880001220717e-05,1.1714258887617261e-05,3.4375,3.625
2.6796875,2.4896962627603528e-05,6.0541861692225476e-05,6.8847630841535e-05,1.1223236462958681e-05,3.4375,3.625
2.68359375,2.245849533226516e-05,6.444507384756233e-05,6.8847630841535e-05,1.3670026172274312e-05,3.4375,3.625
2.6875,3.075594206759741e-05,7.763610000152586e-05,7.617135514152738e-05,1.610849346761268e-05,3.4375,3.625
2.69140625,2.929119720759894e-05,8.739829159685658e-05,7.079507571221479e-05,1.2205281312275836e-05,3.4375,3.625
2.6953125,2.587900747692069e-05,6.835660841687642e-05,6.396237383688102e-05,7.811046732280416e-06,3.4375,3.625
2.69921875,3.0273242056916103e-05,5.8103394396887107e-05,6.542711869687948e-05,1.2205281312275836e-05,3.4375,3.625
2.703125,1.854696076295105e-05,5.712134954756994e-05,7.275084299687185e-05,1.4152726182955624e-05,3.4375,3.625
2.70703125,1.5134771032272787e-05,5.321813739223311e-05,5.8103394396887107e-05,1.2687981322957157e-05,3.4375,3.625
2.7109375,2.4896962627603528e-05,4.492069065690084e-05,4.7850180376897796e-05,1.9037983187609632e-05,3.4375,3.625
2.71484375,3.0273242056916103e-05,4.393864580758368e-05,6.00508392675669e-05,2.05027280476081e-05,3.4375,3.625
2.71875,2.4896962627603528e-05,4.6385435516899315e-05,5.3709159816891685e-05,1.9529005612268207e-05,3.4375,3.625
2.72265625,2.3923240192263632e-05,4.1991200936903894e-05,5.126237010757606e-05,1.2205281312275836e-05,3.4375,3.625
2.7265625,2.929119720759894e-05,4.442966823224226e-05,5.565660468757147e-05,1.3670026172274312e-05,3.4375,3.625
2.73046875,2.6852729912260583e-05,4.003543365224685e-05,5.126237010757606e-05,2.343221776760505e-05,3.4375,3.625
2.734375,2.05027280476081e-05,4.686813552758063e-05,5.0288647672236166e-05,1.854696076295105e-05,3.4375,3.625
2.73828125,2.343221776760505e-05,6.00508392675669e-05,5.3709159816891685e-05,2.05027280476081e-05,3.4375,3.625
2.7421875,3.515017664759284e-05,5.565660468757147e-05,5.517390467689016e-05,2.1967472907606577e-05,3.4375,3.625
2.74609375,3.2220686927595894e-05,6.151558412756538e-05,5.126237010757606e-05,2.1967472907606577e-05,3.4375,3.625
2.75,2.6852729912260583e-05,6.200660655222395e-05,5.6147627112230054e-05,2.6361707487602e-05,3.4375,3.625
2.75390625,2.099375047226668e-05,4.735915795223921e-05,5.956813925688559e-05,3.1246964492256e-05,3.4375,3.625
2.7578125,1.854696076295105e-05,4.345594579690237e-05,5.419185982757301e-05,3.368543178759437e-05,3.4375,3.625
2.76171875,2.4414262616922207e-05,4.1991200936903894e-05,4.6385435516899315e-05,3.1246964492256e-05,3.4375,3.625
2.765625,3.1246964492256e-05,4.1009156087586744e-05,4.931492523689627e-05,2.978221963225752e-05,3.4375,3.625
2.76953125,3.466747663691153e-05,4.2473900947585204e-05,4.979762524757758e-05,3.075594206759741e-05,3.4375,3.625
2.7734375,3.515017664759284e-05,5.517390467689016e-05,4.540339066758216e-05,2.1476450482947995e-05,3.4375,3.625
2.77734375,3.466747663691153e-05,5.2727114967574535e-05,4.296492337224379e-05,1.757323832761116e-05,3.4375,3.625
2.78125,3.1246964492256e-05,3.515017664759284e-05,4.296492337224379e-05,2.4896962627603528e-05,3.4375,3.625
2.78515625,3.320273177691305e-05,4.345594579690237e-05,4.735915795223921e-05,2.6361707487602e-05,3.4375,3.625
2.7890625,2.6852729912260583e-05,5.126237010757606e-05,4.735915795223921e-05,2.538798505226211e-05,3.4375,3.625
2.79296875,2.929119720759894e-05,5.517390467689016e-05,4.1991200936903894e-05,2.2941195342946472e-05,3.4375,3.625
2.796875,3.6132221496910005e-05,5.761237197222853e-05,4.1009156087586744e-05,2.2941195342946472e-05,3.4375,3.625
2.80078125,3.2220686927595894e-05,4.442966823224226e-05,4.6385435516899315e-05,2.3923240192263632e-05,3.4375,3.625
2.8046875,2.929119720759894e-05,4.492069065690084e-05,4.442966823224226e-05,2.929119720759894e-05,3.4375,3.625
2.80859375,3.173798691691458e-05,5.9077116832227e-05,4.735915795223921e-05,2.929119720759894e-05,3.4375,3.625
2.8125,3.4176454212252946e-05,4.931492523689627e-05,4.979762524757758e-05,2.734375233691915e-05,3.4375,3.625
2.81640625,3.2220686927595894e-05,3.6132221496910005e-05,4.540339066758216e-05,1.9529005612268207e-05,3.4375,3.625
2.8203125,2.6361707487602e-05,3.320273177691305e-05,4.442966823224226e-05,1.610849346761268e-05,3.4375,3.625
2.82421875,2.4414262616922207e-05,3.954441122758827e-05,4.1009156087586744e-05,1.9037983187609632e-05,3.4375,3.625
2.828125,2.2941195342946472e-05,4.979762524757758e-05,4.7850180376897796e-05,1.806426075226973e-05,3.4375,3.625
2.83203125,2.734375233691915e-05,5.3709159816891685e-05,5.2727114967574535e-05,2.1967472907606577e-05,3.4375,3.625
2.8359375,3.4176454212252946e-05,4.7850180376897796e-05,4.003543365224685e-05,1.854696076295105e-05,3.4375,3.625
2.83984375,3.6132221496910005e-05,3.564119907225142e-05,2.587900747692069e-05,1.4152726182955624e-05,3.4375,3.625
2.84375,3.71059439322499e-05,4.6385435516899315e-05,3.368543178759437e-05,2.099375047226668e-05,3.4375,3.625
2.84765625,3.368543178759437e-05,5.6147627112230054e-05,4.589441309224074e-05,2.099375047226668e-05,3.4375,3.625
2.8515625,3.2220686927595894e-05,4.1009156087586744e-05,4.003543365224685e-05,1.610849346761268e-05,3.4375,3.625
2.85546875,2.8808497196917625e-05,4.003543365224685e-05,2.978221963225752e-05,1.2205281312275836e-05,3.4375,3.625
2.859375,2.782645234760048e-05,3.6614921507591315e-05,2.929119720759894e-05,1.0740536452277367e-05,3.4375,3.625
2.86328125,3.320273177691305e-05,3.564119907225142e-05,2.4896962627603528e-05,1.0740536452277367e-05,3.4375,3.625
2.8671875,2.8317474772259047e-05,4.345594579690237e-05,2.3923240192263632e-05,1.2687981322957157e-05,3.4375,3.625
2.87109375,2.2941195342946472e-05,4.393864580758368e-05,3.368543178759437e-05,7.320024307621835e-06,3.4375,3.625
2.875,3.466747663691153e-05,4.589441309224074e-05,3.271170935225447e-05,5.855279447623367e-06,3.4375,3.625
2.87890625,4.003543365224685e-05,5.224441495689322e-05,3.71059439322499e-05,2.05027280476081e-05,3.4375,3.625
2.8828125,3.906171121690695e-05,4.492069065690084e-05,4.150017851224531e-05,2.3923240192263632e-05,3.4375,3.625
2.88671875,3.2220686927595894e-05,3.515017664759284e-05,3.954441122758827e-05,1.7082215902952577e-05,3.4375,3.625
2.890625,2.734375233691915e-05,3.71059439322499e-05,3.564119907225142e-05,1.2205281312275836e-05,3.4375,3.625
2.89453125,3.173798691691458e-05,3.271170935225447e-05,2.782645234760048e-05,7.811046732280416e-06,3.4375,3.625
2.8984375,3.320273177691305e-05,3.4176454212252946e-05,3.2220686927595894e-05,1.5134771032272787e-05,3.4375,3.625
2.90234375,3.2220686927595894e-05,3.0273242056916103e-05,3.564119907225142e-05,2.099375047226668e-05,3.4375,3.625
2.90625,2.8317474772259047e-05,3.173798691691458e-05,2.782645234760048e-05,1.2205281312275836e-05,3.4375,3.625
2.91015625,2.587900747692069e-05,3.368543178759437e-05,2.929119720759894e-05,1.1714258887617261e-05,3.4375,3.625
2.9140625,3.1246964492256e-05,3.6614921507591315e-05,3.320273177691305e-05,1.9529005612268207e-05,3.4375,3.625
2.91796875,2.782645234760048e-05,4.6385435516899315e-05,3.320273177691305e-05,2.4896962627603528e-05,3.4375,3.625
2.921875,2.343221776760505e-05,3.4176454212252946e-05,2.538798505226211e-05,2.8317474772259047e-05,3.4375,3.625
2.92578125,3.0273242056916103e-05,3.0273242056916103e-05,2.2941195342946472e-05,2.6361707487602e-05,3.4375,3.625
2.9296875,3.173798691691458e-05,3.6614921507591315e-05,2.8317474772259047e-05,2.4414262616922207e-05,3.4375,3.625
2.93359375,3.320273177691305e-05,3.173798691691458e-05,2.6361707487602e-05,2.3923240192263632e-05,3.4375,3.625
2.9375,2.978221963225752e-05,3.173798691691458e-05,3.368543178759437e-05,2.1967472907606577e-05,3.4375,3.625
2.94140625,2.538798505226211e-05,3.6132221496910005e-05,3.564119907225142e-05,2.343221776760505e-05,3.4375,3.625
2.9453125,3.2220686927595894e-05,4.2473900947585204e-05,3.954441122758827e-05,2.05027280476081e-05,3.4375,3.625
2.94921875,3.4176454212252946e-05,4.931492523689627e-05,4.1991200936903894e-05,1.806426075226973e-05,3.4375,3.625
2.953125,3.271170935225447e-05,4.1009156087586744e-05,3.320273177691305e-05,2.734375233691915e-05,3.4375,3.625
2.95703125,3.173798691691458e-05,3.564119907225142e-05,3.368543178759437e-05,2.929119720759894e-05,3.4375,3.625
2.9609375,3.271170935225447e-05,5.126237010757606e-05,4.003543365224685e-05,2.929119720759894e-05,3.4375,3.625
2.96484375,3.0273242056916103e-05,4.393864580758368e-05,4.1009156087586744e-05,2.8808497196917625e-05,3.4375,3.625
2.96875,2.587900747692069e-05,3.8079666367589796e-05,3.8079666367589796e-05,2.734375233691915e-05,3.4375,3.625
2.97265625,2.8317474772259047e-05,4.6385435516899315e-05,4.492069065690084e-05,2.343221776760505e-05,3.4375,3.625
2.9765625,3.1246964492256e-05,3.4176454212252946e-05,3.8079666367589796e-05,1.9529005612268207e-05,3.4375,3.625
2.98046875,3.515017664759284e-05,3.515017664759284e-05,3.6614921507591315e-05,2.978221963225752e-05,3.4375,3.625
2.984375,3.954441122758827e-05,4.8332880387579107e-05,4.7850180376897796e-05,3.2220686927595894e-05,3.4375,3.625
2.98828125,3.8079666367589796e-05,4.345594579690237e-05,4.296492337224379e-05,3.173798691691458e-05,3.4375,3.625
2.9921875,3.4176454212252946e-05,4.052645607690542e-05,3.8079666367589796e-05,3.759696635690848e-05,3.4375,3.625
2.99609375,2.4896962627603528e-05,3.71059439322499e-05,3.6614921507591315e-05,4.150017851224531e-05,3.4375,3.625
3.0,2.1476450482947995e-05,3.173798691691458e-05,3.271170935225447e-05,3.271170935225447e-05,3.4375,3.625
3.00390625,3.4176454212252946e-05,4.1991200936903894e-05,3.759696635690848e-05,3.271170935225447e-05,3.4375,3.625
3.0078125,3.466747663691153e-05,3.759696635690848e-05,4.1991200936903894e-05,4.150017851224531e-05,3.4375,3.625
3.01171875,3.075594206759741e-05,3.2220686927595894e-05,3.320273177691305e-05,3.6614921507591315e-05,3.4375,3.625
3.015625,2.6361707487602e-05,2.538798505226211e-05,2.1967472907606577e-05,3.320273177691305e-05,3.4375,3.625
3.01953125,2.4896962627603528e-05,1.7082215902952577e-05,2.538798505226211e-05,3.6614921507591315e-05,3.4375,3.625
3.0234375,2.978221963225752e-05,7.811046732280416e-06,2.1967472907606577e-05,4.345594579690237e-05,3.4375,3.625
3.02734375,2.4896962627603528e-05,-6.353701857023005e-06,-4.947224170291094e-07,4.442966823224226e-05,3.4375,3.625
3.03125,2.4896962627603528e-05,-1.6115893452353744e-05,-1.1721658872358324e-05,4.345594579690237e-05,3.4375,3.625
3.03515625,2.8317474772259047e-05,-3.076334205233848e-05,-3.5157576632333905e-05,3.954441122758827e-05,3.4375,3.625
3.0390625,3.075594206759741e-05,-5.370823738765549e-05,-6.249670654764634e-05,6.00508392675669e-05,3.4375,3.625
3.04296875,2.4896962627603528e-05,-8.788839159227896e-05,-8.837109160296028e-05,7.225982057221327e-05,3.4375,3.625
3.046875,2.6852729912260583e-05,-0.00010595635233691923,-0.00011376277664759293,6.493609627222091e-05,3.4375,3.625
3.05078125,3.0273242056916103e-05,-0.00011669226636758988,-0.0001201127785122454,7.910084486152431e-05,3.4375,3.625
3.0546875,3.2220686927595894e-05,-0.0001513634429968719,-0.0001459954859815366,9.27662486121919e-05,3.4375,3.625
3.05859375,3.075594206759741e-05,-0.00018847308692149234,-0.00018749936448615246,8.935405888151365e-05,3.4375,3.625
3.0625,2.782645234760048e-05,-0.00019433206636148623,-0.00019335834392614638,8.886303645685506e-05,3.4375,3.625
3.06640625,2.978221963225752e-05,-0.00018309680749217978,-0.0001816320626321813,9.814252804150447e-05,3.4375,3.625
3.0703125,2.782645234760048e-05,-0.0001821230850568399,-0.00017870257291218437,0.00010497522991683828,3.4375,3.625
3.07421875,2.343221776760505e-05,-0.00018505257477683683,-0.0001757730831921874,0.0001152284439368276,3.4375,3.625
3.078125,3.173798691691458e-05,-0.00017430833833218895,-0.00017236089346150916,0.00010839574206149382,3.4375,3.625
3.08203125,3.564119907225142e-05,-0.00015331921028152897,-0.00016259037945220113,0.00010301946263218122,3.4375,3.625
3.0859375,2.734375233691915e-05,-0.00013036599253223472,-0.00014012818412756546,0.0001152284439368276,3.4375,3.625
3.08984375,3.4176454212252946e-05,-0.0001269454803875792,-0.00012841022524757767,9.765150561684592e-05,3.4375,3.625
3.09375,4.052645607690542e-05,-0.00012108650094758529,-0.00012304226823224234,7.811880001220717e-05,3.4375,3.625
3.09765625,3.759696635690848e-05,-9.374737103227287e-05,-0.00010155379534294655,7.128609813687338e-05,3.4375,3.625
3.1015625,3.466747663691153e-05,-7.811787758297097e-05,-8.05646672922866e-05,6.396237383688102e-05,3.4375,3.625
3.10546875,2.538798505226211e-05,-7.031145327229728e-05,-7.07941532829786e-05,5.761237197222853e-05,3.4375,3.625
3.109375,2.978221963225752e-05,-4.8822980383001494e-05,-4.9314002807660065e-05,4.686813552758063e-05,3.4375,3.625
3.11328125,4.1991200936903894e-05,-3.174538690165565e-05,-2.735115232166022e-05,4.1009156087586744e-05,3.4375,3.625
3.1171875,4.052645607690542e-05,-2.29569177416648e-05,-2.246589531700622e-05,3.71059439322499e-05,3.4375,3.625
3.12109375,2.929119720759894e-05,-1.4160126167696692e-05,-1.2212681297016903e-05,3.4176454212252946e-05,3.4375,3.625
3.125,2.929119720759894e-05,7.320024307621835e-06,-1.4684448523690036e-06,3.271170935225447e-05,3.4375,3.625
3.12890625,3.759696635690848e-05,2.343221776760505e-05,1.2687981322957157e-05,2.099375047226668e-05,3.4375,3.625
3.1328125,3.173798691691458e-05,3.075594206759741e-05,2.587900747692069e-05,1.1223236462958681e-05,3.4375,3.625
3.13671875,3.4176454212252946e-05,4.442966823224226e-05,2.782645234760048e-05,4.881557012283466e-06,3.4375,3.625
3.140625,3.6132221496910005e-05,5.0779670096894744e-05,3.368543178759437e-05,-4.947224170291094e-07,3.4375,3.625
3.14453125,2.734375233691915e-05,6.0541861692225476e-05,4.492069065690084e-05,2.434767302967835e-06,3.4375,3.625
3.1484375,3.515017664759284e-05,6.98213532768749e-05,6.151558412756538e-05,8.29374674296173e-06,3.4375,3.625
3.15234375,3.271170935225447e-05,6.151558412756538e-05,6.444507384756233e-05,5.855279447623367e-06,3.4375,3.625
3.15625,3.368543178759437e-05,7.225982057221327e-05,6.689186355687795e-05,8.29374674296173e-06,3.4375,3.625
3.16015625,3.368543178759437e-05,8.788931402151517e-05,8.007456729686421e-05,1.1223236462958681e-05,3.4375,3.625
3.1640625,2.099375047226668e-05,8.64245691615167e-05,8.300405701686117e-05,1.9520672922865214e-06,3.4375,3.625
3.16796875,3.1246964492256e-05,8.495982430151822e-05,8.153931215686269e-05,3.89951216296631e-06,3.4375,3.625
3.171875,3.71059439322499e-05,7.860982243686575e-05,8.64245691615167e-05,5.855279447623367e-06,3.4375,3.625
3.17578125,3.320273177691305e-05,7.128609813687338e-05,9.179252617685201e-05,-4.888956997024536e-06,3.4375,3.625
3.1796875,2.782645234760048e-05,7.910084486152431e-05,8.300405701686117e-05,-2.933189712367479e-06,3.4375,3.625
3.18359375,2.6852729912260583e-05,9.179252617685201e-05,8.935405888151365e-05,4.390534587624892e-06,3.4375,3.625
3.1875,2.929119720759894e-05,0.00010253676262149991,9.667778318150601e-05,9.70022442969359e-07,3.4375,3.625
3.19140625,2.6361707487602e-05,0.00010546625234149687,8.886303645685506e-05,-3.906912147707373e-06,3.4375,3.625
3.1953125,3.075594206759741e-05,0.0001044842074921797,9.521303832150755e-05,-4.947224170291094e-07,3.4375,3.625
3.19921875,3.759696635690848e-05,0.00010497522991683828,0.00010497522991683828,1.0249514027618786e-05,3.4375,3.625
3.203125,2.978221963225752e-05,0.00010839574206149382,0.00010204574019684134,1.56174710429541e-05,3.4375,3.625
3.20703125,2.6852729912260583e-05,0.00011181625420614932,9.960727290150296e-05,1.317900374761573e-05,3.4375,3.625
3.2109375,2.978221963225752e-05,0.00010204574019684134,9.27662486121919e-05,6.829001882963261e-06,3.4375,3.625
3.21484375,2.587900747692069e-05,8.935405888151365e-05,9.325727103685048e-05,8.29374674296173e-06,3.4375,3.625
3.21875,3.4176454212252946e-05,0.00010790471963683523,0.00010008997291218428,1.854696076295105e-05,3.4375,3.625
3.22265625,3.954441122758827e-05,0.0001088867644861524,9.960727290150296e-05,1.7082215902952577e-05,3.4375,3.625
3.2265625,3.271170935225447e-05,8.64245691615167e-05,9.423099347219039e-05,2.05027280476081e-05,3.4375,3.625
3.23046875,2.587900747692069e-05,8.056558972152279e-05,8.690726917219801e-05,6.829001882963261e-06,3.4375,3.625
3.234375,2.929119720759894e-05,8.739829159685658e-05,8.64245691615167e-05,4.881557012283466e-06,3.4375,3.625
3.23828125,3.8570688792248374e-05,8.837201403219648e-05,8.788931402151517e-05,1.9037983187609632e-05,3.4375,3.625
3.2421875,4.1991200936903894e-05,9.179252617685201e-05,8.837201403219648e-05,2.1476450482947995e-05,3.4375,3.625
3.24609375,3.368543178759437e-05,9.569573833218884e-05,8.788931402151517e-05,2.4896962627603528e-05,3.4375,3.625
3.25,3.1246964492256e-05,8.788931402151517e-05,8.935405888151365e-05,2.2941195342946472e-05,3.4375,3.625
3.25390625,3.271170935225447e-05,8.056558972152279e-05,8.203033458152127e-05,1.806426075226973e-05,3.4375,3.625
3.2578125,2.8317474772259047e-05,7.372456543221174e-05,7.177712056153195e-05,1.9037983187609632e-05,3.4375,3.625
3.26171875,3.8570688792248374e-05,9.22835486015106e-05,8.446880187685964e-05,3.466747663691153e-05,3.4375,3.625
3.265625,3.954441122758827e-05,9.521303832150755e-05,8.495982430151822e-05,4.052645607690542e-05,3.4375,3.625
3.26953125,3.0273242056916103e-05,6.933033085221631e-05,6.493609627222091e-05,2.8808497196917625e-05,3.4375,3.625
3.2734375,3.564119907225142e-05,6.298032898756385e-05,6.542711869687948e-05,2.245849533226516e-05,3.4375,3.625
3.27734375,4.296492337224379e-05,5.517390467689016e-05,6.151558412756538e-05,3.1246964492256e-05,3.4375,3.625
3.28125,4.345594579690237e-05,3.2220686927595894e-05,4.296492337224379e-05,4.150017851224531e-05,3.4375,3.625
3.28515625,3.271170935225447e-05,1.4643748607614206e-05,1.5134771032272787e-05,3.906171121690695e-05,3.4375,3.625
3.2890625,2.3923240192263632e-05,-7.327424292362902e-06,-1.3677426157015378e-05,4.589441309224074e-05,3.4375,3.625
3.29296875,2.734375233691915e-05,-3.564859905699248e-05,-3.906911120164801e-05,5.3709159816891685e-05,3.4375,3.625
3.296875,2.6361707487602e-05,-6.932940842298011e-05,-6.88467084122988e-05,5.956813925688559e-05,3.4375,3.625
3.30078125,2.245849533226516e-05,-8.837109160296028e-05,-9.423007104295419e-05,8.007456729686421e-05,3.4375,3.625
3.3046875,3.271170935225447e-05,-8.935313645227745e-05,-0.00010497430748760207,8.203033458152127e-05,3.4375,3.625
3.30859375,4.296492337224379e-05,-0.00011620956635690855,-0.0001254807355275807,8.788931402151517e-05,3.4375,3.625
3.3125,3.564119907225142e-05,-0.0001479429308522164,-0.0001459954859815366,0.00010253676262149991,3.4375,3.625
3.31640625,2.6852729912260583e-05,-0.00015038972056153203,-0.00014453074112153814,9.716048319218734e-05,3.4375,3.625
3.3203125,3.271170935225447e-05,-0.00014061920655222406,-0.0001430576738475624,9.521303832150755e-05,3.4375,3.625
3.32421875,3.906171121690695e-05,-0.00014012818412756546,-0.00013866343926756698,9.374829346150906e-05,3.4375,3.625
3.328125,4.1009156087586744e-05,-0.00014159292898756394,-0.00014061920655222406,8.983675889219495e-05,3.4375,3.625
3.33203125,4.442966823224226e-05,-0.00013573394954757002,-0.00014550446355687802,8.935405888151365e-05,3.4375,3.625
3.3359375,3.6132221496910005e-05,-0.00013329548225223166,-0.00013866343926756698,9.08188037415121e-05,3.4375,3.625
3.33984375,2.8317474772259047e-05,-0.00013573394954757002,-0.00013232175981689175,8.935405888151365e-05,3.4375,3.625
3.34375,4.1991200936903894e-05,-0.0001191390560769055,-0.0001249980355168994,8.495982430151822e-05,3.4375,3.625
3.34765625,5.517390467689016e-05,-8.983583646295875e-05,-0.00010107109533226523,8.495982430151822e-05,3.4375,3.625
3.3515625,4.686813552758063e-05,-8.983583646295875e-05,-8.788839159227896e-05,8.397777945220106e-05,3.4375,3.625
3.35546875,4.8332880387579107e-05,-7.324094299229423e-05,-8.397685702296487e-05,6.98213532768749e-05,3.4375,3.625
3.359375,4.931492523689627e-05,-3.662232149233238e-05,-5.468195982299538e-05,6.0541861692225476e-05,3.4375,3.625
3.36328125,3.564119907225142e-05,-3.125436447699707e-05,-3.418385419699401e-05,5.9077116832227e-05,3.4375,3.625
3.3671875,3.466747663691153e-05,-3.7113343916990964e-05,-3.857808877698944e-05,5.224441495689322e-05,3.4375,3.625
3.37109375,3.564119907225142e-05,-2.29569177416648e-05,-2.0510128032349166e-05,4.393864580758368e-05,3.4375,3.625
3.375,3.173798691691458e-05,-9.774224277104295e-07,4.873224322880461e-07,4.393864580758368e-05,3.4375,3.625
3.37890625,3.515017664759284e-05,9.275791592278892e-06,8.784769167620312e-06,3.515017664759284e-05,3.4375,3.625
3.3828125,3.759696635690848e-05,3.271170935225447e-05,3.759696635690848e-05,3.1246964492256e-05,3.4375,3.625
3.38671875,4.1009156087586744e-05,5.224441495689322e-05,5.0288647672236166e-05,3.515017664759284e-05,3.4375,3.625
3.390625,2.538798505226211e-05,5.663864953688863e-05,4.6385435516899315e-05,2.929119720759894e-05,3.4375,3.625
3.39453125,2.343221776760505e-05,6.542711869687948e-05,5.663864953688863e-05,2.343221776760505e-05,3.4375,3.625
3.3984375,3.320273177691305e-05,6.835660841687642e-05,6.591814112153805e-05,1.5134771032272787e-05,3.4375,3.625
3.40234375,2.587900747692069e-05,6.689186355687795e-05,6.98213532768749e-05,1.1223236462958681e-05,3.4375,3.625
3.40625,2.245849533226516e-05,8.10482897322041e-05,7.811880001220717e-05,1.1714258887617261e-05,3.4375,3.625
3.41015625,2.1967472907606577e-05,8.593354673685812e-05,8.10482897322041e-05,8.784769167620312e-06,3.4375,3.625
3.4140625,2.538798505226211e-05,8.495982430151822e-05,8.056558972152279e-05,6.346301872281941e-06,3.4375,3.625
3.41796875,2.6852729912260583e-05,9.618676075684743e-05,8.935405888151365e-05,4.390534587624892e-06,3.4375,3.625
3.421875,2.6361707487602e-05,0.0001132809990661478,0.00010155471777218275,5.855279447623367e-06,3.4375,3.625
3.42578125,2.4896962627603528e-05,0.0001093694644968337,0.00010253676262149991,8.29374674296173e-06,3.4375,3.625
3.4296875,1.4643748607614206e-05,9.179252617685201e-05,0.00010008997291218428,1.9520672922865214e-06,3.4375,3.625
3.43359375,2.099375047226668e-05,9.423099347219039e-05,0.00010643997477683674,-1.4684448523690036e-06,3.4375,3.625
3.4375,2.6852729912260583e-05,0.0001044842074921797,0.00010693099720149532,2.9257897276264157e-06,3.4375,3.625
3.44140625,1.9037983187609632e-05,0.00011229895421683065,0.0001088867644861524,-4.947224170291094e-07,3.4375,3.625
3.4453125,2.4896962627603528e-05,0.00012157844580148008,0.0001132809990661478,1.4610448676279403e-06,3.4375,3.625
3.44921875,3.075594206759741e-05,0.00012694640281681537,0.00012206946822613866,6.346301872281941e-06,3.4375,3.625
3.453125,3.1246964492256e-05,0.0001259726803814755,0.00012353421308613713,4.881557012283466e-06,3.4375,3.625
3.45703125,3.320273177691305e-05,0.00012401691309681844,0.00011864895608148313,1.0249514027618786e-05,3.4375,3.625
3.4609375,2.4414262616922207e-05,0.00011864895608148313,0.00012353421308613713,1.4152726182955624e-05,3.4375,3.625
3.46484375,2.1476450482947995e-05,0.00012304319066147853,0.00012499895794613558,1.2687981322957157e-05,3.4375,3.625
3.46875,2.4896962627603528e-05,0.00011815793365682454,0.00012353421308613713,1.3670026172274312e-05,3.4375,3.625
3.47265625,2.3923240192263632e-05,0.00010693099720149532,0.00012157844580148008,8.784769167620312e-06,3.4375,3.625
3.4765625,1.7082215902952577e-05,0.00010693099720149532,0.00011571946636148618,7.320024307621835e-06,3.4375,3.625
3.48046875,1.1223236462958681e-05,0.00010155471777218275,0.00010693099720149532,7.320024307621835e-06,3.4375,3.625
3.484375,1.9037983187609632e-05,0.00010693099720149532,0.00010204574019684134,1.9520672922865214e-06,3.4375,3.625
3.48828125,2.6852729912260583e-05,0.00011425472150148769,0.00010790471963683523,6.829001882963261e-06,3.4375,3.625
3.4921875,2.6852729912260583e-05,0.00010986048692149227,0.00010790471963683523,9.758491602960206e-06,3.4375,3.625
3.49609375,1.9529005612268207e-05,0.00010351048505683979,0.00010253676262149991,9.758491602960206e-06,3.4375,3.625
3.5,2.4414262616922207e-05,0.00010008997291218428,0.00010204574019684134,1.1714258887617261e-05,3.4375,3.625
3.50390625,2.587900747692069e-05,9.569573833218884e-05,0.00010155471777218275,1.1714258887617261e-05,3.4375,3.625
3.5078125,2.343221776760505e-05,9.960727290150296e-05,0.00010204574019684134,2.2941195342946472e-05,3.4375,3.625
3.51171875,3.173798691691458e-05,9.765150561684592e-05,0.00010497522991683828,2.6852729912260583e-05,3.4375,3.625
3.515625,1.4152726182955624e-05,8.788931402151517e-05,9.667778318150601e-05,2.099375047226668e-05,3.4375,3.625
3.51953125,5.855279447623367e-06,9.521303832150755e-05,9.130150375219344e-05,2.245849533226516e-05,3.4375,3.625
3.5234375,2.099375047226668e-05,0.00010790471963683523,0.00010204574019684134,2.0011705622949528e-05,3.4375,3.625
3.52734375,3.2220686927595894e-05,0.00010400150748149838,0.00010253676262149991,1.4643748607614206e-05,3.4375,3.625
3.53125,4.2473900947585204e-05,0.00010693099720149532,0.0001088867644861524,1.9529005612268207e-05,3.4375,3.625
3.53515625,2.8317474772259047e-05,0.0001132809990661478,0.0001132809990661478,3.320273177691305e-05,3.4375,3.625
3.5390625,2.0011705622949528e-05,0.00011718421122148463,0.00010400150748149838,2.4414262616922207e-05,3.4375,3.625
3.54296875,2.587900747692069e-05,0.00011035150934615086,8.886303645685506e-05,8.784769167620312e-06,3.4375,3.625
3.546875,2.587900747692069e-05,7.910084486152431e-05,8.007456729686421e-05,1.317900374761573e-05,3.4375,3.625
3.55078125,2.6852729912260583e-05,7.470661028152891e-05,8.397777945220106e-05,1.6599515892271263e-05,3.4375,3.625
3.5546875,2.4414262616922207e-05,7.958354487220565e-05,8.495982430151822e-05,2.1476450482947995e-05,3.4375,3.625
3.55859375,2.4414262616922207e-05,7.128609813687338e-05,7.811880001220717e-05,2.587900747692069e-05,3.4375,3.625
3.5625,2.978221963225752e-05,7.763610000152586e-05,7.811880001220717e-05,2.05027280476081e-05,3.4375,3.625
3.56640625,2.538798505226211e-05,7.518931029221022e-05,7.617135514152738e-05,2.4896962627603528e-05,3.4375,3.625
3.5703125,2.343221776760505e-05,7.470661028152891e-05,7.225982057221327e-05,3.368543178759437e-05,3.4375,3.625
3.57421875,2.4414262616922207e-05,7.56803327168688e-05,7.518931029221022e-05,3.368543178759437e-05,3.4375,3.625
3.578125,2.587900747692069e-05,6.835660841687642e-05,7.031237570153348e-05,3.0273242056916103e-05,3.4375,3.625
3.58203125,3.173798691691458e-05,6.933033085221631e-05,6.738288598153653e-05,2.734375233691915e-05,3.4375,3.625
3.5859375,2.245849533226516e-05,6.786558599221785e-05,7.031237570153348e-05,1.9529005612268207e-05,3.4375,3.625
3.58984375,1.56174710429541e-05,8.10482897322041e-05,8.349507944151974e-05,1.5134771032272787e-05,3.4375,3.625
3.59375,3.2220686927595894e-05,8.886303645685506e-05,8.153931215686269e-05,2.099375047226668e-05,3.4375,3.625
3.59765625,3.906171121690695e-05,7.225982057221327e-05,6.640084113221938e-05,2.4896962627603528e-05,3.4375,3.625
3.6015625,3.906171121690695e-05,7.177712056153195e-05,6.835660841687642e-05,2.343221776760505e-05,3.4375,3.625
3.60546875,3.320273177691305e-05,8.007456729686421e-05,7.324186542153043e-05,2.538798505226211e-05,3.4375,3.625
3.609375,2.0011705622949528e-05,7.177712056153195e-05,6.444507384756233e-05,2.734375233691915e-05,3.4375,3.625
3.61328125,2.8317474772259047e-05,5.9077116832227e-05,5.956813925688559e-05,2.4414262616922207e-05,3.4375,3.625
3.6171875,3.271170935225447e-05,6.689186355687795e-05,6.493609627222091e-05,2.4896962627603528e-05,3.4375,3.625
3.62109375,2.538798505226211e-05,6.689186355687795e-05,6.298032898756385e-05,2.1967472907606577e-05,3.4375,3.625
3.625,2.1476450482947995e-05,6.00508392675669e-05,6.933033085221631e-05,2.05027280476081e-05,3.4375,3.625
3.62890625,2.1476450482947995e-05,6.640084113221938e-05,7.324186542153043e-05,2.4414262616922207e-05,3.4375,3.625
3.6328125,2.3923240192263632e-05,6.151558412756538e-05,6.200660655222395e-05,2.099375047226668e-05,3.4375,3.625
3.63671875,3.564119907225142e-05,6.0541861692225476e-05,6.298032898756385e-05,2.4414262616922207e-05,3.4375,3.625
3.640625,4.393864580758368e-05,6.444507384756233e-05,6.298032898756385e-05,3.075594206759741e-05,3.4375,3.625
3.64453125,3.173798691691458e-05,7.031237570153348e-05,6.249762897688253e-05,2.4896962627603528e-05,3.4375,3.625
3.6484375,1.9529005612268207e-05,7.225982057221327e-05,6.151558412756538e-05,1.6599515892271263e-05,3.4375,3.625
3.65234375,2.782645234760048e-05,6.151558412756538e-05,6.249762897688253e-05,1.610849346761268e-05,3.4375,3.625
3.65625,3.368543178759437e-05,6.347135141222243e-05,6.738288598153653e-05,2.587900747692069e-05,3.4375,3.625
3.66015625,2.4414262616922207e-05,6.689186355687795e-05,6.786558599221785e-05,3.0273242056916103e-05,3.4375,3.625
3.6640625,2.587900747692069e-05,6.689186355687795e-05,6.640084113221938e-05,2.099375047226668e-05,3.4375,3.625
3.66796875,3.6614921507591315e-05,5.517390467689016e-05,6.00508392675669e-05,1.9037983187609632e-05,3.4375,3.625
3.671875,3.4176454212252946e-05,4.1009156087586744e-05,6.151558412756538e-05,2.0011705622949528e-05,3.4375,3.625
3.67578125,3.564119907225142e-05,4.735915795223921e-05,6.738288598153653e-05,2.1476450482947995e-05,3.4375,3.625
3.6796875,3.759696635690848e-05,5.224441495689322e-05,5.712134954756994e-05,1.9037983187609632e-05,3.4375,3.625
3.68359375,3.0273242056916103e-05,5.3709159816891685e-05,5.126237010757606e-05,2.099375047226668e-05,3.4375,3.625
3.6875,3.1246964492256e-05,5.8586094407568424e-05,5.565660468757147e-05,2.8808497196917625e-05,3.4375,3.625
3.69140625,2.2941195342946472e-05,5.712134954756994e-05,5.663864953688863e-05,2.587900747692069e-05,3.4375,3.625
3.6953125,1.7082215902952577e-05,5.2727114967574535e-05,5.565660468757147e-05,2.587900747692069e-05,3.4375,3.625
3.69921875,2.4896962627603528e-05,5.0288647672236166e-05,5.3709159816891685e-05,2.099375047226668e-05,3.4375,3.625
3.703125,3.320273177691305e-05,5.224441495689322e-05,5.3709159816891685e-05,2.245849533226516e-05,3.4375,3.625
3.70703125,2.734375233691915e-05,5.8103394396887107e-05,5.712134954756994e-05,3.368543178759437e-05,3.4375,3.625
3.7109375,2.05027280476081e-05,5.6147627112230054e-05,5.517390467689016e-05,2.782645234760048e-05,3.4375,3.625
3.71484375,2.1967472907606577e-05,4.6385435516899315e-05,4.345594579690237e-05,2.343221776760505e-05,3.4375,3.625
3.71875,2.8808497196917625e-05,4.8332880387579107e-05,4.296492337224379e-05,2.587900747692069e-05,3.4375,3.625
3.72265625,3.8570688792248374e-05,5.3709159816891685e-05,4.6385435516899315e-05,2.8808497196917625e-05,3.4375,3.625
3.7265625,2.245849533226516e-05,3.954441122758827e-05,4.345594579690237e-05,2.734375233691915e-05,3.4375,3.625
3.73046875,2.1476450482947995e-05,3.271170935225447e-05,4.2473900947585204e-05,2.587900747692069e-05,3.4375,3.625
3.734375,2.6852729912260583e-05,2.978221963225752e-05,3.906171121690695e-05,2.1476450482947995e-05,3.4375,3.625
3.73828125,1.757323832761116e-05,3.075594206759741e-05,4.1991200936903894e-05,1.6599515892271263e-05,3.4375,3.625
3.7421875,2.4896962627603528e-05,4.1009156087586744e-05,5.3709159816891685e-05,3.564119907225142e-05,3.4375,3.625
3.74609375,3.2220686927595894e-05,4.150017851224531e-05,5.517390467689016e-05,4.8332880387579107e-05,3.4375,3.625
3.75,2.734375233691915e-05,4.003543365224685e-05,4.6385435516899315e-05,3.6132221496910005e-05,3.4375,3.625
3.75390625,2.4896962627603528e-05,3.271170935225447e-05,3.954441122758827e-05,2.05027280476081e-05,3.4375,3.625
3.7578125,3.075594206759741e-05,2.734375233691915e-05,4.150017851224531e-05,1.2687981322957157e-05,3.4375,3.625
3.76171875,3.173798691691458e-05,3.4176454212252946e-05,4.150017851224531e-05,1.610849346761268e-05,3.4375,3.625
3.765625,2.4896962627603528e-05,3.271170935225447e-05,3.906171121690695e-05,2.245849533226516e-05,3.4375,3.625
3.76953125,2.245849533226516e-05,3.6132221496910005e-05,4.296492337224379e-05,2.3923240192263632e-05,3.4375,3.625
3.7734375,2.6852729912260583e-05,3.8079666367589796e-05,4.8332880387579107e-05,2.8317474772259047e-05,3.4375,3.625
3.77734375,3.1246964492256e-05,3.515017664759284e-05,4.589441309224074e-05,3.0273242056916103e-05,3.4375,3.625
3.78125,2.587900747692069e-05,4.003543365224685e-05,3.954441122758827e-05,3.4176454212252946e-05,3.4375,3.625
3.78515625,2.978221963225752e-05,3.954441122758827e-05,3.906171121690695e-05,4.150017851224531e-05,3.4375,3.625
3.7890625,3.0273242056916103e-05,3.1246964492256e-05,3.515017664759284e-05,3.4176454212252946e-05,3.4375,3.625
3.79296875,2.538798505226211e-05,3.368543178759437e-05,3.320273177691305e-05,2.1476450482947995e-05,3.4375,3.625
3.796875,3.271170935225447e-05,3.8079666367589796e-05,3.466747663691153e-05,2.05027280476081e-05,3.4375,3.625
3.80078125,2.6361707487602e-05,3.271170935225447e-05,2.4896962627603528e-05,2.343221776760505e-05,3.4375,3.625
3.8046875,2.2941195342946472e-05,4.296492337224379e-05,3.2220686927595894e-05,2.587900747692069e-05,3.4375,3.625
3.80859375,3.0273242056916103e-05,4.052645607690542e-05,3.6132221496910005e-05,2.8808497196917625e-05,3.4375,3.625
3.8125,1.854696076295105e-05,2.587900747692069e-05,3.075594206759741e-05,2.6361707487602e-05,3.4375,3.625
3.81640625,7.811046732280416e-06,3.173798691691458e-05,3.515017664759284e-05,2.734375233691915e-05,3.4375,3.625
3.8203125,1.6599515892271263e-05,3.71059439322499e-05,3.173798691691458e-05,2.6361707487602e-05,3.4375,3.625
3.82421875,2.2941195342946472e-05,3.6132221496910005e-05,2.734375233691915e-05,3.2220686927595894e-05,3.4375,3.625
3.828125,2.587900747692069e-05,3.906171121690695e-05,3.271170935225447e-05,3.6614921507591315e-05,3.4375,3.625
3.83203125,3.173798691691458e-05,3.564119907225142e-05,3.759696635690848e-05,2.978221963225752e-05,3.4375,3.625
3.8359375,3.759696635690848e-05,3.906171121690695e-05,3.0273242056916103e-05,3.2220686927595894e-05,3.4375,3.625
3.83984375,2.734375233691915e-05,3.173798691691458e-05,2.734375233691915e-05,3.2220686927595894e-05,3.4375,3.625
3.84375,2.1476450482947995e-05,2.8808497196917625e-05,2.8317474772259047e-05,2.6852729912260583e-05,3.4375,3.625
3.84765625,2.4414262616922207e-05,3.71059439322499e-05,2.782645234760048e-05,3.4176454212252946e-05,3.4375,3.625
3.8515625,2.2941195342946472e-05,3.906171121690695e-05,3.2220686927595894e-05,3.8570688792248374e-05,3.4375,3.625
3.85546875,2.734375233691915e-05,4.540339066758216e-05,3.368543178759437e-05,3.2220686927595894e-05,3.4375,3.625
3.859375,2.4414262616922207e-05,3.515017664759284e-05,3.564119907225142e-05,2.8808497196917625e-05,3.4375,3.625
3.86328125,2.734375233691915e-05,2.8808497196917625e-05,3.6614921507591315e-05,2.782645234760048e-05,3.4375,3.625
3.8671875,3.1246964492256e-05,2.929119720759894e-05,3.6132221496910005e-05,3.320273177691305e-05,3.4375,3.625
3.87109375,1.854696076295105e-05,2.734375233691915e-05,2.782645234760048e-05,3.8079666367589796e-05,3.4375,3.625
3.875,2.099375047226668e-05,2.3923240192263632e-05,2.099375047226668e-05,3.2220686927595894e-05,3.4375,3.625
3.87890625,3.564119907225142e-05,2.1476450482947995e-05,2.4896962627603528e-05,3.271170935225447e-05,3.4375,3.625
3.8828125,3.368543178759437e-05,1.806426075226973e-05,2.538798505226211e-05,3.759696635690848e-05,3.4375,3.625
3.88671875,2.3923240192263632e-05,2.05027280476081e-05,2.4896962627603528e-05,2.6361707487602e-05,3.4375,3.625
3.890625,1.7082215902952577e-05,2.929119720759894e-05,2.343221776760505e-05,1.854696076295105e-05,3.4375,3.625
3.89453125,3.0273242056916103e-05,3.6614921507591315e-05,3.1246964492256e-05,2.245849533226516e-05,3.4375,3.625
3.8984375,3.4176454212252946e-05,3.8079666367589796e-05,3.564119907225142e-05,2.734375233691915e-05,3.4375,3.625
3.90234375,2.1967472907606577e-05,3.1246964492256e-05,2.978221963225752e-05,2.05027280476081e-05,3.4375,3.625
3.90625,2.3923240192263632e-05,2.8317474772259047e-05,3.0273242056916103e-05,2.1476450482947995e-05,3.4375,3.625
3.91015625,3.515017664759284e-05,3.71059439322499e-05,3.564119907225142e-05,3.466747663691153e-05,3.4375,3.625
3.9140625,4.150017851224531e-05,3.759696635690848e-05,2.978221963225752e-05,2.929119720759894e-05,3.4375,3.625
3.91796875,2.587900747692069e-05,2.587900747692069e-05,2.4896962627603528e-05,2.343221776760505e-05,3.4375,3.625
3.921875,2.8317474772259047e-05,2.978221963225752e-05,2.8808497196917625e-05,2.8808497196917625e-05,3.4375,3.625
3.92578125,2.782645234760048e-05,3.954441122758827e-05,2.3923240192263632e-05,2.4414262616922207e-05,3.4375,3.625
3.9296875,2.343221776760505e-05,4.345594579690237e-05,2.8808497196917625e-05,2.6852729912260583e-05,3.4375,3.625
3.93359375,3.320273177691305e-05,3.954441122758827e-05,3.4176454212252946e-05,3.0273242056916103e-05,3.4375,3.625
3.9375,3.515017664759284e-05,3.6132221496910005e-05,2.343221776760505e-05,1.9529005612268207e-05,3.4375,3.625
3.94140625,2.4414262616922207e-05,4.345594579690237e-05,2.6852729912260583e-05,2.3923240192263632e-05,3.4375,3.625
3.9453125,1.854696076295105e-05,4.1991200936903894e-05,3.2220686927595894e-05,2.782645234760048e-05,3.4375,3.625
3.94921875,3.906171121690695e-05,3.8079666367589796e-05,2.587900747692069e-05,2.587900747692069e-05,3.4375,3.625
3.953125,4.492069065690084e-05,3.6132221496910005e-05,2.8808497196917625e-05,2.8317474772259047e-05,3.4375,3.625
3.95703125,3.075594206759741e-05,4.150017851224531e-05,3.954441122758827e-05,2.4896962627603528e-05,3.4375,3.625
3.9609375,3.0273242056916103e-05,3.4176454212252946e-05,3.2220686927595894e-05,2.6852729912260583e-05,3.4375,3.625
3.96484375,3.320273177691305e-05,2.4896962627603528e-05,1.9037983187609632e-05,3.1246964492256e-05,3.4375,3.625
3.96875,2.782645234760048e-05,1.9529005612268207e-05,2.099375047226668e-05,3.0273242056916103e-05,3.4375,3.625
3.97265625,2.2941195342946472e-05,2.05027280476081e-05,1.56174710429541e-05,3.6614921507591315e-05,3.4375,3.625
3.9765625,2.587900747692069e-05,1.7082215902952577e-05,1.1714258887617261e-05,4.589441309224074e-05,3.4375,3.625
3.98046875,2.929119720759894e-05,3.416812152284997e-06,1.2205281312275836e-05,4.1991200936903894e-05,3.4375,3.625
3.984375,3.271170935225447e-05,2.9257897276264157e-06,-2.933189712367479e-06,2.6852729912260583e-05,3.4375,3.625
3.98828125,3.564119907225142e-05,-1.1721658872358324e-05,-2.0027428021667852e-05,3.271170935225447e-05,3.4375,3.625
3.9921875,2.8808497196917625e-05,-4.735823552300301e-05,-3.4674876621652594e-05,4.882390281223769e-05,3.4375,3.625
3.99609375,2.1967472907606577e-05,-7.421466542763411e-05,-6.054093926298928e-05,5.663864953688863e-05,3.4375,3.625
4.0,2.8317474772259047e-05,-9.81416056122683e-05,-9.325634860761428e-05,6.640084113221938e-05,3.4375,3.625
4.00390625,3.954441122758827e-05,-0.00010546532991226066,-0.00011815701122758833,8.251303459220258e-05,3.4375,3.625
4.0078125,3.8079666367589796e-05,-0.0001191390560769055,-0.00013378650467689023,7.811880001220717e-05,3.4375,3.625
4.01171875,3.906171121690695e-05,-0.00015233716543221182,-0.00015429293271686887,8.300405701686117e-05,3.4375,3.625
4.015625,4.345594579690237e-05,-0.0001855435972014954,-0.0001855435972014954,8.593354673685812e-05,3.4375,3.625
4.01953125,3.368543178759437e-05,-0.00018651731963683531,-0.00019482308878614483,8.446880187685964e-05,3.4375,3.625
4.0234375,4.2473900947585204e-05,-0.00016259037945220113,-0.00017772885047684446,0.00010204574019684134,3.4375,3.625
4.02734375,5.6147627112230054e-05,-0.00016210767944151985,-0.00016747563645685515,0.00011083420935683218,3.4375,3.625
4.03125,4.052645607690542e-05,-0.00016454614673685819,-0.00016796665888151372,9.765150561684592e-05,3.4375,3.625
4.03515625,2.929119720759894e-05,-0.0001513634429968719,-0.00016112563459220268,9.521303832150755e-05,3.4375,3.625
4.0390625,3.368543178759437e-05,-0.00012987497010757612,-0.00014989869813687346,9.86252280521858e-05,3.4375,3.625
4.04296875,3.0273242056916103e-05,-0.00012255124580758377,-0.0001367159943968872,8.690726917219801e-05,3.4375,3.625
4.046875,3.564119907225142e-05,-0.0001152275215075914,-0.00012450701309224083,7.811880001220717e-05,3.4375,3.625
4.05078125,4.1009156087586744e-05,-0.00010253584019226371,-0.00010985956449225607,7.470661028152891e-05,3.4375,3.625
4.0546875,3.564119907225142e-05,-8.446787944762344e-05,-8.544160188296333e-05,6.347135141222243e-05,3.4375,3.625
4.05859375,3.368543178759437e-05,-7.128517570763718e-05,-7.763517757228965e-05,4.686813552758063e-05,3.4375,3.625
4.0625,3.8570688792248374e-05,-4.9314002807660065e-05,-6.835568598764022e-05,4.1991200936903894e-05,3.4375,3.625
4.06640625,4.589441309224074e-05,-1.4160126167696692e-05,-3.7604366341649535e-05,4.150017851224531e-05,3.4375,3.625
4.0703125,4.589441309224074e-05,-5.371657007705849e-06,-2.7833852332341535e-05,3.173798691691458e-05,3.4375,3.625
4.07421875,4.052645607690542e-05,8.784769167620312e-06,-1.708961588769364e-05,2.4414262616922207e-05,3.4375,3.625
4.078125,2.929119720759894e-05,1.757323832761116e-05,5.3642570229647856e-06,1.9037983187609632e-05,3.4375,3.625
4.08203125,2.8317474772259047e-05,1.9037983187609632e-05,1.6599515892271263e-05,9.275791592278892e-06,3.4375,3.625
4.0859375,3.6132221496910005e-05,4.1009156087586744e-05,2.8317474772259047e-05,4.881557012283466e-06,3.4375,3.625
4.08984375,2.4896962627603528e-05,5.0288647672236166e-05,3.954441122758827e-05,7.811046732280416e-06,3.4375,3.625
4.09375,1.317900374761573e-05,5.419185982757301e-05,4.589441309224074e-05,7.811046732280416e-06,3.4375,3.625
4.09765625,3.515017664759284e-05,6.444507384756233e-05,5.8103394396887107e-05,7.811046732280416e-06,3.4375,3.625
4.1015625,3.4176454212252946e-05,7.324186542153043e-05,7.470661028152891e-05,5.855279447623367e-06,3.4375,3.625
4.10546875,2.1476450482947995e-05,8.251303459220258e-05,7.518931029221022e-05,4.881557012283466e-06,3.4375,3.625
4.109375,2.245849533226516e-05,8.446880187685964e-05,7.421558785687033e-05,3.89951216296631e-06,3.4375,3.625
4.11328125,2.587900747692069e-05,8.837201403219648e-05,8.544252431219953e-05,2.9257897276264157e-06,3.4375,3.625
4.1171875,4.2473900947585204e-05,9.716048319218734e-05,8.64245691615167e-05,1.0249514027618786e-05,3.4375,3.625
4.12109375,4.2473900947585204e-05,9.423099347219039e-05,8.446880187685964e-05,1.5134771032272787e-05,3.4375,3.625
4.125,2.8317474772259047e-05,8.983675889219495e-05,8.300405701686117e-05,1.0740536452277367e-05,3.4375,3.625
4.12890625,1.806426075226973e-05,8.446880187685964e-05,8.349507944151974e-05,2.434767302967835e-06,3.4375,3.625
4.1328125,2.6852729912260583e-05,8.544252431219953e-05,8.153931215686269e-05,-4.888956997024536e-06,3.4375,3.625
4.13671875,3.759696635690848e-05,9.130150375219344e-05,8.397777945220106e-05,-7.81844671702148e-06,3.4375,3.625
4.140625,3.075594206759741e-05,8.983675889219495e-05,8.837201403219648e-05,3.89951216296631e-06,3.4375,3.625
4.14453125,2.6361707487602e-05,8.544252431219953e-05,8.056558972152279e-05,1.854696076295105e-05,3.4375,3.625
4.1484375,3.466747663691153e-05,8.446880187685964e-05,7.665405515220869e-05,1.3670026172274312e-05,3.4375,3.625
4.15234375,4.150017851224531e-05,8.446880187685964e-05,7.811880001220717e-05,6.346301872281941e-06,3.4375,3.625
