timestamp,TP9,AF7,AF8,TP10,Valence,Arousal
0.0,-4.394539204943923e-05,3.7597062751201634e-05,4.443142250400548e-05,-5.22462914991989e-05,4.9333,7.2667
0.00390625,-4.003936560738537e-05,2.831847017013808e-05,3.857000979934385e-05,-4.78514184914931e-05,4.9333,7.2667
0.0078125,-3.857757199359121e-05,2.4901290293736167e-05,3.271334317784389e-05,-5.02956513197528e-05,4.9333,7.2667
0.01171875,-4.541193174639506e-05,1.9528724154726476e-05,2.7829623604486142e-05,-5.0784497885404746e-05,4.9333,7.2667
0.015625,-4.736731800900283e-05,1.1227824704966806e-05,1.0738978139314866e-05,-5.615231794125277e-05,4.9333,7.2667
0.01953125,-4.78514184914931e-05,1.7578083975280377e-05,1.5133851147020663e-05,-5.810770420386053e-05,4.9333,7.2667
0.0234375,-4.3461291566948966e-05,1.7578083975280377e-05,2.5390136859388106e-05,-4.638962487769895e-05,4.9333,7.2667
0.02734375,-4.150590530434119e-05,1.6600390843976497e-05,2.0995263851682295e-05,-4.150590530434119e-05,4.9333,7.2667
0.03125,-4.3461291566948966e-05,2.0995263851682295e-05,1.806218445777064e-05,-4.638962487769895e-05,4.9333,7.2667
0.03515625,-4.394539204943923e-05,9.277184525520709e-06,1.2205517836270686e-05,-4.8340265057145043e-05,4.9333,7.2667
0.0390625,-4.541193174639506e-05,4.874385101090865e-07,1.3667311450064843e-05,-4.6878471443350884e-05,4.9333,7.2667
0.04296875,-4.297244500129702e-05,-6.351667325856425e-06,1.0738978139314866e-05,-4.003936560738537e-05,4.9333,7.2667
0.046875,-3.857757199359121e-05,-9.791011868467337e-07,8.299491394216816e-06,-4.931795818844892e-05,4.9333,7.2667
0.05078125,-3.759987886228733e-05,6.832951697260995e-06,1.5133851147020663e-05,-5.4690524327458614e-05,4.9333,7.2667
0.0546875,-3.906641855924316e-05,2.926925255207138e-06,1.3183210967574567e-05,-3.418269898588541e-05,4.9333,7.2667
0.05859375,-4.101705873868926e-05,9.277184525520709e-06,5.855258565957115e-06,-3.369385242023347e-05,4.9333,7.2667
0.0625,-3.906641855924316e-05,1.6111544278324544e-05,6.832951697260995e-06,-2.7832439715571836e-05,4.9333,7.2667
0.06640625,-3.711103229663539e-05,1.0250131573662911e-05,1.5622697712672604e-05,-2.392641327351797e-05,4.9333,7.2667
0.0703125,-3.61333391653315e-05,-9.791011868467337e-07,2.926925255207138e-06,-2.588179953612574e-05,4.9333,7.2667
0.07421875,-3.467154555153735e-05,4.874385101090865e-07,-1.0746540333562222e-05,-1.9531540265812166e-05,4.9333,7.2667
0.078125,-3.759987886228733e-05,6.832951697260995e-06,4.874385101090865e-07,-3.418269898588541e-05,4.9333,7.2667
0.08203125,-3.662218573098345e-05,-9.791011868467337e-07,8.788337959868769e-06,-3.662218573098345e-05,4.9333,7.2667
0.0859375,-2.8810132846875722e-05,-4.396281063248651e-06,4.874385101090865e-07,-2.4904106404821858e-05,4.9333,7.2667
0.08984375,-3.857757199359121e-05,-6.351667325856425e-06,-1.220833394735638e-05,-3.857757199359121e-05,4.9333,7.2667
0.09375,-3.857757199359121e-05,-7.324614373998628e-06,-2.2464619659723815e-05,-4.8340265057145043e-05,4.9333,7.2667
0.09765625,-2.7832439715571836e-05,-6.840513891508365e-06,-1.9531540265812166e-05,-4.541193174639506e-05,4.9333,7.2667
0.1015625,-3.17384661576257e-05,-1.2697180513008326e-05,-1.6114360389410245e-05,-3.95552651248951e-05,4.9333,7.2667
0.10546875,-3.61333391653315e-05,-1.5136667258106363e-05,-1.5625513823758305e-05,-5.02956513197528e-05,4.9333,7.2667
0.109375,-3.857757199359121e-05,-2.53929529704738e-05,-1.806974665201801e-05,-5.176219101670863e-05,4.9333,7.2667
0.11328125,-4.101705873868926e-05,-2.1975773094071876e-05,-1.758090008636607e-05,-4.394539204943923e-05,4.9333,7.2667
0.1171875,-3.61333391653315e-05,-2.0998079962767996e-05,-2.0020386831464106e-05,-3.418269898588541e-05,4.9333,7.2667
0.12109375,-3.076551910948349e-05,-1.2697180513008326e-05,-1.660320695506219e-05,-3.125436567513543e-05,4.9333,7.2667
0.125,-3.467154555153735e-05,-4.885127628900591e-06,-1.1719487381704438e-05,-4.541193174639506e-05,4.9333,7.2667
0.12890625,-3.222731272327764e-05,-1.709205352071413e-05,-1.758090008636607e-05,-4.394539204943923e-05,4.9333,7.2667
0.1328125,-3.61333391653315e-05,-2.2464619659723815e-05,-2.7832439715571836e-05,-4.101705873868926e-05,4.9333,7.2667
0.13671875,-4.297244500129702e-05,-2.0509233397116046e-05,-2.8321286281223776e-05,-5.02956513197528e-05,4.9333,7.2667
0.140625,-3.857757199359121e-05,-1.806974665201801e-05,-1.220833394735638e-05,-5.127334445105669e-05,4.9333,7.2667
0.14453125,-3.61333391653315e-05,-2.0998079962767996e-05,-1.3674873644312206e-05,-3.0276672543831542e-05,4.9333,7.2667
0.1484375,-4.052821217303731e-05,-2.0020386831464106e-05,-2.0509233397116046e-05,-2.9787825978179602e-05,4.9333,7.2667
0.15234375,-4.150590530434119e-05,-2.7343593149919896e-05,-1.660320695506219e-05,-3.61333391653315e-05,4.9333,7.2667
0.15625,-4.248359843564507e-05,-3.271615928892959e-05,-2.441525983916991e-05,-3.906641855924316e-05,4.9333,7.2667
0.16015625,-4.003936560738537e-05,-2.53929529704738e-05,-1.9047439783321897e-05,-4.297244500129702e-05,4.9333,7.2667
0.1640625,-3.17384661576257e-05,-2.343756670786603e-05,-6.351667325856425e-06,-3.222731272327764e-05,4.9333,7.2667
0.16796875,-3.61333391653315e-05,-3.17384661576257e-05,-1.758090008636607e-05,-3.125436567513543e-05,4.9333,7.2667
0.171875,-4.003936560738537e-05,-2.7832439715571836e-05,-2.0509233397116046e-05,-3.467154555153735e-05,4.9333,7.2667
0.17578125,-4.052821217303731e-05,-3.418269898588541e-05,-2.1975773094071876e-05,-3.271615928892959e-05,4.9333,7.2667
0.1796875,-3.8088725427939275e-05,-3.125436567513543e-05,-2.0020386831464106e-05,-3.17384661576257e-05,4.9333,7.2667
0.18359375,-3.61333391653315e-05,-1.3674873644312206e-05,-1.220833394735638e-05,-3.076551910948349e-05,4.9333,7.2667
0.1875,-3.271615928892959e-05,-2.441525983916991e-05,-1.806974665201801e-05,-2.2953466225375762e-05,4.9333,7.2667
0.19140625,-2.7832439715571836e-05,-3.662218573098345e-05,-2.8321286281223776e-05,-1.660320695506219e-05,4.9333,7.2667
0.1953125,-3.857757199359121e-05,-4.003936560738537e-05,-3.467154555153735e-05,-2.7832439715571836e-05,4.9333,7.2667
0.19921875,-3.95552651248951e-05,-2.8810132846875722e-05,-3.17384661576257e-05,-2.9787825978179602e-05,4.9333,7.2667
0.203125,-2.9787825978179602e-05,-2.8321286281223776e-05,-2.441525983916991e-05,-1.5625513823758305e-05,4.9333,7.2667
0.20703125,-3.222731272327764e-05,-5.8596550769512476e-05,-4.394539204943923e-05,-1.4163720209964146e-05,4.9333,7.2667
0.2109375,-3.711103229663539e-05,-6.152488408026245e-05,-5.22462914991989e-05,-2.6859492667429627e-05,4.9333,7.2667
0.21484375,-3.0276672543831542e-05,-4.931795818844892e-05,-4.101705873868926e-05,-2.0020386831464106e-05,4.9333,7.2667
0.21875,-2.637064610177768e-05,-6.152488408026245e-05,-5.5668217458762494e-05,-7.324614373998628e-06,4.9333,7.2667
0.22265625,-2.7832439715571836e-05,-8.398334960128176e-05,-7.519834966903181e-05,-1.5136667258106363e-05,4.9333,7.2667
0.2265625,-3.0276672543831542e-05,-7.861078346227206e-05,-7.519834966903181e-05,-4.396281063248651e-06,4.9333,7.2667
0.23046875,-2.392641327351797e-05,-8.495629664942397e-05,-9.179540248538948e-05,8.788337959868769e-06,4.9333,7.2667
0.234375,-3.271615928892959e-05,-0.00012451015371877622,-0.00012646079389822234,-3.90743449759671e-06,4.9333,7.2667
0.23828125,-4.78514184914931e-05,-0.00012890502672648204,-0.00012646079389822234,9.762850757610407e-07,4.9333,7.2667
0.2421875,-2.0020386831464106e-05,-0.00012646079389822234,-0.0001176710478828107,1.6600390843976497e-05,4.9333,7.2667
0.24609375,-1.3674873644312206e-05,-0.00018066106360448614,-0.00016601465096757458,1.5622697712672604e-05,4.9333,7.2667
0.25,-2.9787825978179602e-05,-0.00019775170906965743,-0.00019286798949629967,1.3183210967574567e-05,4.9333,7.2667
0.25390625,-1.9047439783321897e-05,-0.00017968337047318225,-0.00019384568262760356,6.832951697260995e-06,4.9333,7.2667
0.2578125,-4.396281063248651e-06,-0.00019970234924910352,-0.0002167929947142748,1.9492321239032434e-06,4.9333,7.2667
0.26171875,-9.791011868467337e-07,-0.00020898094183016705,-0.00023193299999999998,3.904618386511018e-06,4.9333,7.2667
0.265625,3.904618386511018e-06,-0.0002060526085194171,-0.0002265604338609903,-3.4185879319447705e-06,4.9333,7.2667
0.26953125,2.926925255207138e-06,-0.00021581530158297092,-0.00022607158729533836,-7.324614373998628e-06,4.9333,7.2667
0.2734375,-7.813460939650582e-06,-0.0002050749153881132,-0.00021288696827222094,-2.588179953612574e-05,4.9333,7.2667
0.27734375,-4.902546211947936e-07,-0.00020116888894605934,-0.00020654145508506902,-3.5644492599679566e-05,4.9333,7.2667
0.28125,7.810644828564874e-06,-0.00020703030165072098,-0.00022021017459067672,-2.9787825978179602e-05,4.9333,7.2667
0.28515625,4.874385101090865e-07,-0.0001767550371624323,-0.00019286798949629967,-4.638962487769895e-05,4.9333,7.2667
0.2890625,-3.90743449759671e-06,-0.0001562472118208591,-0.00017236016415472647,-4.492308518074311e-05,4.9333,7.2667
0.29296875,-4.885127628900591e-06,-0.00015526951868955518,-0.0001747996508998245,-4.101705873868926e-05,4.9333,7.2667
0.296875,-5.862820760204485e-06,-0.0001489240055024033,-0.00016015323826291296,-4.9806804754100866e-05,4.9333,7.2667
0.30078125,-6.840513891508365e-06,-0.00013378400021667812,-0.00014745746580544747,-5.810770420386053e-05,4.9333,7.2667
0.3046875,-1.4080555428535034e-09,-0.0001142538680064088,-0.0001284161801608301,-5.664116450690471e-05,4.9333,7.2667
0.30859375,8.788337959868769e-06,-0.000104002328377203,-0.00011620925426901655,-6.348027034287022e-05,4.9333,7.2667
0.3125,9.762850757610407e-07,-0.00010058514850080109,-0.0001240213071531243,-8.10502702073701e-05,4.9333,7.2667
0.31640625,-1.4652566775616087e-05,-9.032886278843367e-05,-0.00011913758757976653,-7.66553971996643e-05,4.9333,7.2667
0.3203125,-1.6114360389410245e-05,-8.10502702073701e-05,-0.00010351348181155109,-7.324296340642406e-05,4.9333,7.2667
0.32421875,-2.2464619659723815e-05,-8.495629664942397e-05,-9.667912205874724e-05,-7.763309033096819e-05,4.9333,7.2667
0.328125,-2.637064610177768e-05,-7.61760428003357e-05,-9.423488923048752e-05,-8.984001622278172e-05,4.9333,7.2667
0.33203125,-2.9787825978179602e-05,-7.422065653772793e-05,-7.61760428003357e-05,-9.08177093540856e-05,4.9333,7.2667
0.3359375,-3.418269898588541e-05,-5.810770420386053e-05,-6.348027034287022e-05,-8.886232309147782e-05,4.9333,7.2667
0.33984375,-3.271615928892959e-05,-3.662218573098345e-05,-5.615231794125277e-05,-9.325719609918364e-05,4.9333,7.2667
0.34375,-2.9787825978179602e-05,-3.0276672543831542e-05,-4.4434238615091175e-05,-9.130655591973754e-05,4.9333,7.2667
0.34765625,-3.61333391653315e-05,-2.343756670786603e-05,-3.711103229663539e-05,-9.71632225412375e-05,4.9333,7.2667
0.3515625,-4.101705873868926e-05,-2.343756670786603e-05,-3.076551910948349e-05,-9.228424905104143e-05,4.9333,7.2667
0.35546875,-3.418269898588541e-05,-2.0020386831464106e-05,-2.1486926528419936e-05,-7.031463009567407e-05,4.9333,7.2667
0.359375,-3.662218573098345e-05,3.4157718208590776e-06,-1.0746540333562222e-05,-6.250257721156635e-05,4.9333,7.2667
0.36328125,-3.711103229663539e-05,2.636308390753031e-05,-1.4679477524986737e-06,-7.61760428003357e-05,4.9333,7.2667
0.3671875,-3.95552651248951e-05,3.954770293064773e-05,1.4603855582513034e-06,-7.714424376531625e-05,4.9333,7.2667
0.37109375,-4.3461291566948966e-05,3.5641676488593875e-05,-3.4185879319447705e-06,-6.884809039871824e-05,4.9333,7.2667
0.375,-4.394539204943923e-05,2.0995263851682295e-05,4.3934649521629576e-06,-7.080347666132602e-05,4.9333,7.2667
0.37890625,-4.492308518074311e-05,1.7089237409628437e-05,1.4645004581368723e-05,-6.591975708796826e-05,4.9333,7.2667
0.3828125,-4.541193174639506e-05,2.7340777038834202e-05,1.806218445777064e-05,-5.908539733516441e-05,4.9333,7.2667
0.38671875,-4.736731800900283e-05,2.636308390753031e-05,2.3923597162432274e-05,-5.22462914991989e-05,4.9333,7.2667
0.390625,-4.931795818844892e-05,9.277184525520709e-06,2.196821089982451e-05,-5.664116450690471e-05,4.9333,7.2667
0.39453125,-4.8340265057145043e-05,9.761285008010971e-06,2.0017570720378415e-05,-5.908539733516441e-05,4.9333,7.2667
0.3984375,-4.297244500129702e-05,1.2205517836270686e-05,1.3667311450064843e-05,-5.615231794125277e-05,4.9333,7.2667
0.40234375,-3.418269898588541e-05,1.1716671270618746e-05,2.831847017013808e-05,-5.5668217458762494e-05,4.9333,7.2667
0.40625,-4.150590530434119e-05,3.4157718208590776e-06,3.466398335728999e-05,-5.810770420386053e-05,4.9333,7.2667
0.41015625,-5.0784497885404746e-05,1.1227824704966806e-05,1.7578083975280377e-05,-5.420167776180668e-05,4.9333,7.2667
0.4140625,-4.4434238615091175e-05,1.6600390843976497e-05,2.0506417286030355e-05,-4.1994751869993136e-05,4.9333,7.2667
0.41796875,-4.150590530434119e-05,1.3183210967574567e-05,2.245705746547645e-05,-4.394539204943923e-05,4.9333,7.2667
0.421875,-4.394539204943923e-05,2.8807316735790025e-05,2.0017570720378415e-05,-6.054719094895857e-05,4.9333,7.2667
0.42578125,-3.8088725427939275e-05,2.636308390753031e-05,1.1716671270618746e-05,-5.127334445105669e-05,4.9333,7.2667
0.4296875,-3.61333391653315e-05,2.0995263851682295e-05,-1.4080555428535034e-09,-3.076551910948349e-05,4.9333,7.2667
0.43359375,-4.541193174639506e-05,1.4156158015716783e-05,-4.902546211947936e-07,-4.248359843564507e-05,4.9333,7.2667
0.4375,-4.297244500129702e-05,1.4156158015716783e-05,4.882311517814898e-06,-5.713001107255665e-05,4.9333,7.2667
0.44140625,-3.516039211718929e-05,1.2205517836270686e-05,2.926925255207138e-06,-4.101705873868926e-05,4.9333,7.2667
0.4453125,-3.8088725427939275e-05,4.874385101090865e-07,3.4157718208590776e-06,-3.857757199359121e-05,4.9333,7.2667
0.44921875,-2.9787825978179602e-05,1.0250131573662911e-05,5.371158083466838e-06,-4.1994751869993136e-05,4.9333,7.2667
0.453125,-2.8321286281223776e-05,1.5133851147020663e-05,9.762850757610407e-07,-5.22462914991989e-05,4.9333,7.2667
0.45703125,-3.076551910948349e-05,1.4603855582513034e-06,9.762850757610407e-07,-4.6878471443350884e-05,4.9333,7.2667
0.4609375,-2.6859492667429627e-05,2.926925255207138e-06,4.882311517814898e-06,-3.759987886228733e-05,4.9333,7.2667
0.46484375,-3.5644492599679566e-05,-9.791011868467337e-07,-1.956794318150614e-06,-5.5668217458762494e-05,4.9333,7.2667
0.46875,-3.8088725427939275e-05,-1.5136667258106363e-05,-5.862820760204485e-06,-5.713001107255665e-05,4.9333,7.2667
0.47265625,-3.662218573098345e-05,-1.220833394735638e-05,-1.4080555428535034e-09,-5.02956513197528e-05,4.9333,7.2667
0.4765625,-3.125436567513543e-05,4.874385101090865e-07,4.882311517814898e-06,-4.1994751869993136e-05,4.9333,7.2667
0.48046875,-2.441525983916991e-05,1.2694364401922627e-05,1.2205517836270686e-05,-4.5900778312047e-05,4.9333,7.2667
0.484375,-2.9787825978179602e-05,9.761285008010971e-06,-2.4456408838025537e-06,-4.5900778312047e-05,4.9333,7.2667
0.48828125,-3.711103229663539e-05,1.9492321239032434e-06,-1.1230640816052499e-05,-4.882911162279699e-05,4.9333,7.2667
0.4921875,-3.5644492599679566e-05,-1.956794318150614e-06,-1.1230640816052499e-05,-5.420167776180668e-05,4.9333,7.2667
0.49609375,-3.8088725427939275e-05,-9.280000636606401e-06,-1.5625513823758305e-05,-4.492308518074311e-05,4.9333,7.2667
0.5,-4.248359843564507e-05,-1.2697180513008326e-05,8.299491394216816e-06,-3.857757199359121e-05,4.9333,7.2667
0.50390625,-3.125436567513543e-05,4.882311517814898e-06,1.7089237409628437e-05,-2.2953466225375762e-05,4.9333,7.2667
0.5078125,-2.637064610177768e-05,1.7578083975280377e-05,8.788337959868769e-06,-3.222731272327764e-05,4.9333,7.2667
0.51171875,-3.467154555153735e-05,8.299491394216816e-06,7.321798262912935e-06,-4.248359843564507e-05,4.9333,7.2667
0.515625,-3.418269898588541e-05,1.0250131573662911e-05,1.9492321239032434e-06,-3.369385242023347e-05,4.9333,7.2667
0.51953125,-3.0276672543831542e-05,8.788337959868769e-06,-1.4080555428535034e-09,-3.662218573098345e-05,4.9333,7.2667
0.5234375,-3.17384661576257e-05,1.1227824704966806e-05,-1.956794318150614e-06,-4.931795818844892e-05,4.9333,7.2667
0.52734375,-2.7343593149919896e-05,7.810644828564874e-06,-6.351667325856425e-06,-7.178116979262989e-05,4.9333,7.2667
0.53125,-2.53929529704738e-05,-9.768847202258343e-06,-1.4652566775616087e-05,-6.64086036536202e-05,4.9333,7.2667
0.53515625,-3.0276672543831542e-05,-4.396281063248651e-06,-2.8321286281223776e-05,-3.17384661576257e-05,4.9333,7.2667
0.5390625,-3.467154555153735e-05,-1.956794318150614e-06,-2.7832439715571836e-05,-1.9531540265812166e-05,4.9333,7.2667
0.54296875,-3.759987886228733e-05,-1.0257693767910283e-05,-1.220833394735638e-05,-3.125436567513543e-05,4.9333,7.2667
0.546875,-3.467154555153735e-05,-1.1230640816052499e-05,-9.280000636606401e-06,-3.076551910948349e-05,4.9333,7.2667
0.55078125,-3.0276672543831542e-05,-1.660320695506219e-05,-3.076551910948349e-05,-2.4904106404821858e-05,4.9333,7.2667
0.5546875,-3.711103229663539e-05,-1.660320695506219e-05,-2.7832439715571836e-05,-3.662218573098345e-05,4.9333,7.2667
0.55859375,-4.248359843564507e-05,-1.4080555428535034e-09,-6.351667325856425e-06,-3.516039211718929e-05,4.9333,7.2667
0.5625,-2.9787825978179602e-05,-9.791011868467337e-07,-1.709205352071413e-05,-2.9298979412527662e-05,4.9333,7.2667
0.56640625,-1.9531540265812166e-05,-2.1486926528419936e-05,-3.5644492599679566e-05,-3.17384661576257e-05,4.9333,7.2667
0.5703125,-2.588179953612574e-05,-2.1975773094071876e-05,-4.6878471443350884e-05,-4.3461291566948966e-05,4.9333,7.2667
0.57421875,-3.418269898588541e-05,-2.1975773094071876e-05,-5.127334445105669e-05,-4.248359843564507e-05,4.9333,7.2667
0.578125,-2.6859492667429627e-05,-2.637064610177768e-05,-5.615231794125277e-05,-4.4434238615091175e-05,4.9333,7.2667
0.58203125,-2.7343593149919896e-05,-3.857757199359121e-05,-6.20137306459144e-05,-5.517937089311056e-05,4.9333,7.2667
0.5859375,-3.320500585458153e-05,-3.906641855924316e-05,-6.591975708796826e-05,-5.908539733516441e-05,4.9333,7.2667
0.58984375,-3.61333391653315e-05,-4.150590530434119e-05,-6.103603751461052e-05,-6.20137306459144e-05,4.9333,7.2667
0.59375,-3.369385242023347e-05,-4.5900778312047e-05,-6.591975708796826e-05,-5.7618857638208596e-05,4.9333,7.2667
0.59765625,-3.516039211718929e-05,-4.297244500129702e-05,-6.445321739101245e-05,-5.127334445105669e-05,4.9333,7.2667
0.6015625,-3.857757199359121e-05,-3.61333391653315e-05,-4.101705873868926e-05,-5.0784497885404746e-05,4.9333,7.2667
0.60546875,-3.759987886228733e-05,-3.711103229663539e-05,-4.003936560738537e-05,-5.4690524327458614e-05,4.9333,7.2667
0.609375,-3.516039211718929e-05,-4.3461291566948966e-05,-4.736731800900283e-05,-4.4434238615091175e-05,4.9333,7.2667
0.61328125,-3.662218573098345e-05,-3.857757199359121e-05,-4.6878471443350884e-05,-4.101705873868926e-05,4.9333,7.2667
0.6171875,-4.052821217303731e-05,-3.711103229663539e-05,-4.931795818844892e-05,-4.78514184914931e-05,4.9333,7.2667
0.62109375,-3.320500585458153e-05,-2.588179953612574e-05,-4.3461291566948966e-05,-4.101705873868926e-05,4.9333,7.2667
0.625,-3.271615928892959e-05,-2.588179953612574e-05,-3.17384661576257e-05,-3.369385242023347e-05,4.9333,7.2667
0.62890625,-3.61333391653315e-05,-4.052821217303731e-05,-4.101705873868926e-05,-4.101705873868926e-05,4.9333,7.2667
0.6328125,-3.5644492599679566e-05,-4.736731800900283e-05,-4.101705873868926e-05,-5.176219101670863e-05,4.9333,7.2667
0.63671875,-3.857757199359121e-05,-4.1994751869993136e-05,-3.320500585458153e-05,-4.492308518074311e-05,4.9333,7.2667
0.640625,-3.17384661576257e-05,-3.5644492599679566e-05,-3.61333391653315e-05,-2.588179953612574e-05,4.9333,7.2667
0.64453125,-3.711103229663539e-05,-3.906641855924316e-05,-3.711103229663539e-05,-3.467154555153735e-05,4.9333,7.2667
0.6484375,-3.906641855924316e-05,-3.857757199359121e-05,-3.857757199359121e-05,-4.297244500129702e-05,4.9333,7.2667
0.65234375,-3.759987886228733e-05,-4.4434238615091175e-05,-4.3461291566948966e-05,-4.150590530434119e-05,4.9333,7.2667
0.65625,-3.662218573098345e-05,-3.0276672543831542e-05,-4.3461291566948966e-05,-3.61333391653315e-05,4.9333,7.2667
0.66015625,-3.5644492599679566e-05,-2.4904106404821858e-05,-3.5644492599679566e-05,-3.711103229663539e-05,4.9333,7.2667
0.6640625,-4.394539204943923e-05,-3.125436567513543e-05,-3.418269898588541e-05,-4.492308518074311e-05,4.9333,7.2667
0.66796875,-4.003936560738537e-05,-3.076551910948349e-05,-4.150590530434119e-05,-4.394539204943923e-05,4.9333,7.2667
0.671875,-3.222731272327764e-05,-3.95552651248951e-05,-4.150590530434119e-05,-3.662218573098345e-05,4.9333,7.2667
0.67578125,-2.637064610177768e-05,-2.6859492667429627e-05,-2.6859492667429627e-05,-3.5644492599679566e-05,4.9333,7.2667
0.6796875,-3.0276672543831542e-05,-2.4904106404821858e-05,-1.855859321766995e-05,-4.541193174639506e-05,4.9333,7.2667
0.68359375,-3.662218573098345e-05,-4.052821217303731e-05,-2.343756670786603e-05,-3.467154555153735e-05,4.9333,7.2667
0.6875,-3.662218573098345e-05,-4.1994751869993136e-05,-3.906641855924316e-05,-2.8321286281223776e-05,4.9333,7.2667
0.69140625,-3.906641855924316e-05,-3.0276672543831542e-05,-4.78514184914931e-05,-3.759987886228733e-05,4.9333,7.2667
0.6953125,-4.101705873868926e-05,-3.906641855924316e-05,-4.8340265057145043e-05,-2.441525983916991e-05,4.9333,7.2667
0.69921875,-3.8088725427939275e-05,-3.857757199359121e-05,-3.759987886228733e-05,-1.709205352071413e-05,4.9333,7.2667
0.703125,-3.95552651248951e-05,-2.0998079962767996e-05,-1.758090008636607e-05,-2.7343593149919896e-05,4.9333,7.2667
0.70703125,-3.95552651248951e-05,-2.4904106404821858e-05,-1.9047439783321897e-05,-3.418269898588541e-05,4.9333,7.2667
0.7109375,-3.857757199359121e-05,-2.2953466225375762e-05,-2.2953466225375762e-05,-2.9298979412527662e-05,4.9333,7.2667
0.71484375,-3.711103229663539e-05,-2.2464619659723815e-05,-2.53929529704738e-05,-2.53929529704738e-05,4.9333,7.2667
0.71875,-3.906641855924316e-05,-2.9787825978179602e-05,-3.222731272327764e-05,-3.467154555153735e-05,4.9333,7.2667
0.72265625,-4.736731800900283e-05,-2.8321286281223776e-05,-2.0509233397116046e-05,-4.4434238615091175e-05,4.9333,7.2667
0.7265625,-4.541193174639506e-05,-2.7343593149919896e-05,-2.588179953612574e-05,-3.759987886228733e-05,4.9333,7.2667
0.73046875,-3.857757199359121e-05,-3.467154555153735e-05,-5.176219101670863e-05,-2.8321286281223776e-05,4.9333,7.2667
0.734375,-3.711103229663539e-05,-3.759987886228733e-05,-4.5900778312047e-05,-3.61333391653315e-05,4.9333,7.2667
0.73828125,-3.662218573098345e-05,-2.9298979412527662e-05,-3.418269898588541e-05,-4.3461291566948966e-05,4.9333,7.2667
0.7421875,-4.003936560738537e-05,-2.4904106404821858e-05,-3.467154555153735e-05,-3.418269898588541e-05,4.9333,7.2667
0.74609375,-3.906641855924316e-05,-3.418269898588541e-05,-3.662218573098345e-05,-2.9787825978179602e-05,4.9333,7.2667
0.75,-3.8088725427939275e-05,-3.711103229663539e-05,-3.418269898588541e-05,-3.271615928892959e-05,4.9333,7.2667
0.75390625,-4.003936560738537e-05,-3.222731272327764e-05,-3.5644492599679566e-05,-2.8321286281223776e-05,4.9333,7.2667
0.7578125,-4.248359843564507e-05,-4.297244500129702e-05,-2.6859492667429627e-05,-2.637064610177768e-05,4.9333,7.2667
0.76171875,-4.78514184914931e-05,-4.5900778312047e-05,-2.588179953612574e-05,-3.467154555153735e-05,4.9333,7.2667
0.765625,-4.492308518074311e-05,-4.150590530434119e-05,-3.17384661576257e-05,-4.052821217303731e-05,4.9333,7.2667
0.76953125,-4.248359843564507e-05,-3.61333391653315e-05,-2.8321286281223776e-05,-3.5644492599679566e-05,4.9333,7.2667
0.7734375,-3.759987886228733e-05,-3.125436567513543e-05,-3.61333391653315e-05,-3.076551910948349e-05,4.9333,7.2667
0.77734375,-3.418269898588541e-05,-2.8810132846875722e-05,-3.271615928892959e-05,-2.392641327351797e-05,4.9333,7.2667
0.78125,-3.857757199359121e-05,-3.467154555153735e-05,-1.5136667258106363e-05,-1.9531540265812166e-05,4.9333,7.2667
0.78515625,-3.8088725427939275e-05,-2.588179953612574e-05,-9.768847202258343e-06,-2.1486926528419936e-05,4.9333,7.2667
0.7890625,-3.418269898588541e-05,-2.392641327351797e-05,-2.2464619659723815e-05,-1.4163720209964146e-05,4.9333,7.2667
0.79296875,-3.759987886228733e-05,-2.8321286281223776e-05,-3.125436567513543e-05,-1.660320695506219e-05,4.9333,7.2667
0.796875,-4.541193174639506e-05,-2.2953466225375762e-05,-2.7343593149919896e-05,-2.7832439715571836e-05,4.9333,7.2667
0.80078125,-4.1994751869993136e-05,-2.8810132846875722e-05,-1.9531540265812166e-05,-3.076551910948349e-05,4.9333,7.2667
0.8046875,-3.95552651248951e-05,-4.101705873868926e-05,-2.53929529704738e-05,-3.0276672543831542e-05,4.9333,7.2667
0.80859375,-4.248359843564507e-05,-4.492308518074311e-05,-3.222731272327764e-05,-3.222731272327764e-05,4.9333,7.2667
0.8125,-4.297244500129702e-05,-5.420167776180668e-05,-3.61333391653315e-05,-4.101705873868926e-05,4.9333,7.2667
0.81640625,-4.101705873868926e-05,-5.22462914991989e-05,-3.95552651248951e-05,-4.3461291566948966e-05,4.9333,7.2667
0.8203125,-3.711103229663539e-05,-4.297244500129702e-05,-3.61333391653315e-05,-3.467154555153735e-05,4.9333,7.2667
0.82421875,-3.369385242023347e-05,-4.003936560738537e-05,-3.711103229663539e-05,-2.9298979412527662e-05,4.9333,7.2667
0.828125,-3.418269898588541e-05,-4.052821217303731e-05,-2.9787825978179602e-05,-3.467154555153735e-05,4.9333,7.2667
0.83203125,-2.8810132846875722e-05,-4.78514184914931e-05,-1.9531540265812166e-05,-3.369385242023347e-05,4.9333,7.2667
0.8359375,-1.855859321766995e-05,-3.759987886228733e-05,-2.2953466225375762e-05,-1.855859321766995e-05,4.9333,7.2667
0.83984375,-1.9047439783321897e-05,-2.441525983916991e-05,-2.588179953612574e-05,-2.637064610177768e-05,4.9333,7.2667
0.84375,-2.7343593149919896e-05,-2.7832439715571836e-05,-2.4904106404821858e-05,-3.467154555153735e-05,4.9333,7.2667
0.84765625,-3.271615928892959e-05,-3.222731272327764e-05,-2.2953466225375762e-05,-2.8321286281223776e-05,4.9333,7.2667
0.8515625,-3.17384661576257e-05,-3.61333391653315e-05,-3.125436567513543e-05,-2.9787825978179602e-05,4.9333,7.2667
0.85546875,-3.076551910948349e-05,-3.369385242023347e-05,-2.4904106404821858e-05,-4.003936560738537e-05,4.9333,7.2667
0.859375,-3.17384661576257e-05,-3.125436567513543e-05,-1.660320695506219e-05,-3.8088725427939275e-05,4.9333,7.2667
0.86328125,-3.418269898588541e-05,-2.9298979412527662e-05,-2.0020386831464106e-05,-3.076551910948349e-05,4.9333,7.2667
0.8671875,-3.516039211718929e-05,-3.222731272327764e-05,-2.441525983916991e-05,-2.6859492667429627e-05,4.9333,7.2667
0.87109375,-3.857757199359121e-05,-3.271615928892959e-05,-3.516039211718929e-05,-2.7832439715571836e-05,4.9333,7.2667
0.875,-3.95552651248951e-05,-3.5644492599679566e-05,-4.297244500129702e-05,-3.711103229663539e-05,4.9333,7.2667
0.87890625,-4.1994751869993136e-05,-3.906641855924316e-05,-4.1994751869993136e-05,-3.5644492599679566e-05,4.9333,7.2667
0.8828125,-4.3461291566948966e-05,-4.248359843564507e-05,-4.248359843564507e-05,-3.467154555153735e-05,4.9333,7.2667
0.88671875,-3.857757199359121e-05,-4.297244500129702e-05,-3.759987886228733e-05,-3.759987886228733e-05,4.9333,7.2667
0.890625,-3.5644492599679566e-05,-4.736731800900283e-05,-3.125436567513543e-05,-3.662218573098345e-05,4.9333,7.2667
0.89453125,-3.418269898588541e-05,-4.150590530434119e-05,-3.418269898588541e-05,-2.8321286281223776e-05,4.9333,7.2667
0.8984375,-3.369385242023347e-05,-3.857757199359121e-05,-3.662218573098345e-05,-2.9787825978179602e-05,4.9333,7.2667
0.90234375,-3.95552651248951e-05,-3.759987886228733e-05,-2.8810132846875722e-05,-4.492308518074311e-05,4.9333,7.2667
0.90625,-4.5900778312047e-05,-2.9298979412527662e-05,-3.076551910948349e-05,-4.8340265057145043e-05,4.9333,7.2667
0.91015625,-4.052821217303731e-05,-3.418269898588541e-05,-4.5900778312047e-05,-3.467154555153735e-05,4.9333,7.2667
0.9140625,-3.8088725427939275e-05,-4.3461291566948966e-05,-4.78514184914931e-05,-2.8810132846875722e-05,4.9333,7.2667
0.91796875,-4.394539204943923e-05,-4.931795818844892e-05,-4.638962487769895e-05,-2.9787825978179602e-05,4.9333,7.2667
0.921875,-4.248359843564507e-05,-4.394539204943923e-05,-4.052821217303731e-05,-2.0998079962767996e-05,4.9333,7.2667
0.92578125,-3.418269898588541e-05,-3.8088725427939275e-05,-3.8088725427939275e-05,-1.9531540265812166e-05,4.9333,7.2667
0.9296875,-3.662218573098345e-05,-4.248359843564507e-05,-3.467154555153735e-05,-2.2953466225375762e-05,4.9333,7.2667
0.93359375,-4.003936560738537e-05,-5.273513806485084e-05,-2.9298979412527662e-05,-2.441525983916991e-05,4.9333,7.2667
0.9375,-3.5644492599679566e-05,-5.0784497885404746e-05,-3.271615928892959e-05,-3.125436567513543e-05,4.9333,7.2667
0.94140625,-3.320500585458153e-05,-4.394539204943923e-05,-3.61333391653315e-05,-3.17384661576257e-05,4.9333,7.2667
0.9453125,-3.17384661576257e-05,-3.759987886228733e-05,-3.906641855924316e-05,-3.222731272327764e-05,4.9333,7.2667
0.94921875,-3.95552651248951e-05,-3.271615928892959e-05,-3.61333391653315e-05,-4.78514184914931e-05,4.9333,7.2667
0.953125,-4.1994751869993136e-05,-3.418269898588541e-05,-3.320500585458153e-05,-4.394539204943923e-05,4.9333,7.2667
0.95703125,-3.759987886228733e-05,-3.61333391653315e-05,-3.95552651248951e-05,-2.6859492667429627e-05,4.9333,7.2667
0.9609375,-3.369385242023347e-05,-3.467154555153735e-05,-4.003936560738537e-05,-2.637064610177768e-05,4.9333,7.2667
0.96484375,-2.8321286281223776e-05,-2.7832439715571836e-05,-2.53929529704738e-05,-3.271615928892959e-05,4.9333,7.2667
0.96875,-3.125436567513543e-05,-3.759987886228733e-05,-2.6859492667429627e-05,-3.125436567513543e-05,4.9333,7.2667
0.97265625,-3.320500585458153e-05,-4.1994751869993136e-05,-3.711103229663539e-05,-2.0509233397116046e-05,4.9333,7.2667
0.9765625,-3.662218573098345e-05,-3.516039211718929e-05,-3.95552651248951e-05,-3.076551910948349e-05,4.9333,7.2667
0.98046875,-3.516039211718929e-05,-4.003936560738537e-05,-3.759987886228733e-05,-3.467154555153735e-05,4.9333,7.2667
0.984375,-3.222731272327764e-05,-3.8088725427939275e-05,-3.369385242023347e-05,-2.392641327351797e-05,4.9333,7.2667
0.98828125,-3.222731272327764e-05,-2.4904106404821858e-05,-3.906641855924316e-05,-2.588179953612574e-05,4.9333,7.2667
0.9921875,-3.516039211718929e-05,-3.222731272327764e-05,-4.248359843564507e-05,-3.076551910948349e-05,4.9333,7.2667
0.99609375,-3.369385242023347e-05,-4.8340265057145043e-05,-3.418269898588541e-05,-2.7343593149919896e-05,4.9333,7.2667
1.0,-2.9298979412527662e-05,-4.101705873868926e-05,-3.125436567513543e-05,-2.0998079962767996e-05,4.9333,7.2667
1.00390625,-2.9298979412527662e-05,-2.9298979412527662e-05,-2.0998079962767996e-05,-2.53929529704738e-05,4.9333,7.2667
1.0078125,-3.271615928892959e-05,-3.711103229663539e-05,-1.0746540333562222e-05,-3.61333391653315e-05,4.9333,7.2667
1.01171875,-2.8810132846875722e-05,-4.6878471443350884e-05,-1.0746540333562222e-05,-3.271615928892959e-05,4.9333,7.2667
1.015625,-2.2953466225375762e-05,-3.906641855924316e-05,-2.441525983916991e-05,-1.806974665201801e-05,4.9333,7.2667
1.01953125,-2.7343593149919896e-05,-2.637064610177768e-05,-2.588179953612574e-05,-3.320500585458153e-05,4.9333,7.2667
1.0234375,-3.076551910948349e-05,-3.320500585458153e-05,-1.220833394735638e-05,-3.857757199359121e-05,4.9333,7.2667
1.02734375,-3.125436567513543e-05,-3.61333391653315e-05,-2.0509233397116046e-05,-3.076551910948349e-05,4.9333,7.2667
1.03125,-3.467154555153735e-05,-3.0276672543831542e-05,-2.7832439715571836e-05,-2.2464619659723815e-05,4.9333,7.2667
1.03515625,-3.759987886228733e-05,-3.95552651248951e-05,-3.0276672543831542e-05,-2.0509233397116046e-05,4.9333,7.2667
1.0390625,-4.003936560738537e-05,-4.541193174639506e-05,-3.759987886228733e-05,-3.222731272327764e-05,4.9333,7.2667
1.04296875,-3.906641855924316e-05,-3.467154555153735e-05,-3.076551910948349e-05,-2.9298979412527662e-05,4.9333,7.2667
1.046875,-3.711103229663539e-05,-2.9298979412527662e-05,-1.758090008636607e-05,-2.0998079962767996e-05,4.9333,7.2667
1.05078125,-3.516039211718929e-05,-2.7343593149919896e-05,-2.1975773094071876e-05,-2.2464619659723815e-05,4.9333,7.2667
1.0546875,-3.516039211718929e-05,-3.759987886228733e-05,-2.4904106404821858e-05,-3.076551910948349e-05,4.9333,7.2667
1.05859375,-3.5644492599679566e-05,-4.5900778312047e-05,-2.0998079962767996e-05,-3.320500585458153e-05,4.9333,7.2667
1.0625,-3.95552651248951e-05,-4.248359843564507e-05,-2.53929529704738e-05,-3.418269898588541e-05,4.9333,7.2667
1.06640625,-4.394539204943923e-05,-3.271615928892959e-05,-2.53929529704738e-05,-3.271615928892959e-05,4.9333,7.2667
1.0703125,-3.5644492599679566e-05,-2.8321286281223776e-05,-3.320500585458153e-05,-3.125436567513543e-05,4.9333,7.2667
1.07421875,-3.320500585458153e-05,-2.1975773094071876e-05,-4.78514184914931e-05,-2.9787825978179602e-05,4.9333,7.2667
1.078125,-3.222731272327764e-05,-2.0998079962767996e-05,-3.662218573098345e-05,-2.8810132846875722e-05,4.9333,7.2667
1.08203125,-3.076551910948349e-05,-3.125436567513543e-05,-1.660320695506219e-05,-4.052821217303731e-05,4.9333,7.2667
1.0859375,-3.271615928892959e-05,-3.857757199359121e-05,-1.4652566775616087e-05,-3.711103229663539e-05,4.9333,7.2667
1.08984375,-3.467154555153735e-05,-3.95552651248951e-05,-2.4904106404821858e-05,-2.7832439715571836e-05,4.9333,7.2667
1.09375,-3.662218573098345e-05,-5.127334445105669e-05,-3.516039211718929e-05,-3.369385242023347e-05,4.9333,7.2667
1.09765625,-3.418269898588541e-05,-5.127334445105669e-05,-2.6859492667429627e-05,-3.906641855924316e-05,4.9333,7.2667
1.1015625,-2.637064610177768e-05,-2.441525983916991e-05,-2.0998079962767996e-05,-2.8810132846875722e-05,4.9333,7.2667
1.10546875,-2.53929529704738e-05,-2.2953466225375762e-05,-3.125436567513543e-05,-1.758090008636607e-05,4.9333,7.2667
1.109375,-3.320500585458153e-05,-2.8321286281223776e-05,-4.3461291566948966e-05,-3.711103229663539e-05,4.9333,7.2667
1.11328125,-3.662218573098345e-05,-2.8810132846875722e-05,-4.541193174639506e-05,-4.5900778312047e-05,4.9333,7.2667
1.1171875,-3.467154555153735e-05,-4.394539204943923e-05,-4.492308518074311e-05,-3.0276672543831542e-05,4.9333,7.2667
1.12109375,-4.052821217303731e-05,-4.4434238615091175e-05,-4.248359843564507e-05,-3.222731272327764e-05,4.9333,7.2667
1.125,-4.003936560738537e-05,-3.369385242023347e-05,-3.467154555153735e-05,-4.003936560738537e-05,4.9333,7.2667
1.12890625,-3.467154555153735e-05,-4.1994751869993136e-05,-3.711103229663539e-05,-3.418269898588541e-05,4.9333,7.2667
1.1328125,-3.516039211718929e-05,-4.394539204943923e-05,-4.394539204943923e-05,-2.9787825978179602e-05,4.9333,7.2667
1.13671875,-3.222731272327764e-05,-3.369385242023347e-05,-4.4434238615091175e-05,-3.0276672543831542e-05,4.9333,7.2667
1.140625,-3.418269898588541e-05,-3.662218573098345e-05,-3.320500585458153e-05,-3.516039211718929e-05,4.9333,7.2667
1.14453125,-4.101705873868926e-05,-4.394539204943923e-05,-2.7343593149919896e-05,-4.052821217303731e-05,4.9333,7.2667
1.1484375,-3.5644492599679566e-05,-3.95552651248951e-05,-3.0276672543831542e-05,-3.222731272327764e-05,4.9333,7.2667
1.15234375,-3.467154555153735e-05,-3.906641855924316e-05,-3.5644492599679566e-05,-2.1975773094071876e-05,4.9333,7.2667
1.15625,-3.61333391653315e-05,-3.5644492599679566e-05,-3.662218573098345e-05,-2.392641327351797e-05,4.9333,7.2667
1.16015625,-3.5644492599679566e-05,-2.392641327351797e-05,-2.0998079962767996e-05,-3.222731272327764e-05,4.9333,7.2667
1.1640625,-2.8810132846875722e-05,-1.0257693767910283e-05,-1.9047439783321897e-05,-2.637064610177768e-05,4.9333,7.2667
1.16796875,-2.637064610177768e-05,-1.709205352071413e-05,-2.637064610177768e-05,-2.4904106404821858e-05,4.9333,7.2667
1.171875,-3.271615928892959e-05,-2.9787825978179602e-05,-3.320500585458153e-05,-2.9787825978179602e-05,4.9333,7.2667
1.17578125,-3.369385242023347e-05,-3.5644492599679566e-05,-3.61333391653315e-05,-3.711103229663539e-05,4.9333,7.2667
1.1796875,-3.222731272327764e-05,-4.248359843564507e-05,-3.61333391653315e-05,-4.5900778312047e-05,4.9333,7.2667
1.18359375,-3.320500585458153e-05,-3.8088725427939275e-05,-4.394539204943923e-05,-3.5644492599679566e-05,4.9333,7.2667
1.1875,-3.662218573098345e-05,-3.467154555153735e-05,-4.1994751869993136e-05,-2.4904106404821858e-05,4.9333,7.2667
1.19140625,-3.8088725427939275e-05,-3.906641855924316e-05,-4.492308518074311e-05,-2.588179953612574e-05,4.9333,7.2667
1.1953125,-3.5644492599679566e-05,-3.418269898588541e-05,-4.297244500129702e-05,-2.392641327351797e-05,4.9333,7.2667
1.19921875,-3.369385242023347e-05,-2.2464619659723815e-05,-3.516039211718929e-05,-2.1486926528419936e-05,4.9333,7.2667
1.203125,-3.369385242023347e-05,-2.0509233397116046e-05,-2.2464619659723815e-05,-3.516039211718929e-05,4.9333,7.2667
1.20703125,-3.418269898588541e-05,-3.369385242023347e-05,-2.2464619659723815e-05,-4.052821217303731e-05,4.9333,7.2667
1.2109375,-3.711103229663539e-05,-3.8088725427939275e-05,-4.101705873868926e-05,-3.467154555153735e-05,4.9333,7.2667
1.21484375,-4.150590530434119e-05,-3.61333391653315e-05,-4.3461291566948966e-05,-3.61333391653315e-05,4.9333,7.2667
1.21875,-4.101705873868926e-05,-3.125436567513543e-05,-3.711103229663539e-05,-3.662218573098345e-05,4.9333,7.2667
1.22265625,-3.95552651248951e-05,-3.320500585458153e-05,-3.0276672543831542e-05,-3.418269898588541e-05,4.9333,7.2667
1.2265625,-3.711103229663539e-05,-3.271615928892959e-05,-3.759987886228733e-05,-4.150590530434119e-05,4.9333,7.2667
1.23046875,-4.297244500129702e-05,-3.369385242023347e-05,-4.394539204943923e-05,-5.127334445105669e-05,4.9333,7.2667
1.234375,-4.3461291566948966e-05,-3.95552651248951e-05,-4.150590530434119e-05,-4.052821217303731e-05,4.9333,7.2667
1.23828125,-4.101705873868926e-05,-3.95552651248951e-05,-4.4434238615091175e-05,-3.906641855924316e-05,4.9333,7.2667
1.2421875,-4.248359843564507e-05,-4.1994751869993136e-05,-3.516039211718929e-05,-3.0276672543831542e-05,4.9333,7.2667
1.24609375,-3.711103229663539e-05,-3.95552651248951e-05,-3.857757199359121e-05,-3.125436567513543e-05,4.9333,7.2667
1.25,-3.467154555153735e-05,-4.052821217303731e-05,-4.5900778312047e-05,-4.541193174639506e-05,4.9333,7.2667
1.25390625,-3.271615928892959e-05,-4.541193174639506e-05,-5.322398463050279e-05,-3.271615928892959e-05,4.9333,7.2667
1.2578125,-3.125436567513543e-05,-4.3461291566948966e-05,-5.7618857638208596e-05,-2.53929529704738e-05,4.9333,7.2667
1.26171875,-3.418269898588541e-05,-4.150590530434119e-05,-4.101705873868926e-05,-3.271615928892959e-05,4.9333,7.2667
1.265625,-3.17384661576257e-05,-4.150590530434119e-05,-3.271615928892959e-05,-2.7343593149919896e-05,4.9333,7.2667
1.26953125,-3.0276672543831542e-05,-4.150590530434119e-05,-3.95552651248951e-05,-2.53929529704738e-05,4.9333,7.2667
1.2734375,-2.9787825978179602e-05,-3.857757199359121e-05,-4.150590530434119e-05,-3.711103229663539e-05,4.9333,7.2667
1.27734375,-2.6859492667429627e-05,-3.711103229663539e-05,-3.711103229663539e-05,-3.857757199359121e-05,4.9333,7.2667
1.28125,-2.392641327351797e-05,-2.8321286281223776e-05,-3.467154555153735e-05,-4.248359843564507e-05,4.9333,7.2667
1.28515625,-2.1975773094071876e-05,-3.222731272327764e-05,-2.8810132846875722e-05,-3.759987886228733e-05,4.9333,7.2667
1.2890625,-2.7832439715571836e-05,-3.125436567513543e-05,-3.222731272327764e-05,-2.9298979412527662e-05,4.9333,7.2667
1.29296875,-3.467154555153735e-05,-2.9787825978179602e-05,-2.7832439715571836e-05,-4.150590530434119e-05,4.9333,7.2667
1.296875,-3.17384661576257e-05,-3.320500585458153e-05,-2.588179953612574e-05,-4.297244500129702e-05,4.9333,7.2667
1.30078125,-2.9298979412527662e-05,-4.8340265057145043e-05,-4.492308518074311e-05,-2.9787825978179602e-05,4.9333,7.2667
1.3046875,-3.222731272327764e-05,-5.371283119615473e-05,-4.394539204943923e-05,-3.906641855924316e-05,4.9333,7.2667
1.30859375,-3.320500585458153e-05,-3.369385242023347e-05,-3.61333391653315e-05,-4.052821217303731e-05,4.9333,7.2667
1.3125,-3.418269898588541e-05,-3.17384661576257e-05,-4.003936560738537e-05,-3.320500585458153e-05,4.9333,7.2667
1.31640625,-3.320500585458153e-05,-3.906641855924316e-05,-3.662218573098345e-05,-3.271615928892959e-05,4.9333,7.2667
1.3203125,-2.9787825978179602e-05,-4.4434238615091175e-05,-2.53929529704738e-05,-4.297244500129702e-05,4.9333,7.2667
1.32421875,-2.8810132846875722e-05,-3.95552651248951e-05,-2.7832439715571836e-05,-3.906641855924316e-05,4.9333,7.2667
1.328125,-2.9298979412527662e-05,-3.711103229663539e-05,-3.467154555153735e-05,-2.637064610177768e-05,4.9333,7.2667
1.33203125,-3.369385242023347e-05,-3.271615928892959e-05,-3.418269898588541e-05,-2.637064610177768e-05,4.9333,7.2667
1.3359375,-3.5644492599679566e-05,-3.8088725427939275e-05,-3.906641855924316e-05,-2.8810132846875722e-05,4.9333,7.2667
1.33984375,-3.271615928892959e-05,-4.3461291566948966e-05,-3.369385242023347e-05,-3.5644492599679566e-05,4.9333,7.2667
1.34375,-3.125436567513543e-05,-3.95552651248951e-05,-2.53929529704738e-05,-3.0276672543831542e-05,4.9333,7.2667
1.34765625,-3.0276672543831542e-05,-3.418269898588541e-05,-2.8321286281223776e-05,-2.441525983916991e-05,4.9333,7.2667
1.3515625,-2.9787825978179602e-05,-2.392641327351797e-05,-3.125436567513543e-05,-2.6859492667429627e-05,4.9333,7.2667
1.35546875,-3.17384661576257e-05,-3.5644492599679566e-05,-3.516039211718929e-05,-3.418269898588541e-05,4.9333,7.2667
1.359375,-3.369385242023347e-05,-4.150590530434119e-05,-3.271615928892959e-05,-3.0276672543831542e-05,4.9333,7.2667
1.36328125,-3.369385242023347e-05,-2.7832439715571836e-05,-2.4904106404821858e-05,-2.9787825978179602e-05,4.9333,7.2667
1.3671875,-3.076551910948349e-05,-2.9787825978179602e-05,-2.0998079962767996e-05,-4.3461291566948966e-05,4.9333,7.2667
1.37109375,-2.4904106404821858e-05,-3.271615928892959e-05,-3.0276672543831542e-05,-3.711103229663539e-05,4.9333,7.2667
1.375,-2.7343593149919896e-05,-3.5644492599679566e-05,-3.125436567513543e-05,-2.4904106404821858e-05,4.9333,7.2667
1.37890625,-3.17384661576257e-05,-3.418269898588541e-05,-2.8810132846875722e-05,-3.61333391653315e-05,4.9333,7.2667
1.3828125,-3.271615928892959e-05,-3.076551910948349e-05,-2.7343593149919896e-05,-4.297244500129702e-05,4.9333,7.2667
1.38671875,-2.8810132846875722e-05,-3.95552651248951e-05,-2.392641327351797e-05,-3.271615928892959e-05,4.9333,7.2667
1.390625,-1.806974665201801e-05,-3.711103229663539e-05,-3.369385242023347e-05,-2.0509233397116046e-05,4.9333,7.2667
1.39453125,-2.0998079962767996e-05,-3.759987886228733e-05,-4.3461291566948966e-05,-2.392641327351797e-05,4.9333,7.2667
1.3984375,-2.441525983916991e-05,-3.369385242023347e-05,-3.61333391653315e-05,-3.369385242023347e-05,4.9333,7.2667
1.40234375,-2.7832439715571836e-05,-3.076551910948349e-05,-3.17384661576257e-05,-2.637064610177768e-05,4.9333,7.2667
1.40625,-3.076551910948349e-05,-3.516039211718929e-05,-4.101705873868926e-05,-2.0509233397116046e-05,4.9333,7.2667
1.41015625,-2.637064610177768e-05,-4.5900778312047e-05,-4.541193174639506e-05,-3.0276672543831542e-05,4.9333,7.2667
1.4140625,-2.8321286281223776e-05,-4.1994751869993136e-05,-4.492308518074311e-05,-2.7832439715571836e-05,4.9333,7.2667
1.41796875,-3.0276672543831542e-05,-3.5644492599679566e-05,-4.150590530434119e-05,-2.7343593149919896e-05,4.9333,7.2667
1.421875,-2.7832439715571836e-05,-4.052821217303731e-05,-4.4434238615091175e-05,-3.711103229663539e-05,4.9333,7.2667
1.42578125,-3.17384661576257e-05,-3.516039211718929e-05,-4.9806804754100866e-05,-5.127334445105669e-05,4.9333,7.2667
1.4296875,-3.271615928892959e-05,-3.467154555153735e-05,-4.78514184914931e-05,-4.8340265057145043e-05,4.9333,7.2667
1.43359375,-2.8321286281223776e-05,-3.906641855924316e-05,-4.492308518074311e-05,-3.418269898588541e-05,4.9333,7.2667
1.4375,-2.392641327351797e-05,-2.637064610177768e-05,-4.638962487769895e-05,-3.467154555153735e-05,4.9333,7.2667
1.44140625,-2.6859492667429627e-05,-1.709205352071413e-05,-4.052821217303731e-05,-3.662218573098345e-05,4.9333,7.2667
1.4453125,-2.8810132846875722e-05,-2.0020386831464106e-05,-2.588179953612574e-05,-3.222731272327764e-05,4.9333,7.2667
1.44921875,-2.343756670786603e-05,-2.343756670786603e-05,-2.343756670786603e-05,-2.9787825978179602e-05,4.9333,7.2667
1.453125,-2.588179953612574e-05,-3.125436567513543e-05,-3.271615928892959e-05,-3.418269898588541e-05,4.9333,7.2667
1.45703125,-2.7832439715571836e-05,-3.516039211718929e-05,-3.906641855924316e-05,-3.95552651248951e-05,4.9333,7.2667
1.4609375,-3.17384661576257e-05,-3.467154555153735e-05,-3.222731272327764e-05,-3.61333391653315e-05,4.9333,7.2667
1.46484375,-2.8321286281223776e-05,-4.150590530434119e-05,-3.076551910948349e-05,-2.9298979412527662e-05,4.9333,7.2667
1.46875,-2.441525983916991e-05,-3.516039211718929e-05,-3.711103229663539e-05,-2.637064610177768e-05,4.9333,7.2667
1.47265625,-3.467154555153735e-05,-3.17384661576257e-05,-3.8088725427939275e-05,-4.150590530434119e-05,4.9333,7.2667
1.4765625,-3.467154555153735e-05,-3.222731272327764e-05,-3.61333391653315e-05,-4.101705873868926e-05,4.9333,7.2667
1.48046875,-2.637064610177768e-05,-2.6859492667429627e-05,-3.711103229663539e-05,-2.7832439715571836e-05,4.9333,7.2667
1.484375,-2.7832439715571836e-05,-2.2953466225375762e-05,-3.711103229663539e-05,-4.248359843564507e-05,4.9333,7.2667
1.48828125,-3.125436567513543e-05,-3.711103229663539e-05,-3.5644492599679566e-05,-4.5900778312047e-05,4.9333,7.2667
1.4921875,-3.271615928892959e-05,-4.8340265057145043e-05,-4.541193174639506e-05,-3.320500585458153e-05,4.9333,7.2667
1.49609375,-3.662218573098345e-05,-4.003936560738537e-05,-4.4434238615091175e-05,-2.7343593149919896e-05,4.9333,7.2667
1.5,-3.662218573098345e-05,-4.052821217303731e-05,-3.857757199359121e-05,-3.418269898588541e-05,4.9333,7.2667
1.50390625,-3.759987886228733e-05,-4.394539204943923e-05,-4.394539204943923e-05,-3.467154555153735e-05,4.9333,7.2667
1.5078125,-3.857757199359121e-05,-3.906641855924316e-05,-3.95552651248951e-05,-2.9787825978179602e-05,4.9333,7.2667
1.51171875,-3.516039211718929e-05,-4.003936560738537e-05,-3.711103229663539e-05,-2.637064610177768e-05,4.9333,7.2667
1.515625,-3.662218573098345e-05,-3.857757199359121e-05,-4.1994751869993136e-05,-3.5644492599679566e-05,4.9333,7.2667
1.51953125,-3.857757199359121e-05,-4.3461291566948966e-05,-4.150590530434119e-05,-4.1994751869993136e-05,4.9333,7.2667
1.5234375,-2.8321286281223776e-05,-2.441525983916991e-05,-3.271615928892959e-05,-3.0276672543831542e-05,4.9333,7.2667
1.52734375,-2.588179953612574e-05,-2.2953466225375762e-05,-2.8810132846875722e-05,-2.9787825978179602e-05,4.9333,7.2667
1.53125,-3.759987886228733e-05,-4.101705873868926e-05,-3.369385242023347e-05,-3.516039211718929e-05,4.9333,7.2667
1.53515625,-4.101705873868926e-05,-3.222731272327764e-05,-3.320500585458153e-05,-3.662218573098345e-05,4.9333,7.2667
1.5390625,-3.857757199359121e-05,-2.588179953612574e-05,-3.418269898588541e-05,-2.6859492667429627e-05,4.9333,7.2667
1.54296875,-3.516039211718929e-05,-1.758090008636607e-05,-2.9787825978179602e-05,-2.8321286281223776e-05,4.9333,7.2667
1.546875,-4.101705873868926e-05,-2.441525983916991e-05,-2.8810132846875722e-05,-3.759987886228733e-05,4.9333,7.2667
1.55078125,-4.101705873868926e-05,-3.320500585458153e-05,-4.003936560738537e-05,-3.271615928892959e-05,4.9333,7.2667
1.5546875,-3.5644492599679566e-05,-4.101705873868926e-05,-4.931795818844892e-05,-3.271615928892959e-05,4.9333,7.2667
1.55859375,-3.418269898588541e-05,-4.492308518074311e-05,-3.906641855924316e-05,-3.759987886228733e-05,4.9333,7.2667
1.5625,-3.516039211718929e-05,-3.906641855924316e-05,-3.222731272327764e-05,-3.906641855924316e-05,4.9333,7.2667
1.56640625,-3.906641855924316e-05,-3.467154555153735e-05,-3.5644492599679566e-05,-3.759987886228733e-05,4.9333,7.2667
1.5703125,-3.906641855924316e-05,-3.516039211718929e-05,-4.101705873868926e-05,-3.222731272327764e-05,4.9333,7.2667
1.57421875,-3.516039211718929e-05,-3.857757199359121e-05,-5.22462914991989e-05,-3.271615928892959e-05,4.9333,7.2667
1.578125,-4.052821217303731e-05,-3.759987886228733e-05,-4.297244500129702e-05,-4.638962487769895e-05,4.9333,7.2667
1.58203125,-3.95552651248951e-05,-3.125436567513543e-05,-2.7343593149919896e-05,-4.78514184914931e-05,4.9333,7.2667
1.5859375,-3.125436567513543e-05,-3.17384661576257e-05,-3.61333391653315e-05,-3.369385242023347e-05,4.9333,7.2667
1.58984375,-3.0276672543831542e-05,-3.320500585458153e-05,-4.003936560738537e-05,-3.369385242023347e-05,4.9333,7.2667
1.59375,-2.9298979412527662e-05,-3.320500585458153e-05,-3.95552651248951e-05,-3.369385242023347e-05,4.9333,7.2667
1.59765625,-3.125436567513543e-05,-3.61333391653315e-05,-2.9298979412527662e-05,-3.125436567513543e-05,4.9333,7.2667
1.6015625,-3.0276672543831542e-05,-4.101705873868926e-05,-2.637064610177768e-05,-3.5644492599679566e-05,4.9333,7.2667
1.60546875,-3.0276672543831542e-05,-3.5644492599679566e-05,-3.125436567513543e-05,-3.95552651248951e-05,4.9333,7.2667
1.609375,-3.369385242023347e-05,-2.637064610177768e-05,-2.2464619659723815e-05,-3.61333391653315e-05,4.9333,7.2667
1.61328125,-3.662218573098345e-05,-4.101705873868926e-05,-2.7343593149919896e-05,-4.052821217303731e-05,4.9333,7.2667
1.6171875,-3.5644492599679566e-05,-3.662218573098345e-05,-3.271615928892959e-05,-3.662218573098345e-05,4.9333,7.2667
1.62109375,-3.369385242023347e-05,-2.9298979412527662e-05,-3.125436567513543e-05,-3.61333391653315e-05,4.9333,7.2667
1.625,-3.61333391653315e-05,-2.9787825978179602e-05,-2.9298979412527662e-05,-4.736731800900283e-05,4.9333,7.2667
1.62890625,-3.5644492599679566e-05,-3.076551910948349e-05,-3.418269898588541e-05,-3.320500585458153e-05,4.9333,7.2667
1.6328125,-3.516039211718929e-05,-3.516039211718929e-05,-3.857757199359121e-05,-2.9787825978179602e-05,4.9333,7.2667
1.63671875,-3.61333391653315e-05,-3.857757199359121e-05,-3.711103229663539e-05,-3.95552651248951e-05,4.9333,7.2667
1.640625,-3.5644492599679566e-05,-3.906641855924316e-05,-3.271615928892959e-05,-4.003936560738537e-05,4.9333,7.2667
1.64453125,-3.076551910948349e-05,-3.857757199359121e-05,-2.8810132846875722e-05,-3.516039211718929e-05,4.9333,7.2667
1.6484375,-3.271615928892959e-05,-4.003936560738537e-05,-3.17384661576257e-05,-3.467154555153735e-05,4.9333,7.2667
1.65234375,-3.95552651248951e-05,-3.662218573098345e-05,-2.441525983916991e-05,-4.052821217303731e-05,4.9333,7.2667
1.65625,-3.516039211718929e-05,-3.467154555153735e-05,-2.1975773094071876e-05,-4.150590530434119e-05,4.9333,7.2667
1.66015625,-3.17384661576257e-05,-4.052821217303731e-05,-2.6859492667429627e-05,-3.711103229663539e-05,4.9333,7.2667
1.6640625,-3.369385242023347e-05,-3.076551910948349e-05,-2.1975773094071876e-05,-3.369385242023347e-05,4.9333,7.2667
1.66796875,-3.95552651248951e-05,-4.1994751869993136e-05,-1.9531540265812166e-05,-3.711103229663539e-05,4.9333,7.2667
1.671875,-3.662218573098345e-05,-4.931795818844892e-05,-2.8810132846875722e-05,-3.662218573098345e-05,4.9333,7.2667
1.67578125,-2.8810132846875722e-05,-3.0276672543831542e-05,-3.271615928892959e-05,-2.637064610177768e-05,4.9333,7.2667
1.6796875,-3.076551910948349e-05,-3.320500585458153e-05,-3.222731272327764e-05,-2.2464619659723815e-05,4.9333,7.2667
1.68359375,-3.5644492599679566e-05,-4.3461291566948966e-05,-2.8321286281223776e-05,-3.418269898588541e-05,4.9333,7.2667
1.6875,-3.857757199359121e-05,-4.3461291566948966e-05,-2.7832439715571836e-05,-3.857757199359121e-05,4.9333,7.2667
1.69140625,-3.759987886228733e-05,-4.8340265057145043e-05,-4.3461291566948966e-05,-3.662218573098345e-05,4.9333,7.2667
1.6953125,-4.248359843564507e-05,-6.299142377721828e-05,-4.394539204943923e-05,-4.3461291566948966e-05,4.9333,7.2667
1.69921875,-3.662218573098345e-05,-3.61333391653315e-05,-3.662218573098345e-05,-3.320500585458153e-05,4.9333,7.2667
1.703125,-2.6859492667429627e-05,-1.9047439783321897e-05,-2.8810132846875722e-05,-3.271615928892959e-05,4.9333,7.2667
1.70703125,-3.418269898588541e-05,-3.076551910948349e-05,-2.2953466225375762e-05,-3.711103229663539e-05,4.9333,7.2667
1.7109375,-3.8088725427939275e-05,-3.0276672543831542e-05,-2.2953466225375762e-05,-2.6859492667429627e-05,4.9333,7.2667
1.71484375,-3.418269898588541e-05,-2.2953466225375762e-05,-2.343756670786603e-05,-3.516039211718929e-05,4.9333,7.2667
1.71875,-3.271615928892959e-05,-3.0276672543831542e-05,-3.61333391653315e-05,-3.662218573098345e-05,4.9333,7.2667
1.72265625,-3.125436567513543e-05,-4.003936560738537e-05,-3.759987886228733e-05,-3.0276672543831542e-05,4.9333,7.2667
1.7265625,-4.003936560738537e-05,-4.150590530434119e-05,-3.369385242023347e-05,-4.541193174639506e-05,4.9333,7.2667
1.73046875,-4.052821217303731e-05,-3.857757199359121e-05,-4.1994751869993136e-05,-4.394539204943923e-05,4.9333,7.2667
1.734375,-3.320500585458153e-05,-4.003936560738537e-05,-4.5900778312047e-05,-3.516039211718929e-05,4.9333,7.2667
1.73828125,-3.516039211718929e-05,-3.662218573098345e-05,-3.906641855924316e-05,-3.5644492599679566e-05,4.9333,7.2667
1.7421875,-3.61333391653315e-05,-2.7343593149919896e-05,-3.418269898588541e-05,-3.467154555153735e-05,4.9333,7.2667
1.74609375,-3.467154555153735e-05,-3.5644492599679566e-05,-3.222731272327764e-05,-3.271615928892959e-05,4.9333,7.2667
1.75,-3.076551910948349e-05,-4.3461291566948966e-05,-3.369385242023347e-05,-3.271615928892959e-05,4.9333,7.2667
1.75390625,-3.125436567513543e-05,-4.638962487769895e-05,-4.150590530434119e-05,-3.61333391653315e-05,4.9333,7.2667
1.7578125,-3.076551910948349e-05,-4.6878471443350884e-05,-3.125436567513543e-05,-3.5644492599679566e-05,4.9333,7.2667
1.76171875,-2.4904106404821858e-05,-3.271615928892959e-05,-1.5136667258106363e-05,-3.271615928892959e-05,4.9333,7.2667
1.765625,-2.4904106404821858e-05,-2.53929529704738e-05,-2.8810132846875722e-05,-2.53929529704738e-05,4.9333,7.2667
1.76953125,-3.222731272327764e-05,-4.003936560738537e-05,-4.003936560738537e-05,-3.320500585458153e-05,4.9333,7.2667
1.7734375,-3.467154555153735e-05,-3.8088725427939275e-05,-4.052821217303731e-05,-3.857757199359121e-05,4.9333,7.2667
1.77734375,-3.418269898588541e-05,-2.637064610177768e-05,-4.101705873868926e-05,-3.95552651248951e-05,4.9333,7.2667
1.78125,-3.076551910948349e-05,-4.052821217303731e-05,-4.248359843564507e-05,-3.711103229663539e-05,4.9333,7.2667
1.78515625,-2.53929529704738e-05,-4.052821217303731e-05,-4.3461291566948966e-05,-3.320500585458153e-05,4.9333,7.2667
1.7890625,-3.0276672543831542e-05,-2.9787825978179602e-05,-3.5644492599679566e-05,-3.5644492599679566e-05,4.9333,7.2667
1.79296875,-3.418269898588541e-05,-3.369385242023347e-05,-4.101705873868926e-05,-3.271615928892959e-05,4.9333,7.2667
1.796875,-2.6859492667429627e-05,-2.7832439715571836e-05,-4.101705873868926e-05,-3.320500585458153e-05,4.9333,7.2667
1.80078125,-3.271615928892959e-05,-2.343756670786603e-05,-2.637064610177768e-05,-3.5644492599679566e-05,4.9333,7.2667
1.8046875,-4.150590530434119e-05,-3.662218573098345e-05,-2.637064610177768e-05,-4.052821217303731e-05,4.9333,7.2667
1.80859375,-3.320500585458153e-05,-4.3461291566948966e-05,-3.857757199359121e-05,-3.369385242023347e-05,4.9333,7.2667
1.8125,-3.222731272327764e-05,-2.9298979412527662e-05,-5.22462914991989e-05,-3.8088725427939275e-05,4.9333,7.2667
1.81640625,-3.222731272327764e-05,-2.7832439715571836e-05,-4.150590530434119e-05,-3.8088725427939275e-05,4.9333,7.2667
1.8203125,-2.9298979412527662e-05,-3.906641855924316e-05,-3.711103229663539e-05,-3.5644492599679566e-05,4.9333,7.2667
1.82421875,-3.467154555153735e-05,-4.492308518074311e-05,-5.0784497885404746e-05,-4.9806804754100866e-05,4.9333,7.2667
1.828125,-3.271615928892959e-05,-4.882911162279699e-05,-4.8340265057145043e-05,-3.857757199359121e-05,4.9333,7.2667
1.83203125,-3.467154555153735e-05,-4.101705873868926e-05,-4.3461291566948966e-05,-3.369385242023347e-05,4.9333,7.2667
1.8359375,-3.5644492599679566e-05,-3.222731272327764e-05,-4.003936560738537e-05,-3.369385242023347e-05,4.9333,7.2667
1.83984375,-3.271615928892959e-05,-3.17384661576257e-05,-4.394539204943923e-05,-2.441525983916991e-05,4.9333,7.2667
1.84375,-3.320500585458153e-05,-4.6878471443350884e-05,-4.150590530434119e-05,-3.17384661576257e-05,4.9333,7.2667
1.84765625,-3.320500585458153e-05,-4.3461291566948966e-05,-3.516039211718929e-05,-3.8088725427939275e-05,4.9333,7.2667
1.8515625,-3.0276672543831542e-05,-3.467154555153735e-05,-4.297244500129702e-05,-3.320500585458153e-05,4.9333,7.2667
1.85546875,-2.8321286281223776e-05,-3.5644492599679566e-05,-3.95552651248951e-05,-2.637064610177768e-05,4.9333,7.2667
1.859375,-2.9787825978179602e-05,-3.662218573098345e-05,-2.588179953612574e-05,-2.637064610177768e-05,4.9333,7.2667
1.86328125,-3.320500585458153e-05,-3.076551910948349e-05,-2.637064610177768e-05,-3.61333391653315e-05,4.9333,7.2667
1.8671875,-2.9787825978179602e-05,-3.125436567513543e-05,-3.369385242023347e-05,-3.125436567513543e-05,4.9333,7.2667
1.87109375,-2.7343593149919896e-05,-3.662218573098345e-05,-3.516039211718929e-05,-2.53929529704738e-05,4.9333,7.2667
1.875,-2.7343593149919896e-05,-2.9298979412527662e-05,-3.271615928892959e-05,-2.343756670786603e-05,4.9333,7.2667
1.87890625,-3.0276672543831542e-05,-2.441525983916991e-05,-3.17384661576257e-05,-3.222731272327764e-05,4.9333,7.2667
1.8828125,-3.0276672543831542e-05,-4.492308518074311e-05,-2.9787825978179602e-05,-3.61333391653315e-05,4.9333,7.2667
1.88671875,-2.441525983916991e-05,-4.394539204943923e-05,-3.320500585458153e-05,-2.588179953612574e-05,4.9333,7.2667
1.890625,-2.8321286281223776e-05,-3.467154555153735e-05,-3.467154555153735e-05,-3.17384661576257e-05,4.9333,7.2667
1.89453125,-2.9787825978179602e-05,-3.516039211718929e-05,-3.8088725427939275e-05,-3.759987886228733e-05,4.9333,7.2667
1.8984375,-2.7343593149919896e-05,-3.222731272327764e-05,-4.931795818844892e-05,-3.0276672543831542e-05,4.9333,7.2667
1.90234375,-2.8810132846875722e-05,-3.5644492599679566e-05,-4.541193174639506e-05,-2.7832439715571836e-05,4.9333,7.2667
1.90625,-3.125436567513543e-05,-5.273513806485084e-05,-4.297244500129702e-05,-4.248359843564507e-05,4.9333,7.2667
1.91015625,-3.0276672543831542e-05,-4.882911162279699e-05,-4.78514184914931e-05,-4.297244500129702e-05,4.9333,7.2667
1.9140625,-2.2953466225375762e-05,-3.0276672543831542e-05,-5.5668217458762494e-05,-2.9787825978179602e-05,4.9333,7.2667
1.91796875,-2.0020386831464106e-05,-3.369385242023347e-05,-5.371283119615473e-05,-2.392641327351797e-05,4.9333,7.2667
1.921875,-2.441525983916991e-05,-3.271615928892959e-05,-4.297244500129702e-05,-3.369385242023347e-05,4.9333,7.2667
1.92578125,-2.7343593149919896e-05,-3.271615928892959e-05,-3.906641855924316e-05,-3.369385242023347e-05,4.9333,7.2667
1.9296875,-2.0998079962767996e-05,-2.7343593149919896e-05,-4.1994751869993136e-05,-1.806974665201801e-05,4.9333,7.2667
1.93359375,-2.441525983916991e-05,-1.9531540265812166e-05,-4.1994751869993136e-05,-3.271615928892959e-05,4.9333,7.2667
1.9375,-3.467154555153735e-05,-3.125436567513543e-05,-3.418269898588541e-05,-4.78514184914931e-05,4.9333,7.2667
1.94140625,-3.95552651248951e-05,-3.467154555153735e-05,-3.125436567513543e-05,-3.418269898588541e-05,4.9333,7.2667
1.9453125,-3.076551910948349e-05,-2.343756670786603e-05,-2.53929529704738e-05,-2.2953466225375762e-05,4.9333,7.2667
1.94921875,-2.0509233397116046e-05,-2.0998079962767996e-05,-2.7343593149919896e-05,-1.758090008636607e-05,4.9333,7.2667
1.953125,-3.5644492599679566e-05,-2.2953466225375762e-05,-2.8321286281223776e-05,-3.0276672543831542e-05,4.9333,7.2667
1.95703125,-3.467154555153735e-05,-2.53929529704738e-05,-2.392641327351797e-05,-2.8810132846875722e-05,4.9333,7.2667
1.9609375,-2.6859492667429627e-05,-3.0276672543831542e-05,-3.320500585458153e-05,-1.660320695506219e-05,4.9333,7.2667
1.96484375,-4.052821217303731e-05,-3.467154555153735e-05,-3.076551910948349e-05,-2.53929529704738e-05,4.9333,7.2667
1.96875,-4.052821217303731e-05,-3.320500585458153e-05,-2.637064610177768e-05,-2.588179953612574e-05,4.9333,7.2667
1.97265625,-3.320500585458153e-05,-2.637064610177768e-05,-2.441525983916991e-05,-3.0276672543831542e-05,4.9333,7.2667
1.9765625,-2.8810132846875722e-05,-2.637064610177768e-05,-2.9298979412527662e-05,-2.637064610177768e-05,4.9333,7.2667
1.98046875,-3.222731272327764e-05,-2.588179953612574e-05,-3.8088725427939275e-05,-2.2464619659723815e-05,4.9333,7.2667
1.984375,-3.418269898588541e-05,-3.467154555153735e-05,-3.857757199359121e-05,-3.759987886228733e-05,4.9333,7.2667
1.98828125,-3.17384661576257e-05,-3.0276672543831542e-05,-4.101705873868926e-05,-3.516039211718929e-05,4.9333,7.2667
1.9921875,-3.125436567513543e-05,-2.441525983916991e-05,-4.297244500129702e-05,-2.9787825978179602e-05,4.9333,7.2667
1.99609375,-3.271615928892959e-05,-3.271615928892959e-05,-4.1994751869993136e-05,-2.7832439715571836e-05,4.9333,7.2667
2.0,-3.320500585458153e-05,-3.418269898588541e-05,-3.8088725427939275e-05,-2.8321286281223776e-05,4.9333,7.2667
2.00390625,-2.6859492667429627e-05,-3.662218573098345e-05,-3.61333391653315e-05,-2.2953466225375762e-05,4.9333,7.2667
2.0078125,-2.8810132846875722e-05,-3.418269898588541e-05,-3.076551910948349e-05,-2.343756670786603e-05,4.9333,7.2667
2.01171875,-3.418269898588541e-05,-3.5644492599679566e-05,-3.125436567513543e-05,-3.662218573098345e-05,4.9333,7.2667
2.015625,-3.17384661576257e-05,-3.125436567513543e-05,-3.759987886228733e-05,-4.297244500129702e-05,4.9333,7.2667
2.01953125,-3.516039211718929e-05,-3.711103229663539e-05,-3.516039211718929e-05,-4.150590530434119e-05,4.9333,7.2667
2.0234375,-3.8088725427939275e-05,-3.222731272327764e-05,-2.9787825978179602e-05,-3.711103229663539e-05,4.9333,7.2667
2.02734375,-3.467154555153735e-05,-4.1994751869993136e-05,-2.9787825978179602e-05,-3.418269898588541e-05,4.9333,7.2667
2.03125,-3.320500585458153e-05,-4.4434238615091175e-05,-3.0276672543831542e-05,-3.711103229663539e-05,4.9333,7.2667
2.03515625,-3.418269898588541e-05,-3.516039211718929e-05,-3.320500585458153e-05,-4.248359843564507e-05,4.9333,7.2667
2.0390625,-3.61333391653315e-05,-4.297244500129702e-05,-3.906641855924316e-05,-4.297244500129702e-05,4.9333,7.2667
2.04296875,-3.906641855924316e-05,-5.0784497885404746e-05,-2.6859492667429627e-05,-4.394539204943923e-05,4.9333,7.2667
2.046875,-3.516039211718929e-05,-5.371283119615473e-05,-1.9047439783321897e-05,-3.516039211718929e-05,4.9333,7.2667
2.05078125,-2.8321286281223776e-05,-5.02956513197528e-05,-3.076551910948349e-05,-2.0509233397116046e-05,4.9333,7.2667
2.0546875,-3.516039211718929e-05,-4.052821217303731e-05,-3.857757199359121e-05,-2.9787825978179602e-05,4.9333,7.2667
2.05859375,-3.369385242023347e-05,-2.7343593149919896e-05,-3.320500585458153e-05,-3.711103229663539e-05,4.9333,7.2667
2.0625,-2.9787825978179602e-05,-3.125436567513543e-05,-2.0020386831464106e-05,-2.9787825978179602e-05,4.9333,7.2667
2.06640625,-3.17384661576257e-05,-3.516039211718929e-05,-2.441525983916991e-05,-2.343756670786603e-05,4.9333,7.2667
2.0703125,-3.467154555153735e-05,-3.17384661576257e-05,-3.5644492599679566e-05,-3.61333391653315e-05,4.9333,7.2667
2.07421875,-3.320500585458153e-05,-3.17384661576257e-05,-4.052821217303731e-05,-4.052821217303731e-05,4.9333,7.2667
2.078125,-3.0276672543831542e-05,-3.320500585458153e-05,-3.8088725427939275e-05,-2.8321286281223776e-05,4.9333,7.2667
2.08203125,-3.5644492599679566e-05,-3.222731272327764e-05,-3.369385242023347e-05,-3.17384661576257e-05,4.9333,7.2667
2.0859375,-3.95552651248951e-05,-4.5900778312047e-05,-4.4434238615091175e-05,-3.759987886228733e-05,4.9333,7.2667
2.08984375,-4.101705873868926e-05,-5.22462914991989e-05,-4.248359843564507e-05,-4.394539204943923e-05,4.9333,7.2667
2.09375,-3.222731272327764e-05,-4.541193174639506e-05,-4.4434238615091175e-05,-3.516039211718929e-05,4.9333,7.2667
2.09765625,-3.076551910948349e-05,-4.297244500129702e-05,-4.78514184914931e-05,-2.2464619659723815e-05,4.9333,7.2667
2.1015625,-4.003936560738537e-05,-3.418269898588541e-05,-3.95552651248951e-05,-3.516039211718929e-05,4.9333,7.2667
2.10546875,-3.467154555153735e-05,-3.5644492599679566e-05,-3.95552651248951e-05,-4.638962487769895e-05,4.9333,7.2667
2.109375,-2.6859492667429627e-05,-4.297244500129702e-05,-4.3461291566948966e-05,-2.9787825978179602e-05,4.9333,7.2667
2.11328125,-3.125436567513543e-05,-3.467154555153735e-05,-4.297244500129702e-05,-2.9787825978179602e-05,4.9333,7.2667
2.1171875,-3.61333391653315e-05,-3.17384661576257e-05,-3.8088725427939275e-05,-4.4434238615091175e-05,4.9333,7.2667
2.12109375,-3.467154555153735e-05,-3.125436567513543e-05,-4.150590530434119e-05,-4.150590530434119e-05,4.9333,7.2667
2.125,-3.320500585458153e-05,-3.8088725427939275e-05,-4.492308518074311e-05,-4.052821217303731e-05,4.9333,7.2667
2.12890625,-3.076551910948349e-05,-3.906641855924316e-05,-3.95552651248951e-05,-4.101705873868926e-05,4.9333,7.2667
2.1328125,-2.9298979412527662e-05,-3.125436567513543e-05,-3.711103229663539e-05,-4.5900778312047e-05,4.9333,7.2667
2.13671875,-2.9298979412527662e-05,-4.492308518074311e-05,-3.5644492599679566e-05,-4.1994751869993136e-05,4.9333,7.2667
2.140625,-2.53929529704738e-05,-4.150590530434119e-05,-3.759987886228733e-05,-2.392641327351797e-05,4.9333,7.2667
2.14453125,-2.392641327351797e-05,-2.8810132846875722e-05,-4.297244500129702e-05,-3.076551910948349e-05,4.9333,7.2667
2.1484375,-3.076551910948349e-05,-3.711103229663539e-05,-4.248359843564507e-05,-4.1994751869993136e-05,4.9333,7.2667
2.15234375,-3.759987886228733e-05,-3.369385242023347e-05,-3.369385242023347e-05,-4.541193174639506e-05,4.9333,7.2667
2.15625,-3.857757199359121e-05,-3.17384661576257e-05,-4.1994751869993136e-05,-4.4434238615091175e-05,4.9333,7.2667
2.16015625,-3.5644492599679566e-05,-3.8088725427939275e-05,-4.052821217303731e-05,-4.3461291566948966e-05,4.9333,7.2667
2.1640625,-3.662218573098345e-05,-3.271615928892959e-05,-3.222731272327764e-05,-4.638962487769895e-05,4.9333,7.2667
2.16796875,-3.320500585458153e-05,-4.4434238615091175e-05,-4.101705873868926e-05,-3.857757199359121e-05,4.9333,7.2667
2.171875,-3.320500585458153e-05,-5.127334445105669e-05,-4.492308518074311e-05,-3.17384661576257e-05,4.9333,7.2667
2.17578125,-3.759987886228733e-05,-3.759987886228733e-05,-3.759987886228733e-05,-3.906641855924316e-05,4.9333,7.2667
2.1796875,-3.759987886228733e-05,-3.662218573098345e-05,-2.9298979412527662e-05,-4.003936560738537e-05,4.9333,7.2667
2.18359375,-3.222731272327764e-05,-3.0276672543831542e-05,-3.320500585458153e-05,-2.6859492667429627e-05,4.9333,7.2667
2.1875,-2.8321286281223776e-05,-3.0276672543831542e-05,-4.297244500129702e-05,-3.369385242023347e-05,4.9333,7.2667
2.19140625,-3.5644492599679566e-05,-3.711103229663539e-05,-4.541193174639506e-05,-5.22462914991989e-05,4.9333,7.2667
2.1953125,-4.3461291566948966e-05,-5.322398463050279e-05,-4.3461291566948966e-05,-5.127334445105669e-05,4.9333,7.2667
2.19921875,-3.61333391653315e-05,-4.1994751869993136e-05,-3.8088725427939275e-05,-2.4904106404821858e-05,4.9333,7.2667
2.203125,-3.125436567513543e-05,-1.9531540265812166e-05,-2.4904106404821858e-05,-1.855859321766995e-05,4.9333,7.2667
2.20703125,-3.369385242023347e-05,-4.3461291566948966e-05,-2.7343593149919896e-05,-3.711103229663539e-05,4.9333,7.2667
2.2109375,-2.6859492667429627e-05,-4.003936560738537e-05,-4.5900778312047e-05,-3.271615928892959e-05,4.9333,7.2667
2.21484375,-2.8810132846875722e-05,-2.8810132846875722e-05,-5.127334445105669e-05,-3.222731272327764e-05,4.9333,7.2667
2.21875,-3.369385242023347e-05,-3.906641855924316e-05,-4.3461291566948966e-05,-4.150590530434119e-05,4.9333,7.2667
2.22265625,-3.369385242023347e-05,-3.5644492599679566e-05,-3.467154555153735e-05,-5.176219101670863e-05,4.9333,7.2667
2.2265625,-3.5644492599679566e-05,-4.052821217303731e-05,-4.150590530434119e-05,-5.8596550769512476e-05,4.9333,7.2667
2.23046875,-2.4904106404821858e-05,-3.369385242023347e-05,-3.711103229663539e-05,-4.8340265057145043e-05,4.9333,7.2667
2.234375,-2.9787825978179602e-05,-3.320500585458153e-05,-4.297244500129702e-05,-4.052821217303731e-05,4.9333,7.2667
2.23828125,-4.3461291566948966e-05,-5.908539733516441e-05,-4.882911162279699e-05,-3.418269898588541e-05,4.9333,7.2667
2.2421875,-3.516039211718929e-05,-4.297244500129702e-05,-3.17384661576257e-05,-2.2464619659723815e-05,4.9333,7.2667
2.24609375,-3.516039211718929e-05,-4.003936560738537e-05,-3.369385242023347e-05,-1.709205352071413e-05,4.9333,7.2667
2.25,-4.052821217303731e-05,-5.22462914991989e-05,-3.369385242023347e-05,-1.806974665201801e-05,4.9333,7.2667
2.25390625,-3.662218573098345e-05,-4.3461291566948966e-05,-3.516039211718929e-05,-1.0257693767910283e-05,4.9333,7.2667
2.2578125,-3.5644492599679566e-05,-4.931795818844892e-05,-3.271615928892959e-05,-1.0257693767910283e-05,4.9333,7.2667
2.26171875,-3.222731272327764e-05,-4.101705873868926e-05,-2.0509233397116046e-05,-6.351667325856425e-06,4.9333,7.2667
2.265625,-2.8810132846875722e-05,-2.392641327351797e-05,-1.806974665201801e-05,-9.768847202258343e-06,4.9333,7.2667
2.26953125,-3.320500585458153e-05,-2.0509233397116046e-05,-2.9787825978179602e-05,-2.4904106404821858e-05,4.9333,7.2667
2.2734375,-3.125436567513543e-05,-2.6859492667429627e-05,-3.5644492599679566e-05,-2.0020386831464106e-05,4.9333,7.2667
2.27734375,-3.61333391653315e-05,-3.17384661576257e-05,-2.8810132846875722e-05,-1.5136667258106363e-05,4.9333,7.2667
2.28125,-4.297244500129702e-05,-3.61333391653315e-05,-3.271615928892959e-05,-2.7832439715571836e-05,4.9333,7.2667
2.28515625,-3.857757199359121e-05,-3.320500585458153e-05,-2.392641327351797e-05,-2.2464619659723815e-05,4.9333,7.2667
2.2890625,-3.222731272327764e-05,-3.076551910948349e-05,-1.9531540265812166e-05,4.874385101090865e-07,4.9333,7.2667
2.29296875,-2.7343593149919896e-05,-2.8321286281223776e-05,-3.0276672543831542e-05,-5.3739741945525305e-06,4.9333,7.2667
2.296875,-3.369385242023347e-05,-1.9531540265812166e-05,-2.2953466225375762e-05,-2.4904106404821858e-05,4.9333,7.2667
2.30078125,-4.4434238615091175e-05,-2.637064610177768e-05,-2.2953466225375762e-05,-2.6859492667429627e-05,4.9333,7.2667
2.3046875,-3.711103229663539e-05,-2.7343593149919896e-05,-3.662218573098345e-05,-2.4904106404821858e-05,4.9333,7.2667
2.30859375,-3.418269898588541e-05,-3.369385242023347e-05,-4.150590530434119e-05,-2.4904106404821858e-05,4.9333,7.2667
2.3125,-4.1994751869993136e-05,-3.5644492599679566e-05,-4.3461291566948966e-05,-3.076551910948349e-05,4.9333,7.2667
2.31640625,-4.150590530434119e-05,-2.8810132846875722e-05,-4.052821217303731e-05,-3.320500585458153e-05,4.9333,7.2667
2.3203125,-3.61333391653315e-05,-2.588179953612574e-05,-3.320500585458153e-05,-2.1486926528419936e-05,4.9333,7.2667
2.32421875,-3.516039211718929e-05,-2.9787825978179602e-05,-3.076551910948349e-05,-1.0257693767910283e-05,4.9333,7.2667
2.328125,-4.101705873868926e-05,-4.003936560738537e-05,-2.588179953612574e-05,-2.2953466225375762e-05,4.9333,7.2667
2.33203125,-4.150590530434119e-05,-4.052821217303731e-05,-2.8321286281223776e-05,-2.4904106404821858e-05,4.9333,7.2667
2.3359375,-3.61333391653315e-05,-3.857757199359121e-05,-3.125436567513543e-05,-2.2464619659723815e-05,4.9333,7.2667
2.33984375,-3.125436567513543e-05,-3.95552651248951e-05,-2.588179953612574e-05,-2.8321286281223776e-05,4.9333,7.2667
2.34375,-2.9298979412527662e-05,-2.0509233397116046e-05,-2.1975773094071876e-05,-2.6859492667429627e-05,4.9333,7.2667
2.34765625,-3.711103229663539e-05,-1.5136667258106363e-05,-2.8321286281223776e-05,-2.53929529704738e-05,4.9333,7.2667
2.3515625,-4.003936560738537e-05,-3.076551910948349e-05,-3.076551910948349e-05,-2.0998079962767996e-05,4.9333,7.2667
2.35546875,-3.61333391653315e-05,-2.6859492667429627e-05,-2.53929529704738e-05,-2.4904106404821858e-05,4.9333,7.2667
2.359375,-3.61333391653315e-05,-2.392641327351797e-05,-2.7343593149919896e-05,-2.8810132846875722e-05,4.9333,7.2667
2.36328125,-3.662218573098345e-05,-2.2464619659723815e-05,-2.6859492667429627e-05,-3.467154555153735e-05,4.9333,7.2667
2.3671875,-3.418269898588541e-05,-3.516039211718929e-05,-2.2464619659723815e-05,-2.441525983916991e-05,4.9333,7.2667
2.37109375,-3.906641855924316e-05,-4.101705873868926e-05,-2.8321286281223776e-05,-2.1975773094071876e-05,4.9333,7.2667
2.375,-4.150590530434119e-05,-3.320500585458153e-05,-2.7343593149919896e-05,-3.516039211718929e-05,4.9333,7.2667
2.37890625,-3.906641855924316e-05,-3.222731272327764e-05,-2.1975773094071876e-05,-2.8810132846875722e-05,4.9333,7.2667
2.3828125,-3.61333391653315e-05,-2.9787825978179602e-05,-1.9047439783321897e-05,-2.7343593149919896e-05,4.9333,7.2667
2.38671875,-4.150590530434119e-05,-4.541193174639506e-05,-3.320500585458153e-05,-3.271615928892959e-05,4.9333,7.2667
2.390625,-3.5644492599679566e-05,-2.9298979412527662e-05,-3.5644492599679566e-05,-3.320500585458153e-05,4.9333,7.2667
2.39453125,-3.0276672543831542e-05,-6.351667325856425e-06,-1.5136667258106363e-05,-3.222731272327764e-05,4.9333,7.2667
2.3984375,-4.5900778312047e-05,-2.8810132846875722e-05,-1.9531540265812166e-05,-2.7832439715571836e-05,4.9333,7.2667
2.40234375,-4.150590530434119e-05,-3.17384661576257e-05,-3.17384661576257e-05,-2.9298979412527662e-05,4.9333,7.2667
2.40625,-3.8088725427939275e-05,-2.7343593149919896e-05,-2.6859492667429627e-05,-1.9047439783321897e-05,4.9333,7.2667
2.41015625,-3.95552651248951e-05,-3.516039211718929e-05,-2.0020386831464106e-05,-2.343756670786603e-05,4.9333,7.2667
2.4140625,-3.516039211718929e-05,-2.588179953612574e-05,-2.6859492667429627e-05,-3.125436567513543e-05,4.9333,7.2667
2.41796875,-4.052821217303731e-05,-2.392641327351797e-05,-1.9047439783321897e-05,-3.320500585458153e-05,4.9333,7.2667
2.421875,-3.662218573098345e-05,-2.0998079962767996e-05,-1.3674873644312206e-05,-3.467154555153735e-05,4.9333,7.2667
2.42578125,-3.222731272327764e-05,-1.4652566775616087e-05,-2.2953466225375762e-05,-2.0509233397116046e-05,4.9333,7.2667
2.4296875,-3.662218573098345e-05,-2.2464619659723815e-05,-2.6859492667429627e-05,-2.1975773094071876e-05,4.9333,7.2667
2.43359375,-4.1994751869993136e-05,-3.076551910948349e-05,-2.7343593149919896e-05,-3.125436567513543e-05,4.9333,7.2667
2.4375,-4.4434238615091175e-05,-2.1975773094071876e-05,-2.4904106404821858e-05,-3.17384661576257e-05,4.9333,7.2667
2.44140625,-3.17384661576257e-05,-1.709205352071413e-05,-2.2464619659723815e-05,-2.53929529704738e-05,4.9333,7.2667
2.4453125,-3.0276672543831542e-05,-2.2953466225375762e-05,-2.588179953612574e-05,-2.637064610177768e-05,4.9333,7.2667
2.44921875,-3.516039211718929e-05,-1.3674873644312206e-05,-2.8810132846875722e-05,-3.320500585458153e-05,4.9333,7.2667
2.453125,-3.369385242023347e-05,-2.0020386831464106e-05,-2.7343593149919896e-05,-3.271615928892959e-05,4.9333,7.2667
2.45703125,-3.17384661576257e-05,-2.4904106404821858e-05,-3.8088725427939275e-05,-3.222731272327764e-05,4.9333,7.2667
2.4609375,-2.9787825978179602e-05,-2.1486926528419936e-05,-3.906641855924316e-05,-3.467154555153735e-05,4.9333,7.2667
2.46484375,-3.61333391653315e-05,-3.222731272327764e-05,-2.588179953612574e-05,-3.95552651248951e-05,4.9333,7.2667
2.46875,-3.467154555153735e-05,-2.9787825978179602e-05,-2.441525983916991e-05,-3.076551910948349e-05,4.9333,7.2667
2.47265625,-2.392641327351797e-05,-2.343756670786603e-05,-3.125436567513543e-05,-2.392641327351797e-05,4.9333,7.2667
2.4765625,-2.637064610177768e-05,-1.9531540265812166e-05,-2.8810132846875722e-05,-3.418269898588541e-05,4.9333,7.2667
2.48046875,-4.003936560738537e-05,-1.3186027078660266e-05,-2.392641327351797e-05,-3.222731272327764e-05,4.9333,7.2667
2.484375,-3.857757199359121e-05,-2.2953466225375762e-05,-2.53929529704738e-05,-2.637064610177768e-05,4.9333,7.2667
2.48828125,-2.9787825978179602e-05,-2.6859492667429627e-05,-2.441525983916991e-05,-3.222731272327764e-05,4.9333,7.2667
2.4921875,-3.369385242023347e-05,-2.1975773094071876e-05,-2.7832439715571836e-05,-3.5644492599679566e-05,4.9333,7.2667
2.49609375,-4.003936560738537e-05,-1.806974665201801e-05,-3.076551910948349e-05,-2.637064610177768e-05,4.9333,7.2667
2.5,-3.662218573098345e-05,-1.3186027078660266e-05,-2.441525983916991e-05,-2.0509233397116046e-05,4.9333,7.2667
2.50390625,-3.516039211718929e-05,-2.392641327351797e-05,-2.0998079962767996e-05,-3.076551910948349e-05,4.9333,7.2667
2.5078125,-4.052821217303731e-05,-2.6859492667429627e-05,-1.6114360389410245e-05,-4.541193174639506e-05,4.9333,7.2667
2.51171875,-3.320500585458153e-05,-1.0257693767910283e-05,-7.813460939650582e-06,-3.662218573098345e-05,4.9333,7.2667
2.515625,-2.637064610177768e-05,-1.0257693767910283e-05,-2.0509233397116046e-05,-2.6859492667429627e-05,4.9333,7.2667
2.51953125,-3.5644492599679566e-05,-1.9531540265812166e-05,-3.17384661576257e-05,-3.516039211718929e-05,4.9333,7.2667
2.5234375,-3.516039211718929e-05,-2.6859492667429627e-05,-2.1975773094071876e-05,-3.61333391653315e-05,4.9333,7.2667
2.52734375,-3.076551910948349e-05,-2.0020386831464106e-05,-1.9047439783321897e-05,-4.101705873868926e-05,4.9333,7.2667
2.53125,-3.0276672543831542e-05,-2.343756670786603e-05,-2.8321286281223776e-05,-3.418269898588541e-05,4.9333,7.2667
2.53515625,-3.662218573098345e-05,-2.9787825978179602e-05,-2.6859492667429627e-05,-2.6859492667429627e-05,4.9333,7.2667
2.5390625,-4.297244500129702e-05,-3.5644492599679566e-05,-2.9787825978179602e-05,-3.516039211718929e-05,4.9333,7.2667
2.54296875,-4.394539204943923e-05,-3.076551910948349e-05,-3.516039211718929e-05,-3.125436567513543e-05,4.9333,7.2667
2.546875,-4.541193174639506e-05,-2.53929529704738e-05,-3.95552651248951e-05,-3.61333391653315e-05,4.9333,7.2667
2.55078125,-4.394539204943923e-05,-3.516039211718929e-05,-4.9806804754100866e-05,-4.931795818844892e-05,4.9333,7.2667
2.5546875,-4.394539204943923e-05,-5.5668217458762494e-05,-2.8810132846875722e-05,-4.78514184914931e-05,4.9333,7.2667
2.55859375,-4.1994751869993136e-05,-5.615231794125277e-05,-2.9298979412527662e-05,-3.711103229663539e-05,4.9333,7.2667
2.5625,-3.418269898588541e-05,-3.711103229663539e-05,-3.906641855924316e-05,-2.7343593149919896e-05,4.9333,7.2667
2.56640625,-3.8088725427939275e-05,-3.076551910948349e-05,-4.052821217303731e-05,-3.516039211718929e-05,4.9333,7.2667
2.5703125,-4.003936560738537e-05,-3.61333391653315e-05,-4.1994751869993136e-05,-3.857757199359121e-05,4.9333,7.2667
2.57421875,-3.320500585458153e-05,-3.222731272327764e-05,-3.5644492599679566e-05,-2.4904106404821858e-05,4.9333,7.2667
2.578125,-3.271615928892959e-05,-3.516039211718929e-05,-4.1994751869993136e-05,-2.6859492667429627e-05,4.9333,7.2667
2.58203125,-3.516039211718929e-05,-6.396911690852217e-05,-4.248359843564507e-05,-3.076551910948349e-05,4.9333,7.2667
2.5859375,-3.711103229663539e-05,-4.736731800900283e-05,-4.8340265057145043e-05,-3.8088725427939275e-05,4.9333,7.2667
2.58984375,-3.0276672543831542e-05,-3.320500585458153e-05,-5.127334445105669e-05,-3.759987886228733e-05,4.9333,7.2667
2.59375,-2.8810132846875722e-05,-5.176219101670863e-05,-5.713001107255665e-05,-2.6859492667429627e-05,4.9333,7.2667
2.59765625,-3.320500585458153e-05,-6.250257721156635e-05,-6.250257721156635e-05,-3.8088725427939275e-05,4.9333,7.2667
2.6015625,-2.0020386831464106e-05,-6.152488408026245e-05,-5.0784497885404746e-05,-1.806974665201801e-05,4.9333,7.2667
2.60546875,-1.855859321766995e-05,-7.031463009567407e-05,-6.591975708796826e-05,-5.3739741945525305e-06,4.9333,7.2667
2.609375,-2.2464619659723815e-05,-8.056142364171816e-05,-8.935116965712978e-05,-1.758090008636607e-05,4.9333,7.2667
2.61328125,-2.441525983916991e-05,-7.958847659357596e-05,-8.300565646997787e-05,-3.320500585458153e-05,4.9333,7.2667
2.6171875,-1.6114360389410245e-05,-9.862976223819333e-05,-8.642283634637979e-05,-2.0509233397116046e-05,4.9333,7.2667
2.62109375,-1.709205352071413e-05,-0.00012890502672648204,-0.00011474271457206072,-9.791011868467337e-07,4.9333,7.2667
2.625,-2.2464619659723815e-05,-0.00013866771979003585,-0.00013085566690592814,-6.351667325856425e-06,4.9333,7.2667
2.62890625,-1.9047439783321897e-05,-0.00015283003194445716,-0.0001489240055024033,-1.4080555428535034e-09,4.9333,7.2667
2.6328125,-1.0257693767910283e-05,-0.00015820259808346684,-0.0001562472118208591,1.1716671270618746e-05,4.9333,7.2667
2.63671875,-4.885127628900591e-06,-0.00016698759801571679,-0.00016552580440192265,1.3667311450064843e-05,4.9333,7.2667
2.640625,-1.9531540265812166e-05,-0.00018407824348088807,-0.00018847311648859385,9.762850757610407e-07,4.9333,7.2667
2.64453125,-2.2953466225375762e-05,-0.00019237914293064771,-0.00019091734931685358,-3.4185879319447705e-06,4.9333,7.2667
2.6484375,-1.0746540333562222e-05,-0.00019286798949629967,-0.00019042850275120165,-3.4185879319447705e-06,4.9333,7.2667
2.65234375,-6.351667325856425e-06,-0.0001943345291932555,-0.0001943345291932555,1.9492321239032434e-06,4.9333,7.2667
2.65625,-1.5625513823758305e-05,-0.00021093632809277485,-0.00019530747624139772,5.855258565957115e-06,4.9333,7.2667
2.66015625,-1.9531540265812166e-05,-0.00019042850275120165,-0.00018358939691523612,9.762850757610407e-07,4.9333,7.2667
2.6640625,-1.3186027078660266e-05,-0.00017138247102342258,-0.00018407824348088807,-5.862820760204485e-06,4.9333,7.2667
2.66796875,-1.2697180513008326e-05,-0.00017626619059678034,-0.00019189029636499578,-5.3739741945525305e-06,4.9333,7.2667
2.671875,-2.392641327351797e-05,-0.0001782215768593881,-0.0001747996508998245,-1.3674873644312206e-05,4.9333,7.2667
2.67578125,-2.4904106404821858e-05,-0.0001606420848285649,-0.00015331887851010909,-2.588179953612574e-05,4.9333,7.2667
2.6796875,-2.2953466225375762e-05,-0.00013573938647928587,-0.00013964541292133976,-2.588179953612574e-05,4.9333,7.2667
2.68359375,-2.9298979412527662e-05,-0.00012255476745616845,-0.00012353246058747233,-2.9298979412527662e-05,4.9333,7.2667
2.6875,-3.17384661576257e-05,-0.00011962643414541846,-0.00010546412199099717,-4.150590530434119e-05,4.9333,7.2667
2.69140625,-3.17384661576257e-05,-0.00010644181512230106,-9.179540248538948e-05,-5.517937089311056e-05,4.9333,7.2667
2.6953125,-3.271615928892959e-05,-9.228424905104143e-05,-7.714424376531625e-05,-4.1994751869993136e-05,4.9333,7.2667
2.69921875,-3.467154555153735e-05,-8.593398978072786e-05,-7.61760428003357e-05,-3.662218573098345e-05,4.9333,7.2667
2.703125,-3.711103229663539e-05,-8.153911677302206e-05,-6.20137306459144e-05,-6.591975708796826e-05,4.9333,7.2667
2.70703125,-4.101705873868926e-05,-8.153911677302206e-05,-4.297244500129702e-05,-6.982578353002213e-05,4.9333,7.2667
2.7109375,-3.467154555153735e-05,-6.738629678492408e-05,-4.78514184914931e-05,-5.713001107255665e-05,4.9333,7.2667
2.71484375,-3.906641855924316e-05,-4.541193174639506e-05,-4.3461291566948966e-05,-7.031463009567407e-05,4.9333,7.2667
2.71875,-4.248359843564507e-05,-3.320500585458153e-05,-3.0276672543831542e-05,-6.689745021927213e-05,4.9333,7.2667
2.72265625,-4.101705873868926e-05,-1.9531540265812166e-05,-2.0020386831464106e-05,-6.299142377721828e-05,4.9333,7.2667
2.7265625,-4.882911162279699e-05,-2.0509233397116046e-05,-2.0020386831464106e-05,-6.83592438330663e-05,4.9333,7.2667
2.73046875,-5.517937089311056e-05,-2.9787825978179602e-05,-2.53929529704738e-05,-7.470950310337987e-05,4.9333,7.2667
2.734375,-5.517937089311056e-05,-2.343756670786603e-05,-1.855859321766995e-05,-8.056142364171816e-05,4.9333,7.2667
2.73828125,-4.931795818844892e-05,-2.9297413662928307e-06,1.4603855582513034e-06,-6.933693696437017e-05,4.9333,7.2667
2.7421875,-4.4434238615091175e-05,6.344105131609055e-06,7.810644828564874e-06,-6.250257721156635e-05,4.9333,7.2667
2.74609375,-4.638962487769895e-05,2.4380786895551976e-06,6.344105131609055e-06,-6.103603751461052e-05,4.9333,7.2667
2.75,-5.0784497885404746e-05,1.9492321239032434e-06,1.5622697712672604e-05,-5.7618857638208596e-05,4.9333,7.2667
2.75390625,-4.492308518074311e-05,4.3934649521629576e-06,1.0738978139314866e-05,-5.664116450690471e-05,4.9333,7.2667
2.7578125,-4.150590530434119e-05,9.277184525520709e-06,4.874385101090865e-07,-5.8596550769512476e-05,4.9333,7.2667
2.76171875,-4.394539204943923e-05,2.0995263851682295e-05,1.1716671270618746e-05,-6.054719094895857e-05,4.9333,7.2667
2.765625,-4.541193174639506e-05,1.9528724154726476e-05,1.7089237409628437e-05,-5.908539733516441e-05,4.9333,7.2667
2.76953125,-4.492308518074311e-05,1.0738978139314866e-05,7.321798262912935e-06,-5.664116450690471e-05,4.9333,7.2667
2.7734375,-5.127334445105669e-05,1.0250131573662911e-05,3.4157718208590776e-06,-5.4690524327458614e-05,4.9333,7.2667
2.77734375,-5.02956513197528e-05,1.0250131573662911e-05,1.3183210967574567e-05,-5.273513806485084e-05,4.9333,7.2667
2.78125,-4.492308518074311e-05,1.5622697712672604e-05,1.8551031023422596e-05,-5.908539733516441e-05,4.9333,7.2667
2.78515625,-5.420167776180668e-05,1.7578083975280377e-05,1.4156158015716783e-05,-6.348027034287022e-05,4.9333,7.2667
2.7890625,-5.4690524327458614e-05,1.0250131573662911e-05,3.4157718208590776e-06,-6.152488408026245e-05,4.9333,7.2667
2.79296875,-5.273513806485084e-05,4.3934649521629576e-06,3.4157718208590776e-06,-6.103603751461052e-05,4.9333,7.2667
2.796875,-4.9806804754100866e-05,1.6600390843976497e-05,9.761285008010971e-06,-5.810770420386053e-05,4.9333,7.2667
2.80078125,-4.1994751869993136e-05,1.7089237409628437e-05,1.0250131573662911e-05,-5.02956513197528e-05,4.9333,7.2667
2.8046875,-4.1994751869993136e-05,1.3183210967574567e-05,1.5133851147020663e-05,-4.882911162279699e-05,4.9333,7.2667
2.80859375,-4.4434238615091175e-05,1.4645004581368723e-05,2.5878983425040046e-05,-5.0784497885404746e-05,4.9333,7.2667
2.8125,-4.297244500129702e-05,-2.4456408838025537e-06,2.0017570720378415e-05,-5.0784497885404746e-05,4.9333,7.2667
2.81640625,-4.3461291566948966e-05,-1.956794318150614e-06,1.4156158015716783e-05,-4.541193174639506e-05,4.9333,7.2667
2.8203125,-4.394539204943923e-05,1.6111544278324544e-05,1.0738978139314866e-05,-4.6878471443350884e-05,4.9333,7.2667
2.82421875,-4.297244500129702e-05,1.5622697712672604e-05,1.8551031023422596e-05,-5.02956513197528e-05,4.9333,7.2667
2.828125,-4.150590530434119e-05,7.810644828564874e-06,2.0017570720378415e-05,-4.5900778312047e-05,4.9333,7.2667
2.83203125,-3.906641855924316e-05,6.344105131609055e-06,2.926925255207138e-06,-4.638962487769895e-05,4.9333,7.2667
2.8359375,-3.662218573098345e-05,2.4380786895551976e-06,2.4380786895551976e-06,-5.127334445105669e-05,4.9333,7.2667
2.83984375,-3.95552651248951e-05,1.9492321239032434e-06,7.810644828564874e-06,-5.4690524327458614e-05,4.9333,7.2667
2.84375,-3.516039211718929e-05,7.810644828564874e-06,5.855258565957115e-06,-4.78514184914931e-05,4.9333,7.2667
2.84765625,-2.8321286281223776e-05,3.904618386511018e-06,-3.90743449759671e-06,-4.3461291566948966e-05,4.9333,7.2667
2.8515625,-3.369385242023347e-05,-9.768847202258343e-06,-1.758090008636607e-05,-4.9806804754100866e-05,4.9333,7.2667
2.85546875,-3.906641855924316e-05,-1.0746540333562222e-05,-1.9531540265812166e-05,-5.176219101670863e-05,4.9333,7.2667
2.859375,-3.320500585458153e-05,9.762850757610407e-07,-1.220833394735638e-05,-4.638962487769895e-05,4.9333,7.2667
2.86328125,-2.8810132846875722e-05,-1.1230640816052499e-05,-1.3186027078660266e-05,-4.882911162279699e-05,4.9333,7.2667
2.8671875,-3.467154555153735e-05,-1.758090008636607e-05,-1.0257693767910283e-05,-4.931795818844892e-05,4.9333,7.2667
2.87109375,-3.759987886228733e-05,-1.806974665201801e-05,-8.302307505302522e-06,-5.02956513197528e-05,4.9333,7.2667
2.875,-3.5644492599679566e-05,-1.2697180513008326e-05,-8.791154070954462e-06,-5.420167776180668e-05,4.9333,7.2667
2.87890625,-3.61333391653315e-05,-4.396281063248651e-06,-1.758090008636607e-05,-5.615231794125277e-05,4.9333,7.2667
2.8828125,-3.8088725427939275e-05,-1.1230640816052499e-05,-1.0257693767910283e-05,-5.0784497885404746e-05,4.9333,7.2667
2.88671875,-4.5900778312047e-05,-1.3186027078660266e-05,8.788337959868769e-06,-4.052821217303731e-05,4.9333,7.2667
2.890625,-4.492308518074311e-05,-1.660320695506219e-05,-1.1230640816052499e-05,-3.711103229663539e-05,4.9333,7.2667
2.89453125,-3.418269898588541e-05,-1.6114360389410245e-05,-2.2953466225375762e-05,-4.052821217303731e-05,4.9333,7.2667
2.8984375,-3.61333391653315e-05,-1.660320695506219e-05,-1.3674873644312206e-05,-4.736731800900283e-05,4.9333,7.2667
2.90234375,-4.150590530434119e-05,-2.0998079962767996e-05,-1.3674873644312206e-05,-5.0784497885404746e-05,4.9333,7.2667
2.90625,-3.467154555153735e-05,-2.1975773094071876e-05,-9.768847202258343e-06,-4.394539204943923e-05,4.9333,7.2667
2.91015625,-3.320500585458153e-05,-1.4163720209964146e-05,-9.768847202258343e-06,-4.78514184914931e-05,4.9333,7.2667
2.9140625,-3.0276672543831542e-05,-4.902546211947936e-07,-2.0020386831464106e-05,-4.3461291566948966e-05,4.9333,7.2667
2.91796875,-2.7343593149919896e-05,1.9492321239032434e-06,-2.0509233397116046e-05,-3.61333391653315e-05,4.9333,7.2667
2.921875,-3.320500585458153e-05,-1.0257693767910283e-05,-1.2697180513008326e-05,-4.052821217303731e-05,4.9333,7.2667
2.92578125,-2.9787825978179602e-05,-1.3674873644312206e-05,-1.4652566775616087e-05,-3.95552651248951e-05,4.9333,7.2667
2.9296875,-2.8810132846875722e-05,-1.4652566775616087e-05,-1.4652566775616087e-05,-4.541193174639506e-05,4.9333,7.2667
2.93359375,-2.441525983916991e-05,-1.9047439783321897e-05,-1.4163720209964146e-05,-3.711103229663539e-05,4.9333,7.2667
2.9375,-2.9787825978179602e-05,-2.2953466225375762e-05,-2.4904106404821858e-05,-2.588179953612574e-05,4.9333,7.2667
2.94140625,-3.467154555153735e-05,-2.6859492667429627e-05,-2.441525983916991e-05,-4.3461291566948966e-05,4.9333,7.2667
2.9453125,-3.222731272327764e-05,-1.3186027078660266e-05,-6.840513891508365e-06,-4.541193174639506e-05,4.9333,7.2667
2.94921875,-3.467154555153735e-05,-2.1975773094071876e-05,-1.806974665201801e-05,-2.392641327351797e-05,4.9333,7.2667
2.953125,-4.1994751869993136e-05,-4.297244500129702e-05,-3.271615928892959e-05,-1.5625513823758305e-05,4.9333,7.2667
2.95703125,-4.638962487769895e-05,-3.8088725427939275e-05,-3.320500585458153e-05,-2.1975773094071876e-05,4.9333,7.2667
2.9609375,-4.4434238615091175e-05,-2.4904106404821858e-05,-2.1975773094071876e-05,-2.441525983916991e-05,4.9333,7.2667
2.96484375,-4.78514184914931e-05,-2.9787825978179602e-05,-8.302307505302522e-06,-1.2697180513008326e-05,4.9333,7.2667
2.96875,-4.882911162279699e-05,-3.857757199359121e-05,-1.806974665201801e-05,-1.2697180513008326e-05,4.9333,7.2667
2.97265625,-4.931795818844892e-05,-3.711103229663539e-05,-2.0020386831464106e-05,-1.709205352071413e-05,4.9333,7.2667
2.9765625,-4.931795818844892e-05,-5.664116450690471e-05,-1.9047439783321897e-05,-9.768847202258343e-06,4.9333,7.2667
2.98046875,-4.78514184914931e-05,-5.0784497885404746e-05,-2.9298979412527662e-05,2.4380786895551976e-06,4.9333,7.2667
2.984375,-5.176219101670863e-05,-4.297244500129702e-05,-2.9787825978179602e-05,3.904618386511018e-06,4.9333,7.2667
2.98828125,-5.420167776180668e-05,-5.810770420386053e-05,-2.9787825978179602e-05,2.4380786895551976e-06,4.9333,7.2667
2.9921875,-5.02956513197528e-05,-4.4434238615091175e-05,-2.588179953612574e-05,-9.791011868467337e-07,4.9333,7.2667
2.99609375,-5.517937089311056e-05,-3.759987886228733e-05,-2.0509233397116046e-05,-2.9297413662928307e-06,4.9333,7.2667
3.0,-5.371283119615473e-05,-3.906641855924316e-05,-1.3674873644312206e-05,-4.396281063248651e-06,4.9333,7.2667
3.00390625,-4.492308518074311e-05,-4.8340265057145043e-05,-7.324614373998628e-06,-5.862820760204485e-06,4.9333,7.2667
3.0078125,-4.8340265057145043e-05,-4.4434238615091175e-05,-8.791154070954462e-06,9.762850757610407e-07,4.9333,7.2667
3.01171875,-5.420167776180668e-05,-2.9298979412527662e-05,-2.0020386831464106e-05,-5.3739741945525305e-06,4.9333,7.2667
3.015625,-4.638962487769895e-05,-2.1975773094071876e-05,-2.0020386831464106e-05,-1.0746540333562222e-05,4.9333,7.2667
3.01953125,-4.541193174639506e-05,-2.0020386831464106e-05,-1.1230640816052499e-05,-1.5625513823758305e-05,4.9333,7.2667
3.0234375,-4.6878471443350884e-05,-2.8321286281223776e-05,-8.302307505302522e-06,-1.806974665201801e-05,4.9333,7.2667
3.02734375,-4.150590530434119e-05,-3.125436567513543e-05,-1.0746540333562222e-05,-1.5136667258106363e-05,4.9333,7.2667
3.03125,-4.1994751869993136e-05,-2.2953466225375762e-05,-2.4904106404821858e-05,-2.1486926528419936e-05,4.9333,7.2667
3.03515625,-3.711103229663539e-05,-2.0020386831464106e-05,-2.0509233397116046e-05,-1.9047439783321897e-05,4.9333,7.2667
3.0390625,-3.320500585458153e-05,-2.2464619659723815e-05,-1.758090008636607e-05,-1.0257693767910283e-05,4.9333,7.2667
3.04296875,-3.906641855924316e-05,-2.9298979412527662e-05,-2.637064610177768e-05,-1.4163720209964146e-05,4.9333,7.2667
3.046875,-4.052821217303731e-05,-2.343756670786603e-05,-2.343756670786603e-05,-2.8321286281223776e-05,4.9333,7.2667
3.05078125,-3.857757199359121e-05,-2.2464619659723815e-05,-1.709205352071413e-05,-2.7343593149919896e-05,4.9333,7.2667
3.0546875,-3.5644492599679566e-05,-3.857757199359121e-05,-3.320500585458153e-05,-1.806974665201801e-05,4.9333,7.2667
3.05859375,-3.076551910948349e-05,-3.711103229663539e-05,-3.418269898588541e-05,-1.5625513823758305e-05,4.9333,7.2667
3.0625,-2.8810132846875722e-05,-1.9531540265812166e-05,-2.8810132846875722e-05,-2.392641327351797e-05,4.9333,7.2667
3.06640625,-3.369385242023347e-05,-2.4904106404821858e-05,-3.759987886228733e-05,-3.662218573098345e-05,4.9333,7.2667
3.0703125,-3.857757199359121e-05,-3.369385242023347e-05,-3.95552651248951e-05,-3.076551910948349e-05,4.9333,7.2667
3.07421875,-3.5644492599679566e-05,-2.7343593149919896e-05,-4.3461291566948966e-05,-2.1975773094071876e-05,4.9333,7.2667
3.078125,-3.271615928892959e-05,-2.7343593149919896e-05,-3.17384661576257e-05,-3.418269898588541e-05,4.9333,7.2667
3.08203125,-3.662218573098345e-05,-2.9298979412527662e-05,-2.343756670786603e-05,-3.711103229663539e-05,4.9333,7.2667
3.0859375,-3.662218573098345e-05,-2.2464619659723815e-05,-2.0998079962767996e-05,-1.5625513823758305e-05,4.9333,7.2667
3.08984375,-4.3461291566948966e-05,-2.0998079962767996e-05,-2.0020386831464106e-05,-2.588179953612574e-05,4.9333,7.2667
3.09375,-4.6878471443350884e-05,-4.003936560738537e-05,-3.271615928892959e-05,-3.369385242023347e-05,4.9333,7.2667
3.09765625,-3.8088725427939275e-05,-3.857757199359121e-05,-3.271615928892959e-05,-2.0998079962767996e-05,4.9333,7.2667
3.1015625,-4.003936560738537e-05,-2.7832439715571836e-05,-2.441525983916991e-05,-2.2953466225375762e-05,4.9333,7.2667
3.10546875,-4.6878471443350884e-05,-3.0276672543831542e-05,-1.806974665201801e-05,-3.0276672543831542e-05,4.9333,7.2667
3.109375,-4.248359843564507e-05,-2.0998079962767996e-05,-8.791154070954462e-06,-3.662218573098345e-05,4.9333,7.2667
3.11328125,-2.7343593149919896e-05,-2.8810132846875722e-05,-1.4163720209964146e-05,-4.003936560738537e-05,4.9333,7.2667
3.1171875,-2.343756670786603e-05,-3.320500585458153e-05,-3.711103229663539e-05,-3.5644492599679566e-05,4.9333,7.2667
3.12109375,-2.6859492667429627e-05,-3.271615928892959e-05,-4.931795818844892e-05,-4.003936560738537e-05,4.9333,7.2667
3.125,-2.6859492667429627e-05,-3.95552651248951e-05,-3.857757199359121e-05,-5.273513806485084e-05,4.9333,7.2667
3.12890625,-2.588179953612574e-05,-2.9298979412527662e-05,-3.8088725427939275e-05,-5.02956513197528e-05,4.9333,7.2667
3.1328125,-2.2953466225375762e-05,-3.076551910948349e-05,-4.9806804754100866e-05,-4.882911162279699e-05,4.9333,7.2667
3.13671875,-2.1975773094071876e-05,-4.6878471443350884e-05,-5.7618857638208596e-05,-6.152488408026245e-05,4.9333,7.2667
3.140625,-2.9298979412527662e-05,-4.297244500129702e-05,-6.103603751461052e-05,-6.884809039871824e-05,4.9333,7.2667
3.14453125,-3.076551910948349e-05,-3.320500585458153e-05,-5.7618857638208596e-05,-6.982578353002213e-05,4.9333,7.2667
3.1484375,-2.1975773094071876e-05,-3.711103229663539e-05,-4.5900778312047e-05,-6.933693696437017e-05,4.9333,7.2667
3.15234375,-2.9298979412527662e-05,-3.17384661576257e-05,-4.736731800900283e-05,-6.396911690852217e-05,4.9333,7.2667
3.15625,-3.61333391653315e-05,-1.6114360389410245e-05,-4.78514184914931e-05,-6.20137306459144e-05,4.9333,7.2667
3.16015625,-3.125436567513543e-05,-3.95552651248951e-05,-4.8340265057145043e-05,-6.445321739101245e-05,4.9333,7.2667
3.1640625,-3.076551910948349e-05,-5.420167776180668e-05,-6.005834438330663e-05,-6.494206395666438e-05,4.9333,7.2667
3.16796875,-3.662218573098345e-05,-2.8810132846875722e-05,-4.394539204943923e-05,-7.227001635828183e-05,4.9333,7.2667
3.171875,-3.369385242023347e-05,-2.9787825978179602e-05,-3.467154555153735e-05,-6.933693696437017e-05,4.9333,7.2667
3.17578125,-1.758090008636607e-05,-2.392641327351797e-05,-4.394539204943923e-05,-4.394539204943923e-05,4.9333,7.2667
3.1796875,-2.2953466225375762e-05,-2.2464619659723815e-05,-3.857757199359121e-05,-4.101705873868926e-05,4.9333,7.2667
3.18359375,-3.516039211718929e-05,-3.711103229663539e-05,-4.394539204943923e-05,-5.5668217458762494e-05,4.9333,7.2667
3.1875,-3.271615928892959e-05,-3.0276672543831542e-05,-4.297244500129702e-05,-5.22462914991989e-05,4.9333,7.2667
3.19140625,-2.8810132846875722e-05,-2.2953466225375762e-05,-4.8340265057145043e-05,-4.882911162279699e-05,4.9333,7.2667
3.1953125,-3.17384661576257e-05,-3.320500585458153e-05,-5.713001107255665e-05,-5.322398463050279e-05,4.9333,7.2667
3.19921875,-3.61333391653315e-05,-2.6859492667429627e-05,-4.882911162279699e-05,-4.736731800900283e-05,4.9333,7.2667
3.203125,-3.662218573098345e-05,-2.0509233397116046e-05,-4.6878471443350884e-05,-4.638962487769895e-05,4.9333,7.2667
3.20703125,-3.662218573098345e-05,-2.0509233397116046e-05,-4.4434238615091175e-05,-4.101705873868926e-05,4.9333,7.2667
3.2109375,-3.61333391653315e-05,-2.4904106404821858e-05,-4.882911162279699e-05,-4.1994751869993136e-05,4.9333,7.2667
3.21484375,-3.711103229663539e-05,-2.8810132846875722e-05,-4.78514184914931e-05,-4.9806804754100866e-05,4.9333,7.2667
3.21875,-3.125436567513543e-05,-3.467154555153735e-05,-4.9806804754100866e-05,-4.003936560738537e-05,4.9333,7.2667
3.22265625,-3.369385242023347e-05,-3.516039211718929e-05,-5.02956513197528e-05,-3.906641855924316e-05,4.9333,7.2667
3.2265625,-4.638962487769895e-05,-3.076551910948349e-05,-4.492308518074311e-05,-5.517937089311056e-05,4.9333,7.2667
3.23046875,-4.78514184914931e-05,-4.1994751869993136e-05,-4.6878471443350884e-05,-5.127334445105669e-05,4.9333,7.2667
3.234375,-4.003936560738537e-05,-4.5900778312047e-05,-3.759987886228733e-05,-3.711103229663539e-05,4.9333,7.2667
3.23828125,-3.320500585458153e-05,-3.467154555153735e-05,-3.0276672543831542e-05,-4.492308518074311e-05,4.9333,7.2667
3.2421875,-3.516039211718929e-05,-2.9787825978179602e-05,-2.7832439715571836e-05,-5.127334445105669e-05,4.9333,7.2667
3.24609375,-3.516039211718929e-05,-3.857757199359121e-05,-3.0276672543831542e-05,-4.150590530434119e-05,4.9333,7.2667
3.25,-3.61333391653315e-05,-3.95552651248951e-05,-3.516039211718929e-05,-3.95552651248951e-05,4.9333,7.2667
3.25390625,-3.759987886228733e-05,-2.6859492667429627e-05,-3.369385242023347e-05,-4.4434238615091175e-05,4.9333,7.2667
3.2578125,-3.857757199359121e-05,-4.492308518074311e-05,-3.076551910948349e-05,-4.492308518074311e-05,4.9333,7.2667
3.26171875,-4.150590530434119e-05,-3.906641855924316e-05,-2.9787825978179602e-05,-4.248359843564507e-05,4.9333,7.2667
3.265625,-3.222731272327764e-05,-2.392641327351797e-05,-3.906641855924316e-05,-3.5644492599679566e-05,4.9333,7.2667
3.26953125,-3.418269898588541e-05,-4.5900778312047e-05,-3.857757199359121e-05,-4.003936560738537e-05,4.9333,7.2667
3.2734375,-4.003936560738537e-05,-4.492308518074311e-05,-4.052821217303731e-05,-4.492308518074311e-05,4.9333,7.2667
3.27734375,-3.759987886228733e-05,-4.101705873868926e-05,-3.662218573098345e-05,-3.662218573098345e-05,4.9333,7.2667
3.28125,-3.857757199359121e-05,-4.5900778312047e-05,-3.125436567513543e-05,-2.53929529704738e-05,4.9333,7.2667
3.28515625,-3.369385242023347e-05,-3.467154555153735e-05,-3.125436567513543e-05,-2.2464619659723815e-05,4.9333,7.2667
3.2890625,-3.662218573098345e-05,-3.857757199359121e-05,-3.516039211718929e-05,-2.392641327351797e-05,4.9333,7.2667
3.29296875,-3.857757199359121e-05,-3.906641855924316e-05,-4.6878471443350884e-05,-2.9298979412527662e-05,4.9333,7.2667
3.296875,-3.5644492599679566e-05,-3.516039211718929e-05,-4.1994751869993136e-05,-2.637064610177768e-05,4.9333,7.2667
3.30078125,-3.61333391653315e-05,-3.95552651248951e-05,-3.418269898588541e-05,-2.7343593149919896e-05,4.9333,7.2667
3.3046875,-3.759987886228733e-05,-2.7832439715571836e-05,-3.320500585458153e-05,-4.052821217303731e-05,4.9333,7.2667
3.30859375,-3.711103229663539e-05,-3.125436567513543e-05,-3.320500585458153e-05,-2.441525983916991e-05,4.9333,7.2667
3.3125,-3.369385242023347e-05,-4.297244500129702e-05,-3.857757199359121e-05,-1.0746540333562222e-05,4.9333,7.2667
3.31640625,-3.222731272327764e-05,-4.248359843564507e-05,-4.1994751869993136e-05,-2.392641327351797e-05,4.9333,7.2667
3.3203125,-3.516039211718929e-05,-4.78514184914931e-05,-4.052821217303731e-05,-3.8088725427939275e-05,4.9333,7.2667
3.32421875,-3.759987886228733e-05,-5.273513806485084e-05,-3.0276672543831542e-05,-3.61333391653315e-05,4.9333,7.2667
3.328125,-3.662218573098345e-05,-3.467154555153735e-05,-2.9298979412527662e-05,-3.076551910948349e-05,4.9333,7.2667
3.33203125,-3.222731272327764e-05,-2.7343593149919896e-05,-3.8088725427939275e-05,-2.441525983916991e-05,4.9333,7.2667
3.3359375,-3.17384661576257e-05,-4.5900778312047e-05,-4.5900778312047e-05,-2.441525983916991e-05,4.9333,7.2667
3.33984375,-3.222731272327764e-05,-4.638962487769895e-05,-5.713001107255665e-05,-2.6859492667429627e-05,4.9333,7.2667
3.34375,-3.662218573098345e-05,-4.101705873868926e-05,-5.176219101670863e-05,-2.8810132846875722e-05,4.9333,7.2667
3.34765625,-4.150590530434119e-05,-4.150590530434119e-05,-3.906641855924316e-05,-3.8088725427939275e-05,4.9333,7.2667
3.3515625,-3.516039211718929e-05,-4.4434238615091175e-05,-4.541193174639506e-05,-3.467154555153735e-05,4.9333,7.2667
3.35546875,-3.076551910948349e-05,-4.6878471443350884e-05,-5.4690524327458614e-05,-2.7832439715571836e-05,4.9333,7.2667
3.359375,-3.467154555153735e-05,-3.906641855924316e-05,-4.394539204943923e-05,-3.467154555153735e-05,4.9333,7.2667
3.36328125,-3.711103229663539e-05,-3.95552651248951e-05,-2.7832439715571836e-05,-4.638962487769895e-05,4.9333,7.2667
3.3671875,-3.61333391653315e-05,-4.638962487769895e-05,-3.320500585458153e-05,-4.248359843564507e-05,4.9333,7.2667
3.37109375,-2.588179953612574e-05,-2.8810132846875722e-05,-3.759987886228733e-05,-4.052821217303731e-05,4.9333,7.2667
3.375,-2.392641327351797e-05,-4.003936560738537e-05,-3.516039211718929e-05,-4.78514184914931e-05,4.9333,7.2667
3.37890625,-3.369385242023347e-05,-3.906641855924316e-05,-3.222731272327764e-05,-4.150590530434119e-05,4.9333,7.2667
3.3828125,-3.759987886228733e-05,-2.9298979412527662e-05,-3.17384661576257e-05,-2.8321286281223776e-05,4.9333,7.2667
3.38671875,-3.320500585458153e-05,-4.003936560738537e-05,-4.492308518074311e-05,-2.1975773094071876e-05,4.9333,7.2667
3.390625,-3.61333391653315e-05,-3.320500585458153e-05,-5.127334445105669e-05,-2.1975773094071876e-05,4.9333,7.2667
3.39453125,-4.150590530434119e-05,-3.759987886228733e-05,-4.541193174639506e-05,-2.9298979412527662e-05,4.9333,7.2667
3.3984375,-4.3461291566948966e-05,-4.5900778312047e-05,-5.22462914991989e-05,-3.759987886228733e-05,4.9333,7.2667
3.40234375,-4.541193174639506e-05,-3.759987886228733e-05,-5.273513806485084e-05,-2.9787825978179602e-05,4.9333,7.2667
3.40625,-3.95552651248951e-05,-3.369385242023347e-05,-3.759987886228733e-05,-3.906641855924316e-05,4.9333,7.2667
3.41015625,-4.3461291566948966e-05,-4.638962487769895e-05,-3.418269898588541e-05,-4.78514184914931e-05,4.9333,7.2667
3.4140625,-3.8088725427939275e-05,-4.150590530434119e-05,-3.61333391653315e-05,-2.9298979412527662e-05,4.9333,7.2667
3.41796875,-2.7832439715571836e-05,-2.343756670786603e-05,-3.95552651248951e-05,-2.8810132846875722e-05,4.9333,7.2667
3.421875,-3.759987886228733e-05,-2.2953466225375762e-05,-3.906641855924316e-05,-4.003936560738537e-05,4.9333,7.2667
3.42578125,-3.857757199359121e-05,-3.076551910948349e-05,-3.467154555153735e-05,-4.003936560738537e-05,4.9333,7.2667
3.4296875,-3.516039211718929e-05,-3.8088725427939275e-05,-3.516039211718929e-05,-3.369385242023347e-05,4.9333,7.2667
3.43359375,-4.248359843564507e-05,-4.052821217303731e-05,-4.297244500129702e-05,-3.5644492599679566e-05,4.9333,7.2667
3.4375,-4.541193174639506e-05,-4.394539204943923e-05,-4.248359843564507e-05,-4.492308518074311e-05,4.9333,7.2667
3.44140625,-4.5900778312047e-05,-3.906641855924316e-05,-3.662218573098345e-05,-4.6878471443350884e-05,4.9333,7.2667
3.4453125,-4.248359843564507e-05,-2.9787825978179602e-05,-3.222731272327764e-05,-4.1994751869993136e-05,4.9333,7.2667
3.44921875,-3.662218573098345e-05,-2.6859492667429627e-05,-3.711103229663539e-05,-3.418269898588541e-05,4.9333,7.2667
3.453125,-4.297244500129702e-05,-3.711103229663539e-05,-3.759987886228733e-05,-4.003936560738537e-05,4.9333,7.2667
3.45703125,-4.78514184914931e-05,-4.5900778312047e-05,-3.271615928892959e-05,-5.127334445105669e-05,4.9333,7.2667
3.4609375,-3.516039211718929e-05,-4.101705873868926e-05,-3.759987886228733e-05,-3.5644492599679566e-05,4.9333,7.2667
3.46484375,-4.003936560738537e-05,-3.759987886228733e-05,-4.101705873868926e-05,-3.662218573098345e-05,4.9333,7.2667
3.46875,-4.5900778312047e-05,-4.297244500129702e-05,-4.492308518074311e-05,-4.882911162279699e-05,4.9333,7.2667
3.47265625,-3.711103229663539e-05,-4.882911162279699e-05,-4.736731800900283e-05,-4.638962487769895e-05,4.9333,7.2667
3.4765625,-3.516039211718929e-05,-4.5900778312047e-05,-5.02956513197528e-05,-3.759987886228733e-05,4.9333,7.2667
3.48046875,-4.4434238615091175e-05,-4.6878471443350884e-05,-4.248359843564507e-05,-4.150590530434119e-05,4.9333,7.2667
3.484375,-4.736731800900283e-05,-3.271615928892959e-05,-3.320500585458153e-05,-4.5900778312047e-05,4.9333,7.2667
3.48828125,-3.516039211718929e-05,-2.9298979412527662e-05,-3.271615928892959e-05,-3.5644492599679566e-05,4.9333,7.2667
3.4921875,-3.418269898588541e-05,-4.1994751869993136e-05,-3.8088725427939275e-05,-3.125436567513543e-05,4.9333,7.2667
3.49609375,-3.61333391653315e-05,-3.418269898588541e-05,-5.176219101670863e-05,-4.297244500129702e-05,4.9333,7.2667
3.5,-3.759987886228733e-05,-3.8088725427939275e-05,-4.4434238615091175e-05,-5.22462914991989e-05,4.9333,7.2667
3.50390625,-3.759987886228733e-05,-3.418269898588541e-05,-4.052821217303731e-05,-3.906641855924316e-05,4.9333,7.2667
3.5078125,-3.222731272327764e-05,-2.8321286281223776e-05,-4.5900778312047e-05,-3.857757199359121e-05,4.9333,7.2667
3.51171875,-3.8088725427939275e-05,-4.101705873868926e-05,-3.61333391653315e-05,-4.638962487769895e-05,4.9333,7.2667
3.515625,-3.759987886228733e-05,-2.7343593149919896e-05,-3.5644492599679566e-05,-3.271615928892959e-05,4.9333,7.2667
3.51953125,-3.271615928892959e-05,-2.588179953612574e-05,-3.418269898588541e-05,-2.8810132846875722e-05,4.9333,7.2667
3.5234375,-3.17384661576257e-05,-4.052821217303731e-05,-3.222731272327764e-05,-4.248359843564507e-05,4.9333,7.2667
3.52734375,-3.711103229663539e-05,-4.052821217303731e-05,-3.711103229663539e-05,-3.857757199359121e-05,4.9333,7.2667
3.53125,-3.906641855924316e-05,-3.5644492599679566e-05,-3.906641855924316e-05,-3.467154555153735e-05,4.9333,7.2667
3.53515625,-3.271615928892959e-05,-1.855859321766995e-05,-2.9298979412527662e-05,-5.176219101670863e-05,4.9333,7.2667
3.5390625,-4.003936560738537e-05,-3.418269898588541e-05,-3.418269898588541e-05,-4.3461291566948966e-05,4.9333,7.2667
3.54296875,-5.273513806485084e-05,-5.908539733516441e-05,-3.5644492599679566e-05,-3.222731272327764e-05,4.9333,7.2667
3.546875,-4.4434238615091175e-05,-5.957424390081636e-05,-2.7832439715571836e-05,-3.662218573098345e-05,4.9333,7.2667
3.55078125,-3.662218573098345e-05,-5.810770420386053e-05,-3.369385242023347e-05,-1.9047439783321897e-05,4.9333,7.2667
3.5546875,-3.662218573098345e-05,-6.054719094895857e-05,-4.78514184914931e-05,-5.3739741945525305e-06,4.9333,7.2667
3.55859375,-3.125436567513543e-05,-5.322398463050279e-05,-3.711103229663539e-05,-7.813460939650582e-06,4.9333,7.2667
3.5625,-3.662218573098345e-05,-4.638962487769895e-05,-2.7343593149919896e-05,-7.813460939650582e-06,4.9333,7.2667
3.56640625,-3.857757199359121e-05,-4.882911162279699e-05,-4.1994751869993136e-05,9.762850757610407e-07,4.9333,7.2667
3.5703125,-3.95552651248951e-05,-5.273513806485084e-05,-3.467154555153735e-05,3.4157718208590776e-06,4.9333,7.2667
3.57421875,-4.052821217303731e-05,-6.738629678492408e-05,-4.6878471443350884e-05,4.3934649521629576e-06,4.9333,7.2667
3.578125,-3.857757199359121e-05,-6.348027034287022e-05,-4.78514184914931e-05,9.277184525520709e-06,4.9333,7.2667
3.58203125,-4.8340265057145043e-05,-5.713001107255665e-05,-3.95552651248951e-05,7.810644828564874e-06,4.9333,7.2667
3.5859375,-4.78514184914931e-05,-6.933693696437017e-05,-4.736731800900283e-05,1.2694364401922627e-05,4.9333,7.2667
3.58984375,-4.492308518074311e-05,-6.884809039871824e-05,-3.61333391653315e-05,1.1716671270618746e-05,4.9333,7.2667
3.59375,-4.5900778312047e-05,-6.884809039871824e-05,-2.588179953612574e-05,1.8551031023422596e-05,4.9333,7.2667
3.59765625,-4.3461291566948966e-05,-6.738629678492408e-05,-3.125436567513543e-05,2.245705746547645e-05,4.9333,7.2667
3.6015625,-4.394539204943923e-05,-5.5668217458762494e-05,-2.8321286281223776e-05,7.321798262912935e-06,4.9333,7.2667
3.60546875,-4.3461291566948966e-05,-5.371283119615473e-05,-2.8810132846875722e-05,3.904618386511018e-06,4.9333,7.2667
3.609375,-4.101705873868926e-05,-5.273513806485084e-05,-3.369385242023347e-05,6.832951697260995e-06,4.9333,7.2667
3.61328125,-3.8088725427939275e-05,-3.516039211718929e-05,-3.857757199359121e-05,1.0250131573662911e-05,4.9333,7.2667
3.6171875,-3.906641855924316e-05,-2.8810132846875722e-05,-3.759987886228733e-05,4.882311517814898e-06,4.9333,7.2667
3.62109375,-3.711103229663539e-05,-3.418269898588541e-05,-2.53929529704738e-05,6.832951697260995e-06,4.9333,7.2667
3.625,-3.516039211718929e-05,-2.9298979412527662e-05,-1.758090008636607e-05,4.3934649521629576e-06,4.9333,7.2667
3.62890625,-3.0276672543831542e-05,-2.4904106404821858e-05,-1.4163720209964146e-05,-1.4679477524986737e-06,4.9333,7.2667
3.6328125,-3.418269898588541e-05,-3.0276672543831542e-05,-7.813460939650582e-06,3.904618386511018e-06,4.9333,7.2667
3.63671875,-3.711103229663539e-05,-3.61333391653315e-05,-5.862820760204485e-06,2.926925255207138e-06,4.9333,7.2667
3.640625,-2.8810132846875722e-05,-2.7343593149919896e-05,-1.0257693767910283e-05,9.762850757610407e-07,4.9333,7.2667
3.64453125,-3.271615928892959e-05,-1.855859321766995e-05,-2.0998079962767996e-05,-7.324614373998628e-06,4.9333,7.2667
3.6484375,-3.516039211718929e-05,-1.2697180513008326e-05,-2.637064610177768e-05,9.762850757610407e-07,4.9333,7.2667
3.65234375,-3.61333391653315e-05,-1.9531540265812166e-05,-1.9531540265812166e-05,-5.862820760204485e-06,4.9333,7.2667
3.65625,-4.101705873868926e-05,-3.8088725427939275e-05,-3.759987886228733e-05,-1.3674873644312206e-05,4.9333,7.2667
3.66015625,-3.711103229663539e-05,-3.125436567513543e-05,-2.8810132846875722e-05,-7.324614373998628e-06,4.9333,7.2667
3.6640625,-3.320500585458153e-05,-1.709205352071413e-05,-1.0746540333562222e-05,-1.0746540333562222e-05,4.9333,7.2667
3.66796875,-3.271615928892959e-05,-1.9531540265812166e-05,-2.2953466225375762e-05,-1.0257693767910283e-05,4.9333,7.2667
3.671875,-3.5644492599679566e-05,-3.95552651248951e-05,-3.0276672543831542e-05,-1.660320695506219e-05,4.9333,7.2667
3.67578125,-3.369385242023347e-05,-4.9806804754100866e-05,-3.222731272327764e-05,-1.9531540265812166e-05,4.9333,7.2667
3.6796875,-3.369385242023347e-05,-3.0276672543831542e-05,-2.9298979412527662e-05,-2.2464619659723815e-05,4.9333,7.2667
3.68359375,-3.8088725427939275e-05,-3.61333391653315e-05,-3.125436567513543e-05,-1.660320695506219e-05,4.9333,7.2667
3.6875,-3.5644492599679566e-05,-4.6878471443350884e-05,-3.467154555153735e-05,-6.351667325856425e-06,4.9333,7.2667
3.69140625,-3.271615928892959e-05,-3.857757199359121e-05,-3.369385242023347e-05,-2.1486926528419936e-05,4.9333,7.2667
3.6953125,-3.5644492599679566e-05,-4.003936560738537e-05,-3.8088725427939275e-05,-2.1486926528419936e-05,4.9333,7.2667
3.69921875,-3.271615928892959e-05,-3.8088725427939275e-05,-3.857757199359121e-05,-1.6114360389410245e-05,4.9333,7.2667
3.703125,-3.467154555153735e-05,-4.150590530434119e-05,-3.0276672543831542e-05,-2.2464619659723815e-05,4.9333,7.2667
3.70703125,-3.906641855924316e-05,-3.759987886228733e-05,-3.125436567513543e-05,-2.588179953612574e-05,4.9333,7.2667
3.7109375,-3.662218573098345e-05,-2.9787825978179602e-05,-3.467154555153735e-05,-2.7832439715571836e-05,4.9333,7.2667
3.71484375,-3.418269898588541e-05,-4.248359843564507e-05,-3.95552651248951e-05,-2.392641327351797e-05,4.9333,7.2667
3.71875,-3.418269898588541e-05,-3.759987886228733e-05,-4.101705873868926e-05,-2.441525983916991e-05,4.9333,7.2667
3.72265625,-4.492308518074311e-05,-3.906641855924316e-05,-3.271615928892959e-05,-3.8088725427939275e-05,4.9333,7.2667
3.7265625,-4.6878471443350884e-05,-5.02956513197528e-05,-3.759987886228733e-05,-4.4434238615091175e-05,4.9333,7.2667
3.73046875,-4.1994751869993136e-05,-5.0784497885404746e-05,-4.6878471443350884e-05,-3.271615928892959e-05,4.9333,7.2667
3.734375,-4.3461291566948966e-05,-5.810770420386053e-05,-5.273513806485084e-05,-4.052821217303731e-05,4.9333,7.2667
3.73828125,-4.052821217303731e-05,-4.541193174639506e-05,-4.492308518074311e-05,-4.541193174639506e-05,4.9333,7.2667
3.7421875,-3.61333391653315e-05,-3.759987886228733e-05,-2.9787825978179602e-05,-3.369385242023347e-05,4.9333,7.2667
3.74609375,-4.101705873868926e-05,-2.8810132846875722e-05,-3.857757199359121e-05,-3.5644492599679566e-05,4.9333,7.2667
3.75,-4.736731800900283e-05,-4.3461291566948966e-05,-4.638962487769895e-05,-3.222731272327764e-05,4.9333,7.2667
3.75390625,-3.711103229663539e-05,-4.1994751869993136e-05,-4.8340265057145043e-05,-2.2953466225375762e-05,4.9333,7.2667
3.7578125,-3.271615928892959e-05,-3.076551910948349e-05,-4.052821217303731e-05,-1.9531540265812166e-05,4.9333,7.2667
3.76171875,-3.271615928892959e-05,-3.125436567513543e-05,-3.076551910948349e-05,-1.9047439783321897e-05,4.9333,7.2667
3.765625,-3.467154555153735e-05,-2.392641327351797e-05,-2.8321286281223776e-05,-2.2953466225375762e-05,4.9333,7.2667
3.76953125,-4.003936560738537e-05,-3.222731272327764e-05,-2.6859492667429627e-05,-3.516039211718929e-05,4.9333,7.2667
3.7734375,-3.857757199359121e-05,-4.8340265057145043e-05,-3.8088725427939275e-05,-3.516039211718929e-05,4.9333,7.2667
3.77734375,-3.467154555153735e-05,-3.17384661576257e-05,-4.248359843564507e-05,-2.392641327351797e-05,4.9333,7.2667
3.78125,-4.1994751869993136e-05,-1.6114360389410245e-05,-3.222731272327764e-05,-3.222731272327764e-05,4.9333,7.2667
3.78515625,-4.492308518074311e-05,-1.3186027078660266e-05,-1.220833394735638e-05,-3.418269898588541e-05,4.9333,7.2667
3.7890625,-3.906641855924316e-05,-2.441525983916991e-05,-2.0998079962767996e-05,-2.343756670786603e-05,4.9333,7.2667
3.79296875,-4.150590530434119e-05,-3.95552651248951e-05,-3.369385242023347e-05,-3.125436567513543e-05,4.9333,7.2667
3.796875,-4.6878471443350884e-05,-3.271615928892959e-05,-2.6859492667429627e-05,-2.9787825978179602e-05,4.9333,7.2667
3.80078125,-4.101705873868926e-05,-2.6859492667429627e-05,-3.418269898588541e-05,-2.9298979412527662e-05,4.9333,7.2667
3.8046875,-4.052821217303731e-05,-2.8321286281223776e-05,-2.8321286281223776e-05,-3.320500585458153e-05,4.9333,7.2667
3.80859375,-4.101705873868926e-05,-3.320500585458153e-05,-1.806974665201801e-05,-2.9787825978179602e-05,4.9333,7.2667
3.8125,-3.857757199359121e-05,-3.0276672543831542e-05,-2.6859492667429627e-05,-4.150590530434119e-05,4.9333,7.2667
3.81640625,-3.857757199359121e-05,-3.369385242023347e-05,-2.637064610177768e-05,-3.95552651248951e-05,4.9333,7.2667
3.8203125,-3.271615928892959e-05,-4.3461291566948966e-05,-2.392641327351797e-05,-3.271615928892959e-05,4.9333,7.2667
3.82421875,-3.125436567513543e-05,-3.95552651248951e-05,-3.369385242023347e-05,-2.9298979412527662e-05,4.9333,7.2667
3.828125,-3.8088725427939275e-05,-3.5644492599679566e-05,-2.392641327351797e-05,-3.711103229663539e-05,4.9333,7.2667
3.83203125,-4.6878471443350884e-05,-5.273513806485084e-05,-1.855859321766995e-05,-4.8340265057145043e-05,4.9333,7.2667
3.8359375,-3.8088725427939275e-05,-4.931795818844892e-05,-3.17384661576257e-05,-3.857757199359121e-05,4.9333,7.2667
3.83984375,-3.5644492599679566e-05,-3.222731272327764e-05,-3.076551910948349e-05,-3.271615928892959e-05,4.9333,7.2667
3.84375,-3.906641855924316e-05,-4.9806804754100866e-05,-3.8088725427939275e-05,-2.4904106404821858e-05,4.9333,7.2667
3.84765625,-3.418269898588541e-05,-5.127334445105669e-05,-3.5644492599679566e-05,-2.343756670786603e-05,4.9333,7.2667
3.8515625,-3.418269898588541e-05,-3.320500585458153e-05,-4.003936560738537e-05,-3.17384661576257e-05,4.9333,7.2667
3.85546875,-3.759987886228733e-05,-4.638962487769895e-05,-4.736731800900283e-05,-3.320500585458153e-05,4.9333,7.2667
3.859375,-3.61333391653315e-05,-4.78514184914931e-05,-4.003936560738537e-05,-3.320500585458153e-05,4.9333,7.2667
3.86328125,-3.320500585458153e-05,-3.467154555153735e-05,-3.857757199359121e-05,-3.516039211718929e-05,4.9333,7.2667
3.8671875,-3.222731272327764e-05,-4.3461291566948966e-05,-3.467154555153735e-05,-2.6859492667429627e-05,4.9333,7.2667
3.87109375,-3.418269898588541e-05,-5.22462914991989e-05,-3.369385242023347e-05,-2.8810132846875722e-05,4.9333,7.2667
3.875,-3.95552651248951e-05,-4.931795818844892e-05,-2.588179953612574e-05,-4.003936560738537e-05,4.9333,7.2667
3.87890625,-3.711103229663539e-05,-3.857757199359121e-05,-3.271615928892959e-05,-3.320500585458153e-05,4.9333,7.2667
3.8828125,-3.857757199359121e-05,-2.4904106404821858e-05,-4.541193174639506e-05,-3.222731272327764e-05,4.9333,7.2667
3.88671875,-4.1994751869993136e-05,-3.222731272327764e-05,-3.8088725427939275e-05,-4.1994751869993136e-05,4.9333,7.2667
3.890625,-4.1994751869993136e-05,-5.322398463050279e-05,-4.052821217303731e-05,-4.101705873868926e-05,4.9333,7.2667
3.89453125,-3.759987886228733e-05,-3.61333391653315e-05,-3.711103229663539e-05,-3.857757199359121e-05,4.9333,7.2667
3.8984375,-3.125436567513543e-05,-2.441525983916991e-05,-3.467154555153735e-05,-3.320500585458153e-05,4.9333,7.2667
3.90234375,-3.271615928892959e-05,-3.759987886228733e-05,-3.857757199359121e-05,-3.857757199359121e-05,4.9333,7.2667
3.90625,-3.222731272327764e-05,-3.369385242023347e-05,-4.052821217303731e-05,-4.78514184914931e-05,4.9333,7.2667
3.91015625,-3.271615928892959e-05,-2.637064610177768e-05,-4.052821217303731e-05,-4.541193174639506e-05,4.9333,7.2667
3.9140625,-3.5644492599679566e-05,-2.8810132846875722e-05,-4.9806804754100866e-05,-4.003936560738537e-05,4.9333,7.2667
3.91796875,-3.711103229663539e-05,-2.588179953612574e-05,-4.492308518074311e-05,-4.394539204943923e-05,4.9333,7.2667
3.921875,-4.003936560738537e-05,-3.759987886228733e-05,-2.8321286281223776e-05,-4.4434238615091175e-05,4.9333,7.2667
3.92578125,-3.222731272327764e-05,-4.150590530434119e-05,-3.125436567513543e-05,-2.4904106404821858e-05,4.9333,7.2667
3.9296875,-2.637064610177768e-05,-2.392641327351797e-05,-3.662218573098345e-05,-2.2953466225375762e-05,4.9333,7.2667
3.93359375,-2.9787825978179602e-05,-2.9298979412527662e-05,-4.5900778312047e-05,-2.9787825978179602e-05,4.9333,7.2667
3.9375,-3.516039211718929e-05,-3.0276672543831542e-05,-4.6878471443350884e-05,-3.467154555153735e-05,4.9333,7.2667
3.94140625,-3.467154555153735e-05,-2.441525983916991e-05,-3.222731272327764e-05,-3.320500585458153e-05,4.9333,7.2667
3.9453125,-3.125436567513543e-05,-3.320500585458153e-05,-3.076551910948349e-05,-3.516039211718929e-05,4.9333,7.2667
3.94921875,-3.467154555153735e-05,-2.8321286281223776e-05,-3.711103229663539e-05,-4.6878471443350884e-05,4.9333,7.2667
3.953125,-3.516039211718929e-05,-2.8810132846875722e-05,-3.906641855924316e-05,-4.4434238615091175e-05,4.9333,7.2667
3.95703125,-3.711103229663539e-05,-3.857757199359121e-05,-3.8088725427939275e-05,-3.516039211718929e-05,4.9333,7.2667
3.9609375,-4.052821217303731e-05,-2.637064610177768e-05,-3.759987886228733e-05,-3.516039211718929e-05,4.9333,7.2667
3.96484375,-4.150590530434119e-05,-3.320500585458153e-05,-2.7343593149919896e-05,-4.150590530434119e-05,4.9333,7.2667
3.96875,-4.150590530434119e-05,-4.78514184914931e-05,-4.003936560738537e-05,-3.662218573098345e-05,4.9333,7.2667
3.97265625,-4.052821217303731e-05,-4.003936560738537e-05,-5.02956513197528e-05,-2.7343593149919896e-05,4.9333,7.2667
3.9765625,-4.5900778312047e-05,-4.101705873868926e-05,-4.297244500129702e-05,-3.8088725427939275e-05,4.9333,7.2667
3.98046875,-5.273513806485084e-05,-5.420167776180668e-05,-3.8088725427939275e-05,-4.297244500129702e-05,4.9333,7.2667
3.984375,-4.297244500129702e-05,-4.150590530434119e-05,-3.95552651248951e-05,-3.711103229663539e-05,4.9333,7.2667
3.98828125,-3.467154555153735e-05,-3.906641855924316e-05,-5.02956513197528e-05,-4.101705873868926e-05,4.9333,7.2667
3.9921875,-3.8088725427939275e-05,-4.3461291566948966e-05,-4.5900778312047e-05,-4.297244500129702e-05,4.9333,7.2667
3.99609375,-3.95552651248951e-05,-3.5644492599679566e-05,-4.78514184914931e-05,-3.857757199359121e-05,4.9333,7.2667
4.0,-3.906641855924316e-05,-3.17384661576257e-05,-4.6878471443350884e-05,-3.662218573098345e-05,4.9333,7.2667
4.00390625,-4.248359843564507e-05,-3.125436567513543e-05,-3.662218573098345e-05,-4.3461291566948966e-05,4.9333,7.2667
4.0078125,-4.4434238615091175e-05,-3.0276672543831542e-05,-3.369385242023347e-05,-4.4434238615091175e-05,4.9333,7.2667
