timestamp,TP9,AF7,AF8,TP10,Valence,Arousal
0.0,-4.004819388723582e-05,-3.3206686048676276e-05,-0.00017381541618677045,-4.102146278477148e-05,5.1333,2.4
0.00390625,-2.8326028783092994e-05,-3.0286879356069275e-05,-0.00013914986810101472,-4.980950841840237e-05,5.1333,2.4
0.0078125,-3.711407441672388e-05,-2.247210261997405e-05,-0.00017528963231097885,-3.760070886549171e-05,5.1333,2.4
0.01171875,-4.2982313357747766e-05,-2.9785932129396497e-05,-0.00016650158667734798,-4.150809723353933e-05,5.1333,2.4
0.015625,-3.3206686048676276e-05,-5.274362788891432e-05,-0.00010986592450751506,-3.808734331425955e-05,5.1333,2.4
0.01953125,-2.6379490988021656e-05,-1.0413092240639797e-09,-0.0001303761352452888,-3.808734331425955e-05,5.1333,2.4
0.0234375,-2.247210261997405e-05,5.027974747081714e-05,-8.643590707713435e-05,-5.128372454261081e-05,5.1333,2.4
0.02734375,-3.126014825360494e-05,3.0270483959716188e-05,-3.417995494621195e-05,-4.7862970623331035e-05,5.1333,2.4
0.03125,-3.272005159990844e-05,2.4321309346150884e-06,-6.104503907377737e-05,-4.395558225528343e-05,5.1333,2.4
0.03515625,-2.8812663231860837e-05,2.4888879467460157e-05,-6.29915768688487e-05,-4.5415485601586934e-05,5.1333,2.4
0.0390625,-1.9051348700694277e-05,5.6147986411841e-05,-1.8564714251926447e-05,-4.5902120050354764e-05,5.1333,2.4
0.04296875,-1.3197422537575334e-05,3.80852606958114e-05,-1.6117229230182347e-05,-3.565417107042038e-05,5.1333,2.4
0.046875,-2.4418640415045388e-05,2.2942341672388805e-05,-9.776668618295559e-06,-3.126014825360494e-05,5.1333,2.4
0.05078125,-2.148452094453344e-05,4.3939186858930354e-05,-1.0749937515831235e-05,-3.126014825360494e-05,5.1333,2.4
0.0546875,-2.0997886495765612e-05,4.539909020523384e-05,3.892034280918608e-06,-3.0286879356069275e-05,5.1333,2.4
0.05859375,-2.5892856539253826e-05,2.4888879467460157e-05,-7.81581804531929e-06,-3.614080551918822e-05,5.1333,2.4
0.0625,-2.002461759822995e-05,1.757504995803771e-05,-6.396484576638436e-05,-3.468090217288471e-05,5.1333,2.4
0.06640625,-1.8564714251926447e-05,2.636309559166858e-05,-3.711407441672388e-05,-3.3693320497444106e-05,5.1333,2.4
0.0703125,-2.0997886495765612e-05,3.0270483959716188e-05,-1.9618918822003476e-06,-3.907492498970015e-05,5.1333,2.4
0.07421875,-1.8564714251926447e-05,2.4888879467460157e-05,-3.808734331425955e-05,-4.2982313357747766e-05,5.1333,2.4
0.078125,-1.3684056986343165e-05,1.90349533043412e-05,-7.374047307545587e-05,-4.444221670405126e-05,5.1333,2.4
0.08203125,-1.6603863678950176e-05,-2.9351607797360085e-06,-9.131656434271764e-05,-4.4928851152819105e-05,5.1333,2.4
0.0859375,-2.002461759822995e-05,4.855931395437665e-07,-5.665101625696192e-05,-3.711407441672388e-05,5.1333,2.4
0.08984375,-2.247210261997405e-05,5.8528848538948635e-06,-3.3206686048676276e-05,-2.9299297680628667e-05,5.1333,2.4
0.09375,-1.8564714251926447e-05,-1.3197422537575334e-05,-7.862113034103913e-05,-3.711407441672388e-05,5.1333,2.4
0.09765625,-2.2958737068741883e-05,-4.3950641260395e-06,-9.425068381322957e-05,-4.150809723353933e-05,5.1333,2.4
0.1015625,-2.6866125436789502e-05,-7.81581804531929e-06,-9.131656434271764e-05,-4.6388754499122593e-05,5.1333,2.4
0.10546875,-2.0997886495765612e-05,-1.0749937515831235e-05,-7.374047307545587e-05,-4.883623952086671e-05,5.1333,2.4
0.109375,-1.6603863678950176e-05,1.0246907670710328e-05,-8.546263817959867e-05,-4.395558225528343e-05,5.1333,2.4
0.11328125,-1.8078079803158614e-05,4.879615956359203e-06,-0.0001074327522636759,-5.713765070572975e-05,5.1333,2.4
0.1171875,-2.4418640415045388e-05,-7.81581804531929e-06,-8.301515315785458e-05,-5.420353123521782e-05,5.1333,2.4
0.12109375,-2.198546817120622e-05,9.722275883115968e-07,-7.520037642175936e-05,-3.907492498970015e-05,5.1333,2.4
0.125,-2.002461759822995e-05,5.8528848538948635e-06,-8.008103368734264e-05,-3.808734331425955e-05,5.1333,2.4
0.12890625,-2.0511252046997782e-05,2.918765383382919e-06,-7.568701087052718e-05,-4.102146278477148e-05,5.1333,2.4
0.1328125,-2.148452094453344e-05,-1.8564714251926447e-05,-7.177962250247958e-05,-4.199473168230716e-05,5.1333,2.4
0.13671875,-2.5892856539253826e-05,-2.7352759885557332e-05,-6.347821131761654e-05,-4.053482833600365e-05,5.1333,2.4
0.140625,-2.002461759822995e-05,-1.514396033264667e-05,-5.713765070572975e-05,-4.102146278477148e-05,5.1333,2.4
0.14453125,-2.198546817120622e-05,-1.026330306706339e-05,-3.126014825360494e-05,-3.174678270237277e-05,5.1333,2.4
0.1484375,-1.8564714251926447e-05,9.722275883115968e-07,-3.0286879356069275e-05,-2.5892856539253826e-05,5.1333,2.4
0.15234375,-1.6603863678950176e-05,-4.3950641260395e-06,-6.00717701762417e-05,-3.662743996795605e-05,5.1333,2.4
0.15625,-2.198546817120622e-05,-1.3684056986343165e-05,-7.617364531929503e-05,-3.858829054093232e-05,5.1333,2.4
0.16015625,-2.0997886495765612e-05,-1.514396033264667e-05,-6.787223413443198e-05,-3.126014825360494e-05,5.1333,2.4
0.1640625,-2.539190931258106e-05,-1.6603863678950176e-05,-7.325383862668803e-05,-3.272005159990844e-05,5.1333,2.4
0.16796875,-2.4418640415045388e-05,-1.1723206413366896e-05,-9.131656434271764e-05,-3.662743996795605e-05,5.1333,2.4
0.171875,-2.3932005966277555e-05,-8.30245249408712e-06,-0.00010010460997634851,-3.223341715114061e-05,5.1333,2.4
0.17578125,-2.8812663231860837e-05,-2.247210261997405e-05,-0.00010889265560997939,-2.8812663231860837e-05,5.1333,2.4
0.1796875,-2.8326028783092994e-05,-3.272005159990844e-05,-9.864470663004502e-05,-3.223341715114061e-05,5.1333,2.4
0.18359375,-2.6866125436789502e-05,-2.7352759885557332e-05,-8.301515315785458e-05,-2.8326028783092994e-05,5.1333,2.4
0.1875,-2.4418640415045388e-05,-1.269647531090257e-05,-7.764786144350347e-05,-2.6866125436789502e-05,5.1333,2.4
0.19140625,-2.8812663231860837e-05,-2.8326028783092994e-05,-8.594927262836651e-05,-3.077351380483711e-05,5.1333,2.4
0.1953125,-3.417995494621195e-05,-3.907492498970015e-05,-0.00010156451332265201,-3.223341715114061e-05,5.1333,2.4
0.19921875,-2.3932005966277555e-05,-3.077351380483711e-05,-0.00010156451332265201,-3.858829054093232e-05,5.1333,2.4
0.203125,-2.247210261997405e-05,-4.980950841840237e-05,-0.00010840602116121157,-4.5902120050354764e-05,5.1333,2.4
0.20703125,-2.8812663231860837e-05,-4.34689478065156e-05,-0.00010840602116121157,-4.150809723353933e-05,5.1333,2.4
0.2109375,-2.6866125436789502e-05,-4.5902120050354764e-05,-0.00011914060458991379,-3.808734331425955e-05,5.1333,2.4
0.21484375,-3.126014825360494e-05,-5.76242851544976e-05,-0.00010449863279316395,-4.102146278477148e-05,5.1333,2.4
0.21875,-3.3693320497444106e-05,-4.053482833600365e-05,-7.81344958922713e-05,-3.565417107042038e-05,5.1333,2.4
0.22265625,-3.516753662165254e-05,-4.980950841840237e-05,-8.398842205539025e-05,-3.174678270237277e-05,5.1333,2.4
0.2265625,-3.077351380483711e-05,-5.665101625696192e-05,-8.204188426031891e-05,-3.077351380483711e-05,5.1333,2.4
0.23046875,-2.5892856539253826e-05,-4.834960507209888e-05,-8.935571376974135e-05,-2.539190931258106e-05,5.1333,2.4
0.234375,-2.9299297680628667e-05,-4.834960507209888e-05,-9.76571249546044e-05,-2.539190931258106e-05,5.1333,2.4
0.23828125,-3.272005159990844e-05,-4.7862970623331035e-05,-0.00010107787887388419,-3.174678270237277e-05,5.1333,2.4
0.2421875,-3.662743996795605e-05,-4.34689478065156e-05,-9.473731826199742e-05,-3.417995494621195e-05,5.1333,2.4
0.24609375,-3.417995494621195e-05,-5.5176800132753485e-05,-9.668385605706873e-05,-3.956155943846799e-05,5.1333,2.4
0.25,-2.9299297680628667e-05,-6.396484576638436e-05,-0.00011768070124361028,-3.858829054093232e-05,5.1333,2.4
0.25390625,-3.516753662165254e-05,-7.129298805371175e-05,-0.00014159735312275885,-3.417995494621195e-05,5.1333,2.4
0.2578125,-3.417995494621195e-05,-6.104503907377737e-05,-0.00014550474149080644,-3.614080551918822e-05,5.1333,2.4
0.26171875,-2.6866125436789502e-05,-4.980950841840237e-05,-0.0001386632336522469,-2.247210261997405e-05,5.1333,2.4
0.265625,-3.760070886549171e-05,-5.811091960326543e-05,-0.0001279429630014496,-2.4418640415045388e-05,5.1333,2.4
0.26953125,-3.808734331425955e-05,-5.567774735942626e-05,-0.0001103525589562829,-3.468090217288471e-05,5.1333,2.4
0.2734375,-2.783939433432516e-05,-5.0782777315938046e-05,-0.0001074327522636759,-3.272005159990844e-05,5.1333,2.4
0.27734375,-3.223341715114061e-05,-4.9322873969634544e-05,-9.61972216083009e-05,-2.9785932129396497e-05,5.1333,2.4
0.28125,-3.516753662165254e-05,-5.811091960326543e-05,-0.00010645948336614022,-2.7352759885557332e-05,5.1333,2.4
0.28515625,-3.468090217288471e-05,-5.3230262337682146e-05,-0.00010937929005874724,-3.0286879356069275e-05,5.1333,2.4
0.2890625,-3.565417107042038e-05,-4.7376336174563205e-05,-9.22898332402533e-05,-3.662743996795605e-05,5.1333,2.4
0.29296875,-3.516753662165254e-05,-5.616438180819409e-05,-0.00010937929005874724,-3.614080551918822e-05,5.1333,2.4
0.296875,-3.907492498970015e-05,-5.811091960326543e-05,-0.00012988950079652093,-3.662743996795605e-05,5.1333,2.4
0.30078125,-4.102146278477148e-05,-5.128372454261081e-05,-0.00010791938671244373,-3.468090217288471e-05,5.1333,2.4
0.3046875,-4.248136613107499e-05,-5.3716896786449976e-05,-8.398842205539025e-05,-3.126014825360494e-05,5.1333,2.4
0.30859375,-4.395558225528343e-05,-4.980950841840237e-05,-8.838244487220569e-05,-3.760070886549171e-05,5.1333,2.4
0.3125,-4.2982313357747766e-05,-3.858829054093232e-05,-9.376404936446174e-05,-3.565417107042038e-05,5.1333,2.4
0.31640625,-4.150809723353933e-05,-4.6388754499122593e-05,-9.376404936446174e-05,-3.3693320497444106e-05,5.1333,2.4
0.3203125,-3.711407441672388e-05,-5.274362788891432e-05,-8.692254152590218e-05,-3.516753662165254e-05,5.1333,2.4
0.32421875,-2.9785932129396497e-05,-3.662743996795605e-05,-8.789581042343786e-05,-3.565417107042038e-05,5.1333,2.4
0.328125,-2.8812663231860837e-05,-3.417995494621195e-05,-7.81344958922713e-05,-3.417995494621195e-05,5.1333,2.4
0.33203125,-4.444221670405126e-05,-6.495242744182497e-05,-6.495242744182497e-05,-3.468090217288471e-05,5.1333,2.4
0.3359375,-4.102146278477148e-05,-6.495242744182497e-05,-5.713765070572975e-05,-3.272005159990844e-05,5.1333,2.4
0.33984375,-3.223341715114061e-05,-3.907492498970015e-05,-3.272005159990844e-05,-3.223341715114061e-05,5.1333,2.4
0.34375,-3.565417107042038e-05,-3.956155943846799e-05,1.0733542119478158e-05,-3.174678270237277e-05,5.1333,2.4
0.34765625,-3.808734331425955e-05,-4.444221670405126e-05,3.270365620355537e-05,-2.3445371517509726e-05,5.1333,2.4
0.3515625,-3.808734331425955e-05,-4.102146278477148e-05,2.3915610569924468e-05,-2.8326028783092994e-05,5.1333,2.4
0.35546875,-3.711407441672388e-05,-3.808734331425955e-05,1.708841550926985e-05,-3.272005159990844e-05,5.1333,2.4
0.359375,-3.956155943846799e-05,-4.102146278477148e-05,1.0733542119478158e-05,-3.077351380483711e-05,5.1333,2.4
0.36328125,-3.468090217288471e-05,-4.053482833600365e-05,-4.896011352712293e-06,-3.614080551918822e-05,5.1333,2.4
0.3671875,-3.223341715114061e-05,-2.8812663231860837e-05,1.0246907670710328e-05,-3.662743996795605e-05,5.1333,2.4
0.37109375,-3.468090217288471e-05,-2.8326028783092994e-05,4.051843293965058e-05,-3.516753662165254e-05,5.1333,2.4
0.375,-3.417995494621195e-05,-3.468090217288471e-05,3.758431346913863e-05,-2.9299297680628667e-05,5.1333,2.4
0.37890625,-3.223341715114061e-05,-3.3693320497444106e-05,4.4912455756466014e-05,-3.077351380483711e-05,5.1333,2.4
0.3828125,-3.223341715114061e-05,-2.8326028783092994e-05,4.3452552410162525e-05,-3.711407441672388e-05,5.1333,2.4
0.38671875,-2.8812663231860837e-05,-1.417069143511101e-05,2.7822998937972074e-05,-3.174678270237277e-05,5.1333,2.4
0.390625,-3.0286879356069275e-05,-1.8078079803158614e-05,3.661104457160297e-05,-2.247210261997405e-05,5.1333,2.4
0.39453125,-3.126014825360494e-05,-1.8564714251926447e-05,2.538982669413292e-05,-2.8326028783092994e-05,5.1333,2.4
0.3984375,-3.126014825360494e-05,-2.0997886495765612e-05,1.2694392692454413e-05,-3.126014825360494e-05,5.1333,2.4
0.40234375,-3.3206686048676276e-05,-3.468090217288471e-05,3.5151141225299456e-05,-2.6866125436789502e-05,5.1333,2.4
0.40625,-2.8326028783092994e-05,-2.247210261997405e-05,4.3939186858930354e-05,-3.272005159990844e-05,5.1333,2.4
0.41015625,-3.0286879356069275e-05,-1.7090498127718006e-05,3.857189514457923e-05,-3.223341715114061e-05,5.1333,2.4
0.4140625,-3.614080551918822e-05,-2.0511252046997782e-05,4.051843293965058e-05,-3.417995494621195e-05,5.1333,2.4
0.41796875,-3.417995494621195e-05,-2.2958737068741883e-05,2.4888879467460157e-05,-4.053482833600365e-05,5.1333,2.4
0.421875,-3.3206686048676276e-05,-3.808734331425955e-05,1.3181027141222244e-05,-3.858829054093232e-05,5.1333,2.4
0.42578125,-3.077351380483711e-05,-3.760070886549171e-05,1.9521587753109032e-05,-3.907492498970015e-05,5.1333,2.4
0.4296875,-2.8326028783092994e-05,-1.56305947814145e-05,1.0733542119478158e-05,-3.417995494621195e-05,5.1333,2.4
0.43359375,-2.198546817120622e-05,-9.776668618295559e-06,-3.421795228503839e-06,-3.126014825360494e-05,5.1333,2.4
0.4375,-2.0997886495765612e-05,-1.759144535439077e-05,-5.869280250247954e-06,-3.3693320497444106e-05,5.1333,2.4
0.44140625,-2.2958737068741883e-05,-2.9785932129396497e-05,-8.78908694285495e-06,-2.9785932129396497e-05,5.1333,2.4
0.4453125,-2.247210261997405e-05,-2.247210261997405e-05,-1.0413092240639797e-09,-2.6866125436789502e-05,5.1333,2.4
0.44921875,-2.6379490988021656e-05,-1.6117229230182347e-05,1.4154296038757934e-05,-2.539190931258106e-05,5.1333,2.4
0.453125,-3.0286879356069275e-05,-3.126014825360494e-05,3.4053998321507776e-06,-2.3932005966277555e-05,5.1333,2.4
0.45703125,-3.711407441672388e-05,-3.858829054093232e-05,4.855931395437665e-07,-2.2958737068741883e-05,5.1333,2.4
0.4609375,-3.662743996795605e-05,-2.7352759885557332e-05,7.312788200198383e-06,-1.9537983149462106e-05,5.1333,2.4
0.46484375,-3.516753662165254e-05,-2.4418640415045388e-05,1.945496485847258e-06,-2.0997886495765612e-05,5.1333,2.4
0.46875,-3.565417107042038e-05,-3.711407441672388e-05,-3.908429677271669e-06,-2.8326028783092994e-05,5.1333,2.4
0.47265625,-3.126014825360494e-05,-2.9785932129396497e-05,-1.9537983149462106e-05,-3.858829054093232e-05,5.1333,2.4
0.4765625,-2.7352759885557332e-05,-2.198546817120622e-05,-5.957082294956893e-05,-3.760070886549171e-05,5.1333,2.4
0.48046875,-2.247210261997405e-05,-2.2958737068741883e-05,-6.055840462500953e-05,-3.272005159990844e-05,5.1333,2.4
0.484375,-2.0997886495765612e-05,-1.6117229230182347e-05,-2.2958737068741883e-05,-3.126014825360494e-05,5.1333,2.4
0.48828125,-2.6866125436789502e-05,-1.1236571964599065e-05,-1.6117229230182347e-05,-3.662743996795605e-05,5.1333,2.4
0.4921875,-3.174678270237277e-05,-2.2958737068741883e-05,-2.148452094453344e-05,-4.102146278477148e-05,5.1333,2.4
0.49609375,-3.174678270237277e-05,-2.6866125436789502e-05,-7.81581804531929e-06,-3.272005159990844e-05,5.1333,2.4
0.5,-3.3206686048676276e-05,-2.2958737068741883e-05,-5.019885358968282e-07,-2.783939433432516e-05,5.1333,2.4
0.50390625,-2.9785932129396497e-05,-2.4905274863813218e-05,7.312788200198383e-06,-2.783939433432516e-05,5.1333,2.4
0.5078125,-2.4905274863813218e-05,-2.002461759822995e-05,1.9521587753109032e-05,-2.9299297680628667e-05,5.1333,2.4
0.51171875,-2.7352759885557332e-05,-2.4418640415045388e-05,1.5614199385061426e-05,-2.5892856539253826e-05,5.1333,2.4
0.515625,-2.3932005966277555e-05,-2.198546817120622e-05,1.3667661589990103e-05,-3.223341715114061e-05,5.1333,2.4
0.51953125,-2.247210261997405e-05,-7.329183596551459e-06,2.5876461142900752e-05,-4.053482833600365e-05,5.1333,2.4
0.5234375,-3.0286879356069275e-05,-1.514396033264667e-05,1.90349533043412e-05,-3.711407441672388e-05,5.1333,2.4
0.52734375,-3.223341715114061e-05,-2.5892856539253826e-05,2.0008222201876862e-05,-3.516753662165254e-05,5.1333,2.4
0.53125,-2.9785932129396497e-05,-1.9537983149462106e-05,2.879626783550776e-05,-3.468090217288471e-05,5.1333,2.4
0.53515625,-3.614080551918822e-05,-2.783939433432516e-05,1.1706811017013818e-05,-3.614080551918822e-05,5.1333,2.4
0.5390625,-3.760070886549171e-05,-3.126014825360494e-05,3.563777567406731e-05,-3.126014825360494e-05,5.1333,2.4
0.54296875,-3.174678270237277e-05,-2.8812663231860837e-05,5.760788975814452e-05,-3.272005159990844e-05,5.1333,2.4
0.546875,-3.417995494621195e-05,-2.8812663231860837e-05,4.051843293965058e-05,-3.468090217288471e-05,5.1333,2.4
0.55078125,-3.468090217288471e-05,-2.3932005966277555e-05,3.075711840848402e-05,-3.3693320497444106e-05,5.1333,2.4
0.5546875,-3.223341715114061e-05,-1.9051348700694277e-05,2.684973004043641e-05,-3.614080551918822e-05,5.1333,2.4
0.55859375,-2.7352759885557332e-05,-1.3684056986343165e-05,2.879626783550776e-05,-3.272005159990844e-05,5.1333,2.4
0.5625,-2.8326028783092994e-05,-1.465732588387884e-05,2.7822998937972074e-05,-2.9785932129396497e-05,5.1333,2.4
0.56640625,-3.565417107042038e-05,-2.148452094453344e-05,2.879626783550776e-05,-2.9299297680628667e-05,5.1333,2.4
0.5703125,-3.516753662165254e-05,-2.0997886495765612e-05,4.638667188067447e-05,-2.5892856539253826e-05,5.1333,2.4
0.57421875,-3.223341715114061e-05,-2.8812663231860837e-05,5.663462086060883e-05,-2.4905274863813218e-05,5.1333,2.4
0.578125,-2.6379490988021656e-05,-2.9299297680628667e-05,3.0270483959716188e-05,-2.5892856539253826e-05,5.1333,2.4
0.58203125,-2.9299297680628667e-05,-2.5892856539253826e-05,2.1482438326085313e-05,-2.783939433432516e-05,5.1333,2.4
0.5859375,-3.174678270237277e-05,-3.614080551918822e-05,2.4402245018692297e-05,-2.783939433432516e-05,5.1333,2.4
0.58984375,-2.539190931258106e-05,-3.760070886549171e-05,1.1220176568245989e-05,-2.8812663231860837e-05,5.1333,2.4
0.59375,-3.223341715114061e-05,-3.858829054093232e-05,1.945496485847258e-06,-2.539190931258106e-05,5.1333,2.4
0.59765625,-3.614080551918822e-05,-3.174678270237277e-05,6.826153751430552e-06,-2.9785932129396497e-05,5.1333,2.4
0.6015625,-3.077351380483711e-05,-2.9785932129396497e-05,2.3915610569924468e-05,-2.9299297680628667e-05,5.1333,2.4
0.60546875,-3.272005159990844e-05,-3.808734331425955e-05,2.3428976121156635e-05,-2.198546817120622e-05,5.1333,2.4
0.609375,-3.223341715114061e-05,-3.468090217288471e-05,1.219344546578165e-05,-2.5892856539253826e-05,5.1333,2.4
0.61328125,-3.516753662165254e-05,-3.808734331425955e-05,1.4154296038757934e-05,-3.174678270237277e-05,5.1333,2.4
0.6171875,-3.126014825360494e-05,-3.760070886549171e-05,7.799422648966214e-06,-3.0286879356069275e-05,5.1333,2.4
0.62109375,-2.4418640415045388e-05,-3.077351380483711e-05,5.366250405127033e-06,-3.126014825360494e-05,5.1333,2.4
0.625,-2.6379490988021656e-05,-2.6866125436789502e-05,6.339519302662694e-06,-3.711407441672388e-05,5.1333,2.4
0.62890625,-2.8812663231860837e-05,-3.808734331425955e-05,-5.869280250247954e-06,-3.907492498970015e-05,5.1333,2.4
0.6328125,-3.174678270237277e-05,-4.7376336174563205e-05,1.4588620370794273e-06,-3.662743996795605e-05,5.1333,2.4
0.63671875,-3.223341715114061e-05,-5.469016568398565e-05,1.4588620370794273e-06,-3.516753662165254e-05,5.1333,2.4
0.640625,-2.6379490988021656e-05,-4.980950841840237e-05,-6.8425491477836145e-06,-3.223341715114061e-05,5.1333,2.4
0.64453125,-2.8812663231860837e-05,-3.174678270237277e-05,2.2455707223620976e-05,-3.077351380483711e-05,5.1333,2.4
0.6484375,-2.9785932129396497e-05,-2.9785932129396497e-05,3.9545164042114916e-05,-3.417995494621195e-05,5.1333,2.4
0.65234375,-2.5892856539253826e-05,-3.417995494621195e-05,1.90349533043412e-05,-3.858829054093232e-05,5.1333,2.4
0.65625,-3.468090217288471e-05,-3.077351380483711e-05,1.9521587753109032e-05,-3.614080551918822e-05,5.1333,2.4
0.66015625,-3.0286879356069275e-05,-2.8326028783092994e-05,2.3428976121156635e-05,-3.760070886549171e-05,5.1333,2.4
0.6640625,-2.6866125436789502e-05,-2.9785932129396497e-05,2.3428976121156635e-05,-3.760070886549171e-05,5.1333,2.4
0.66796875,-3.174678270237277e-05,-3.077351380483711e-05,2.3428976121156635e-05,-3.174678270237277e-05,5.1333,2.4
0.671875,-2.9785932129396497e-05,-2.9785932129396497e-05,7.312788200198383e-06,-2.8812663231860837e-05,5.1333,2.4
0.67578125,-2.539190931258106e-05,-3.126014825360494e-05,-1.3197422537575334e-05,-2.148452094453344e-05,5.1333,2.4
0.6796875,-2.002461759822995e-05,-3.565417107042038e-05,-5.019885358968282e-07,-2.002461759822995e-05,5.1333,2.4
0.68359375,-2.5892856539253826e-05,-3.3693320497444106e-05,-7.329183596551459e-06,-2.198546817120622e-05,5.1333,2.4
0.6875,-2.4905274863813218e-05,-4.248136613107499e-05,-2.9351607797360085e-06,-2.198546817120622e-05,5.1333,2.4
0.69140625,-2.539190931258106e-05,-4.7376336174563205e-05,2.1482438326085313e-05,-2.3932005966277555e-05,5.1333,2.4
0.6953125,-3.272005159990844e-05,-3.907492498970015e-05,1.4154296038757934e-05,-2.3932005966277555e-05,5.1333,2.4
0.69921875,-3.614080551918822e-05,-3.174678270237277e-05,2.4888879467460157e-05,-2.4905274863813218e-05,5.1333,2.4
0.703125,-3.3206686048676276e-05,-3.468090217288471e-05,2.538982669413292e-05,-2.9299297680628667e-05,5.1333,2.4
0.70703125,-2.7352759885557332e-05,-4.7376336174563205e-05,7.799422648966214e-06,-2.783939433432516e-05,5.1333,2.4
0.7109375,-2.8812663231860837e-05,-4.053482833600365e-05,1.806168440680554e-05,-2.6866125436789502e-05,5.1333,2.4
0.71484375,-3.223341715114061e-05,-4.248136613107499e-05,7.312788200198383e-06,-2.7352759885557332e-05,5.1333,2.4
0.71875,-3.174678270237277e-05,-5.225699344014649e-05,-4.3950641260395e-06,-2.9299297680628667e-05,5.1333,2.4
0.72265625,-2.8812663231860837e-05,-4.102146278477148e-05,-1.8078079803158614e-05,-2.783939433432516e-05,5.1333,2.4
0.7265625,-2.8326028783092994e-05,-4.7376336174563205e-05,-3.174678270237277e-05,-2.8812663231860837e-05,5.1333,2.4
0.73046875,-3.3206686048676276e-05,-5.1770358991378644e-05,-9.776668618295559e-06,-2.539190931258106e-05,5.1333,2.4
0.734375,-3.417995494621195e-05,-5.225699344014649e-05,1.4588620370794273e-06,-2.3932005966277555e-05,5.1333,2.4
0.73828125,-3.223341715114061e-05,-4.2982313357747766e-05,-2.448526330968178e-06,-2.9785932129396497e-05,5.1333,2.4
0.7421875,-3.0286879356069275e-05,-2.8812663231860837e-05,6.339519302662694e-06,-2.9299297680628667e-05,5.1333,2.4
0.74609375,-3.223341715114061e-05,-3.516753662165254e-05,1.4588620370794273e-06,-2.5892856539253826e-05,5.1333,2.4
0.75,-3.126014825360494e-05,-4.34689478065156e-05,8.300369875638977e-06,-3.077351380483711e-05,5.1333,2.4
0.75390625,-3.174678270237277e-05,-5.1770358991378644e-05,1.90349533043412e-05,-3.614080551918822e-05,5.1333,2.4
0.7578125,-3.3693320497444106e-05,-4.2982313357747766e-05,1.3181027141222244e-05,-3.614080551918822e-05,5.1333,2.4
0.76171875,-3.223341715114061e-05,-3.711407441672388e-05,1.1220176568245989e-05,-3.3206686048676276e-05,5.1333,2.4
0.765625,-3.174678270237277e-05,-5.0782777315938046e-05,6.826153751430552e-06,-3.174678270237277e-05,5.1333,2.4
0.76953125,-4.004819388723582e-05,-5.665101625696192e-05,1.708841550926985e-05,-2.9785932129396497e-05,5.1333,2.4
0.7734375,-4.053482833600365e-05,-4.102146278477148e-05,8.300369875638977e-06,-3.3206686048676276e-05,5.1333,2.4
0.77734375,-4.102146278477148e-05,-4.102146278477148e-05,7.312788200198383e-06,-3.711407441672388e-05,5.1333,2.4
0.78125,-3.565417107042038e-05,-4.6388754499122593e-05,2.684973004043641e-05,-2.783939433432516e-05,5.1333,2.4
0.78515625,-2.3932005966277555e-05,-4.004819388723582e-05,2.830963338673993e-05,-2.6379490988021656e-05,5.1333,2.4
0.7890625,-3.223341715114061e-05,-3.174678270237277e-05,3.857189514457923e-05,-2.6866125436789502e-05,5.1333,2.4
0.79296875,-3.565417107042038e-05,-4.053482833600365e-05,3.563777567406731e-05,-2.6379490988021656e-05,5.1333,2.4
0.796875,-3.760070886549171e-05,-5.420353123521782e-05,1.757504995803771e-05,-3.174678270237277e-05,5.1333,2.4
0.80078125,-3.907492498970015e-05,-4.834960507209888e-05,2.2455707223620976e-05,-3.565417107042038e-05,5.1333,2.4
0.8046875,-3.417995494621195e-05,-3.662743996795605e-05,4.0031798490882745e-05,-3.516753662165254e-05,5.1333,2.4
0.80859375,-3.126014825360494e-05,-3.907492498970015e-05,2.9282902284275593e-05,-3.468090217288471e-05,5.1333,2.4
0.8125,-3.907492498970015e-05,-3.858829054093232e-05,2.0008222201876862e-05,-3.272005159990844e-05,5.1333,2.4
0.81640625,-4.004819388723582e-05,-4.5902120050354764e-05,1.4640930487525764e-05,-3.223341715114061e-05,5.1333,2.4
0.8203125,-3.3693320497444106e-05,-5.3716896786449976e-05,1.9521587753109032e-05,-3.468090217288471e-05,5.1333,2.4
0.82421875,-3.468090217288471e-05,-4.150809723353933e-05,4.0031798490882745e-05,-3.077351380483711e-05,5.1333,2.4
0.828125,-3.126014825360494e-05,-4.053482833600365e-05,4.3939186858930354e-05,-3.565417107042038e-05,5.1333,2.4
0.83203125,-2.8812663231860837e-05,-4.199473168230716e-05,4.4425821307698184e-05,-3.614080551918822e-05,5.1333,2.4
0.8359375,-2.5892856539253826e-05,-3.468090217288471e-05,1.4640930487525764e-05,-3.711407441672388e-05,5.1333,2.4
0.83984375,-2.8326028783092994e-05,-3.907492498970015e-05,-1.2209840862134725e-05,-3.760070886549171e-05,5.1333,2.4
0.84375,-3.0286879356069275e-05,-4.7862970623331035e-05,-7.329183596551459e-06,-3.417995494621195e-05,5.1333,2.4
0.84765625,-3.3693320497444106e-05,-6.055840462500953e-05,-3.3693320497444106e-05,-3.516753662165254e-05,5.1333,2.4
0.8515625,-4.004819388723582e-05,-5.616438180819409e-05,-2.0511252046997782e-05,-3.808734331425955e-05,5.1333,2.4
0.85546875,-3.565417107042038e-05,-3.223341715114061e-05,5.8528848538948635e-06,-3.662743996795605e-05,5.1333,2.4
0.859375,-3.0286879356069275e-05,-3.223341715114061e-05,-7.81581804531929e-06,-2.6866125436789502e-05,5.1333,2.4
0.86328125,-3.174678270237277e-05,-3.760070886549171e-05,-4.3950641260395e-06,-3.711407441672388e-05,5.1333,2.4
0.8671875,-3.223341715114061e-05,-2.9299297680628667e-05,3.270365620355537e-05,-3.614080551918822e-05,5.1333,2.4
0.87109375,-3.272005159990844e-05,-4.150809723353933e-05,2.538982669413292e-05,-1.417069143511101e-05,5.1333,2.4
0.875,-3.077351380483711e-05,-5.665101625696192e-05,-1.3684056986343165e-05,-9.29003416952773e-06,5.1333,2.4
0.87890625,-3.907492498970015e-05,-7.129298805371175e-05,-3.0286879356069275e-05,-1.6603863678950176e-05,5.1333,2.4
0.8828125,-3.417995494621195e-05,-8.594927262836651e-05,-4.053482833600365e-05,-5.382645801480123e-06,5.1333,2.4
0.88671875,-1.9051348700694277e-05,-8.204188426031891e-05,-2.539190931258106e-05,6.339519302662694e-06,5.1333,2.4
0.890625,-3.223341715114061e-05,-0.00010449863279316395,-5.567774735942626e-05,1.945496485847258e-06,5.1333,2.4
0.89453125,-4.004819388723582e-05,-0.00013426921083543145,-7.617364531929503e-05,7.312788200198383e-06,5.1333,2.4
0.8984375,-4.444221670405126e-05,-0.00014062408422522315,-6.837318136110475e-05,1.0733542119478158e-05,5.1333,2.4
0.90234375,-4.5415485601586934e-05,-0.00016551400500190738,-9.522395271076524e-05,1.757504995803771e-05,5.1333,2.4
0.90625,-3.956155943846799e-05,-0.00019529889582207982,-9.668385605706873e-05,1.806168440680554e-05,5.1333,2.4
0.91015625,-4.004819388723582e-05,-0.00020116713476310368,-0.00010205114777141985,1.4154296038757934e-05,5.1333,2.4
0.9140625,-3.077351380483711e-05,-0.00020214040366063938,-0.00014062408422522315,2.0995803877317483e-05,5.1333,2.4
0.91796875,-3.272005159990844e-05,-0.00020750769537499048,-0.00014550474149080644,3.270365620355537e-05,5.1333,2.4
0.921875,-3.760070886549171e-05,-0.0002177699571328298,-0.00014892549541008622,3.70976790203708e-05,5.1333,2.4
0.92578125,-4.687538894789044e-05,-0.00020702106092622264,-0.00013914986810101472,3.9545164042114916e-05,5.1333,2.4
0.9296875,-5.1770358991378644e-05,-0.00020604779202868694,-0.00011768070124361028,4.3452552410162525e-05,5.1333,2.4
0.93359375,-4.883623952086671e-05,-0.00021434920321355,-0.00010937929005874724,4.0031798490882745e-05,5.1333,2.4
0.9375,-5.274362788891432e-05,-0.0002050745231311513,-0.00010156451332265201,2.5876461142900752e-05,5.1333,2.4
0.94140625,-5.0782777315938046e-05,-0.00019041823855649653,-0.00011231340952925917,2.538982669413292e-05,5.1333,2.4
0.9453125,-5.225699344014649e-05,-0.00016259419830930039,-0.00011865397014114594,3.075711840848402e-05,5.1333,2.4
0.94921875,-5.128372454261081e-05,-0.0001425706220202945,-9.668385605706873e-05,2.0995803877317483e-05,5.1333,2.4
0.953125,-5.567774735942626e-05,-0.0001294028663477531,-7.81344958922713e-05,1.6587468282597085e-05,5.1333,2.4
0.95703125,-6.983308470740825e-05,-0.00010255209499809262,-5.908418850080109e-05,1.1706811017013818e-05,5.1333,2.4
0.9609375,-7.81344958922713e-05,-9.131656434271764e-05,-4.687538894789044e-05,1.4588620370794273e-06,5.1333,2.4
0.96484375,-7.422710752422369e-05,-8.204188426031891e-05,-3.223341715114061e-05,-2.9351607797360085e-06,5.1333,2.4
0.96875,-7.764786144350347e-05,-6.201830797131303e-05,-1.269647531090257e-05,-1.9618918822003476e-06,5.1333,2.4
0.97265625,-9.082992989394979e-05,-6.592569633936063e-05,4.392981507591372e-06,-8.78908694285495e-06,5.1333,2.4
0.9765625,-9.717049050583657e-05,-4.980950841840237e-05,3.31902906523232e-05,-1.6603863678950176e-05,5.1333,2.4
0.98046875,-7.81344958922713e-05,-2.539190931258106e-05,3.417787232776379e-05,-2.4418640415045388e-05,5.1333,2.4
0.984375,-8.935571376974135e-05,-1.6117229230182347e-05,6.297518147249561e-05,-1.9537983149462106e-05,5.1333,2.4
0.98828125,-9.522395271076524e-05,-3.908429677271669e-06,5.809452420691235e-05,-2.9785932129396497e-05,5.1333,2.4
0.9921875,-9.180319879148547e-05,-1.2209840862134725e-05,3.369123787899596e-05,-3.516753662165254e-05,5.1333,2.4
0.99609375,-9.717049050583657e-05,-1.3684056986343165e-05,5.712125530937669e-05,-2.9299297680628667e-05,5.1333,2.4
1.0,-8.008103368734264e-05,2.4888879467460157e-05,6.005537477988861e-05,-4.053482833600365e-05,5.1333,2.4
1.00390625,-8.301515315785458e-05,3.661104457160297e-05,7.176322710612652e-05,-3.907492498970015e-05,5.1333,2.4
1.0078125,-9.61972216083009e-05,1.854831885557337e-05,7.127659265735865e-05,-3.808734331425955e-05,5.1333,2.4
1.01171875,-9.277646768902113e-05,3.466450677653162e-05,6.981668931105517e-05,-3.956155943846799e-05,5.1333,2.4
1.015625,-8.155524981155107e-05,3.857189514457923e-05,5.2240598043793396e-05,-3.907492498970015e-05,5.1333,2.4
1.01953125,-8.546263817959867e-05,2.733636448920424e-05,4.2965917961394695e-05,-4.102146278477148e-05,5.1333,2.4
1.0234375,-9.571058715953307e-05,4.68733063294423e-05,7.0303323759823e-05,-3.711407441672388e-05,5.1333,2.4
1.02734375,-8.886907932097353e-05,5.858115865568018e-05,8.4458661107805e-05,-2.9785932129396497e-05,5.1333,2.4
1.03125,-7.325383862668803e-05,5.078069469748991e-05,9.765504233615627e-05,-3.0286879356069275e-05,5.1333,2.4
1.03515625,-7.325383862668803e-05,4.735994077821013e-05,0.00011523113360341804,-2.7352759885557332e-05,5.1333,2.4
1.0390625,-8.056766813611049e-05,5.370050139009691e-05,0.0001274399331563287,-3.3206686048676276e-05,5.1333,2.4
1.04296875,-8.204188426031891e-05,4.4425821307698184e-05,0.00011132374523537043,-4.5415485601586934e-05,5.1333,2.4
1.046875,-7.177962250247958e-05,4.68733063294423e-05,8.935363115129323e-05,-4.102146278477148e-05,5.1333,2.4
1.05078125,-6.885981580987258e-05,4.149170183718624e-05,0.00010644308796978713,-3.0286879356069275e-05,5.1333,2.4
1.0546875,-7.27672041779202e-05,7.127659265735865e-05,0.00011766430584725719,-2.8812663231860837e-05,5.1333,2.4
1.05859375,-7.177962250247958e-05,6.884342041351951e-05,0.00010741635686732283,-2.9299297680628667e-05,5.1333,2.4
1.0625,-7.568701087052718e-05,3.417787232776379e-05,0.0001201117908690013,-2.2958737068741883e-05,5.1333,2.4
1.06640625,-7.95943992385748e-05,4.3452552410162525e-05,7.176322710612652e-05,-2.5892856539253826e-05,5.1333,2.4
1.0703125,-7.325383862668803e-05,5.078069469748991e-05,2.049485665064469e-05,-3.3693320497444106e-05,5.1333,2.4
1.07421875,-7.471374197299153e-05,6.151527812619213e-05,6.1028643677424294e-05,-3.272005159990844e-05,5.1333,2.4
1.078125,-7.374047307545587e-05,4.638667188067447e-05,8.593287723201345e-05,-3.468090217288471e-05,5.1333,2.4
1.08203125,-7.910776478980696e-05,3.124375285725185e-05,8.787941502708476e-05,-2.539190931258106e-05,5.1333,2.4
1.0859375,-7.374047307545587e-05,3.612441012283514e-05,9.666746066071567e-05,-4.896011352712293e-06,5.1333,2.4
1.08984375,-7.422710752422369e-05,3.9545164042114916e-05,0.00010545550629434655,-1.0749937515831235e-05,5.1333,2.4
1.09375,-7.716122699473563e-05,2.0995803877317483e-05,9.960158013122759e-05,-4.150809723353933e-05,5.1333,2.4
1.09765625,-7.080635360494392e-05,1.219344546578165e-05,7.469734657663843e-05,-4.102146278477148e-05,5.1333,2.4
1.1015625,-7.568701087052718e-05,2.733636448920424e-05,7.176322710612652e-05,-1.026330306706339e-05,5.1333,2.4
1.10546875,-7.666027976806286e-05,2.7822998937972074e-05,8.105221996643016e-05,-1.026330306706339e-05,5.1333,2.4
1.109375,-7.81344958922713e-05,2.733636448920424e-05,6.981668931105517e-05,-9.776668618295559e-06,5.1333,2.4
1.11328125,-7.81344958922713e-05,7.312788200198383e-06,6.005537477988861e-05,-1.417069143511101e-05,5.1333,2.4
1.1171875,-8.056766813611049e-05,-1.1723206413366896e-05,4.3939186858930354e-05,-2.148452094453344e-05,5.1333,2.4
1.12109375,-6.543906189059281e-05,-3.421795228503839e-06,3.661104457160297e-05,-2.4905274863813218e-05,5.1333,2.4
1.125,-5.225699344014649e-05,2.5876461142900752e-05,4.2965917961394695e-05,-2.8326028783092994e-05,5.1333,2.4
1.12890625,-5.225699344014649e-05,2.1482438326085313e-05,3.9058529593347086e-05,-2.8812663231860837e-05,5.1333,2.4
1.1328125,-3.956155943846799e-05,1.757504995803771e-05,3.80852606958114e-05,-2.6379490988021656e-05,5.1333,2.4
1.13671875,-4.9322873969634544e-05,1.219344546578165e-05,4.833320967574579e-05,-2.198546817120622e-05,5.1333,2.4
1.140625,-4.9322873969634544e-05,-1.1236571964599065e-05,2.4402245018692297e-05,-3.516753662165254e-05,5.1333,2.4
1.14453125,-5.274362788891432e-05,-9.29003416952773e-06,1.708841550926985e-05,-3.858829054093232e-05,5.1333,2.4
1.1484375,-4.687538894789044e-05,7.312788200198383e-06,3.270365620355537e-05,-3.223341715114061e-05,5.1333,2.4
1.15234375,-4.6388754499122593e-05,9.722275883115968e-07,3.417787232776379e-05,-4.7376336174563205e-05,5.1333,2.4
1.15625,-5.713765070572975e-05,-2.8326028783092994e-05,4.3452552410162525e-05,-6.837318136110475e-05,5.1333,2.4
1.16015625,-4.444221670405126e-05,-1.269647531090257e-05,2.636309559166858e-05,-4.9322873969634544e-05,5.1333,2.4
1.1640625,-2.9299297680628667e-05,-7.81581804531929e-06,1.5614199385061426e-05,-2.0997886495765612e-05,5.1333,2.4
1.16796875,-4.444221670405126e-05,-1.417069143511101e-05,1.4640930487525764e-05,-5.382645801480123e-06,5.1333,2.4
1.171875,-4.199473168230716e-05,9.722275883115968e-07,-5.019885358968282e-07,-2.539190931258106e-05,5.1333,2.4
1.17578125,-1.7090498127718006e-05,-7.81581804531929e-06,-3.908429677271669e-06,-5.76242851544976e-05,5.1333,2.4
1.1796875,-3.760070886549171e-05,-1.6603863678950176e-05,4.855931395437665e-07,-3.0286879356069275e-05,5.1333,2.4
1.18359375,-4.004819388723582e-05,4.392981507591372e-06,7.799422648966214e-06,-1.465732588387884e-05,5.1333,2.4
1.1875,-3.272005159990844e-05,8.787004324406809e-06,1.4588620370794273e-06,-2.7352759885557332e-05,5.1333,2.4
1.19140625,-3.3693320497444106e-05,-1.6117229230182347e-05,-1.026330306706339e-05,-3.468090217288471e-05,5.1333,2.4
1.1953125,-3.0286879356069275e-05,-1.269647531090257e-05,-3.908429677271669e-06,-2.8812663231860837e-05,5.1333,2.4
1.19921875,-3.614080551918822e-05,-3.3206686048676276e-05,-3.421795228503839e-06,-2.4905274863813218e-05,5.1333,2.4
1.203125,-2.4905274863813218e-05,-2.6866125436789502e-05,3.892034280918608e-06,-3.711407441672388e-05,5.1333,2.4
1.20703125,-2.198546817120622e-05,-2.9351607797360085e-06,1.5614199385061426e-05,-3.3693320497444106e-05,5.1333,2.4
1.2109375,-1.1236571964599065e-05,-1.6117229230182347e-05,2.2455707223620976e-05,-2.2958737068741883e-05,5.1333,2.4
1.21484375,-1.9618918822003476e-06,-2.3445371517509726e-05,1.6587468282597085e-05,-2.148452094453344e-05,5.1333,2.4
1.21875,-2.002461759822995e-05,-2.783939433432516e-05,2.918765383382919e-06,-2.8812663231860837e-05,5.1333,2.4
1.22265625,-2.8812663231860837e-05,-2.0997886495765612e-05,6.339519302662694e-06,-2.7352759885557332e-05,5.1333,2.4
1.2265625,-2.002461759822995e-05,-2.539190931258106e-05,2.918765383382919e-06,-2.0511252046997782e-05,5.1333,2.4
1.23046875,-6.8425491477836145e-06,-2.4418640415045388e-05,2.918765383382919e-06,-2.002461759822995e-05,5.1333,2.4
1.234375,-5.869280250247954e-06,-2.002461759822995e-05,1.4154296038757934e-05,-2.0997886495765612e-05,5.1333,2.4
1.23828125,-4.3950641260395e-06,-1.0749937515831235e-05,-1.4752574334325174e-06,-2.9785932129396497e-05,5.1333,2.4
1.2421875,-3.908429677271669e-06,-3.3693320497444106e-05,-2.9351607797360085e-06,-3.0286879356069275e-05,5.1333,2.4
1.24609375,-1.1236571964599065e-05,-4.150809723353933e-05,1.4588620370794273e-06,-2.539190931258106e-05,5.1333,2.4
1.25,-1.269647531090257e-05,2.918765383382919e-06,-1.7090498127718006e-05,-2.6866125436789502e-05,5.1333,2.4
1.25390625,-9.776668618295559e-06,-5.019885358968282e-07,-3.272005159990844e-05,-2.7352759885557332e-05,5.1333,2.4
1.2578125,-1.8564714251926447e-05,-1.7090498127718006e-05,-2.7352759885557332e-05,-2.9785932129396497e-05,5.1333,2.4
1.26171875,-2.3932005966277555e-05,-1.3197422537575334e-05,-1.1723206413366896e-05,-2.9785932129396497e-05,5.1333,2.4
1.265625,-1.9618918822003476e-06,-2.247210261997405e-05,-1.6603863678950176e-05,-3.565417107042038e-05,5.1333,2.4
1.26953125,-1.9618918822003476e-06,-2.148452094453344e-05,-1.759144535439077e-05,-4.199473168230716e-05,5.1333,2.4
1.2734375,-2.0997886495765612e-05,-9.776668618295559e-06,-3.908429677271669e-06,-3.711407441672388e-05,5.1333,2.4
1.27734375,-1.6603863678950176e-05,-3.711407441672388e-05,-4.896011352712293e-06,-3.614080551918822e-05,5.1333,2.4
1.28125,-2.3445371517509726e-05,-3.760070886549171e-05,-9.88622984664687e-07,-3.174678270237277e-05,5.1333,2.4
1.28515625,-1.759144535439077e-05,-9.29003416952773e-06,-3.908429677271669e-06,-2.3445371517509726e-05,5.1333,2.4
1.2890625,-7.81581804531929e-06,-2.2958737068741883e-05,-1.1723206413366896e-05,-2.148452094453344e-05,5.1333,2.4
1.29296875,-7.81581804531929e-06,-2.4905274863813218e-05,-8.30245249408712e-06,-2.6866125436789502e-05,5.1333,2.4
1.296875,-2.002461759822995e-05,-1.6603863678950176e-05,-2.448526330968178e-06,-2.6379490988021656e-05,5.1333,2.4
1.30078125,-2.783939433432516e-05,-2.4905274863813218e-05,-1.1236571964599065e-05,-2.5892856539253826e-05,5.1333,2.4
1.3046875,-2.4418640415045388e-05,-1.7090498127718006e-05,-1.1236571964599065e-05,-2.4418640415045388e-05,5.1333,2.4
1.30859375,-2.5892856539253826e-05,2.4321309346150884e-06,9.273638773174638e-06,-2.8326028783092994e-05,5.1333,2.4
1.3125,-1.8078079803158614e-05,-1.4752574334325174e-06,3.4053998321507776e-06,-3.808734331425955e-05,5.1333,2.4
1.31640625,-1.3197422537575334e-05,-2.148452094453344e-05,-3.174678270237277e-05,-3.272005159990844e-05,5.1333,2.4
1.3203125,-1.56305947814145e-05,-2.9785932129396497e-05,-3.174678270237277e-05,-3.3693320497444106e-05,5.1333,2.4
1.32421875,-1.514396033264667e-05,-2.3932005966277555e-05,1.0246907670710328e-05,-3.0286879356069275e-05,5.1333,2.4
1.328125,-2.7352759885557332e-05,-2.0511252046997782e-05,2.7822998937972074e-05,-2.7352759885557332e-05,5.1333,2.4
1.33203125,-2.198546817120622e-05,-1.759144535439077e-05,3.892034280918608e-06,-3.662743996795605e-05,5.1333,2.4
1.3359375,-2.002461759822995e-05,-4.3950641260395e-06,-6.355914699015784e-06,-3.3693320497444106e-05,5.1333,2.4
1.33984375,-1.7090498127718006e-05,-2.539190931258106e-05,-9.776668618295559e-06,-3.858829054093232e-05,5.1333,2.4
1.34375,-1.417069143511101e-05,-3.417995494621195e-05,-6.8425491477836145e-06,-4.980950841840237e-05,5.1333,2.4
1.34765625,-3.662743996795605e-05,-1.514396033264667e-05,1.6100833833829256e-05,-4.34689478065156e-05,5.1333,2.4
1.3515625,-3.907492498970015e-05,-1.6603863678950176e-05,2.636309559166858e-05,-3.077351380483711e-05,5.1333,2.4
1.35546875,-3.272005159990844e-05,-2.5892856539253826e-05,2.7822998937972074e-05,-3.0286879356069275e-05,5.1333,2.4
1.359375,-3.808734331425955e-05,-3.516753662165254e-05,1.708841550926985e-05,-3.174678270237277e-05,5.1333,2.4
1.36328125,-3.662743996795605e-05,-2.539190931258106e-05,-8.30245249408712e-06,-2.4418640415045388e-05,5.1333,2.4
1.3671875,-2.002461759822995e-05,-2.5892856539253826e-05,-5.869280250247954e-06,-2.8812663231860837e-05,5.1333,2.4
1.37109375,-2.5892856539253826e-05,-2.6379490988021656e-05,1.1220176568245989e-05,-3.760070886549171e-05,5.1333,2.4
1.375,-3.614080551918822e-05,-1.56305947814145e-05,1.2694392692454413e-05,-4.2982313357747766e-05,5.1333,2.4
1.37890625,-2.3932005966277555e-05,-1.8078079803158614e-05,2.4321309346150884e-06,-4.395558225528343e-05,5.1333,2.4
1.3828125,-3.126014825360494e-05,-2.4905274863813218e-05,1.945496485847258e-06,-3.956155943846799e-05,5.1333,2.4
1.38671875,-3.808734331425955e-05,-3.077351380483711e-05,4.392981507591372e-06,-3.468090217288471e-05,5.1333,2.4
1.390625,-3.417995494621195e-05,-2.7352759885557332e-05,1.1706811017013818e-05,-3.3693320497444106e-05,5.1333,2.4
1.39453125,-3.858829054093232e-05,-2.0511252046997782e-05,1.90349533043412e-05,-3.516753662165254e-05,5.1333,2.4
1.3984375,-3.808734331425955e-05,-3.077351380483711e-05,-6.355914699015784e-06,-4.102146278477148e-05,5.1333,2.4
1.40234375,-2.0511252046997782e-05,-3.858829054093232e-05,-6.8425491477836145e-06,-3.272005159990844e-05,5.1333,2.4
1.40625,-1.269647531090257e-05,-2.6379490988021656e-05,-1.026330306706339e-05,-2.6379490988021656e-05,5.1333,2.4
1.41015625,-3.565417107042038e-05,-1.1236571964599065e-05,-3.711407441672388e-05,-2.4905274863813218e-05,5.1333,2.4
1.4140625,-1.9537983149462106e-05,-2.3932005966277555e-05,-3.3206686048676276e-05,-4.004819388723582e-05,5.1333,2.4
1.41796875,-2.3932005966277555e-05,-2.4418640415045388e-05,-1.4752574334325174e-06,-3.760070886549171e-05,5.1333,2.4
1.421875,-3.223341715114061e-05,-2.9785932129396497e-05,-1.3684056986343165e-05,-2.6379490988021656e-05,5.1333,2.4
1.42578125,-2.3445371517509726e-05,-3.565417107042038e-05,-2.539190931258106e-05,-3.0286879356069275e-05,5.1333,2.4
1.4296875,-2.3445371517509726e-05,-2.539190931258106e-05,-2.198546817120622e-05,-2.3932005966277555e-05,5.1333,2.4
1.43359375,-2.247210261997405e-05,-3.126014825360494e-05,-2.8326028783092994e-05,-2.6866125436789502e-05,5.1333,2.4
1.4375,-2.6379490988021656e-05,-4.5902120050354764e-05,-2.4418640415045388e-05,-1.7090498127718006e-05,5.1333,2.4
1.44140625,-1.8078079803158614e-05,-3.565417107042038e-05,-1.9537983149462106e-05,-1.1723206413366896e-05,5.1333,2.4
1.4453125,-3.3693320497444106e-05,-9.776668618295559e-06,-1.56305947814145e-05,-1.9537983149462106e-05,5.1333,2.4
1.44921875,-3.956155943846799e-05,-2.2958737068741883e-05,-2.3932005966277555e-05,-2.539190931258106e-05,5.1333,2.4
1.453125,-1.8078079803158614e-05,-3.126014825360494e-05,-2.2958737068741883e-05,-3.0286879356069275e-05,5.1333,2.4
1.45703125,-2.0511252046997782e-05,-2.539190931258106e-05,-3.0286879356069275e-05,-3.565417107042038e-05,5.1333,2.4
1.4609375,-1.1236571964599065e-05,-3.3206686048676276e-05,-4.7862970623331035e-05,-4.395558225528343e-05,5.1333,2.4
1.46484375,-1.7090498127718006e-05,-3.956155943846799e-05,-3.3693320497444106e-05,-4.34689478065156e-05,5.1333,2.4
1.46875,-3.858829054093232e-05,-4.150809723353933e-05,-3.223341715114061e-05,-3.468090217288471e-05,5.1333,2.4
1.47265625,-3.174678270237277e-05,-3.662743996795605e-05,-2.4905274863813218e-05,-3.223341715114061e-05,5.1333,2.4
1.4765625,-2.8812663231860837e-05,-2.4905274863813218e-05,-1.3684056986343165e-05,-4.199473168230716e-05,5.1333,2.4
1.48046875,-2.148452094453344e-05,-2.9299297680628667e-05,-1.759144535439077e-05,-4.4928851152819105e-05,5.1333,2.4
1.484375,-2.3932005966277555e-05,-2.9785932129396497e-05,-6.8425491477836145e-06,-2.9299297680628667e-05,5.1333,2.4
1.48828125,-1.9051348700694277e-05,-3.174678270237277e-05,-1.465732588387884e-05,-2.247210261997405e-05,5.1333,2.4
1.4921875,-1.6117229230182347e-05,-3.662743996795605e-05,-2.0997886495765612e-05,-3.417995494621195e-05,5.1333,2.4
1.49609375,-2.0511252046997782e-05,-4.34689478065156e-05,-2.6379490988021656e-05,-3.711407441672388e-05,5.1333,2.4
1.5,-3.516753662165254e-05,-4.248136613107499e-05,-2.8326028783092994e-05,-2.8326028783092994e-05,5.1333,2.4
1.50390625,-4.395558225528343e-05,-1.514396033264667e-05,-1.465732588387884e-05,-2.6866125436789502e-05,5.1333,2.4
1.5078125,-3.662743996795605e-05,-1.9051348700694277e-05,-2.448526330968178e-06,-2.2958737068741883e-05,5.1333,2.4
1.51171875,-3.565417107042038e-05,-3.3693320497444106e-05,-4.3950641260395e-06,-3.0286879356069275e-05,5.1333,2.4
1.515625,-4.053482833600365e-05,-3.126014825360494e-05,-1.417069143511101e-05,-4.102146278477148e-05,5.1333,2.4
1.51953125,-3.711407441672388e-05,-1.8078079803158614e-05,-3.126014825360494e-05,-3.956155943846799e-05,5.1333,2.4
1.5234375,-3.126014825360494e-05,-2.198546817120622e-05,-3.516753662165254e-05,-3.907492498970015e-05,5.1333,2.4
1.52734375,-2.6866125436789502e-05,-2.8326028783092994e-05,7.312788200198383e-06,-4.5902120050354764e-05,5.1333,2.4
1.53125,-2.8812663231860837e-05,-2.9785932129396497e-05,1.4154296038757934e-05,-3.272005159990844e-05,5.1333,2.4
1.53515625,-2.4418640415045388e-05,-3.468090217288471e-05,-8.30245249408712e-06,-2.148452094453344e-05,5.1333,2.4
1.5390625,-2.6866125436789502e-05,-3.662743996795605e-05,-4.3950641260395e-06,-3.272005159990844e-05,5.1333,2.4
1.54296875,-3.760070886549171e-05,-3.174678270237277e-05,-1.1723206413366896e-05,-2.9785932129396497e-05,5.1333,2.4
1.546875,-3.760070886549171e-05,-2.4905274863813218e-05,-1.3684056986343165e-05,-2.0997886495765612e-05,5.1333,2.4
1.55078125,-2.539190931258106e-05,-3.858829054093232e-05,-1.417069143511101e-05,-1.6117229230182347e-05,5.1333,2.4
1.5546875,-2.2958737068741883e-05,-3.468090217288471e-05,-1.56305947814145e-05,-1.9051348700694277e-05,5.1333,2.4
1.55859375,-3.516753662165254e-05,-3.468090217288471e-05,-2.0997886495765612e-05,-2.539190931258106e-05,5.1333,2.4
1.5625,-2.9785932129396497e-05,-4.102146278477148e-05,-2.783939433432516e-05,-2.8326028783092994e-05,5.1333,2.4
1.56640625,-2.783939433432516e-05,-3.126014825360494e-05,-2.0511252046997782e-05,-2.8326028783092994e-05,5.1333,2.4
1.5703125,-2.9299297680628667e-05,-3.565417107042038e-05,-2.148452094453344e-05,-3.174678270237277e-05,5.1333,2.4
1.57421875,-2.8326028783092994e-05,-3.468090217288471e-05,-1.3197422537575334e-05,-3.174678270237277e-05,5.1333,2.4
1.578125,-3.077351380483711e-05,-2.539190931258106e-05,2.918765383382919e-06,-2.539190931258106e-05,5.1333,2.4
1.58203125,-2.6379490988021656e-05,-3.126014825360494e-05,4.392981507591372e-06,-2.9785932129396497e-05,5.1333,2.4
1.5859375,-4.6388754499122593e-05,-3.808734331425955e-05,9.273638773174638e-06,-2.198546817120622e-05,5.1333,2.4
1.58984375,-2.783939433432516e-05,-4.004819388723582e-05,1.708841550926985e-05,-2.4418640415045388e-05,5.1333,2.4
1.59375,-1.1723206413366896e-05,-2.9785932129396497e-05,9.76027322194247e-06,-2.9785932129396497e-05,5.1333,2.4
1.59765625,-3.126014825360494e-05,-1.8078079803158614e-05,1.945496485847258e-06,-2.539190931258106e-05,5.1333,2.4
1.6015625,-2.5892856539253826e-05,-3.126014825360494e-05,1.945496485847258e-06,-2.0997886495765612e-05,5.1333,2.4
1.60546875,-2.7352759885557332e-05,-4.199473168230716e-05,1.0246907670710328e-05,-1.7090498127718006e-05,5.1333,2.4
1.609375,-2.4418640415045388e-05,-3.662743996795605e-05,4.392981507591372e-06,-2.9785932129396497e-05,5.1333,2.4
1.61328125,-2.2958737068741883e-05,-3.808734331425955e-05,2.4321309346150884e-06,-3.0286879356069275e-05,5.1333,2.4
1.6171875,-2.9299297680628667e-05,-3.417995494621195e-05,3.4053998321507776e-06,-1.8564714251926447e-05,5.1333,2.4
1.62109375,-2.3445371517509726e-05,-3.0286879356069275e-05,-1.4752574334325174e-06,-2.4418640415045388e-05,5.1333,2.4
1.625,-2.3932005966277555e-05,-2.783939433432516e-05,-3.908429677271669e-06,-1.9051348700694277e-05,5.1333,2.4
1.62890625,-3.126014825360494e-05,-2.9299297680628667e-05,-3.908429677271669e-06,-1.6117229230182347e-05,5.1333,2.4
1.6328125,-2.7352759885557332e-05,-2.4905274863813218e-05,3.892034280918608e-06,-1.9051348700694277e-05,5.1333,2.4
1.63671875,-2.148452094453344e-05,-1.56305947814145e-05,-6.8425491477836145e-06,-1.8078079803158614e-05,5.1333,2.4
1.640625,-2.7352759885557332e-05,-3.468090217288471e-05,-8.30245249408712e-06,-2.4905274863813218e-05,5.1333,2.4
1.64453125,-2.5892856539253826e-05,-4.883623952086671e-05,-1.514396033264667e-05,-3.174678270237277e-05,5.1333,2.4
1.6484375,-3.468090217288471e-05,-3.3206686048676276e-05,4.879615956359203e-06,-2.3932005966277555e-05,5.1333,2.4
1.65234375,-4.102146278477148e-05,-2.8812663231860837e-05,2.4321309346150884e-06,-1.514396033264667e-05,5.1333,2.4
1.65625,-4.004819388723582e-05,-4.199473168230716e-05,-3.3693320497444106e-05,-2.198546817120622e-05,5.1333,2.4
1.66015625,-4.4928851152819105e-05,-4.7862970623331035e-05,-1.8564714251926447e-05,-2.3932005966277555e-05,5.1333,2.4
1.6640625,-3.760070886549171e-05,-3.808734331425955e-05,-5.382645801480123e-06,-2.4418640415045388e-05,5.1333,2.4
1.66796875,-2.4418640415045388e-05,-3.956155943846799e-05,-3.421795228503839e-06,-3.126014825360494e-05,5.1333,2.4
1.671875,-1.9537983149462106e-05,-5.0296142867170216e-05,-4.3950641260395e-06,-3.417995494621195e-05,5.1333,2.4
1.67578125,-2.783939433432516e-05,-4.6388754499122593e-05,-3.077351380483711e-05,-3.516753662165254e-05,5.1333,2.4
1.6796875,-3.468090217288471e-05,-4.4928851152819105e-05,-2.539190931258106e-05,-3.417995494621195e-05,5.1333,2.4
1.68359375,-2.4418640415045388e-05,-5.420353123521782e-05,-4.896011352712293e-06,-2.0997886495765612e-05,5.1333,2.4
1.6875,-2.4418640415045388e-05,-3.662743996795605e-05,-3.421795228503839e-06,-2.7352759885557332e-05,5.1333,2.4
1.69140625,-2.539190931258106e-05,-3.077351380483711e-05,-1.1723206413366896e-05,-4.004819388723582e-05,5.1333,2.4
1.6953125,-2.9785932129396497e-05,-4.004819388723582e-05,-1.514396033264667e-05,-2.6866125436789502e-05,5.1333,2.4
1.69921875,-2.8812663231860837e-05,-2.8812663231860837e-05,-1.3684056986343165e-05,-2.002461759822995e-05,5.1333,2.4
1.703125,-2.247210261997405e-05,-3.662743996795605e-05,-1.3197422537575334e-05,-2.002461759822995e-05,5.1333,2.4
1.70703125,-3.272005159990844e-05,-4.199473168230716e-05,-1.417069143511101e-05,-1.514396033264667e-05,5.1333,2.4
1.7109375,-2.9785932129396497e-05,-3.3206686048676276e-05,-2.198546817120622e-05,-3.3693320497444106e-05,5.1333,2.4
1.71484375,-2.3932005966277555e-05,-3.907492498970015e-05,-2.148452094453344e-05,-4.6388754499122593e-05,5.1333,2.4
1.71875,-2.3445371517509726e-05,-5.128372454261081e-05,-2.002461759822995e-05,-3.272005159990844e-05,5.1333,2.4
1.72265625,-3.417995494621195e-05,-3.516753662165254e-05,-6.355914699015784e-06,-3.077351380483711e-05,5.1333,2.4
1.7265625,-3.711407441672388e-05,-2.9299297680628667e-05,-1.9618918822003476e-06,-3.126014825360494e-05,5.1333,2.4
1.73046875,-2.6866125436789502e-05,-3.417995494621195e-05,-2.4418640415045388e-05,-2.8812663231860837e-05,5.1333,2.4
1.734375,-3.272005159990844e-05,-3.174678270237277e-05,-2.7352759885557332e-05,-2.148452094453344e-05,5.1333,2.4
1.73828125,-3.760070886549171e-05,-2.4418640415045388e-05,-1.3684056986343165e-05,-1.759144535439077e-05,5.1333,2.4
1.7421875,-2.6379490988021656e-05,-4.053482833600365e-05,-1.6603863678950176e-05,-2.539190931258106e-05,5.1333,2.4
1.74609375,-3.760070886549171e-05,-4.5902120050354764e-05,-2.198546817120622e-05,-3.0286879356069275e-05,5.1333,2.4
1.75,-4.5415485601586934e-05,-3.077351380483711e-05,-7.329183596551459e-06,-2.9299297680628667e-05,5.1333,2.4
1.75390625,-2.4905274863813218e-05,-3.272005159990844e-05,1.4588620370794273e-06,-3.956155943846799e-05,5.1333,2.4
1.7578125,-3.223341715114061e-05,-3.711407441672388e-05,-9.776668618295559e-06,-3.614080551918822e-05,5.1333,2.4
1.76171875,-3.907492498970015e-05,-4.102146278477148e-05,-2.8812663231860837e-05,-2.9785932129396497e-05,5.1333,2.4
1.765625,-3.077351380483711e-05,-3.417995494621195e-05,-1.8078079803158614e-05,-3.468090217288471e-05,5.1333,2.4
1.76953125,-2.8326028783092994e-05,-2.4418640415045388e-05,-1.417069143511101e-05,-3.272005159990844e-05,5.1333,2.4
1.7734375,-2.9785932129396497e-05,-3.077351380483711e-05,-2.9785932129396497e-05,-3.126014825360494e-05,5.1333,2.4
1.77734375,-2.6866125436789502e-05,-3.662743996795605e-05,-1.3197422537575334e-05,-2.8326028783092994e-05,5.1333,2.4
1.78125,-3.077351380483711e-05,-3.516753662165254e-05,-5.869280250247954e-06,-2.8326028783092994e-05,5.1333,2.4
1.78515625,-3.077351380483711e-05,-3.760070886549171e-05,-1.6117229230182347e-05,-3.565417107042038e-05,5.1333,2.4
1.7890625,-2.3932005966277555e-05,-4.199473168230716e-05,-2.3445371517509726e-05,-3.3693320497444106e-05,5.1333,2.4
1.79296875,-3.565417107042038e-05,-3.808734331425955e-05,-2.2958737068741883e-05,-2.3932005966277555e-05,5.1333,2.4
1.796875,-3.223341715114061e-05,-2.783939433432516e-05,-2.002461759822995e-05,-2.6379490988021656e-05,5.1333,2.4
1.80078125,-2.783939433432516e-05,-2.9299297680628667e-05,-2.3932005966277555e-05,-3.614080551918822e-05,5.1333,2.4
1.8046875,-3.0286879356069275e-05,-3.417995494621195e-05,-6.355914699015784e-06,-3.126014825360494e-05,5.1333,2.4
1.80859375,-2.539190931258106e-05,-3.0286879356069275e-05,6.826153751430552e-06,-2.6379490988021656e-05,5.1333,2.4
1.8125,-1.8078079803158614e-05,-3.614080551918822e-05,-5.019885358968282e-07,-3.711407441672388e-05,5.1333,2.4
1.81640625,-3.3693320497444106e-05,-3.808734331425955e-05,-6.8425491477836145e-06,-4.004819388723582e-05,5.1333,2.4
1.8203125,-3.956155943846799e-05,-3.662743996795605e-05,-2.4418640415045388e-05,-3.907492498970015e-05,5.1333,2.4
1.82421875,-2.783939433432516e-05,-2.9785932129396497e-05,-1.3684056986343165e-05,-3.662743996795605e-05,5.1333,2.4
1.828125,-3.126014825360494e-05,-3.174678270237277e-05,-1.1236571964599065e-05,-3.614080551918822e-05,5.1333,2.4
1.83203125,-3.417995494621195e-05,-3.662743996795605e-05,-2.0997886495765612e-05,-3.0286879356069275e-05,5.1333,2.4
1.8359375,-3.516753662165254e-05,-3.417995494621195e-05,-2.6866125436789502e-05,-2.9299297680628667e-05,5.1333,2.4
1.83984375,-3.468090217288471e-05,-4.395558225528343e-05,-3.858829054093232e-05,-2.8326028783092994e-05,5.1333,2.4
1.84375,-2.9785932129396497e-05,-4.687538894789044e-05,-3.907492498970015e-05,-2.5892856539253826e-05,5.1333,2.4
1.84765625,-3.468090217288471e-05,-3.3206686048676276e-05,-3.565417107042038e-05,-3.223341715114061e-05,5.1333,2.4
1.8515625,-3.272005159990844e-05,-3.223341715114061e-05,-2.247210261997405e-05,-3.3693320497444106e-05,5.1333,2.4
1.85546875,-3.468090217288471e-05,-3.126014825360494e-05,-1.0749937515831235e-05,-3.126014825360494e-05,5.1333,2.4
1.859375,-2.4905274863813218e-05,-3.565417107042038e-05,-1.6603863678950176e-05,-3.272005159990844e-05,5.1333,2.4
1.86328125,-1.56305947814145e-05,-5.3716896786449976e-05,-3.614080551918822e-05,-3.272005159990844e-05,5.1333,2.4
1.8671875,-2.539190931258106e-05,-3.174678270237277e-05,-3.565417107042038e-05,-2.198546817120622e-05,5.1333,2.4
1.87109375,-2.539190931258106e-05,-1.514396033264667e-05,-1.8078079803158614e-05,-2.198546817120622e-05,5.1333,2.4
1.875,-2.6379490988021656e-05,-3.0286879356069275e-05,-2.0997886495765612e-05,-2.8326028783092994e-05,5.1333,2.4
1.87890625,-3.077351380483711e-05,-2.5892856539253826e-05,-2.6379490988021656e-05,-2.3445371517509726e-05,5.1333,2.4
1.8828125,-2.4418640415045388e-05,-2.6379490988021656e-05,-1.8564714251926447e-05,-2.002461759822995e-05,5.1333,2.4
1.88671875,-2.3445371517509726e-05,-2.8326028783092994e-05,-2.4905274863813218e-05,-2.247210261997405e-05,5.1333,2.4
1.890625,-3.0286879356069275e-05,-2.4905274863813218e-05,-2.6379490988021656e-05,-3.0286879356069275e-05,5.1333,2.4
1.89453125,-3.565417107042038e-05,-2.9785932129396497e-05,-3.614080551918822e-05,-3.417995494621195e-05,5.1333,2.4
1.8984375,-3.077351380483711e-05,-4.248136613107499e-05,-3.468090217288471e-05,-3.077351380483711e-05,5.1333,2.4
1.90234375,-3.760070886549171e-05,-5.128372454261081e-05,-4.896011352712293e-06,-2.0997886495765612e-05,5.1333,2.4
1.90625,-4.053482833600365e-05,-4.395558225528343e-05,-2.448526330968178e-06,-1.8078079803158614e-05,5.1333,2.4
1.91015625,-1.8564714251926447e-05,-3.174678270237277e-05,-6.8425491477836145e-06,-2.148452094453344e-05,5.1333,2.4
1.9140625,-1.269647531090257e-05,-2.2958737068741883e-05,1.4588620370794273e-06,-2.539190931258106e-05,5.1333,2.4
1.91796875,-2.9299297680628667e-05,-2.198546817120622e-05,-9.88622984664687e-07,-2.783939433432516e-05,5.1333,2.4
1.921875,-3.272005159990844e-05,-3.3206686048676276e-05,-1.269647531090257e-05,-2.9299297680628667e-05,5.1333,2.4
1.92578125,-3.077351380483711e-05,-4.004819388723582e-05,-1.6603863678950176e-05,-2.7352759885557332e-05,5.1333,2.4
1.9296875,-3.3206686048676276e-05,-3.223341715114061e-05,-1.8564714251926447e-05,-2.539190931258106e-05,5.1333,2.4
1.93359375,-3.711407441672388e-05,-3.565417107042038e-05,-3.565417107042038e-05,-2.9785932129396497e-05,5.1333,2.4
1.9375,-3.614080551918822e-05,-3.272005159990844e-05,-4.34689478065156e-05,-3.174678270237277e-05,5.1333,2.4
1.94140625,-3.272005159990844e-05,-2.247210261997405e-05,-2.9785932129396497e-05,-2.783939433432516e-05,5.1333,2.4
1.9453125,-2.247210261997405e-05,-2.3932005966277555e-05,-4.3950641260395e-06,-3.223341715114061e-05,5.1333,2.4
1.94921875,-2.4905274863813218e-05,-3.711407441672388e-05,5.366250405127033e-06,-2.8812663231860837e-05,5.1333,2.4
1.953125,-3.223341715114061e-05,-4.102146278477148e-05,-1.0749937515831235e-05,-2.3445371517509726e-05,5.1333,2.4
1.95703125,-3.223341715114061e-05,-2.7352759885557332e-05,-7.81581804531929e-06,-3.126014825360494e-05,5.1333,2.4
1.9609375,-2.9785932129396497e-05,-2.539190931258106e-05,2.918765383382919e-06,-2.6866125436789502e-05,5.1333,2.4
1.96484375,-3.077351380483711e-05,-2.6379490988021656e-05,1.4640930487525764e-05,-2.198546817120622e-05,5.1333,2.4
1.96875,-3.223341715114061e-05,-2.6866125436789502e-05,1.4154296038757934e-05,-2.539190931258106e-05,5.1333,2.4
1.97265625,-3.565417107042038e-05,-2.8812663231860837e-05,-9.88622984664687e-07,-2.4418640415045388e-05,5.1333,2.4
1.9765625,-2.783939433432516e-05,-3.565417107042038e-05,-1.0413092240639797e-09,-2.3932005966277555e-05,5.1333,2.4
1.98046875,-1.9537983149462106e-05,-2.7352759885557332e-05,-5.019885358968282e-07,-2.9785932129396497e-05,5.1333,2.4
1.984375,-1.9537983149462106e-05,-1.514396033264667e-05,1.2694392692454413e-05,-3.0286879356069275e-05,5.1333,2.4
1.98828125,-2.7352759885557332e-05,-1.6603863678950176e-05,1.806168440680554e-05,-2.539190931258106e-05,5.1333,2.4
1.9921875,-2.2958737068741883e-05,-2.3445371517509726e-05,4.392981507591372e-06,-2.0997886495765612e-05,5.1333,2.4
1.99609375,-2.3445371517509726e-05,-2.5892856539253826e-05,-1.4752574334325174e-06,-2.247210261997405e-05,5.1333,2.4
2.0,-2.783939433432516e-05,-2.8326028783092994e-05,-1.56305947814145e-05,-2.4418640415045388e-05,5.1333,2.4
2.00390625,-4.3950641260395e-06,-4.395558225528343e-05,-2.8812663231860837e-05,-3.711407441672388e-05,5.1333,2.4
2.0078125,-1.0749937515831235e-05,-3.662743996795605e-05,-8.30245249408712e-06,-4.102146278477148e-05,5.1333,2.4
2.01171875,-3.468090217288471e-05,-3.174678270237277e-05,1.3667661589990103e-05,-3.223341715114061e-05,5.1333,2.4
2.015625,-3.808734331425955e-05,-4.150809723353933e-05,9.76027322194247e-06,-1.8564714251926447e-05,5.1333,2.4
2.01953125,-3.565417107042038e-05,-3.907492498970015e-05,-3.421795228503839e-06,-1.2209840862134725e-05,5.1333,2.4
2.0234375,-2.783939433432516e-05,-3.0286879356069275e-05,2.4321309346150884e-06,-2.0511252046997782e-05,5.1333,2.4
2.02734375,-2.9785932129396497e-05,-2.0997886495765612e-05,1.0246907670710328e-05,-2.9785932129396497e-05,5.1333,2.4
2.03125,-2.002461759822995e-05,-3.516753662165254e-05,-1.9618918822003476e-06,-3.907492498970015e-05,5.1333,2.4
2.03515625,-1.514396033264667e-05,-5.811091960326543e-05,-1.4752574334325174e-06,-3.711407441672388e-05,5.1333,2.4
2.0390625,-4.687538894789044e-05,-5.274362788891432e-05,6.339519302662694e-06,-1.9051348700694277e-05,5.1333,2.4
2.04296875,-3.126014825360494e-05,-2.9299297680628667e-05,2.636309559166858e-05,-1.56305947814145e-05,5.1333,2.4
2.046875,-4.3950641260395e-06,-2.2958737068741883e-05,2.1482438326085313e-05,-2.6866125436789502e-05,5.1333,2.4
2.05078125,-1.759144535439077e-05,-3.614080551918822e-05,7.312788200198383e-06,-3.907492498970015e-05,5.1333,2.4
2.0546875,-1.2209840862134725e-05,-4.687538894789044e-05,6.826153751430552e-06,-4.7376336174563205e-05,5.1333,2.4
2.05859375,-5.869280250247954e-06,-5.859755405203326e-05,-2.9785932129396497e-05,-4.2982313357747766e-05,5.1333,2.4
2.0625,-9.29003416952773e-06,-6.738559968566414e-05,-6.104503907377737e-05,-3.956155943846799e-05,5.1333,2.4
2.06640625,1.0246907670710328e-05,-6.885981580987258e-05,-4.7376336174563205e-05,-3.858829054093232e-05,5.1333,2.4
2.0703125,1.2694392692454413e-05,-8.496169095292591e-05,-5.274362788891432e-05,-3.858829054093232e-05,5.1333,2.4
2.07421875,5.366250405127033e-06,-8.496169095292591e-05,-0.00010694611781490806,-3.956155943846799e-05,5.1333,2.4
2.078125,2.636309559166858e-05,-9.180319879148547e-05,-0.0001450181070420386,-4.004819388723582e-05,5.1333,2.4
2.08203125,1.90349533043412e-05,-0.00013524247973296713,-0.00016014671328755628,-4.102146278477148e-05,5.1333,2.4
2.0859375,1.219344546578165e-05,-0.0001567259593682765,-0.0001518453021026932,-3.808734331425955e-05,5.1333,2.4
2.08984375,3.563777567406731e-05,-0.00017089560949416343,-0.00016014671328755628,-3.516753662165254e-05,5.1333,2.4
2.09375,3.563777567406731e-05,-0.00017871038623025863,-0.00017871038623025863,-2.8326028783092994e-05,5.1333,2.4
2.09765625,5.467377028763258e-05,-0.00018798506631265735,-0.00020360030700694286,-2.4905274863813218e-05,5.1333,2.4
2.1015625,5.809452420691235e-05,-0.00021337593431601436,-0.00023876680231937132,-3.662743996795605e-05,5.1333,2.4
2.10546875,4.539909020523384e-05,-0.00022801790611276418,-0.00025536962468909746,-4.102146278477148e-05,5.1333,2.4
2.109375,6.933005486228734e-05,-0.00023631931729762722,-0.00025731616248416875,-2.9299297680628667e-05,5.1333,2.4
2.11328125,6.1028643677424294e-05,-0.00025340877411612114,-0.0002641576703227283,-2.3445371517509726e-05,5.1333,2.4
2.1171875,6.49360320454719e-05,-0.00024071334011444267,-0.00027098486538338295,-3.126014825360494e-05,5.1333,2.4
2.12109375,8.641951168078128e-05,-0.00022411051774471656,-0.00027098486538338295,-3.3693320497444106e-05,5.1333,2.4
2.125,8.202548886396584e-05,-0.0002231372488471809,-0.00024998802019684136,-2.9785932129396497e-05,5.1333,2.4
2.12890625,8.69061461295491e-05,-0.00021044181484550242,-0.0002245971521934844,-3.0286879356069275e-05,5.1333,2.4
2.1328125,7.811810049591821e-05,-0.00020019386586556803,-0.00022068976382543678,-3.565417107042038e-05,5.1333,2.4
2.13671875,5.2727232492561226e-05,-0.0001865108501884489,-0.00020946854594796672,-4.004819388723582e-05,5.1333,2.4
2.140625,4.833320967574579e-05,-0.0001567259593682765,-0.0001796836551277943,-4.248136613107499e-05,5.1333,2.4
2.14453125,5.467377028763258e-05,-0.00014451715981536581,-0.00014599137593957428,-4.5902120050354764e-05,5.1333,2.4
2.1484375,5.760788975814452e-05,-0.00013524247973296713,-0.00011524752899977111,-5.420353123521782e-05,5.1333,2.4
2.15234375,5.809452420691235e-05,-0.0001074327522636759,-0.00011670743234607462,-6.396484576638436e-05,5.1333,2.4
2.15625,4.68733063294423e-05,-9.815807218127718e-05,-0.00013720333030594337,-6.837318136110475e-05,5.1333,2.4
2.16015625,4.247928351262686e-05,-8.838244487220569e-05,-0.0001503853987563897,-7.080635360494392e-05,5.1333,2.4
2.1640625,3.466450677653162e-05,-7.129298805371175e-05,-0.00013233698581826503,-7.374047307545587e-05,5.1333,2.4
2.16796875,1.4154296038757934e-05,-5.616438180819409e-05,-9.717049050583657e-05,-7.031971915617609e-05,5.1333,2.4
2.171875,1.1220176568245989e-05,-4.053482833600365e-05,-7.520037642175936e-05,-7.177962250247958e-05,5.1333,2.4
2.17578125,1.5614199385061426e-05,-4.053482833600365e-05,-6.885981580987258e-05,-7.27672041779202e-05,5.1333,2.4
2.1796875,-1.0413092240639797e-09,-2.9299297680628667e-05,-6.689896523689632e-05,-6.885981580987258e-05,5.1333,2.4
2.18359375,-1.417069143511101e-05,-1.6603863678950176e-05,-4.883623952086671e-05,-6.592569633936063e-05,5.1333,2.4
2.1875,-1.6603863678950176e-05,-2.6379490988021656e-05,-2.6379490988021656e-05,-6.787223413443198e-05,5.1333,2.4
2.19140625,-1.3684056986343165e-05,-1.465732588387884e-05,-5.382645801480123e-06,-6.689896523689632e-05,5.1333,2.4
2.1953125,-1.3684056986343165e-05,-2.448526330968178e-06,-5.869280250247954e-06,-6.250494242008087e-05,5.1333,2.4
2.19921875,-1.6603863678950176e-05,1.945496485847258e-06,-1.4752574334325174e-06,-5.3230262337682146e-05,5.1333,2.4
2.203125,-1.514396033264667e-05,9.273638773174638e-06,4.392981507591372e-06,-4.980950841840237e-05,5.1333,2.4
2.20703125,-1.9537983149462106e-05,1.4154296038757934e-05,1.6100833833829256e-05,-5.713765070572975e-05,5.1333,2.4
2.2109375,-9.29003416952773e-06,2.0008222201876862e-05,2.538982669413292e-05,-6.055840462500953e-05,5.1333,2.4
2.21484375,-3.077351380483711e-05,2.049485665064469e-05,1.4154296038757934e-05,-5.1770358991378644e-05,5.1333,2.4
2.21875,-3.516753662165254e-05,1.2694392692454413e-05,8.300369875638977e-06,-5.469016568398565e-05,5.1333,2.4
2.22265625,-2.6379490988021656e-05,1.4154296038757934e-05,4.0031798490882745e-05,-5.274362788891432e-05,5.1333,2.4
2.2265625,-3.662743996795605e-05,3.124375285725185e-05,5.2240598043793396e-05,-4.4928851152819105e-05,5.1333,2.4
2.23046875,-3.808734331425955e-05,3.5151141225299456e-05,5.809452420691235e-05,-4.883623952086671e-05,5.1333,2.4
2.234375,-4.2982313357747766e-05,1.806168440680554e-05,4.735994077821013e-05,-4.834960507209888e-05,5.1333,2.4
2.23828125,-4.004819388723582e-05,1.90349533043412e-05,2.684973004043641e-05,-4.6388754499122593e-05,5.1333,2.4
2.2421875,-4.7862970623331035e-05,2.830963338673993e-05,4.638667188067447e-05,-4.34689478065156e-05,5.1333,2.4
2.24609375,-4.980950841840237e-05,2.879626783550776e-05,5.370050139009691e-05,-4.4928851152819105e-05,5.1333,2.4
2.25,-3.662743996795605e-05,3.563777567406731e-05,4.149170183718624e-05,-4.5415485601586934e-05,5.1333,2.4
2.25390625,-3.174678270237277e-05,3.369123787899596e-05,1.854831885557337e-05,-4.444221670405126e-05,5.1333,2.4
2.2578125,-3.077351380483711e-05,3.124375285725185e-05,1.5127564936293595e-05,-4.102146278477148e-05,5.1333,2.4
2.26171875,-3.126014825360494e-05,2.733636448920424e-05,2.9783849510948355e-05,-3.223341715114061e-05,5.1333,2.4
2.265625,-2.8812663231860837e-05,4.197833628595407e-05,2.2942341672388805e-05,-3.516753662165254e-05,5.1333,2.4
2.26953125,-3.417995494621195e-05,3.9058529593347086e-05,2.049485665064469e-05,-3.711407441672388e-05,5.1333,2.4
2.2734375,-1.7090498127718006e-05,2.1482438326085313e-05,1.854831885557337e-05,-3.565417107042038e-05,5.1333,2.4
2.27734375,-2.002461759822995e-05,2.2942341672388805e-05,2.684973004043641e-05,-3.907492498970015e-05,5.1333,2.4
2.28125,-4.7376336174563205e-05,2.4402245018692297e-05,3.0270483959716188e-05,-3.956155943846799e-05,5.1333,2.4
2.28515625,-4.9322873969634544e-05,1.757504995803771e-05,9.76027322194247e-06,-3.760070886549171e-05,5.1333,2.4
2.2890625,-4.7376336174563205e-05,1.4154296038757934e-05,1.9521587753109032e-05,-3.223341715114061e-05,5.1333,2.4
2.29296875,-4.6388754499122593e-05,2.2942341672388805e-05,3.661104457160297e-05,-3.0286879356069275e-05,5.1333,2.4
2.296875,-4.6388754499122593e-05,1.6100833833829256e-05,1.6100833833829256e-05,-2.5892856539253826e-05,5.1333,2.4
2.30078125,-4.2982313357747766e-05,4.392981507591372e-06,4.392981507591372e-06,-2.783939433432516e-05,5.1333,2.4
2.3046875,-3.3693320497444106e-05,-9.88622984664687e-07,1.0246907670710328e-05,-3.468090217288471e-05,5.1333,2.4
2.30859375,-4.248136613107499e-05,1.4588620370794273e-06,2.0995803877317483e-05,-2.783939433432516e-05,5.1333,2.4
2.3125,-4.687538894789044e-05,1.806168440680554e-05,3.270365620355537e-05,-2.4905274863813218e-05,5.1333,2.4
2.31640625,-3.760070886549171e-05,1.6587468282597085e-05,2.733636448920424e-05,-2.5892856539253826e-05,5.1333,2.4
2.3203125,-4.5902120050354764e-05,7.312788200198383e-06,3.5151141225299456e-05,-2.5892856539253826e-05,5.1333,2.4
2.32421875,-4.2982313357747766e-05,8.300369875638977e-06,4.4912455756466014e-05,-2.783939433432516e-05,5.1333,2.4
2.328125,-3.3206686048676276e-05,-1.0413092240639797e-09,3.075711840848402e-05,-3.077351380483711e-05,5.1333,2.4
2.33203125,-4.102146278477148e-05,-2.448526330968178e-06,3.270365620355537e-05,-2.9785932129396497e-05,5.1333,2.4
2.3359375,-4.248136613107499e-05,-6.355914699015784e-06,2.7822998937972074e-05,-3.077351380483711e-05,5.1333,2.4
2.33984375,-3.907492498970015e-05,-4.3950641260395e-06,2.2942341672388805e-05,-3.126014825360494e-05,5.1333,2.4
2.34375,-3.907492498970015e-05,-2.448526330968178e-06,2.4402245018692297e-05,-3.3206686048676276e-05,5.1333,2.4
2.34765625,-3.3206686048676276e-05,-1.759144535439077e-05,3.124375285725185e-05,-3.516753662165254e-05,5.1333,2.4
2.3515625,-3.077351380483711e-05,-2.3445371517509726e-05,4.247928351262686e-05,-3.077351380483711e-05,5.1333,2.4
2.35546875,-4.834960507209888e-05,-4.3950641260395e-06,2.879626783550776e-05,-2.5892856539253826e-05,5.1333,2.4
2.359375,-4.5415485601586934e-05,1.2694392692454413e-05,3.4053998321507776e-06,-3.223341715114061e-05,5.1333,2.4
2.36328125,-3.077351380483711e-05,1.1220176568245989e-05,7.312788200198383e-06,-3.662743996795605e-05,5.1333,2.4
2.3671875,-3.223341715114061e-05,4.879615956359203e-06,3.124375285725185e-05,-3.126014825360494e-05,5.1333,2.4
2.37109375,-3.417995494621195e-05,-9.88622984664687e-07,4.930647857328145e-05,-2.5892856539253826e-05,5.1333,2.4
2.375,-2.8812663231860837e-05,-1.1236571964599065e-05,3.563777567406731e-05,-2.9299297680628667e-05,5.1333,2.4
2.37890625,-2.0511252046997782e-05,-1.3684056986343165e-05,1.1706811017013818e-05,-3.565417107042038e-05,5.1333,2.4
2.3828125,-3.174678270237277e-05,-9.776668618295559e-06,1.4154296038757934e-05,-3.516753662165254e-05,5.1333,2.4
2.38671875,-3.468090217288471e-05,-1.026330306706339e-05,1.854831885557337e-05,-3.614080551918822e-05,5.1333,2.4
2.390625,-2.9785932129396497e-05,-5.382645801480123e-06,-3.908429677271669e-06,-3.711407441672388e-05,5.1333,2.4
2.39453125,-3.3693320497444106e-05,-1.9537983149462106e-05,-1.6603863678950176e-05,-3.565417107042038e-05,5.1333,2.4
2.3984375,-3.3206686048676276e-05,-2.7352759885557332e-05,-1.7090498127718006e-05,-2.8326028783092994e-05,5.1333,2.4
2.40234375,-3.126014825360494e-05,-1.9051348700694277e-05,-1.3197422537575334e-05,-2.8326028783092994e-05,5.1333,2.4
2.40625,-3.077351380483711e-05,-1.8078079803158614e-05,-9.88622984664687e-07,-3.3693320497444106e-05,5.1333,2.4
2.41015625,-3.760070886549171e-05,-1.6117229230182347e-05,1.3181027141222244e-05,-2.198546817120622e-05,5.1333,2.4
2.4140625,-2.9299297680628667e-05,-2.7352759885557332e-05,1.6587468282597085e-05,-2.5892856539253826e-05,5.1333,2.4
2.41796875,-1.1723206413366896e-05,-2.148452094453344e-05,-5.382645801480123e-06,-3.0286879356069275e-05,5.1333,2.4
2.421875,-2.783939433432516e-05,-7.329183596551459e-06,-5.382645801480123e-06,-1.9051348700694277e-05,5.1333,2.4
2.42578125,-3.565417107042038e-05,-1.1236571964599065e-05,2.918765383382919e-06,-2.4905274863813218e-05,5.1333,2.4
2.4296875,-2.002461759822995e-05,-1.8564714251926447e-05,-1.417069143511101e-05,-3.417995494621195e-05,5.1333,2.4
2.43359375,-2.4905274863813218e-05,-1.9051348700694277e-05,-1.026330306706339e-05,-3.907492498970015e-05,5.1333,2.4
2.4375,-3.662743996795605e-05,-2.198546817120622e-05,-6.8425491477836145e-06,-3.468090217288471e-05,5.1333,2.4
2.44140625,-3.417995494621195e-05,-3.077351380483711e-05,-1.3684056986343165e-05,-3.272005159990844e-05,5.1333,2.4
2.4453125,-3.3206686048676276e-05,-2.6379490988021656e-05,-6.8425491477836145e-06,-3.3693320497444106e-05,5.1333,2.4
2.44921875,-2.0997886495765612e-05,-2.0997886495765612e-05,-1.3684056986343165e-05,-3.907492498970015e-05,5.1333,2.4
2.453125,-2.8812663231860837e-05,-2.148452094453344e-05,-1.6603863678950176e-05,-3.760070886549171e-05,5.1333,2.4
2.45703125,-3.907492498970015e-05,-2.5892856539253826e-05,-2.4418640415045388e-05,-4.102146278477148e-05,5.1333,2.4
2.4609375,-3.077351380483711e-05,-3.565417107042038e-05,-3.417995494621195e-05,-4.444221670405126e-05,5.1333,2.4
2.46484375,-3.3206686048676276e-05,-2.7352759885557332e-05,-2.148452094453344e-05,-4.004819388723582e-05,5.1333,2.4
2.46875,-2.4905274863813218e-05,-1.9537983149462106e-05,-2.4905274863813218e-05,-4.4928851152819105e-05,5.1333,2.4
2.47265625,-2.0997886495765612e-05,-2.8812663231860837e-05,-2.7352759885557332e-05,-4.053482833600365e-05,5.1333,2.4
2.4765625,-2.4418640415045388e-05,-3.711407441672388e-05,-4.5902120050354764e-05,-4.102146278477148e-05,5.1333,2.4
2.48046875,-2.3445371517509726e-05,-3.077351380483711e-05,-6.689896523689632e-05,-4.395558225528343e-05,5.1333,2.4
2.484375,-3.223341715114061e-05,-2.7352759885557332e-05,-4.248136613107499e-05,-3.808734331425955e-05,5.1333,2.4
2.48828125,-2.6866125436789502e-05,-4.102146278477148e-05,-2.6379490988021656e-05,-4.199473168230716e-05,5.1333,2.4
2.4921875,-2.5892856539253826e-05,-4.150809723353933e-05,-4.2982313357747766e-05,-4.150809723353933e-05,5.1333,2.4
2.49609375,-3.126014825360494e-05,-2.5892856539253826e-05,-5.420353123521782e-05,-3.468090217288471e-05,5.1333,2.4
2.5,-3.0286879356069275e-05,-3.3693320497444106e-05,-4.980950841840237e-05,-3.516753662165254e-05,5.1333,2.4
2.50390625,-3.0286879356069275e-05,-4.248136613107499e-05,-2.6866125436789502e-05,-3.516753662165254e-05,5.1333,2.4
2.5078125,-2.5892856539253826e-05,-3.468090217288471e-05,-9.88622984664687e-07,-3.077351380483711e-05,5.1333,2.4
2.51171875,-2.9299297680628667e-05,-4.248136613107499e-05,-6.355914699015784e-06,-2.9299297680628667e-05,5.1333,2.4
2.515625,-3.272005159990844e-05,-3.808734331425955e-05,2.918765383382919e-06,-2.6866125436789502e-05,5.1333,2.4
2.51953125,-2.7352759885557332e-05,-3.174678270237277e-05,1.3181027141222244e-05,-2.2958737068741883e-05,5.1333,2.4
2.5234375,-2.5892856539253826e-05,-4.199473168230716e-05,-6.355914699015784e-06,-2.4905274863813218e-05,5.1333,2.4
2.52734375,-1.9537983149462106e-05,-5.0296142867170216e-05,-1.9537983149462106e-05,-2.8812663231860837e-05,5.1333,2.4
2.53125,-3.565417107042038e-05,-4.2982313357747766e-05,-5.382645801480123e-06,-2.9299297680628667e-05,5.1333,2.4
2.53515625,-3.760070886549171e-05,-4.004819388723582e-05,-9.776668618295559e-06,-2.9299297680628667e-05,5.1333,2.4
2.5390625,-2.2958737068741883e-05,-4.687538894789044e-05,-2.6379490988021656e-05,-2.4905274863813218e-05,5.1333,2.4
2.54296875,-2.6866125436789502e-05,-3.223341715114061e-05,4.879615956359203e-06,-2.3932005966277555e-05,5.1333,2.4
2.546875,-3.174678270237277e-05,-2.148452094453344e-05,2.5876461142900752e-05,-2.247210261997405e-05,5.1333,2.4
2.55078125,-2.0511252046997782e-05,-2.5892856539253826e-05,1.3181027141222244e-05,-2.5892856539253826e-05,5.1333,2.4
2.5546875,-8.78908694285495e-06,-2.0997886495765612e-05,-1.417069143511101e-05,-3.077351380483711e-05,5.1333,2.4
2.55859375,-1.465732588387884e-05,-2.5892856539253826e-05,-3.956155943846799e-05,-2.3932005966277555e-05,5.1333,2.4
2.5625,-4.3950641260395e-06,-2.3932005966277555e-05,-1.417069143511101e-05,-1.759144535439077e-05,5.1333,2.4
2.56640625,-3.421795228503839e-06,-3.565417107042038e-05,-1.514396033264667e-05,-2.198546817120622e-05,5.1333,2.4
2.5703125,-7.329183596551459e-06,-4.150809723353933e-05,-3.468090217288471e-05,-1.8564714251926447e-05,5.1333,2.4
2.57421875,-1.465732588387884e-05,-6.055840462500953e-05,-4.150809723353933e-05,-1.6117229230182347e-05,5.1333,2.4
2.578125,-1.8564714251926447e-05,-6.641233078812848e-05,-4.6388754499122593e-05,-1.8078079803158614e-05,5.1333,2.4
2.58203125,6.826153751430552e-06,-7.325383862668803e-05,-5.567774735942626e-05,-9.776668618295559e-06,5.1333,2.4
2.5859375,1.945496485847258e-06,-0.00010205114777141985,-7.862113034103913e-05,-1.1236571964599065e-05,5.1333,2.4
2.58984375,-1.1236571964599065e-05,-0.000112800043978027,-9.473731826199742e-05,-5.869280250247954e-06,5.1333,2.4
2.59375,5.366250405127033e-06,-0.00013623006140840773,-0.00010986592450751506,-7.81581804531929e-06,5.1333,2.4
2.59765625,6.826153751430552e-06,-0.0001591734443900206,-0.0001230479929579614,-2.9351607797360085e-06,5.1333,2.4
2.6015625,4.855931395437665e-07,-0.00018699748463721675,-0.00014696464483710995,2.918765383382919e-06,5.1333,2.4
2.60546875,1.757504995803771e-05,-0.00017674953565728236,-0.00014451715981536581,1.1220176568245989e-05,5.1333,2.4
2.609375,2.4888879467460157e-05,-0.00018602421573968108,-0.00016893475892118716,1.854831885557337e-05,5.1333,2.4
2.61328125,1.0246907670710328e-05,-0.0002216773455008774,-0.0001977463808438239,1.6587468282597085e-05,5.1333,2.4
2.6171875,1.4640930487525764e-05,-0.0002177699571328298,-0.00017381541618677045,2.1482438326085313e-05,5.1333,2.4
2.62109375,2.5876461142900752e-05,-0.00021580910655985352,-0.0001567259593682765,1.757504995803771e-05,5.1333,2.4
2.625,2.0995803877317483e-05,-0.00022265061439841305,-0.00015966007883878844,1.5614199385061426e-05,5.1333,2.4
2.62890625,1.9521587753109032e-05,-0.00022411051774471656,-0.00018798506631265735,1.757504995803771e-05,5.1333,2.4
2.6328125,2.049485665064469e-05,-0.00020799432982375829,-0.00018017028957656214,1.0733542119478158e-05,5.1333,2.4
2.63671875,1.3667661589990103e-05,-0.00020214040366063938,-0.0001757762667597467,6.826153751430552e-06,5.1333,2.4
2.640625,1.1706811017013818e-05,-0.00020946854594796672,-0.00018310440904707409,7.799422648966214e-06,5.1333,2.4
2.64453125,1.3181027141222244e-05,-0.00021044181484550242,-0.00017381541618677045,6.339519302662694e-06,5.1333,2.4
2.6484375,1.1220176568245989e-05,-0.00020458788868238346,-0.00016063334773632412,2.4321309346150884e-06,5.1333,2.4
2.65234375,5.8528848538948635e-06,-0.00019041823855649653,-0.0001142599473243305,5.366250405127033e-06,5.1333,2.4
2.65625,-1.9618918822003476e-06,-0.0001757762667597467,-0.00010059124442511634,8.300369875638977e-06,5.1333,2.4
2.66015625,-8.30245249408712e-06,-0.00016650158667734798,-0.00012500884353093767,-1.4752574334325174e-06,5.1333,2.4
2.6640625,-1.417069143511101e-05,-0.00014745127928587776,-0.00011377331287556268,-1.2209840862134725e-05,5.1333,2.4
2.66796875,-1.8564714251926447e-05,-0.00012842959745021745,-7.764786144350347e-05,-1.3197422537575334e-05,5.1333,2.4
2.671875,-2.198546817120622e-05,-0.00011182677508049133,-6.347821131761654e-05,-1.1723206413366896e-05,5.1333,2.4
2.67578125,-2.783939433432516e-05,-9.522395271076524e-05,-6.837318136110475e-05,-1.8564714251926447e-05,5.1333,2.4
2.6796875,-2.8812663231860837e-05,-9.034329544518196e-05,-5.957082294956893e-05,-2.783939433432516e-05,5.1333,2.4
2.68359375,-3.174678270237277e-05,-7.520037642175936e-05,-4.2982313357747766e-05,-3.417995494621195e-05,5.1333,2.4
2.6875,-3.662743996795605e-05,-6.29915768688487e-05,-2.0997886495765612e-05,-4.053482833600365e-05,5.1333,2.4
2.69140625,-3.662743996795605e-05,-5.225699344014649e-05,-4.3950641260395e-06,-4.199473168230716e-05,5.1333,2.4
2.6953125,-4.053482833600365e-05,-3.516753662165254e-05,4.855931395437665e-07,-4.444221670405126e-05,5.1333,2.4
2.69921875,-4.444221670405126e-05,-2.539190931258106e-05,1.4154296038757934e-05,-5.225699344014649e-05,5.1333,2.4
2.703125,-4.883623952086671e-05,-2.6866125436789502e-05,2.1482438326085313e-05,-5.5176800132753485e-05,5.1333,2.4
2.70703125,-5.5176800132753485e-05,-1.56305947814145e-05,4.100506738841841e-05,-5.76242851544976e-05,5.1333,2.4
2.7109375,-5.420353123521782e-05,4.392981507591372e-06,7.078995820859083e-05,-5.616438180819409e-05,5.1333,2.4
2.71484375,-5.128372454261081e-05,8.300369875638977e-06,7.226417433279928e-05,-5.1770358991378644e-05,5.1333,2.4
2.71875,-5.908418850080109e-05,1.0246907670710328e-05,5.2240598043793396e-05,-5.274362788891432e-05,5.1333,2.4
2.72265625,-6.787223413443198e-05,1.806168440680554e-05,5.467377028763258e-05,-5.3230262337682146e-05,5.1333,2.4
2.7265625,-6.543906189059281e-05,3.270365620355537e-05,8.006463829098956e-05,-5.1770358991378644e-05,5.1333,2.4
2.73046875,-6.495242744182497e-05,3.270365620355537e-05,8.153885441519798e-05,-5.3716896786449976e-05,5.1333,2.4
2.734375,-6.592569633936063e-05,3.270365620355537e-05,7.51839810254063e-05,-5.1770358991378644e-05,5.1333,2.4
2.73828125,-6.689896523689632e-05,3.612441012283514e-05,6.248854702372779e-05,-5.225699344014649e-05,5.1333,2.4
2.7421875,-6.885981580987258e-05,3.417787232776379e-05,6.835678596475168e-05,-5.5176800132753485e-05,5.1333,2.4
2.74609375,-6.837318136110475e-05,4.3452552410162525e-05,8.593287723201345e-05,-5.420353123521782e-05,5.1333,2.4
2.75,-6.495242744182497e-05,4.197833628595407e-05,7.51839810254063e-05,-5.274362788891432e-05,5.1333,2.4
2.75390625,-6.055840462500953e-05,3.857189514457923e-05,6.542266649423973e-05,-5.469016568398565e-05,5.1333,2.4
2.7578125,-6.104503907377737e-05,3.80852606958114e-05,5.6147986411841e-05,-5.616438180819409e-05,5.1333,2.4
2.76171875,-6.29915768688487e-05,3.270365620355537e-05,5.1753963595025567e-05,-4.687538894789044e-05,5.1333,2.4
2.765625,-6.592569633936063e-05,3.31902906523232e-05,3.758431346913863e-05,-4.5415485601586934e-05,5.1333,2.4
2.76953125,-6.543906189059281e-05,3.80852606958114e-05,4.68733063294423e-05,-5.469016568398565e-05,5.1333,2.4
2.7734375,-5.957082294956893e-05,4.3939186858930354e-05,6.396276314793624e-05,-4.980950841840237e-05,5.1333,2.4
2.77734375,-5.5176800132753485e-05,5.078069469748991e-05,7.811810049591821e-05,-4.5902120050354764e-05,5.1333,2.4
2.78125,-5.0296142867170216e-05,5.027974747081714e-05,6.347612869916839e-05,-4.687538894789044e-05,5.1333,2.4
2.78515625,-5.420353123521782e-05,3.80852606958114e-05,4.3939186858930354e-05,-4.687538894789044e-05,5.1333,2.4
2.7890625,-6.495242744182497e-05,3.466450677653162e-05,6.49360320454719e-05,-4.687538894789044e-05,5.1333,2.4
2.79296875,-5.665101625696192e-05,3.80852606958114e-05,5.956874033112078e-05,-4.395558225528343e-05,5.1333,2.4
2.796875,-4.6388754499122593e-05,3.661104457160297e-05,4.3452552410162525e-05,-3.956155943846799e-05,5.1333,2.4
2.80078125,-5.1770358991378644e-05,3.417787232776379e-05,4.3939186858930354e-05,-4.150809723353933e-05,5.1333,2.4
2.8046875,-5.274362788891432e-05,2.9282902284275593e-05,4.149170183718624e-05,-4.248136613107499e-05,5.1333,2.4
2.80859375,-4.5902120050354764e-05,3.466450677653162e-05,4.539909020523384e-05,-3.956155943846799e-05,5.1333,2.4
2.8125,-4.834960507209888e-05,3.221702175478754e-05,4.149170183718624e-05,-4.34689478065156e-05,5.1333,2.4
2.81640625,-5.3716896786449976e-05,2.4402245018692297e-05,3.466450677653162e-05,-5.128372454261081e-05,5.1333,2.4
2.8203125,-5.3716896786449976e-05,1.90349533043412e-05,1.1706811017013818e-05,-4.980950841840237e-05,5.1333,2.4
2.82421875,-4.9322873969634544e-05,1.5614199385061426e-05,9.76027322194247e-06,-4.395558225528343e-05,5.1333,2.4
2.828125,-5.0782777315938046e-05,2.3428976121156635e-05,3.31902906523232e-05,-4.834960507209888e-05,5.1333,2.4
2.83203125,-5.5176800132753485e-05,2.0008222201876862e-05,2.830963338673993e-05,-4.9322873969634544e-05,5.1333,2.4
2.8359375,-5.274362788891432e-05,1.1706811017013818e-05,9.76027322194247e-06,-4.834960507209888e-05,5.1333,2.4
2.83984375,-4.4928851152819105e-05,1.0733542119478158e-05,5.8528848538948635e-06,-4.7862970623331035e-05,5.1333,2.4
2.84375,-5.0296142867170216e-05,1.6587468282597085e-05,2.1969072774853146e-05,-4.6388754499122593e-05,5.1333,2.4
2.84765625,-5.274362788891432e-05,2.1969072774853146e-05,4.784657522697796e-05,-4.395558225528343e-05,5.1333,2.4
2.8515625,-4.150809723353933e-05,1.854831885557337e-05,6.639593539177539e-05,-3.614080551918822e-05,5.1333,2.4
2.85546875,-3.956155943846799e-05,2.684973004043641e-05,4.4425821307698184e-05,-3.174678270237277e-05,5.1333,2.4
2.859375,-3.858829054093232e-05,2.7822998937972074e-05,1.854831885557337e-05,-3.858829054093232e-05,5.1333,2.4
2.86328125,-3.565417107042038e-05,2.2455707223620976e-05,2.684973004043641e-05,-3.468090217288471e-05,5.1333,2.4
2.8671875,-3.858829054093232e-05,1.4154296038757934e-05,3.466450677653162e-05,-3.174678270237277e-05,5.1333,2.4
2.87109375,-4.053482833600365e-05,9.76027322194247e-06,4.051843293965058e-05,-3.760070886549171e-05,5.1333,2.4
2.875,-4.4928851152819105e-05,1.219344546578165e-05,2.830963338673993e-05,-3.3206686048676276e-05,5.1333,2.4
2.87890625,-3.858829054093232e-05,6.826153751430552e-06,4.392981507591372e-06,-3.126014825360494e-05,5.1333,2.4
2.8828125,-3.174678270237277e-05,3.892034280918608e-06,5.8528848538948635e-06,-3.174678270237277e-05,5.1333,2.4
2.88671875,-3.516753662165254e-05,5.366250405127033e-06,1.806168440680554e-05,-2.8326028783092994e-05,5.1333,2.4
2.890625,-3.223341715114061e-05,4.392981507591372e-06,3.1730387306019703e-05,-2.6866125436789502e-05,5.1333,2.4
2.89453125,-3.272005159990844e-05,-4.896011352712293e-06,3.0270483959716188e-05,-2.7352759885557332e-05,5.1333,2.4
2.8984375,-3.223341715114061e-05,-2.9351607797360085e-06,1.90349533043412e-05,-2.7352759885557332e-05,5.1333,2.4
2.90234375,-3.077351380483711e-05,7.312788200198383e-06,2.1969072774853146e-05,-2.6866125436789502e-05,5.1333,2.4
2.90625,-3.126014825360494e-05,2.918765383382919e-06,2.733636448920424e-05,-2.539190931258106e-05,5.1333,2.4
2.91015625,-2.9299297680628667e-05,4.855931395437665e-07,3.5151141225299456e-05,-2.198546817120622e-05,5.1333,2.4
2.9140625,-3.0286879356069275e-05,2.918765383382919e-06,4.638667188067447e-05,-2.2958737068741883e-05,5.1333,2.4
2.91796875,-2.9299297680628667e-05,1.4588620370794273e-06,5.2727232492561226e-05,-2.6379490988021656e-05,5.1333,2.4
2.921875,-2.6379490988021656e-05,9.722275883115968e-07,6.0542009228656465e-05,-3.223341715114061e-05,5.1333,2.4
2.92578125,-2.247210261997405e-05,1.4588620370794273e-06,6.49360320454719e-05,-3.3206686048676276e-05,5.1333,2.4
2.9296875,-2.002461759822995e-05,1.4588620370794273e-06,6.590930094300756e-05,-2.9785932129396497e-05,5.1333,2.4
2.93359375,-2.0997886495765612e-05,1.4588620370794273e-06,7.0303323759823e-05,-2.9785932129396497e-05,5.1333,2.4
2.9375,-3.0286879356069275e-05,-9.776668618295559e-06,5.956874033112078e-05,-3.711407441672388e-05,5.1333,2.4
2.94140625,-3.565417107042038e-05,-1.6117229230182347e-05,4.100506738841841e-05,-3.760070886549171e-05,5.1333,2.4
2.9453125,-3.417995494621195e-05,-1.465732588387884e-05,4.979311302204931e-05,-3.711407441672388e-05,5.1333,2.4
2.94921875,-3.3693320497444106e-05,-2.002461759822995e-05,5.467377028763258e-05,-4.004819388723582e-05,5.1333,2.4
2.953125,-3.565417107042038e-05,-2.0997886495765612e-05,6.005537477988861e-05,-3.614080551918822e-05,5.1333,2.4
2.95703125,-3.516753662165254e-05,-1.269647531090257e-05,6.151527812619213e-05,-3.565417107042038e-05,5.1333,2.4
2.9609375,-3.077351380483711e-05,-2.0997886495765612e-05,2.9282902284275593e-05,-4.150809723353933e-05,5.1333,2.4
2.96484375,-3.3693320497444106e-05,-2.3445371517509726e-05,3.0270483959716188e-05,-3.614080551918822e-05,5.1333,2.4
2.96875,-3.126014825360494e-05,-2.0511252046997782e-05,3.31902906523232e-05,-3.0286879356069275e-05,5.1333,2.4
2.97265625,-2.8812663231860837e-05,-2.148452094453344e-05,3.075711840848402e-05,-3.077351380483711e-05,5.1333,2.4
2.9765625,-3.223341715114061e-05,-1.8078079803158614e-05,3.612441012283514e-05,-3.614080551918822e-05,5.1333,2.4
2.98046875,-3.760070886549171e-05,-2.002461759822995e-05,3.466450677653162e-05,-3.907492498970015e-05,5.1333,2.4
2.984375,-3.126014825360494e-05,-2.2958737068741883e-05,4.881984412451362e-05,-3.760070886549171e-05,5.1333,2.4
2.98828125,-2.4418640415045388e-05,-1.6603863678950176e-05,6.736920428931105e-05,-2.6379490988021656e-05,5.1333,2.4
2.9921875,-2.3932005966277555e-05,-1.514396033264667e-05,6.884342041351951e-05,-2.783939433432516e-05,5.1333,2.4
2.99609375,-3.126014825360494e-05,-1.7090498127718006e-05,7.51839810254063e-05,-2.8326028783092994e-05,5.1333,2.4
3.0,-3.565417107042038e-05,-3.421795228503839e-06,8.83660494758526e-05,-2.247210261997405e-05,5.1333,2.4
3.00390625,-2.247210261997405e-05,-5.019885358968282e-07,7.90913693934539e-05,-3.565417107042038e-05,5.1333,2.4
3.0078125,-1.1723206413366896e-05,-5.869280250247954e-06,8.251212331273368e-05,-3.417995494621195e-05,5.1333,2.4
3.01171875,-1.0749937515831235e-05,-1.1236571964599065e-05,9.032690004882889e-05,-3.3206686048676276e-05,5.1333,2.4
3.015625,-5.382645801480123e-06,-1.6117229230182347e-05,5.6147986411841e-05,-4.444221670405126e-05,5.1333,2.4
3.01953125,-4.3950641260395e-06,-2.4905274863813218e-05,8.787004324406809e-06,-4.34689478065156e-05,5.1333,2.4
3.0234375,-2.448526330968178e-06,-2.5892856539253826e-05,-9.776668618295559e-06,-5.0296142867170216e-05,5.1333,2.4
3.02734375,1.0246907670710328e-05,-2.247210261997405e-05,1.6100833833829256e-05,-4.834960507209888e-05,5.1333,2.4
3.03125,1.5127564936293595e-05,-2.4418640415045388e-05,4.930647857328145e-05,-3.907492498970015e-05,5.1333,2.4
3.03515625,1.854831885557337e-05,-1.9051348700694277e-05,5.418713583886475e-05,-4.053482833600365e-05,5.1333,2.4
3.0390625,2.5876461142900752e-05,-2.0511252046997782e-05,4.539909020523384e-05,-3.565417107042038e-05,5.1333,2.4
3.04296875,2.4402245018692297e-05,-2.4418640415045388e-05,4.833320967574579e-05,-3.956155943846799e-05,5.1333,2.4
3.046875,3.124375285725185e-05,-1.8564714251926447e-05,4.735994077821013e-05,-4.395558225528343e-05,5.1333,2.4
3.05078125,2.830963338673993e-05,-2.0511252046997782e-05,4.4912455756466014e-05,-4.395558225528343e-05,5.1333,2.4
3.0546875,3.0270483959716188e-05,-2.247210261997405e-05,4.247928351262686e-05,-5.0296142867170216e-05,5.1333,2.4
3.05859375,2.9282902284275593e-05,-1.6603863678950176e-05,3.417787232776379e-05,-4.883623952086671e-05,5.1333,2.4
3.0625,2.4888879467460157e-05,-1.0749937515831235e-05,3.9058529593347086e-05,-4.248136613107499e-05,5.1333,2.4
3.06640625,2.1482438326085313e-05,-1.1236571964599065e-05,5.467377028763258e-05,-3.808734331425955e-05,5.1333,2.4
3.0703125,1.4640930487525764e-05,-1.417069143511101e-05,6.444939759670407e-05,-3.956155943846799e-05,5.1333,2.4
3.07421875,9.273638773174638e-06,-1.1723206413366896e-05,6.396276314793624e-05,-4.150809723353933e-05,5.1333,2.4
3.078125,1.806168440680554e-05,-1.269647531090257e-05,4.833320967574579e-05,-4.2982313357747766e-05,5.1333,2.4
3.08203125,1.6587468282597085e-05,-1.026330306706339e-05,3.5151141225299456e-05,-4.004819388723582e-05,5.1333,2.4
3.0859375,-9.88622984664687e-07,-1.2209840862134725e-05,3.221702175478754e-05,-4.053482833600365e-05,5.1333,2.4
3.08984375,-3.421795228503839e-06,-1.8078079803158614e-05,2.3428976121156635e-05,-4.150809723353933e-05,5.1333,2.4
3.09375,-1.1723206413366896e-05,-2.2958737068741883e-05,8.787004324406809e-06,-3.711407441672388e-05,5.1333,2.4
3.09765625,-2.002461759822995e-05,-2.002461759822995e-05,4.855931395437665e-07,-3.614080551918822e-05,5.1333,2.4
3.1015625,-1.465732588387884e-05,-2.3932005966277555e-05,-5.869280250247954e-06,-3.417995494621195e-05,5.1333,2.4
3.10546875,-1.3197422537575334e-05,-2.783939433432516e-05,2.4321309346150884e-06,-3.3206686048676276e-05,5.1333,2.4
3.109375,-1.1723206413366896e-05,-2.4905274863813218e-05,9.722275883115968e-07,-3.956155943846799e-05,5.1333,2.4
3.11328125,-8.78908694285495e-06,-2.8812663231860837e-05,-2.0997886495765612e-05,-4.102146278477148e-05,5.1333,2.4
3.1171875,-1.56305947814145e-05,-2.4905274863813218e-05,-3.272005159990844e-05,-4.053482833600365e-05,5.1333,2.4
3.12109375,-1.269647531090257e-05,-1.1236571964599065e-05,-3.858829054093232e-05,-3.760070886549171e-05,5.1333,2.4
3.125,-6.355914699015784e-06,-9.776668618295559e-06,-3.614080551918822e-05,-3.662743996795605e-05,5.1333,2.4
3.12890625,-1.269647531090257e-05,-1.465732588387884e-05,-3.126014825360494e-05,-3.907492498970015e-05,5.1333,2.4
3.1328125,-1.6117229230182347e-05,-1.0749937515831235e-05,-2.6379490988021656e-05,-3.858829054093232e-05,5.1333,2.4
3.13671875,-1.417069143511101e-05,-6.8425491477836145e-06,-3.0286879356069275e-05,-3.3206686048676276e-05,5.1333,2.4
3.140625,-1.1236571964599065e-05,-5.382645801480123e-06,-3.516753662165254e-05,-2.6379490988021656e-05,5.1333,2.4
3.14453125,-1.0749937515831235e-05,-5.869280250247954e-06,-1.3684056986343165e-05,-2.8326028783092994e-05,5.1333,2.4
3.1484375,-1.417069143511101e-05,-8.78908694285495e-06,-1.514396033264667e-05,-3.174678270237277e-05,5.1333,2.4
3.15234375,-1.514396033264667e-05,-1.514396033264667e-05,-3.3206686048676276e-05,-3.3206686048676276e-05,5.1333,2.4
3.15625,-2.4418640415045388e-05,-2.4418640415045388e-05,-3.223341715114061e-05,-3.468090217288471e-05,5.1333,2.4
3.16015625,-3.417995494621195e-05,-2.0511252046997782e-05,-2.247210261997405e-05,-3.272005159990844e-05,5.1333,2.4
3.1640625,-3.516753662165254e-05,-1.9537983149462106e-05,-1.269647531090257e-05,-3.417995494621195e-05,5.1333,2.4
3.16796875,-3.126014825360494e-05,-2.4905274863813218e-05,-3.421795228503839e-06,-3.3206686048676276e-05,5.1333,2.4
3.171875,-3.0286879356069275e-05,-3.077351380483711e-05,-3.908429677271669e-06,-2.8326028783092994e-05,5.1333,2.4
3.17578125,-2.8812663231860837e-05,-2.3932005966277555e-05,-6.8425491477836145e-06,-2.9785932129396497e-05,5.1333,2.4
3.1796875,-2.247210261997405e-05,-1.8564714251926447e-05,-3.908429677271669e-06,-3.126014825360494e-05,5.1333,2.4
3.18359375,-2.198546817120622e-05,-1.56305947814145e-05,1.4588620370794273e-06,-2.8812663231860837e-05,5.1333,2.4
3.1875,-2.4905274863813218e-05,-1.514396033264667e-05,1.4154296038757934e-05,-2.7352759885557332e-05,5.1333,2.4
3.19140625,-2.198546817120622e-05,-1.9051348700694277e-05,1.5127564936293595e-05,-2.6379490988021656e-05,5.1333,2.4
3.1953125,-2.002461759822995e-05,-2.148452094453344e-05,2.4888879467460157e-05,-2.5892856539253826e-05,5.1333,2.4
3.19921875,-2.148452094453344e-05,-1.465732588387884e-05,3.612441012283514e-05,-3.174678270237277e-05,5.1333,2.4
3.203125,-2.3932005966277555e-05,-8.78908694285495e-06,3.661104457160297e-05,-2.9785932129396497e-05,5.1333,2.4
3.20703125,-3.0286879356069275e-05,-1.514396033264667e-05,2.3428976121156635e-05,-3.174678270237277e-05,5.1333,2.4
3.2109375,-2.6866125436789502e-05,-1.8078079803158614e-05,3.892034280918608e-06,-3.760070886549171e-05,5.1333,2.4
3.21484375,-2.0511252046997782e-05,-1.9051348700694277e-05,-1.1236571964599065e-05,-3.956155943846799e-05,5.1333,2.4
3.21875,-2.0997886495765612e-05,-2.5892856539253826e-05,-1.026330306706339e-05,-4.248136613107499e-05,5.1333,2.4
3.22265625,-2.539190931258106e-05,-3.077351380483711e-05,-1.3684056986343165e-05,-4.5415485601586934e-05,5.1333,2.4
3.2265625,-2.9299297680628667e-05,-2.9785932129396497e-05,-2.4905274863813218e-05,-4.444221670405126e-05,5.1333,2.4
3.23046875,-2.539190931258106e-05,-2.8812663231860837e-05,-1.514396033264667e-05,-3.662743996795605e-05,5.1333,2.4
3.234375,-3.0286879356069275e-05,-2.783939433432516e-05,-1.3197422537575334e-05,-3.174678270237277e-05,5.1333,2.4
3.23828125,-3.3693320497444106e-05,-2.6866125436789502e-05,-2.247210261997405e-05,-3.0286879356069275e-05,5.1333,2.4
3.2421875,-2.3932005966277555e-05,-2.0511252046997782e-05,-2.783939433432516e-05,-2.6866125436789502e-05,5.1333,2.4
3.24609375,-2.7352759885557332e-05,-2.198546817120622e-05,-3.077351380483711e-05,-2.8326028783092994e-05,5.1333,2.4
3.25,-3.614080551918822e-05,-2.3932005966277555e-05,-3.711407441672388e-05,-3.126014825360494e-05,5.1333,2.4
3.25390625,-3.126014825360494e-05,-2.7352759885557332e-05,-5.567774735942626e-05,-3.417995494621195e-05,5.1333,2.4
3.2578125,-2.783939433432516e-05,-3.077351380483711e-05,-8.643590707713435e-05,-3.516753662165254e-05,5.1333,2.4
3.26171875,-2.2958737068741883e-05,-3.077351380483711e-05,-7.080635360494392e-05,-3.077351380483711e-05,5.1333,2.4
3.265625,-2.3445371517509726e-05,-3.565417107042038e-05,-4.2982313357747766e-05,-2.6866125436789502e-05,5.1333,2.4
3.26953125,-2.783939433432516e-05,-4.7862970623331035e-05,-3.468090217288471e-05,-2.8812663231860837e-05,5.1333,2.4
3.2734375,-2.6866125436789502e-05,-3.956155943846799e-05,-3.174678270237277e-05,-3.0286879356069275e-05,5.1333,2.4
3.27734375,-2.6866125436789502e-05,-1.6603863678950176e-05,-2.6379490988021656e-05,-2.539190931258106e-05,5.1333,2.4
3.28125,-2.148452094453344e-05,-2.539190931258106e-05,-4.053482833600365e-05,-2.4905274863813218e-05,5.1333,2.4
3.28515625,-2.247210261997405e-05,-4.248136613107499e-05,-8.301515315785458e-05,-2.9785932129396497e-05,5.1333,2.4
3.2890625,-2.7352759885557332e-05,-3.956155943846799e-05,-8.789581042343786e-05,-3.3693320497444106e-05,5.1333,2.4
3.29296875,-2.8812663231860837e-05,-3.0286879356069275e-05,-5.225699344014649e-05,-3.272005159990844e-05,5.1333,2.4
3.296875,-3.662743996795605e-05,-3.468090217288471e-05,-3.760070886549171e-05,-3.126014825360494e-05,5.1333,2.4
3.30078125,-3.808734331425955e-05,-4.150809723353933e-05,-4.199473168230716e-05,-3.223341715114061e-05,5.1333,2.4
3.3046875,-3.126014825360494e-05,-4.199473168230716e-05,-3.760070886549171e-05,-3.417995494621195e-05,5.1333,2.4
3.30859375,-2.9299297680628667e-05,-4.2982313357747766e-05,-1.7090498127718006e-05,-3.3206686048676276e-05,5.1333,2.4
3.3125,-3.126014825360494e-05,-3.565417107042038e-05,-9.88622984664687e-07,-2.7352759885557332e-05,5.1333,2.4
3.31640625,-3.126014825360494e-05,-4.102146278477148e-05,-7.81581804531929e-06,-2.7352759885557332e-05,5.1333,2.4
3.3203125,-3.808734331425955e-05,-4.7862970623331035e-05,-2.6379490988021656e-05,-3.223341715114061e-05,5.1333,2.4
3.32421875,-3.614080551918822e-05,-4.248136613107499e-05,-4.883623952086671e-05,-3.3693320497444106e-05,5.1333,2.4
3.328125,-2.9785932129396497e-05,-4.053482833600365e-05,-7.129298805371175e-05,-3.3693320497444106e-05,5.1333,2.4
3.33203125,-2.0997886495765612e-05,-2.8812663231860837e-05,-8.546263817959867e-05,-3.272005159990844e-05,5.1333,2.4
3.3359375,-1.514396033264667e-05,-2.3445371517509726e-05,-9.326310213778895e-05,-3.0286879356069275e-05,5.1333,2.4
3.33984375,-1.6603863678950176e-05,-3.077351380483711e-05,-9.913134107881285e-05,-3.126014825360494e-05,5.1333,2.4
3.34375,-1.759144535439077e-05,-2.783939433432516e-05,-9.76571249546044e-05,-3.0286879356069275e-05,5.1333,2.4
3.34765625,-2.148452094453344e-05,-3.174678270237277e-05,-9.131656434271764e-05,-3.223341715114061e-05,5.1333,2.4
3.3515625,-2.7352759885557332e-05,-3.614080551918822e-05,-0.00010107787887388419,-3.468090217288471e-05,5.1333,2.4
3.35546875,-2.6379490988021656e-05,-2.8812663231860837e-05,-8.789581042343786e-05,-3.3206686048676276e-05,5.1333,2.4
3.359375,-2.6866125436789502e-05,-2.8326028783092994e-05,-6.153167352254521e-05,-3.417995494621195e-05,5.1333,2.4
3.36328125,-2.6866125436789502e-05,-3.077351380483711e-05,-6.495242744182497e-05,-3.223341715114061e-05,5.1333,2.4
3.3671875,-2.7352759885557332e-05,-3.272005159990844e-05,-7.374047307545587e-05,-3.0286879356069275e-05,5.1333,2.4
3.37109375,-3.126014825360494e-05,-3.565417107042038e-05,-7.374047307545587e-05,-3.760070886549171e-05,5.1333,2.4
3.375,-2.9785932129396497e-05,-2.9299297680628667e-05,-8.692254152590218e-05,-4.199473168230716e-05,5.1333,2.4
3.37890625,-2.9299297680628667e-05,-3.126014825360494e-05,-0.00010645948336614022,-3.907492498970015e-05,5.1333,2.4
3.3828125,-2.539190931258106e-05,-3.3206686048676276e-05,-8.740917597467002e-05,-4.102146278477148e-05,5.1333,2.4
3.38671875,-2.0511252046997782e-05,-2.3932005966277555e-05,-5.957082294956893e-05,-3.662743996795605e-05,5.1333,2.4
3.390625,-2.8326028783092994e-05,-2.3932005966277555e-05,-5.957082294956893e-05,-3.0286879356069275e-05,5.1333,2.4
3.39453125,-3.077351380483711e-05,-2.5892856539253826e-05,-4.34689478065156e-05,-2.8326028783092994e-05,5.1333,2.4
3.3984375,-3.077351380483711e-05,-3.126014825360494e-05,-3.0286879356069275e-05,-3.272005159990844e-05,5.1333,2.4
3.40234375,-3.760070886549171e-05,-3.077351380483711e-05,-2.4418640415045388e-05,-2.9299297680628667e-05,5.1333,2.4
3.40625,-3.0286879356069275e-05,-2.198546817120622e-05,-6.983308470740825e-05,-3.0286879356069275e-05,5.1333,2.4
3.41015625,-2.4418640415045388e-05,-1.7090498127718006e-05,-0.00011231340952925917,-3.565417107042038e-05,5.1333,2.4
3.4140625,-2.247210261997405e-05,-1.8564714251926447e-05,-7.95943992385748e-05,-3.662743996795605e-05,5.1333,2.4
3.41796875,-2.148452094453344e-05,-2.0511252046997782e-05,-5.908418850080109e-05,-3.760070886549171e-05,5.1333,2.4
3.421875,-2.6866125436789502e-05,-1.3197422537575334e-05,-3.711407441672388e-05,-3.468090217288471e-05,5.1333,2.4
3.42578125,-2.5892856539253826e-05,-1.514396033264667e-05,-1.1723206413366896e-05,-3.614080551918822e-05,5.1333,2.4
3.4296875,-2.7352759885557332e-05,-2.2958737068741883e-05,-5.019885358968282e-07,-4.199473168230716e-05,5.1333,2.4
3.43359375,-2.8812663231860837e-05,-2.2958737068741883e-05,1.4640930487525764e-05,-3.223341715114061e-05,5.1333,2.4
3.4375,-3.174678270237277e-05,-1.9051348700694277e-05,1.0246907670710328e-05,-2.198546817120622e-05,5.1333,2.4
3.44140625,-3.077351380483711e-05,-1.514396033264667e-05,-1.3197422537575334e-05,-2.6866125436789502e-05,5.1333,2.4
3.4453125,-2.783939433432516e-05,-1.6603863678950176e-05,-1.269647531090257e-05,-2.8326028783092994e-05,5.1333,2.4
3.44921875,-3.0286879356069275e-05,-2.002461759822995e-05,-3.908429677271669e-06,-2.5892856539253826e-05,5.1333,2.4
3.453125,-3.3206686048676276e-05,-2.539190931258106e-05,-4.3950641260395e-06,-2.7352759885557332e-05,5.1333,2.4
3.45703125,-3.417995494621195e-05,-2.783939433432516e-05,-6.8425491477836145e-06,-2.4418640415045388e-05,5.1333,2.4
3.4609375,-3.223341715114061e-05,-2.6866125436789502e-05,-2.4905274863813218e-05,-2.5892856539253826e-05,5.1333,2.4
3.46484375,-3.126014825360494e-05,-2.7352759885557332e-05,-3.223341715114061e-05,-2.783939433432516e-05,5.1333,2.4
3.46875,-3.223341715114061e-05,-2.3932005966277555e-05,-1.0413092240639797e-09,-2.5892856539253826e-05,5.1333,2.4
3.47265625,-3.565417107042038e-05,-1.8078079803158614e-05,1.3181027141222244e-05,-2.539190931258106e-05,5.1333,2.4
3.4765625,-3.417995494621195e-05,-2.148452094453344e-05,-1.4752574334325174e-06,-2.4905274863813218e-05,5.1333,2.4
3.48046875,-3.417995494621195e-05,-2.4905274863813218e-05,-7.329183596551459e-06,-2.4418640415045388e-05,5.1333,2.4
3.484375,-3.565417107042038e-05,-2.7352759885557332e-05,-9.88622984664687e-07,-2.4418640415045388e-05,5.1333,2.4
3.48828125,-3.417995494621195e-05,-2.783939433432516e-05,-1.3197422537575334e-05,-3.126014825360494e-05,5.1333,2.4
3.4921875,-3.468090217288471e-05,-2.198546817120622e-05,-3.223341715114061e-05,-3.126014825360494e-05,5.1333,2.4
3.49609375,-3.272005159990844e-05,-2.198546817120622e-05,-3.760070886549171e-05,-2.5892856539253826e-05,5.1333,2.4
3.5,-3.0286879356069275e-05,-2.9299297680628667e-05,-4.395558225528343e-05,-2.8326028783092994e-05,5.1333,2.4
3.50390625,-3.3206686048676276e-05,-3.417995494621195e-05,-5.225699344014649e-05,-2.9299297680628667e-05,5.1333,2.4
3.5078125,-3.662743996795605e-05,-3.516753662165254e-05,-5.76242851544976e-05,-2.4418640415045388e-05,5.1333,2.4
3.51171875,-4.053482833600365e-05,-4.248136613107499e-05,-7.031971915617609e-05,-2.783939433432516e-05,5.1333,2.4
3.515625,-4.150809723353933e-05,-4.395558225528343e-05,-8.204188426031891e-05,-2.9785932129396497e-05,5.1333,2.4
3.51953125,-3.907492498970015e-05,-4.102146278477148e-05,-6.396484576638436e-05,-2.8326028783092994e-05,5.1333,2.4
3.5234375,-2.8326028783092994e-05,-4.248136613107499e-05,-4.687538894789044e-05,-2.783939433432516e-05,5.1333,2.4
3.52734375,-2.3932005966277555e-05,-2.9299297680628667e-05,-4.7862970623331035e-05,-2.5892856539253826e-05,5.1333,2.4
3.53125,-3.468090217288471e-05,-2.783939433432516e-05,-4.5902120050354764e-05,-2.4418640415045388e-05,5.1333,2.4
3.53515625,-3.565417107042038e-05,-2.8812663231860837e-05,-4.34689478065156e-05,-3.0286879356069275e-05,5.1333,2.4
3.5390625,-3.3693320497444106e-05,-3.126014825360494e-05,-5.420353123521782e-05,-3.272005159990844e-05,5.1333,2.4
3.54296875,-2.9299297680628667e-05,-2.8812663231860837e-05,-7.129298805371175e-05,-3.126014825360494e-05,5.1333,2.4
3.546875,-2.8326028783092994e-05,-2.0511252046997782e-05,-6.592569633936063e-05,-2.8326028783092994e-05,5.1333,2.4
3.55078125,-3.174678270237277e-05,-2.6866125436789502e-05,-4.687538894789044e-05,-2.9299297680628667e-05,5.1333,2.4
3.5546875,-2.8326028783092994e-05,-2.148452094453344e-05,-2.5892856539253826e-05,-3.077351380483711e-05,5.1333,2.4
3.55859375,-2.6379490988021656e-05,-1.465732588387884e-05,-9.776668618295559e-06,-2.6379490988021656e-05,5.1333,2.4
3.5625,-2.3932005966277555e-05,-1.7090498127718006e-05,-9.29003416952773e-06,-2.6379490988021656e-05,5.1333,2.4
3.56640625,-2.6866125436789502e-05,-1.759144535439077e-05,-1.8078079803158614e-05,-2.9785932129396497e-05,5.1333,2.4
3.5703125,-2.9785932129396497e-05,-2.2958737068741883e-05,-2.6866125436789502e-05,-2.8812663231860837e-05,5.1333,2.4
3.57421875,-2.4905274863813218e-05,-2.9785932129396497e-05,-4.004819388723582e-05,-2.5892856539253826e-05,5.1333,2.4
3.578125,-3.0286879356069275e-05,-2.8326028783092994e-05,-7.080635360494392e-05,-2.2958737068741883e-05,5.1333,2.4
3.58203125,-3.3693320497444106e-05,-3.858829054093232e-05,-0.00010255209499809262,-2.4905274863813218e-05,5.1333,2.4
3.5859375,-2.8326028783092994e-05,-4.199473168230716e-05,-9.668385605706873e-05,-2.8812663231860837e-05,5.1333,2.4
3.58984375,-3.3206686048676276e-05,-3.417995494621195e-05,-8.643590707713435e-05,-3.0286879356069275e-05,5.1333,2.4
3.59375,-3.468090217288471e-05,-2.8326028783092994e-05,-9.425068381322957e-05,-3.3206686048676276e-05,5.1333,2.4
3.59765625,-2.8326028783092994e-05,-2.4905274863813218e-05,-7.520037642175936e-05,-3.272005159990844e-05,5.1333,2.4
3.6015625,-3.3693320497444106e-05,-3.272005159990844e-05,-7.716122699473563e-05,-2.9785932129396497e-05,5.1333,2.4
3.60546875,-2.9785932129396497e-05,-3.3206686048676276e-05,-9.522395271076524e-05,-2.9299297680628667e-05,5.1333,2.4
3.609375,-2.783939433432516e-05,-3.077351380483711e-05,-6.787223413443198e-05,-2.6866125436789502e-05,5.1333,2.4
3.61328125,-3.174678270237277e-05,-3.516753662165254e-05,-2.4418640415045388e-05,-2.6866125436789502e-05,5.1333,2.4
3.6171875,-2.8812663231860837e-05,-4.004819388723582e-05,-2.8326028783092994e-05,-2.7352759885557332e-05,5.1333,2.4
3.62109375,-2.6379490988021656e-05,-4.199473168230716e-05,-4.883623952086671e-05,-2.7352759885557332e-05,5.1333,2.4
3.625,-2.8812663231860837e-05,-4.102146278477148e-05,-3.565417107042038e-05,-3.126014825360494e-05,5.1333,2.4
3.62890625,-3.126014825360494e-05,-4.248136613107499e-05,-3.3693320497444106e-05,-3.077351380483711e-05,5.1333,2.4
3.6328125,-2.539190931258106e-05,-4.2982313357747766e-05,-5.811091960326543e-05,-2.5892856539253826e-05,5.1333,2.4
3.63671875,-2.4418640415045388e-05,-3.662743996795605e-05,-7.95943992385748e-05,-2.4418640415045388e-05,5.1333,2.4
3.640625,-2.5892856539253826e-05,-3.662743996795605e-05,-9.034329544518196e-05,-2.7352759885557332e-05,5.1333,2.4
3.64453125,-2.5892856539253826e-05,-3.468090217288471e-05,-8.155524981155107e-05,-2.6866125436789502e-05,5.1333,2.4
3.6484375,-2.8812663231860837e-05,-3.468090217288471e-05,-4.883623952086671e-05,-3.3693320497444106e-05,5.1333,2.4
3.65234375,-2.4418640415045388e-05,-3.760070886549171e-05,-4.444221670405126e-05,-3.272005159990844e-05,5.1333,2.4
3.65625,-2.4905274863813218e-05,-2.539190931258106e-05,-5.3230262337682146e-05,-2.5892856539253826e-05,5.1333,2.4
3.66015625,-2.5892856539253826e-05,-2.3932005966277555e-05,-5.908418850080109e-05,-2.8326028783092994e-05,5.1333,2.4
3.6640625,-2.002461759822995e-05,-2.4905274863813218e-05,-5.274362788891432e-05,-2.6379490988021656e-05,5.1333,2.4
3.66796875,-1.7090498127718006e-05,-1.9537983149462106e-05,-1.6117229230182347e-05,-2.6379490988021656e-05,5.1333,2.4
3.671875,-2.002461759822995e-05,-2.002461759822995e-05,1.4588620370794273e-06,-2.8812663231860837e-05,5.1333,2.4
3.67578125,-1.759144535439077e-05,-1.026330306706339e-05,-1.56305947814145e-05,-2.6866125436789502e-05,5.1333,2.4
3.6796875,-1.8078079803158614e-05,-6.8425491477836145e-06,-2.6866125436789502e-05,-3.077351380483711e-05,5.1333,2.4
3.68359375,-1.8564714251926447e-05,-1.9051348700694277e-05,-1.514396033264667e-05,-2.783939433432516e-05,5.1333,2.4
3.6875,-2.198546817120622e-05,-2.3445371517509726e-05,-1.3684056986343165e-05,-2.247210261997405e-05,5.1333,2.4
3.69140625,-3.077351380483711e-05,-3.3206686048676276e-05,-4.2982313357747766e-05,-2.6866125436789502e-05,5.1333,2.4
3.6953125,-2.539190931258106e-05,-3.126014825360494e-05,-4.4928851152819105e-05,-3.711407441672388e-05,5.1333,2.4
3.69921875,-2.247210261997405e-05,-1.026330306706339e-05,-3.3206686048676276e-05,-3.808734331425955e-05,5.1333,2.4
3.703125,-2.783939433432516e-05,-1.56305947814145e-05,-4.102146278477148e-05,-2.4905274863813218e-05,5.1333,2.4
3.70703125,-3.565417107042038e-05,-3.516753662165254e-05,-2.247210261997405e-05,-1.8078079803158614e-05,5.1333,2.4
3.7109375,-4.4928851152819105e-05,-4.053482833600365e-05,-2.7352759885557332e-05,-1.759144535439077e-05,5.1333,2.4
3.71484375,-5.128372454261081e-05,-3.516753662165254e-05,-4.4928851152819105e-05,-1.6117229230182347e-05,5.1333,2.4
3.71875,-5.859755405203326e-05,-3.760070886549171e-05,-4.199473168230716e-05,-1.3197422537575334e-05,5.1333,2.4
3.72265625,-5.713765070572975e-05,-4.199473168230716e-05,-4.4928851152819105e-05,-1.8078079803158614e-05,5.1333,2.4
3.7265625,-5.957082294956893e-05,-5.3230262337682146e-05,-5.5176800132753485e-05,-2.3445371517509726e-05,5.1333,2.4
3.73046875,-7.080635360494392e-05,-6.641233078812848e-05,-4.34689478065156e-05,-2.198546817120622e-05,5.1333,2.4
3.734375,-7.764786144350347e-05,-6.201830797131303e-05,-3.468090217288471e-05,-2.4418640415045388e-05,5.1333,2.4
3.73828125,-8.252851870908673e-05,-6.29915768688487e-05,-5.225699344014649e-05,-2.5892856539253826e-05,5.1333,2.4
3.7421875,-8.643590707713435e-05,-6.543906189059281e-05,-5.274362788891432e-05,-2.0997886495765612e-05,5.1333,2.4
3.74609375,-9.180319879148547e-05,-6.347821131761654e-05,-3.516753662165254e-05,-1.7090498127718006e-05,5.1333,2.4
3.75,-9.22898332402533e-05,-5.5176800132753485e-05,-1.8564714251926447e-05,-1.8078079803158614e-05,5.1333,2.4
3.75390625,-8.886907932097353e-05,-4.687538894789044e-05,-1.56305947814145e-05,-1.8564714251926447e-05,5.1333,2.4
3.7578125,-8.546263817959867e-05,-4.883623952086671e-05,-8.30245249408712e-06,-2.0997886495765612e-05,5.1333,2.4
3.76171875,-8.056766813611049e-05,-5.3716896786449976e-05,-5.869280250247954e-06,-2.247210261997405e-05,5.1333,2.4
3.765625,-7.471374197299153e-05,-4.9322873969634544e-05,-1.6117229230182347e-05,-2.6379490988021656e-05,5.1333,2.4
3.76953125,-7.716122699473563e-05,-4.444221670405126e-05,-2.4418640415045388e-05,-2.7352759885557332e-05,5.1333,2.4
3.7734375,-7.716122699473563e-05,-4.150809723353933e-05,-2.3445371517509726e-05,-2.3932005966277555e-05,5.1333,2.4
3.77734375,-7.520037642175936e-05,-3.662743996795605e-05,-1.514396033264667e-05,-2.539190931258106e-05,5.1333,2.4
3.78125,-6.983308470740825e-05,-3.417995494621195e-05,-1.3684056986343165e-05,-2.8326028783092994e-05,5.1333,2.4
3.78515625,-6.347821131761654e-05,-3.077351380483711e-05,-1.9537983149462106e-05,-2.8812663231860837e-05,5.1333,2.4
3.7890625,-6.153167352254521e-05,-2.3932005966277555e-05,-1.269647531090257e-05,-2.8326028783092994e-05,5.1333,2.4
3.79296875,-6.055840462500953e-05,-2.198546817120622e-05,-1.1723206413366896e-05,-2.7352759885557332e-05,5.1333,2.4
3.796875,-5.957082294956893e-05,-1.6603863678950176e-05,-1.6117229230182347e-05,-2.9299297680628667e-05,5.1333,2.4
3.80078125,-6.153167352254521e-05,-1.7090498127718006e-05,-2.3445371517509726e-05,-3.077351380483711e-05,5.1333,2.4
3.8046875,-5.713765070572975e-05,-2.6866125436789502e-05,-2.148452094453344e-05,-3.174678270237277e-05,5.1333,2.4
3.80859375,-5.665101625696192e-05,-2.4418640415045388e-05,-2.5892856539253826e-05,-3.3206686048676276e-05,5.1333,2.4
3.8125,-5.665101625696192e-05,-1.8078079803158614e-05,-4.7862970623331035e-05,-2.8326028783092994e-05,5.1333,2.4
3.81640625,-5.0782777315938046e-05,-1.3197422537575334e-05,-5.3716896786449976e-05,-2.7352759885557332e-05,5.1333,2.4
3.8203125,-5.3716896786449976e-05,-1.9618918822003476e-06,-2.9785932129396497e-05,-2.783939433432516e-05,5.1333,2.4
3.82421875,-4.834960507209888e-05,-4.3950641260395e-06,-9.776668618295559e-06,-2.247210261997405e-05,5.1333,2.4
3.828125,-4.7862970623331035e-05,-1.0749937515831235e-05,-3.077351380483711e-05,-2.2958737068741883e-05,5.1333,2.4
3.83203125,-4.9322873969634544e-05,-4.896011352712293e-06,-4.980950841840237e-05,-2.5892856539253826e-05,5.1333,2.4
3.8359375,-4.883623952086671e-05,-8.78908694285495e-06,-3.662743996795605e-05,-2.4905274863813218e-05,5.1333,2.4
3.83984375,-4.7862970623331035e-05,-2.4418640415045388e-05,-2.0511252046997782e-05,-2.0511252046997782e-05,5.1333,2.4
3.84375,-4.6388754499122593e-05,-2.9785932129396497e-05,-2.448526330968178e-06,-1.7090498127718006e-05,5.1333,2.4
3.84765625,-4.834960507209888e-05,-2.0997886495765612e-05,1.5614199385061426e-05,-1.6117229230182347e-05,5.1333,2.4
3.8515625,-4.7376336174563205e-05,-1.56305947814145e-05,1.806168440680554e-05,-1.514396033264667e-05,5.1333,2.4
3.85546875,-4.6388754499122593e-05,-2.247210261997405e-05,2.4321309346150884e-06,-2.4418640415045388e-05,5.1333,2.4
3.859375,-4.4928851152819105e-05,-1.9051348700694277e-05,5.366250405127033e-06,-3.077351380483711e-05,5.1333,2.4
3.86328125,-4.102146278477148e-05,-1.7090498127718006e-05,1.5127564936293595e-05,-2.7352759885557332e-05,5.1333,2.4
3.8671875,-3.907492498970015e-05,-2.198546817120622e-05,2.636309559166858e-05,-2.6379490988021656e-05,5.1333,2.4
3.87109375,-3.956155943846799e-05,-2.6379490988021656e-05,2.3428976121156635e-05,-3.174678270237277e-05,5.1333,2.4
3.875,-3.907492498970015e-05,-2.148452094453344e-05,7.312788200198383e-06,-3.272005159990844e-05,5.1333,2.4
3.87890625,-3.760070886549171e-05,-2.0511252046997782e-05,2.4321309346150884e-06,-3.3693320497444106e-05,5.1333,2.4
3.8828125,-3.468090217288471e-05,-2.539190931258106e-05,-1.9618918822003476e-06,-3.662743996795605e-05,5.1333,2.4
3.88671875,-2.9785932129396497e-05,-1.759144535439077e-05,-8.30245249408712e-06,-3.808734331425955e-05,5.1333,2.4
3.890625,-2.9299297680628667e-05,-1.6603863678950176e-05,-1.9537983149462106e-05,-3.516753662165254e-05,5.1333,2.4
3.89453125,-3.3693320497444106e-05,-2.4418640415045388e-05,-4.896011352712293e-06,-3.3693320497444106e-05,5.1333,2.4
3.8984375,-3.417995494621195e-05,-1.56305947814145e-05,1.708841550926985e-05,-3.516753662165254e-05,5.1333,2.4
3.90234375,-3.174678270237277e-05,-1.3197422537575334e-05,1.5127564936293595e-05,-3.272005159990844e-05,5.1333,2.4
3.90625,-3.417995494621195e-05,-1.465732588387884e-05,1.9521587753109032e-05,-3.3206686048676276e-05,5.1333,2.4
3.91015625,-3.516753662165254e-05,-2.0511252046997782e-05,1.1220176568245989e-05,-3.3206686048676276e-05,5.1333,2.4
3.9140625,-3.174678270237277e-05,-2.4905274863813218e-05,-2.0997886495765612e-05,-3.516753662165254e-05,5.1333,2.4
3.91796875,-2.9785932129396497e-05,-2.8326028783092994e-05,-4.687538894789044e-05,-3.662743996795605e-05,5.1333,2.4
3.921875,-3.077351380483711e-05,-3.907492498970015e-05,-4.883623952086671e-05,-3.760070886549171e-05,5.1333,2.4
3.92578125,-3.272005159990844e-05,-3.077351380483711e-05,-3.174678270237277e-05,-3.760070886549171e-05,5.1333,2.4
3.9296875,-3.417995494621195e-05,-2.6866125436789502e-05,-1.514396033264667e-05,-3.468090217288471e-05,5.1333,2.4
3.93359375,-3.272005159990844e-05,-2.6379490988021656e-05,-7.81581804531929e-06,-3.272005159990844e-05,5.1333,2.4
3.9375,-3.126014825360494e-05,-1.8564714251926447e-05,-3.421795228503839e-06,-3.3693320497444106e-05,5.1333,2.4
3.94140625,-3.711407441672388e-05,-1.6117229230182347e-05,-7.81581804531929e-06,-3.272005159990844e-05,5.1333,2.4
3.9453125,-3.174678270237277e-05,-8.30245249408712e-06,1.1706811017013818e-05,-2.6379490988021656e-05,5.1333,2.4
3.94921875,-2.4905274863813218e-05,-1.8078079803158614e-05,1.806168440680554e-05,-2.4905274863813218e-05,5.1333,2.4
3.953125,-2.8812663231860837e-05,-2.5892856539253826e-05,1.4640930487525764e-05,-3.0286879356069275e-05,5.1333,2.4
3.95703125,-2.9785932129396497e-05,-2.0997886495765612e-05,1.3667661589990103e-05,-3.3206686048676276e-05,5.1333,2.4
3.9609375,-2.9785932129396497e-05,-2.8326028783092994e-05,-1.8078079803158614e-05,-3.662743996795605e-05,5.1333,2.4
3.96484375,-3.126014825360494e-05,-2.2958737068741883e-05,-1.7090498127718006e-05,-3.516753662165254e-05,5.1333,2.4
3.96875,-2.9299297680628667e-05,-1.56305947814145e-05,6.339519302662694e-06,-3.223341715114061e-05,5.1333,2.4
3.97265625,-3.0286879356069275e-05,-2.0997886495765612e-05,2.3428976121156635e-05,-2.9785932129396497e-05,5.1333,2.4
3.9765625,-3.808734331425955e-05,-2.5892856539253826e-05,2.538982669413292e-05,-2.3932005966277555e-05,5.1333,2.4
3.98046875,-3.808734331425955e-05,-3.077351380483711e-05,5.366250405127033e-06,-2.2958737068741883e-05,5.1333,2.4
3.984375,-3.3206686048676276e-05,-2.9785932129396497e-05,1.0246907670710328e-05,-2.148452094453344e-05,5.1333,2.4
3.98828125,-3.808734331425955e-05,-2.3932005966277555e-05,3.124375285725185e-05,-2.247210261997405e-05,5.1333,2.4
3.9921875,-3.858829054093232e-05,-2.539190931258106e-05,2.3428976121156635e-05,-2.247210261997405e-05,5.1333,2.4
3.99609375,-3.565417107042038e-05,-2.6866125436789502e-05,4.392981507591372e-06,-2.148452094453344e-05,5.1333,2.4
4.0,-3.614080551918822e-05,-2.0997886495765612e-05,7.312788200198383e-06,-2.0511252046997782e-05,5.1333,2.4
4.00390625,-3.711407441672388e-05,-2.198546817120622e-05,-3.908429677271669e-06,-2.0511252046997782e-05,5.1333,2.4
4.0078125,-3.858829054093232e-05,-2.3445371517509726e-05,-2.0511252046997782e-05,-2.4418640415045388e-05,5.1333,2.4
4.01171875,-4.053482833600365e-05,-2.002461759822995e-05,-2.539190931258106e-05,-2.4418640415045388e-05,5.1333,2.4
4.015625,-4.053482833600365e-05,-2.5892856539253826e-05,-2.198546817120622e-05,-1.759144535439077e-05,5.1333,2.4
4.01953125,-3.516753662165254e-05,-2.6866125436789502e-05,-2.002461759822995e-05,-1.8078079803158614e-05,5.1333,2.4
4.0234375,-3.565417107042038e-05,-2.2958737068741883e-05,-2.8812663231860837e-05,-2.0511252046997782e-05,5.1333,2.4
4.02734375,-4.150809723353933e-05,-1.9051348700694277e-05,-2.4418640415045388e-05,-1.6603863678950176e-05,5.1333,2.4
4.03125,-3.760070886549171e-05,-2.148452094453344e-05,-2.783939433432516e-05,-1.8078079803158614e-05,5.1333,2.4
4.03515625,-3.516753662165254e-05,-2.3445371517509726e-05,-4.9322873969634544e-05,-2.247210261997405e-05,5.1333,2.4
4.0390625,-3.858829054093232e-05,-3.760070886549171e-05,-6.104503907377737e-05,-2.3932005966277555e-05,5.1333,2.4
4.04296875,-4.150809723353933e-05,-3.808734331425955e-05,-5.3716896786449976e-05,-2.198546817120622e-05,5.1333,2.4
4.046875,-3.174678270237277e-05,-2.8812663231860837e-05,-5.225699344014649e-05,-1.8078079803158614e-05,5.1333,2.4
4.05078125,-3.3693320497444106e-05,-2.783939433432516e-05,-6.153167352254521e-05,-1.8078079803158614e-05,5.1333,2.4
4.0546875,-4.6388754499122593e-05,-2.9299297680628667e-05,-4.4928851152819105e-05,-1.9537983149462106e-05,5.1333,2.4
4.05859375,-4.34689478065156e-05,-2.8326028783092994e-05,-3.3693320497444106e-05,-1.514396033264667e-05,5.1333,2.4
4.0625,-3.907492498970015e-05,-1.9537983149462106e-05,-4.4928851152819105e-05,-1.759144535439077e-05,5.1333,2.4
4.06640625,-3.808734331425955e-05,-1.6117229230182347e-05,-2.4905274863813218e-05,-1.9051348700694277e-05,5.1333,2.4
4.0703125,-3.711407441672388e-05,-2.002461759822995e-05,-3.174678270237277e-05,-1.9537983149462106e-05,5.1333,2.4
4.07421875,-4.150809723353933e-05,-2.6379490988021656e-05,-8.301515315785458e-05,-2.3932005966277555e-05,5.1333,2.4
4.078125,-4.444221670405126e-05,-2.6866125436789502e-05,-0.00010303872944686046,-2.3445371517509726e-05,5.1333,2.4
4.08203125,-4.34689478065156e-05,-2.6379490988021656e-05,-0.00010791938671244373,-2.783939433432516e-05,5.1333,2.4
4.0859375,-4.248136613107499e-05,-2.002461759822995e-05,-0.00010694611781490806,-2.9299297680628667e-05,5.1333,2.4
4.08984375,-3.565417107042038e-05,-1.7090498127718006e-05,-9.864470663004502e-05,-2.8812663231860837e-05,5.1333,2.4
4.09375,-2.783939433432516e-05,-2.0511252046997782e-05,-9.522395271076524e-05,-3.417995494621195e-05,5.1333,2.4
4.09765625,-3.223341715114061e-05,-3.0286879356069275e-05,-0.00010791938671244373,-3.0286879356069275e-05,5.1333,2.4
4.1015625,-3.3206686048676276e-05,-3.272005159990844e-05,-0.00010303872944686046,-2.3932005966277555e-05,5.1333,2.4
4.10546875,-2.783939433432516e-05,-2.783939433432516e-05,-8.350178760662242e-05,-2.539190931258106e-05,5.1333,2.4
4.109375,-3.956155943846799e-05,-4.5902120050354764e-05,-7.177962250247958e-05,-2.8812663231860837e-05,5.1333,2.4
