timestamp,TP9,AF7,AF8,TP10,Valence,Arousal
0.0,3.954667856107423e-05,9.716195873655297e-05,8.30055425940337e-05,1.4640241290913138e-06,5.9286,3.3571
0.00390625,3.954667856107423e-05,0.00010839163936522468,8.642357663538565e-05,3.415181138323021e-06,5.9286,3.3571
0.0078125,3.954667856107423e-05,0.00011767016298466467,8.739915514000151e-05,4.3907596429388745e-06,5.9286,3.3571
0.01171875,3.954667856107423e-05,0.00011425212894331272,9.423522322270541e-05,5.8576366750591184e-06,5.9286,3.3571
0.015625,3.807980152895398e-05,8.837473364461736e-05,9.032589065384907e-05,1.122682772564277e-05,5.9286,3.3571
0.01953125,3.320190900587471e-05,8.690785661249712e-05,9.570210025482565e-05,1.3177984734874485e-05,5.9286,3.3571
0.0234375,3.4661767487602035e-05,8.690785661249712e-05,9.032589065384907e-05,1.3177984734874485e-05,5.9286,3.3571
0.02734375,3.759552155184251e-05,7.958750855268176e-05,8.1054385584802e-05,1.2693704757763014e-05,5.9286,3.3571
0.03125,3.807980152895398e-05,8.984161067673761e-05,8.398112109864956e-05,1.7571597280842283e-05,5.9286,3.3571
0.03515625,3.4661767487602035e-05,9.47265217502098e-05,7.812063152056152e-05,1.5620440271610574e-05,5.9286,3.3571
0.0390625,3.2710610478370326e-05,8.202996408941786e-05,8.447241962615395e-05,1.5136160294499114e-05,5.9286,3.3571
0.04296875,3.710422302433812e-05,7.61694745113298e-05,8.348982257114518e-05,2.0505351345082766e-05,5.9286,3.3571
0.046875,3.807980152895398e-05,8.202996408941786e-05,7.372701897459371e-05,1.8554194335851057e-05,5.9286,3.3571
0.05078125,3.807980152895398e-05,8.54479981307698e-05,7.323572044708933e-05,1.8554194335851057e-05,5.9286,3.3571
0.0546875,3.6619943047226657e-05,7.909621002517736e-05,5.614555024032958e-05,2.1480929849698623e-05,5.9286,3.3571
0.05859375,3.56443645426108e-05,7.470259747920957e-05,4.7849623675898356e-05,2.2456508354314478e-05,5.9286,3.3571
0.0625,3.417748751049056e-05,7.177586196536201e-05,6.347291685053787e-05,2.3923385386434717e-05,5.9286,3.3571
0.06640625,3.612864451972227e-05,5.956358428168153e-05,6.249733834592202e-05,2.4898963891050568e-05,5.9286,3.3571
0.0703125,3.906239858396276e-05,6.005488280918593e-05,5.077635918974593e-05,2.1480929849698623e-05,5.9286,3.3571
0.07421875,3.5153066015106413e-05,6.0546181336690305e-05,4.4915869611657883e-05,2.0989631322194234e-05,5.9286,3.3571
0.078125,3.026815494163423e-05,5.1267657717250315e-05,5.1267657717250315e-05,2.6365840923170815e-05,5.9286,3.3571
0.08203125,3.2226330501258854e-05,5.4194393231097874e-05,5.761242727244982e-05,2.5874542395666423e-05,5.9286,3.3571
0.0859375,3.6619943047226657e-05,6.200603981841764e-05,5.468569175860226e-05,2.6365840923170815e-05,5.9286,3.3571
0.08984375,3.6619943047226657e-05,6.103046131380178e-05,5.1267657717250315e-05,2.8808296459906905e-05,5.9286,3.3571
0.09375,3.1735031973754475e-05,4.638274664377812e-05,5.2243236221866166e-05,2.5874542395666423e-05,5.9286,3.3571
0.09765625,3.075945346913862e-05,3.807980152895398e-05,5.321881472648202e-05,2.3923385386434717e-05,5.9286,3.3571
0.1015625,3.807980152895398e-05,4.68740451712825e-05,5.566127026321811e-05,2.3923385386434717e-05,5.9286,3.3571
0.10546875,3.906239858396276e-05,5.077635918974593e-05,6.152175984130616e-05,2.4898963891050568e-05,5.9286,3.3571
0.109375,3.320190900587471e-05,4.7849623675898356e-05,5.272751619897764e-05,3.026815494163423e-05,5.9286,3.3571
0.11328125,2.978387496452276e-05,4.443158963454641e-05,4.4915869611657883e-05,3.075945346913862e-05,5.9286,3.3571
0.1171875,2.978387496452276e-05,4.930948215762568e-05,3.954667856107423e-05,2.6850120900282277e-05,5.9286,3.3571
0.12109375,3.417748751049056e-05,3.954667856107423e-05,3.4661767487602035e-05,2.4898963891050568e-05,5.9286,3.3571
0.125,3.612864451972227e-05,3.368618898298618e-05,5.5169971735713725e-05,2.978387496452276e-05,5.9286,3.3571
0.12890625,3.5153066015106413e-05,3.857110005645836e-05,5.2243236221866166e-05,3.417748751049056e-05,5.9286,3.3571
0.1328125,3.2710610478370326e-05,3.5153066015106413e-05,3.612864451972227e-05,3.2226330501258854e-05,5.9286,3.3571
0.13671875,3.124373344625008e-05,4.052225706569008e-05,3.807980152895398e-05,2.831699793240252e-05,5.9286,3.3571
0.140625,3.026815494163423e-05,4.24804326253147e-05,4.24804326253147e-05,2.978387496452276e-05,5.9286,3.3571
0.14453125,3.320190900587471e-05,3.6619943047226657e-05,3.807980152895398e-05,3.1735031973754475e-05,5.9286,3.3571
0.1484375,3.4661767487602035e-05,3.710422302433812e-05,3.56443645426108e-05,3.124373344625008e-05,5.9286,3.3571
0.15234375,3.124373344625008e-05,3.4661767487602035e-05,4.0037977088578615e-05,3.2226330501258854e-05,5.9286,3.3571
0.15625,3.1735031973754475e-05,2.8808296459906905e-05,4.198913409781032e-05,3.2226330501258854e-05,5.9286,3.3571
0.16015625,3.124373344625008e-05,3.759552155184251e-05,3.612864451972227e-05,2.6850120900282277e-05,5.9286,3.3571
0.1640625,3.320190900587471e-05,4.0037977088578615e-05,3.56443645426108e-05,2.782569940489813e-05,5.9286,3.3571
0.16796875,3.906239858396276e-05,2.5874542395666423e-05,4.1013555593194466e-05,2.9292576437018374e-05,5.9286,3.3571
0.171875,3.368618898298618e-05,3.320190900587471e-05,3.759552155184251e-05,3.026815494163423e-05,5.9286,3.3571
0.17578125,2.9292576437018374e-05,4.149783557030594e-05,3.124373344625008e-05,3.075945346913862e-05,5.9286,3.3571
0.1796875,3.2710610478370326e-05,3.5153066015106413e-05,3.320190900587471e-05,2.8808296459906905e-05,5.9286,3.3571
0.18359375,3.1735031973754475e-05,3.56443645426108e-05,3.1735031973754475e-05,3.026815494163423e-05,5.9286,3.3571
0.1875,3.124373344625008e-05,3.807980152895398e-05,3.075945346913862e-05,3.075945346913862e-05,5.9286,3.3571
0.19140625,3.320190900587471e-05,3.710422302433812e-05,3.4661767487602035e-05,3.075945346913862e-05,5.9286,3.3571
0.1953125,3.5153066015106413e-05,3.6619943047226657e-05,2.831699793240252e-05,3.026815494163423e-05,5.9286,3.3571
0.19921875,3.5153066015106413e-05,3.56443645426108e-05,2.782569940489813e-05,3.2226330501258854e-05,5.9286,3.3571
0.203125,3.56443645426108e-05,3.6619943047226657e-05,3.417748751049056e-05,3.1735031973754475e-05,5.9286,3.3571
0.20703125,3.759552155184251e-05,4.0037977088578615e-05,3.857110005645836e-05,3.075945346913862e-05,5.9286,3.3571
0.2109375,3.857110005645836e-05,3.368618898298618e-05,3.2710610478370326e-05,3.026815494163423e-05,5.9286,3.3571
0.21484375,4.052225706569008e-05,3.954667856107423e-05,2.9292576437018374e-05,2.3432086858930332e-05,5.9286,3.3571
0.21875,4.052225706569008e-05,4.833390365300982e-05,3.4661767487602035e-05,2.3432086858930332e-05,5.9286,3.3571
0.22265625,3.368618898298618e-05,2.6365840923170815e-05,2.782569940489813e-05,3.320190900587471e-05,5.9286,3.3571
0.2265625,2.831699793240252e-05,-2.445308439765025e-06,8.784372188906679e-06,3.710422302433812e-05,5.9286,3.3571
0.23046875,2.9292576437018374e-05,4.3907596429388745e-06,1.6111738799114966e-05,3.56443645426108e-05,5.9286,3.3571
0.234375,3.026815494163423e-05,2.2947806881818863e-05,2.4898963891050568e-05,3.368618898298618e-05,5.9286,3.3571
0.23828125,3.2226330501258854e-05,2.4898963891050568e-05,1.8554194335851057e-05,3.368618898298618e-05,5.9286,3.3571
0.2421875,3.2710610478370326e-05,2.2456508354314478e-05,2.4898963891050568e-05,3.320190900587471e-05,5.9286,3.3571
0.24609375,3.320190900587471e-05,2.4898963891050568e-05,3.2226330501258854e-05,3.368618898298618e-05,5.9286,3.3571
0.25,3.710422302433812e-05,3.5153066015106413e-05,3.5153066015106413e-05,3.417748751049056e-05,5.9286,3.3571
0.25390625,3.368618898298618e-05,3.906239858396276e-05,3.026815494163423e-05,3.4661767487602035e-05,5.9286,3.3571
0.2578125,3.124373344625008e-05,3.320190900587471e-05,2.7341419427786666e-05,3.4661767487602035e-05,5.9286,3.3571
0.26171875,3.368618898298618e-05,2.9292576437018374e-05,2.539026241855496e-05,2.978387496452276e-05,5.9286,3.3571
0.265625,3.5153066015106413e-05,2.3923385386434717e-05,2.3432086858930332e-05,3.026815494163423e-05,5.9286,3.3571
0.26953125,3.759552155184251e-05,2.9292576437018374e-05,2.782569940489813e-05,3.1735031973754475e-05,5.9286,3.3571
0.2734375,3.2226330501258854e-05,3.368618898298618e-05,2.1480929849698623e-05,3.320190900587471e-05,5.9286,3.3571
0.27734375,2.6365840923170815e-05,3.075945346913862e-05,2.0505351345082766e-05,3.2710610478370326e-05,5.9286,3.3571
0.28125,3.612864451972227e-05,3.124373344625008e-05,2.7341419427786666e-05,3.124373344625008e-05,5.9286,3.3571
0.28515625,3.906239858396276e-05,2.7341419427786666e-05,2.3432086858930332e-05,3.2710610478370326e-05,5.9286,3.3571
0.2890625,3.368618898298618e-05,2.3923385386434717e-05,2.197222837720301e-05,3.5153066015106413e-05,5.9286,3.3571
0.29296875,3.368618898298618e-05,2.3923385386434717e-05,2.4898963891050568e-05,3.56443645426108e-05,5.9286,3.3571
0.296875,3.2710610478370326e-05,2.8808296459906905e-05,2.4407665363546186e-05,3.2710610478370326e-05,5.9286,3.3571
0.30078125,3.4661767487602035e-05,2.831699793240252e-05,2.8808296459906905e-05,2.978387496452276e-05,5.9286,3.3571
0.3046875,3.2226330501258854e-05,2.4407665363546186e-05,3.2710610478370326e-05,3.2226330501258854e-05,5.9286,3.3571
0.30859375,3.026815494163423e-05,1.8554194335851057e-05,2.6850120900282277e-05,3.5153066015106413e-05,5.9286,3.3571
0.3125,3.320190900587471e-05,1.3669283262378869e-05,1.8554194335851057e-05,3.2226330501258854e-05,5.9286,3.3571
0.31640625,3.4661767487602035e-05,2.2947806881818863e-05,2.8808296459906905e-05,3.124373344625008e-05,5.9286,3.3571
0.3203125,3.5153066015106413e-05,2.782569940489813e-05,4.052225706569008e-05,3.368618898298618e-05,5.9286,3.3571
0.32421875,3.368618898298618e-05,2.197222837720301e-05,3.4661767487602035e-05,3.2710610478370326e-05,5.9286,3.3571
0.328125,3.368618898298618e-05,2.3432086858930332e-05,3.124373344625008e-05,3.417748751049056e-05,5.9286,3.3571
0.33203125,3.2226330501258854e-05,2.6365840923170815e-05,2.539026241855496e-05,3.4661767487602035e-05,5.9286,3.3571
0.3359375,3.2710610478370326e-05,2.5874542395666423e-05,2.6850120900282277e-05,3.2226330501258854e-05,5.9286,3.3571
0.33984375,3.075945346913862e-05,2.1480929849698623e-05,2.5874542395666423e-05,3.4661767487602035e-05,5.9286,3.3571
0.34375,3.2710610478370326e-05,1.3669283262378869e-05,2.3923385386434717e-05,3.56443645426108e-05,5.9286,3.3571
0.34765625,3.2226330501258854e-05,2.0505351345082766e-05,3.026815494163423e-05,3.026815494163423e-05,5.9286,3.3571
0.3515625,3.124373344625008e-05,2.6850120900282277e-05,2.1480929849698623e-05,3.026815494163423e-05,5.9286,3.3571
0.35546875,3.710422302433812e-05,3.075945346913862e-05,1.5620440271610574e-05,3.2226330501258854e-05,5.9286,3.3571
0.359375,3.857110005645836e-05,4.1013555593194466e-05,1.1718126253147162e-05,3.124373344625008e-05,5.9286,3.3571
0.36328125,3.710422302433812e-05,5.4194393231097874e-05,3.899461115434491e-06,2.978387496452276e-05,5.9286,3.3571
0.3671875,3.6619943047226657e-05,5.321881472648202e-05,1.8554194335851057e-05,2.9292576437018374e-05,5.9286,3.3571
0.37109375,3.759552155184251e-05,4.3940291107042026e-05,1.7571597280842283e-05,2.831699793240252e-05,5.9286,3.3571
0.375,3.807980152895398e-05,3.906239858396276e-05,1.708731730373082e-05,2.539026241855496e-05,5.9286,3.3571
0.37890625,3.857110005645836e-05,3.1735031973754475e-05,2.539026241855496e-05,2.8808296459906905e-05,5.9286,3.3571
0.3828125,3.368618898298618e-05,2.6365840923170815e-05,2.831699793240252e-05,3.2710610478370326e-05,5.9286,3.3571
0.38671875,2.9292576437018374e-05,1.9038474312962526e-05,2.782569940489813e-05,3.075945346913862e-05,5.9286,3.3571
0.390625,3.026815494163423e-05,2.0505351345082766e-05,2.978387496452276e-05,2.782569940489813e-05,5.9286,3.3571
0.39453125,3.2710610478370326e-05,1.8554194335851057e-05,3.320190900587471e-05,2.831699793240252e-05,5.9286,3.3571
0.3984375,3.320190900587471e-05,1.952977284046691e-05,3.906239858396276e-05,3.124373344625008e-05,5.9286,3.3571
0.40234375,3.1735031973754475e-05,2.1480929849698623e-05,2.9292576437018374e-05,3.075945346913862e-05,5.9286,3.3571
0.40625,3.5153066015106413e-05,1.659601877622643e-05,2.8808296459906905e-05,2.831699793240252e-05,5.9286,3.3571
0.41015625,3.5153066015106413e-05,2.8808296459906905e-05,3.906239858396276e-05,2.9292576437018374e-05,5.9286,3.3571
0.4140625,3.124373344625008e-05,2.831699793240252e-05,3.807980152895398e-05,2.978387496452276e-05,5.9286,3.3571
0.41796875,3.5153066015106413e-05,2.4898963891050568e-05,3.417748751049056e-05,2.782569940489813e-05,5.9286,3.3571
0.421875,3.710422302433812e-05,2.4407665363546186e-05,2.0989631322194234e-05,3.075945346913862e-05,5.9286,3.3571
0.42578125,3.4661767487602035e-05,2.2456508354314478e-05,1.708731730373082e-05,3.2226330501258854e-05,5.9286,3.3571
0.4296875,3.759552155184251e-05,2.001405281757838e-05,2.6850120900282277e-05,2.831699793240252e-05,5.9286,3.3571
0.43359375,3.417748751049056e-05,2.0505351345082766e-05,2.9292576437018374e-05,3.075945346913862e-05,5.9286,3.3571
0.4375,3.2710610478370326e-05,1.5620440271610574e-05,2.1480929849698623e-05,3.320190900587471e-05,5.9286,3.3571
0.44140625,4.052225706569008e-05,9.759950693522533e-06,1.8554194335851057e-05,3.026815494163423e-05,5.9286,3.3571
0.4453125,3.906239858396276e-05,1.5620440271610574e-05,2.5874542395666423e-05,2.782569940489813e-05,5.9286,3.3571
0.44921875,3.6619943047226657e-05,1.8062895808346675e-05,2.4898963891050568e-05,2.831699793240252e-05,5.9286,3.3571
0.453125,3.710422302433812e-05,1.659601877622643e-05,2.001405281757838e-05,3.320190900587471e-05,5.9286,3.3571
0.45703125,3.5153066015106413e-05,1.5620440271610574e-05,1.4153563239490338e-05,3.368618898298618e-05,5.9286,3.3571
0.4609375,3.2226330501258854e-05,1.8062895808346675e-05,2.2456508354314478e-05,2.978387496452276e-05,5.9286,3.3571
0.46484375,3.417748751049056e-05,2.1480929849698623e-05,2.8808296459906905e-05,2.8808296459906905e-05,5.9286,3.3571
0.46875,3.4661767487602035e-05,2.1480929849698623e-05,1.9038474312962526e-05,2.8808296459906905e-05,5.9286,3.3571
0.47265625,3.368618898298618e-05,1.6111738799114966e-05,2.0505351345082766e-05,2.831699793240252e-05,5.9286,3.3571
0.4765625,3.6619943047226657e-05,1.3177984734874485e-05,2.2456508354314478e-05,2.782569940489813e-05,5.9286,3.3571
0.48046875,3.612864451972227e-05,2.0505351345082766e-05,1.659601877622643e-05,2.5874542395666423e-05,5.9286,3.3571
0.484375,3.320190900587471e-05,1.5620440271610574e-05,1.4644861766994721e-05,2.6365840923170815e-05,5.9286,3.3571
0.48828125,3.2226330501258854e-05,1.3177984734874485e-05,3.415181138323021e-06,2.8808296459906905e-05,5.9286,3.3571
0.4921875,3.368618898298618e-05,1.3177984734874485e-05,-2.852903028927045e-09,2.782569940489813e-05,5.9286,3.3571
0.49609375,3.2226330501258854e-05,1.2693704757763014e-05,1.2693704757763014e-05,2.8808296459906905e-05,5.9286,3.3571
0.5,3.417748751049056e-05,1.5136160294499114e-05,1.708731730373082e-05,2.978387496452276e-05,5.9286,3.3571
0.50390625,3.1735031973754475e-05,2.3923385386434717e-05,2.3432086858930332e-05,2.831699793240252e-05,5.9286,3.3571
0.5078125,3.026815494163423e-05,2.831699793240252e-05,3.320190900587471e-05,2.8808296459906905e-05,5.9286,3.3571
0.51171875,3.2226330501258854e-05,1.8062895808346675e-05,2.539026241855496e-05,2.5874542395666423e-05,5.9286,3.3571
0.515625,3.1735031973754475e-05,1.3177984734874485e-05,1.708731730373082e-05,2.7341419427786666e-05,5.9286,3.3571
0.51953125,3.417748751049056e-05,1.5136160294499114e-05,2.0505351345082766e-05,2.6365840923170815e-05,5.9286,3.3571
0.5234375,3.320190900587471e-05,2.2456508354314478e-05,2.6850120900282277e-05,2.6365840923170815e-05,5.9286,3.3571
0.52734375,3.2226330501258854e-05,2.0989631322194234e-05,3.368618898298618e-05,3.026815494163423e-05,5.9286,3.3571
0.53125,3.1735031973754475e-05,1.3669283262378869e-05,1.8554194335851057e-05,2.7341419427786666e-05,5.9286,3.3571
0.53515625,3.2226330501258854e-05,1.220240623025863e-05,1.6111738799114966e-05,2.6850120900282277e-05,5.9286,3.3571
0.5390625,3.56443645426108e-05,1.4644861766994721e-05,2.3923385386434717e-05,2.4898963891050568e-05,5.9286,3.3571
0.54296875,3.368618898298618e-05,2.001405281757838e-05,1.2693704757763014e-05,2.2456508354314478e-05,5.9286,3.3571
0.546875,3.075945346913862e-05,1.9038474312962526e-05,1.5136160294499114e-05,2.4407665363546186e-05,5.9286,3.3571
0.55078125,3.2710610478370326e-05,2.1480929849698623e-05,1.2693704757763014e-05,2.9292576437018374e-05,5.9286,3.3571
0.5546875,3.1735031973754475e-05,1.8062895808346675e-05,9.759950693522533e-06,2.782569940489813e-05,5.9286,3.3571
0.55859375,2.7341419427786666e-05,9.759950693522533e-06,1.4153563239490338e-05,2.4898963891050568e-05,5.9286,3.3571
0.5625,2.8808296459906905e-05,6.3419166521705815e-06,2.0989631322194234e-05,2.7341419427786666e-05,5.9286,3.3571
0.56640625,3.1735031973754475e-05,2.001405281757838e-05,2.4898963891050568e-05,2.539026241855496e-05,5.9286,3.3571
0.5703125,3.124373344625008e-05,1.7571597280842283e-05,1.122682772564277e-05,2.4407665363546186e-05,5.9286,3.3571
0.57421875,3.368618898298618e-05,9.275670716411063e-06,-9.784314076447807e-07,2.4898963891050568e-05,5.9286,3.3571
0.578125,3.4661767487602035e-05,2.2456508354314478e-05,3.899461115434491e-06,2.7341419427786666e-05,5.9286,3.3571
0.58203125,3.075945346913862e-05,2.1480929849698623e-05,1.2693704757763014e-05,2.831699793240252e-05,5.9286,3.3571
0.5859375,3.2226330501258854e-05,1.7571597280842283e-05,1.220240623025863e-05,3.075945346913862e-05,5.9286,3.3571
0.58984375,3.368618898298618e-05,1.708731730373082e-05,1.708731730373082e-05,2.831699793240252e-05,5.9286,3.3571
0.59375,3.320190900587471e-05,1.708731730373082e-05,1.8062895808346675e-05,2.5874542395666423e-05,5.9286,3.3571
0.59765625,3.4661767487602035e-05,1.708731730373082e-05,1.122682772564277e-05,2.7341419427786666e-05,5.9286,3.3571
0.6015625,3.320190900587471e-05,2.0989631322194234e-05,1.9038474312962526e-05,2.831699793240252e-05,5.9286,3.3571
0.60546875,2.978387496452276e-05,1.952977284046691e-05,6.833215179674973e-06,3.1735031973754475e-05,5.9286,3.3571
0.609375,2.978387496452276e-05,3.899461115434491e-06,-3.4208869443808787e-06,2.9292576437018374e-05,5.9286,3.3571
0.61328125,3.124373344625008e-05,6.833215179674973e-06,1.4644861766994721e-05,2.7341419427786666e-05,5.9286,3.3571
0.6171875,3.2226330501258854e-05,1.3177984734874485e-05,1.220240623025863e-05,3.124373344625008e-05,5.9286,3.3571
0.62109375,3.56443645426108e-05,4.3907596429388745e-06,9.275670716411063e-06,3.1735031973754475e-05,5.9286,3.3571
0.625,3.417748751049056e-05,3.415181138323021e-06,9.759950693522533e-06,3.124373344625008e-05,5.9286,3.3571
0.62890625,3.4661767487602035e-05,7.317495156786435e-06,7.808793684290826e-06,2.8808296459906905e-05,5.9286,3.3571
0.6328125,3.320190900587471e-05,4.3907596429388745e-06,3.899461115434491e-06,2.539026241855496e-05,5.9286,3.3571
0.63671875,3.2710610478370326e-05,4.814270740825392e-07,-5.863342481116973e-06,2.7341419427786666e-05,5.9286,3.3571
0.640625,3.710422302433812e-05,4.814270740825392e-07,-4.941514305333144e-07,2.7341419427786666e-05,5.9286,3.3571
0.64453125,3.612864451972227e-05,-9.28137652246892e-06,-8.790077994964534e-06,2.6850120900282277e-05,5.9286,3.3571
0.6484375,3.368618898298618e-05,-1.5626146077668434e-05,-1.8559900141908917e-05,2.539026241855496e-05,5.9286,3.3571
0.65234375,3.368618898298618e-05,-1.5141866100556967e-05,-1.2208112036316485e-05,2.5874542395666423e-05,5.9286,3.3571
0.65625,3.417748751049056e-05,-1.8068601614404528e-05,-7.81449949034868e-06,2.782569940489813e-05,5.9286,3.3571
0.66015625,3.857110005645836e-05,-8.305798017853068e-06,-6.347622458228439e-06,2.3432086858930332e-05,5.9286,3.3571
0.6640625,4.68740451712825e-05,1.0735529198138386e-05,-3.912185471885266e-06,2.3923385386434717e-05,5.9286,3.3571
0.66796875,4.930948215762568e-05,-2.2462214160372334e-05,-2.5395968224612813e-05,2.831699793240252e-05,5.9286,3.3571
0.671875,4.638274664377812e-05,-7.421700475776304e-05,-6.102914856946671e-05,2.6850120900282277e-05,5.9286,3.3571
0.67578125,4.882520218051422e-05,-8.934899940489817e-05,-7.714374027161059e-05,1.9038474312962526e-05,5.9286,3.3571
0.6796875,4.882520218051422e-05,-0.000118160148767834,-0.00010742176666666668,1.3177984734874485e-05,5.9286,3.3571
0.68359375,5.2243236221866166e-05,-0.0001337834419424735,-0.00012646309388265813,1.659601877622643e-05,5.9286,3.3571
0.6875,5.468569175860226e-05,-0.0001474555781078813,-0.00014599571962615397,2.197222837720301e-05,5.9286,3.3571
0.69140625,5.712814729533835e-05,-0.00017626672747081713,-0.00016943065938811324,2.2456508354314478e-05,5.9286,3.3571
0.6953125,6.591537238727395e-05,-0.00019091444214084077,-0.0001791934629846647,2.5874542395666423e-05,5.9286,3.3571
0.69921875,6.347291685053787e-05,-0.00021679183743953615,-0.0002060534553383688,2.0989631322194234e-05,5.9286,3.3571
0.703125,5.4194393231097874e-05,-0.00023437330617380028,-0.0002246034840268559,1.4644861766994721e-05,5.9286,3.3571
0.70703125,6.005488280918593e-05,-0.00023730004168764785,-0.00022509478255436027,1.708731730373082e-05,5.9286,3.3571
0.7109375,6.786652939650567e-05,-0.00024218495276112002,-0.00023095527213244833,1.6111738799114966e-05,5.9286,3.3571
0.71484375,6.347291685053787e-05,-0.0002465785653070878,-0.00023730004168764785,1.708731730373082e-05,5.9286,3.3571
0.71875,6.689095089188981e-05,-0.00023876691871976808,-0.00022509478255436027,2.2947806881818863e-05,5.9286,3.3571
0.72265625,6.152175984130616e-05,-0.00022070117000839247,-0.00021044706788433663,3.026815494163423e-05,5.9286,3.3571
0.7265625,5.712814729533835e-05,-0.00020751331382009615,-0.00020800461234760052,3.026815494163423e-05,5.9286,3.3571
0.73046875,6.0546181336690305e-05,-0.00019775051022354468,-0.00019677493171892883,3.075945346913862e-05,5.9286,3.3571
0.734375,5.566127026321811e-05,-0.00018115163854428933,-0.00017577542894331276,3.368618898298618e-05,5.9286,3.3571
0.73828125,5.37101132539864e-05,-0.00015673410172732126,-0.00014941375366750594,3.1735031973754475e-05,5.9286,3.3571
0.7421875,5.077635918974593e-05,-0.00014061951002517742,-0.00012352933981841764,3.124373344625008e-05,5.9286,3.3571
0.74609375,4.345601112993056e-05,-0.00012646309388265813,-0.00011132408068513009,3.4661767487602035e-05,5.9286,3.3571
0.75,3.612864451972227e-05,-9.716766454261083e-05,-9.32583319737545e-05,3.710422302433812e-05,5.9286,3.3571
0.75390625,3.2226330501258854e-05,-7.811931877622646e-05,-7.567686323949036e-05,3.807980152895398e-05,5.9286,3.3571
0.7578125,2.539026241855496e-05,-5.8586693032730614e-05,-5.5659957518883054e-05,4.1013555593194466e-05,5.9286,3.3571
0.76171875,2.2456508354314478e-05,-3.4667473293659885e-05,-3.4667473293659885e-05,4.0037977088578615e-05,5.9286,3.3571
0.765625,2.3432086858930332e-05,-2.148663565575648e-05,-2.1977934183260862e-05,3.710422302433812e-05,5.9286,3.3571
0.76953125,2.1480929849698623e-05,-1.4166287595941114e-05,-5.372043953612585e-06,4.149783557030594e-05,5.9286,3.3571
0.7734375,1.952977284046691e-05,3.899461115434491e-06,1.2693704757763014e-05,4.052225706569008e-05,5.9286,3.3571
0.77734375,1.8062895808346675e-05,1.659601877622643e-05,2.2947806881818863e-05,3.6619943047226657e-05,5.9286,3.3571
0.78125,1.8554194335851057e-05,2.4898963891050568e-05,2.0505351345082766e-05,3.56443645426108e-05,5.9286,3.3571
0.78515625,1.8062895808346675e-05,2.782569940489813e-05,3.2226330501258854e-05,3.56443645426108e-05,5.9286,3.3571
0.7890625,1.708731730373082e-05,3.075945346913862e-05,4.930948215762568e-05,3.710422302433812e-05,5.9286,3.3571
0.79296875,2.001405281757838e-05,4.1013555593194466e-05,5.5169971735713725e-05,3.857110005645836e-05,5.9286,3.3571
0.796875,1.952977284046691e-05,5.029207921263446e-05,5.663684876783397e-05,4.0037977088578615e-05,5.9286,3.3571
0.80078125,1.952977284046691e-05,5.321881472648202e-05,4.930948215762568e-05,3.906239858396276e-05,5.9286,3.3571
0.8046875,1.708731730373082e-05,5.175193769436178e-05,6.786652939650567e-05,4.1013555593194466e-05,5.9286,3.3571
0.80859375,1.4153563239490338e-05,6.298161832303348e-05,7.763635154345006e-05,4.149783557030594e-05,5.9286,3.3571
0.8125,1.5136160294499114e-05,6.835782792401007e-05,6.689095089188981e-05,3.906239858396276e-05,5.9286,3.3571
0.81640625,1.6111738799114966e-05,5.907930430457007e-05,7.275144046997786e-05,3.857110005645836e-05,5.9286,3.3571
0.8203125,1.6111738799114966e-05,6.298161832303348e-05,7.030898493324177e-05,3.857110005645836e-05,5.9286,3.3571
0.82421875,1.4644861766994721e-05,7.275144046997786e-05,7.128456343785763e-05,3.857110005645836e-05,5.9286,3.3571
0.828125,1.659601877622643e-05,7.470259747920957e-05,7.861193004806592e-05,3.417748751049056e-05,5.9286,3.3571
0.83203125,2.197222837720301e-05,7.519389600671396e-05,7.470259747920957e-05,3.4661767487602035e-05,5.9286,3.3571
0.8359375,2.0505351345082766e-05,7.519389600671396e-05,7.812063152056152e-05,3.906239858396276e-05,5.9286,3.3571
0.83984375,1.7571597280842283e-05,7.812063152056152e-05,8.447241962615395e-05,4.0037977088578615e-05,5.9286,3.3571
0.84375,2.1480929849698623e-05,7.909621002517736e-05,7.372701897459371e-05,3.954667856107423e-05,5.9286,3.3571
0.84765625,2.001405281757838e-05,7.958750855268176e-05,7.519389600671396e-05,3.906239858396276e-05,5.9286,3.3571
0.8515625,1.7571597280842283e-05,8.251424406652932e-05,6.884210790112153e-05,3.759552155184251e-05,5.9286,3.3571
0.85546875,1.708731730373082e-05,7.519389600671396e-05,6.493979388265811e-05,4.0037977088578615e-05,5.9286,3.3571
0.859375,1.708731730373082e-05,7.372701897459371e-05,7.177586196536201e-05,4.0037977088578615e-05,5.9286,3.3571
0.86328125,1.708731730373082e-05,7.128456343785763e-05,7.861193004806592e-05,4.052225706569008e-05,5.9286,3.3571
0.8671875,1.4644861766994721e-05,7.226014194247348e-05,8.935031214923321e-05,4.24804326253147e-05,5.9286,3.3571
0.87109375,1.8554194335851057e-05,7.567817598382543e-05,8.78904536675059e-05,4.149783557030594e-05,5.9286,3.3571
0.875,2.197222837720301e-05,7.030898493324177e-05,7.61694745113298e-05,4.052225706569008e-05,5.9286,3.3571
0.87890625,2.2456508354314478e-05,6.493979388265811e-05,7.372701897459371e-05,4.0037977088578615e-05,5.9286,3.3571
0.8828125,2.3923385386434717e-05,5.663684876783397e-05,6.786652939650567e-05,3.857110005645836e-05,5.9286,3.3571
0.88671875,2.3923385386434717e-05,5.4194393231097874e-05,6.493979388265811e-05,3.6619943047226657e-05,5.9286,3.3571
0.890625,2.3923385386434717e-05,5.8103725799954205e-05,6.493979388265811e-05,3.56443645426108e-05,5.9286,3.3571
0.89453125,2.3432086858930332e-05,5.566127026321811e-05,5.8103725799954205e-05,3.417748751049056e-05,5.9286,3.3571
0.8984375,2.0989631322194234e-05,5.956358428168153e-05,5.8103725799954205e-05,3.4661767487602035e-05,5.9286,3.3571
0.90234375,2.0989631322194234e-05,5.8103725799954205e-05,6.200603981841764e-05,3.5153066015106413e-05,5.9286,3.3571
0.90625,2.0989631322194234e-05,5.907930430457007e-05,6.591537238727395e-05,3.4661767487602035e-05,5.9286,3.3571
0.91015625,2.197222837720301e-05,6.249733834592202e-05,7.519389600671396e-05,3.1735031973754475e-05,5.9286,3.3571
0.9140625,2.4407665363546186e-05,6.200603981841764e-05,6.298161832303348e-05,3.075945346913862e-05,5.9286,3.3571
0.91796875,2.1480929849698623e-05,6.542407385976958e-05,4.882520218051422e-05,3.368618898298618e-05,5.9286,3.3571
0.921875,2.3432086858930332e-05,6.639965236438542e-05,5.4194393231097874e-05,3.075945346913862e-05,5.9286,3.3571
0.92578125,2.539026241855496e-05,6.689095089188981e-05,5.614555024032958e-05,2.6365840923170815e-05,5.9286,3.3571
0.9296875,2.6365840923170815e-05,5.712814729533835e-05,6.152175984130616e-05,2.9292576437018374e-05,5.9286,3.3571
0.93359375,3.075945346913862e-05,5.8103725799954205e-05,7.861193004806592e-05,3.2226330501258854e-05,5.9286,3.3571
0.9375,2.8808296459906905e-05,6.200603981841764e-05,7.42183175020981e-05,3.2226330501258854e-05,5.9286,3.3571
0.94140625,2.6365840923170815e-05,6.493979388265811e-05,6.835782792401007e-05,3.1735031973754475e-05,5.9286,3.3571
0.9453125,2.7341419427786666e-05,6.347291685053787e-05,6.493979388265811e-05,3.026815494163423e-05,5.9286,3.3571
0.94921875,2.6850120900282277e-05,6.396421537804225e-05,5.8103725799954205e-05,3.320190900587471e-05,5.9286,3.3571
0.953125,2.6850120900282277e-05,6.347291685053787e-05,6.639965236438542e-05,3.56443645426108e-05,5.9286,3.3571
0.95703125,2.6365840923170815e-05,6.444849535515372e-05,6.981768640573737e-05,3.857110005645836e-05,5.9286,3.3571
0.9609375,2.539026241855496e-05,7.323572044708933e-05,6.493979388265811e-05,3.857110005645836e-05,5.9286,3.3571
0.96484375,2.7341419427786666e-05,6.981768640573737e-05,6.005488280918593e-05,3.368618898298618e-05,5.9286,3.3571
0.96875,2.782569940489813e-05,6.152175984130616e-05,5.761242727244982e-05,3.075945346913862e-05,5.9286,3.3571
0.97265625,2.782569940489813e-05,6.396421537804225e-05,5.8103725799954205e-05,3.1735031973754475e-05,5.9286,3.3571
0.9765625,2.7341419427786666e-05,6.542407385976958e-05,5.858800577706567e-05,3.320190900587471e-05,5.9286,3.3571
0.98046875,2.782569940489813e-05,5.858800577706567e-05,6.0546181336690305e-05,3.075945346913862e-05,5.9286,3.3571
0.984375,2.6850120900282277e-05,5.077635918974593e-05,6.542407385976958e-05,2.9292576437018374e-05,5.9286,3.3571
0.98828125,2.6850120900282277e-05,4.833390365300982e-05,5.907930430457007e-05,2.978387496452276e-05,5.9286,3.3571
0.9921875,2.9292576437018374e-05,5.175193769436178e-05,4.1013555593194466e-05,2.8808296459906905e-05,5.9286,3.3571
0.99609375,3.2226330501258854e-05,5.321881472648202e-05,3.954667856107423e-05,3.026815494163423e-05,5.9286,3.3571
1.0,3.026815494163423e-05,4.980078068513008e-05,4.3940291107042026e-05,3.320190900587471e-05,5.9286,3.3571
1.00390625,2.782569940489813e-05,4.638274664377812e-05,4.68740451712825e-05,3.612864451972227e-05,5.9286,3.3571
1.0078125,2.5874542395666423e-05,5.077635918974593e-05,4.833390365300982e-05,3.56443645426108e-05,5.9286,3.3571
1.01171875,2.782569940489813e-05,5.4194393231097874e-05,5.077635918974593e-05,3.320190900587471e-05,5.9286,3.3571
1.015625,3.2226330501258854e-05,4.735832514839397e-05,5.956358428168153e-05,3.2710610478370326e-05,5.9286,3.3571
1.01953125,2.978387496452276e-05,4.7849623675898356e-05,5.712814729533835e-05,3.417748751049056e-05,5.9286,3.3571
1.0234375,2.782569940489813e-05,4.735832514839397e-05,5.175193769436178e-05,3.4661767487602035e-05,5.9286,3.3571
1.02734375,3.075945346913862e-05,4.345601112993056e-05,4.198913409781032e-05,3.2710610478370326e-05,5.9286,3.3571
1.03125,2.9292576437018374e-05,4.638274664377812e-05,3.5153066015106413e-05,3.2710610478370326e-05,5.9286,3.3571
1.03515625,2.782569940489813e-05,4.4915869611657883e-05,3.807980152895398e-05,3.368618898298618e-05,5.9286,3.3571
1.0390625,3.124373344625008e-05,4.882520218051422e-05,3.857110005645836e-05,3.2226330501258854e-05,5.9286,3.3571
1.04296875,3.5153066015106413e-05,4.882520218051422e-05,3.6619943047226657e-05,3.2710610478370326e-05,5.9286,3.3571
1.046875,3.2226330501258854e-05,5.272751619897764e-05,3.906239858396276e-05,3.4661767487602035e-05,5.9286,3.3571
1.05078125,3.2710610478370326e-05,5.077635918974593e-05,4.345601112993056e-05,3.320190900587471e-05,5.9286,3.3571
1.0546875,3.1735031973754475e-05,3.906239858396276e-05,3.954667856107423e-05,2.9292576437018374e-05,5.9286,3.3571
1.05859375,3.320190900587471e-05,4.3940291107042026e-05,3.6619943047226657e-05,3.1735031973754475e-05,5.9286,3.3571
1.0625,3.368618898298618e-05,3.6619943047226657e-05,3.612864451972227e-05,3.56443645426108e-05,5.9286,3.3571
1.06640625,2.8808296459906905e-05,3.124373344625008e-05,4.980078068513008e-05,3.612864451972227e-05,5.9286,3.3571
1.0703125,3.075945346913862e-05,3.954667856107423e-05,5.614555024032958e-05,3.4661767487602035e-05,5.9286,3.3571
1.07421875,3.075945346913862e-05,4.638274664377812e-05,4.052225706569008e-05,3.124373344625008e-05,5.9286,3.3571
1.078125,3.2710610478370326e-05,4.638274664377812e-05,4.052225706569008e-05,3.2226330501258854e-05,5.9286,3.3571
1.08203125,3.4661767487602035e-05,4.052225706569008e-05,4.0037977088578615e-05,3.4661767487602035e-05,5.9286,3.3571
1.0859375,2.978387496452276e-05,3.857110005645836e-05,3.4661767487602035e-05,3.6619943047226657e-05,5.9286,3.3571
1.08984375,2.8808296459906905e-05,3.807980152895398e-05,4.052225706569008e-05,3.368618898298618e-05,5.9286,3.3571
1.09375,3.075945346913862e-05,3.906239858396276e-05,3.710422302433812e-05,3.4661767487602035e-05,5.9286,3.3571
1.09765625,2.831699793240252e-05,3.320190900587471e-05,3.026815494163423e-05,3.4661767487602035e-05,5.9286,3.3571
1.1015625,2.978387496452276e-05,3.320190900587471e-05,4.0037977088578615e-05,3.417748751049056e-05,5.9286,3.3571
1.10546875,3.320190900587471e-05,3.417748751049056e-05,4.443158963454641e-05,3.368618898298618e-05,5.9286,3.3571
1.109375,3.4661767487602035e-05,2.2456508354314478e-05,3.2226330501258854e-05,3.368618898298618e-05,5.9286,3.3571
1.11328125,3.417748751049056e-05,2.197222837720301e-05,3.612864451972227e-05,3.2710610478370326e-05,5.9286,3.3571
1.1171875,3.2226330501258854e-05,2.9292576437018374e-05,2.978387496452276e-05,2.978387496452276e-05,5.9286,3.3571
1.12109375,2.831699793240252e-05,3.320190900587471e-05,2.3432086858930332e-05,3.075945346913862e-05,5.9286,3.3571
1.125,3.026815494163423e-05,3.6619943047226657e-05,3.612864451972227e-05,3.1735031973754475e-05,5.9286,3.3571
1.12890625,3.4661767487602035e-05,3.4661767487602035e-05,4.345601112993056e-05,3.124373344625008e-05,5.9286,3.3571
1.1328125,3.026815494163423e-05,2.3923385386434717e-05,3.759552155184251e-05,3.2226330501258854e-05,5.9286,3.3571
1.13671875,3.2226330501258854e-05,2.3923385386434717e-05,3.026815494163423e-05,3.1735031973754475e-05,5.9286,3.3571
1.140625,3.417748751049056e-05,3.4661767487602035e-05,2.9292576437018374e-05,3.075945346913862e-05,5.9286,3.3571
1.14453125,3.56443645426108e-05,3.368618898298618e-05,3.1735031973754475e-05,3.320190900587471e-05,5.9286,3.3571
1.1484375,3.6619943047226657e-05,3.1735031973754475e-05,3.4661767487602035e-05,3.320190900587471e-05,5.9286,3.3571
1.15234375,3.368618898298618e-05,3.5153066015106413e-05,3.2710610478370326e-05,3.026815494163423e-05,5.9286,3.3571
1.15625,3.5153066015106413e-05,3.2226330501258854e-05,3.2226330501258854e-05,2.8808296459906905e-05,5.9286,3.3571
1.16015625,3.2710610478370326e-05,3.124373344625008e-05,3.5153066015106413e-05,3.075945346913862e-05,5.9286,3.3571
1.1640625,3.2226330501258854e-05,3.320190900587471e-05,2.9292576437018374e-05,3.026815494163423e-05,5.9286,3.3571
1.16796875,3.2710610478370326e-05,4.24804326253147e-05,2.2456508354314478e-05,3.026815494163423e-05,5.9286,3.3571
1.171875,3.368618898298618e-05,4.930948215762568e-05,1.952977284046691e-05,3.075945346913862e-05,5.9286,3.3571
1.17578125,3.417748751049056e-05,5.1267657717250315e-05,1.5620440271610574e-05,2.831699793240252e-05,5.9286,3.3571
1.1796875,3.368618898298618e-05,5.663684876783397e-05,1.952977284046691e-05,2.9292576437018374e-05,5.9286,3.3571
1.18359375,3.857110005645836e-05,4.540716813916226e-05,1.2693704757763014e-05,2.9292576437018374e-05,5.9286,3.3571
1.1875,3.954667856107423e-05,3.710422302433812e-05,2.831699793240252e-05,2.7341419427786666e-05,5.9286,3.3571
1.19140625,3.759552155184251e-05,4.735832514839397e-05,4.638274664377812e-05,2.782569940489813e-05,5.9286,3.3571
1.1953125,3.906239858396276e-05,3.857110005645836e-05,4.24804326253147e-05,2.7341419427786666e-05,5.9286,3.3571
1.19921875,3.417748751049056e-05,1.8554194335851057e-05,3.075945346913862e-05,3.026815494163423e-05,5.9286,3.3571
1.203125,2.8808296459906905e-05,1.0735529198138386e-05,3.2710610478370326e-05,3.6619943047226657e-05,5.9286,3.3571
1.20703125,2.782569940489813e-05,2.4396026337071675e-06,2.9292576437018374e-05,3.417748751049056e-05,5.9286,3.3571
1.2109375,2.6365840923170815e-05,4.814270740825392e-07,1.708731730373082e-05,3.1735031973754475e-05,5.9286,3.3571
1.21484375,2.978387496452276e-05,1.0251249221026917e-05,2.6365840923170815e-05,3.4661767487602035e-05,5.9286,3.3571
1.21875,3.368618898298618e-05,9.727256015869265e-07,2.7341419427786666e-05,3.320190900587471e-05,5.9286,3.3571
1.22265625,3.5153066015106413e-05,1.4640241290913138e-06,2.6365840923170815e-05,3.368618898298618e-05,5.9286,3.3571
1.2265625,3.075945346913862e-05,9.759950693522533e-06,3.026815494163423e-05,3.56443645426108e-05,5.9286,3.3571
1.23046875,2.8808296459906905e-05,6.3419166521705815e-06,2.831699793240252e-05,3.075945346913862e-05,5.9286,3.3571
1.234375,3.807980152895398e-05,1.3177984734874485e-05,2.6365840923170815e-05,2.831699793240252e-05,5.9286,3.3571
1.23828125,3.857110005645836e-05,1.952977284046691e-05,1.6111738799114966e-05,3.1735031973754475e-05,5.9286,3.3571
1.2421875,3.2226330501258854e-05,2.0989631322194234e-05,2.0505351345082766e-05,3.026815494163423e-05,5.9286,3.3571
1.24609375,3.075945346913862e-05,3.417748751049056e-05,2.7341419427786666e-05,3.368618898298618e-05,5.9286,3.3571
1.25,3.56443645426108e-05,2.6365840923170815e-05,1.952977284046691e-05,3.4661767487602035e-05,5.9286,3.3571
1.25390625,3.710422302433812e-05,2.978387496452276e-05,2.8808296459906905e-05,2.978387496452276e-05,5.9286,3.3571
1.2578125,3.1735031973754475e-05,4.149783557030594e-05,2.978387496452276e-05,3.075945346913862e-05,5.9286,3.3571
1.26171875,3.026815494163423e-05,2.6850120900282277e-05,3.2226330501258854e-05,3.368618898298618e-05,5.9286,3.3571
1.265625,3.1735031973754475e-05,2.5874542395666423e-05,3.906239858396276e-05,3.5153066015106413e-05,5.9286,3.3571
1.26953125,3.320190900587471e-05,2.978387496452276e-05,3.368618898298618e-05,3.417748751049056e-05,5.9286,3.3571
1.2734375,3.906239858396276e-05,1.952977284046691e-05,2.4898963891050568e-05,3.2710610478370326e-05,5.9286,3.3571
1.27734375,3.710422302433812e-05,2.2947806881818863e-05,1.952977284046691e-05,3.1735031973754475e-05,5.9286,3.3571
1.28125,2.7341419427786666e-05,2.7341419427786666e-05,1.5136160294499114e-05,3.124373344625008e-05,5.9286,3.3571
1.28515625,2.9292576437018374e-05,2.3923385386434717e-05,2.0505351345082766e-05,3.2226330501258854e-05,5.9286,3.3571
1.2890625,3.612864451972227e-05,3.2710610478370326e-05,3.759552155184251e-05,2.831699793240252e-05,5.9286,3.3571
1.29296875,3.612864451972227e-05,2.7341419427786666e-05,3.612864451972227e-05,2.6850120900282277e-05,5.9286,3.3571
1.296875,3.2226330501258854e-05,2.5874542395666423e-05,3.954667856107423e-05,3.368618898298618e-05,5.9286,3.3571
1.30078125,2.978387496452276e-05,2.6365840923170815e-05,4.052225706569008e-05,3.56443645426108e-05,5.9286,3.3571
1.3046875,3.2710610478370326e-05,2.197222837720301e-05,3.026815494163423e-05,3.2226330501258854e-05,5.9286,3.3571
1.30859375,3.124373344625008e-05,2.978387496452276e-05,3.857110005645836e-05,3.368618898298618e-05,5.9286,3.3571
1.3125,2.9292576437018374e-05,2.831699793240252e-05,3.6619943047226657e-05,3.417748751049056e-05,5.9286,3.3571
1.31640625,3.5153066015106413e-05,2.0989631322194234e-05,2.197222837720301e-05,2.8808296459906905e-05,5.9286,3.3571
1.3203125,3.368618898298618e-05,2.4898963891050568e-05,2.6850120900282277e-05,2.782569940489813e-05,5.9286,3.3571
1.32421875,3.026815494163423e-05,1.5136160294499114e-05,2.5874542395666423e-05,3.026815494163423e-05,5.9286,3.3571
1.328125,3.320190900587471e-05,1.4153563239490338e-05,1.9038474312962526e-05,2.782569940489813e-05,5.9286,3.3571
1.33203125,3.075945346913862e-05,2.1480929849698623e-05,1.3669283262378869e-05,2.0505351345082766e-05,5.9286,3.3571
1.3359375,2.7341419427786666e-05,1.5136160294499114e-05,5.366338147554728e-06,2.001405281757838e-05,5.9286,3.3571
1.33984375,2.8808296459906905e-05,7.808793684290826e-06,8.784372188906679e-06,2.197222837720301e-05,5.9286,3.3571
1.34375,3.026815494163423e-05,1.1718126253147162e-05,1.8062895808346675e-05,2.4407665363546186e-05,5.9286,3.3571
1.34765625,3.56443645426108e-05,1.708731730373082e-05,1.9038474312962526e-05,2.831699793240252e-05,5.9286,3.3571
1.3515625,3.807980152895398e-05,9.759950693522533e-06,1.4644861766994721e-05,2.6850120900282277e-05,5.9286,3.3571
1.35546875,3.56443645426108e-05,1.708731730373082e-05,2.9238826108186373e-06,2.6850120900282277e-05,5.9286,3.3571
1.359375,3.417748751049056e-05,2.001405281757838e-05,1.1718126253147162e-05,2.782569940489813e-05,5.9286,3.3571
1.36328125,3.2226330501258854e-05,2.3432086858930332e-05,1.3177984734874485e-05,2.6365840923170815e-05,5.9286,3.3571
1.3671875,3.075945346913862e-05,1.6111738799114966e-05,9.727256015869265e-07,2.539026241855496e-05,5.9286,3.3571
1.37109375,3.2710610478370326e-05,-2.9366069672694085e-06,4.882058170443265e-06,2.9292576437018374e-05,5.9286,3.3571
1.375,3.417748751049056e-05,2.4396026337071675e-06,5.8576366750591184e-06,3.075945346913862e-05,5.9286,3.3571
1.37890625,3.368618898298618e-05,-3.912185471885266e-06,-2.852903028927045e-09,3.075945346913862e-05,5.9286,3.3571
1.3828125,3.368618898298618e-05,-9.765656499580391e-06,-2.9366069672694085e-06,3.368618898298618e-05,5.9286,3.3571
1.38671875,3.807980152895398e-05,-9.765656499580391e-06,-4.941514305333144e-07,2.9292576437018374e-05,5.9286,3.3571
1.390625,3.954667856107423e-05,-1.5626146077668434e-05,-3.912185471885266e-06,2.8808296459906905e-05,5.9286,3.3571
1.39453125,3.612864451972227e-05,-1.7584321637293062e-05,-2.5395968224612813e-05,2.8808296459906905e-05,5.9286,3.3571
1.3984375,3.368618898298618e-05,-1.4166287595941114e-05,-3.2709297734035256e-05,2.8808296459906905e-05,5.9286,3.3571
1.40234375,4.0037977088578615e-05,-1.5626146077668434e-05,-2.588024820172428e-05,3.026815494163423e-05,5.9286,3.3571
1.40625,4.0037977088578615e-05,-3.124943925230794e-05,-3.22250177569238e-05,2.831699793240252e-05,5.9286,3.3571
1.41015625,4.052225706569008e-05,-2.8322703738460376e-05,-3.7102910280003066e-05,3.320190900587471e-05,5.9286,3.3571
1.4140625,4.345601112993056e-05,-3.661863030289159e-05,-5.22419234775311e-05,3.368618898298618e-05,5.9286,3.3571
1.41796875,4.149783557030594e-05,-6.34716041062028e-05,-7.128325069352256e-05,2.7341419427786666e-05,5.9286,3.3571
1.421875,5.077635918974593e-05,-8.15373528175784e-05,-9.52094889829862e-05,1.8554194335851057e-05,5.9286,3.3571
1.42578125,5.614555024032958e-05,-0.00010497931112993059,-0.00012304505984130618,1.220240623025863e-05,5.9286,3.3571
1.4296875,5.37101132539864e-05,-0.00012841425089188984,-0.0001318322849332418,1.8062895808346675e-05,5.9286,3.3571
1.43359375,5.272751619897764e-05,-0.0001611277142732891,-0.00015820097875944152,2.2456508354314478e-05,5.9286,3.3571
1.4375,6.103046131380178e-05,-0.00018407837405813688,-0.00019384117765468834,1.5136160294499114e-05,5.9286,3.3571
1.44140625,6.835782792401007e-05,-0.00019384117765468834,-0.00020507787683375297,1.0735529198138386e-05,5.9286,3.3571
1.4453125,7.323572044708933e-05,-0.00020458657830624857,-0.00020800461234760052,1.7571597280842283e-05,5.9286,3.3571
1.44921875,7.372701897459371e-05,-0.00021044706788433663,-0.00022070117000839247,1.3177984734874485e-05,5.9286,3.3571
1.453125,7.177586196536201e-05,-0.00021630755746242467,-0.00022948839510032807,5.8576366750591184e-06,5.9286,3.3571
1.45703125,7.812063152056152e-05,-0.0002202098714808881,-0.00022509478255436027,8.784372188906679e-06,5.9286,3.3571
1.4609375,8.30055425940337e-05,-0.00020995576935683223,-0.0002133738033981842,1.220240623025863e-05,5.9286,3.3571
1.46484375,8.30055425940337e-05,-0.0002040952797787442,-0.00020995576935683223,1.3669283262378869e-05,5.9286,3.3571
1.46875,7.61694745113298e-05,-0.0002153249604074159,-0.00021679183743953615,1.659601877622643e-05,5.9286,3.3571
1.47265625,7.372701897459371e-05,-0.00022070117000839247,-0.00021386510192568858,1.8554194335851057e-05,5.9286,3.3571
1.4765625,7.61694745113298e-05,-0.00019824180875104906,-0.00019677493171892883,2.1480929849698623e-05,5.9286,3.3571
1.48046875,7.519389600671396e-05,-0.00019335689767757688,-0.00019238131917296102,3.026815494163423e-05,5.9286,3.3571
1.484375,7.080028346074615e-05,-0.00020067724573739223,-0.00018456967258564128,3.2226330501258854e-05,5.9286,3.3571
1.48828125,7.567817598382543e-05,-0.00018358707553063248,-0.00017431557046158541,2.1480929849698623e-05,5.9286,3.3571
1.4921875,8.398112109864956e-05,-0.00015820097875944152,-0.00016406146833752958,1.952977284046691e-05,5.9286,3.3571
1.49609375,7.958750855268176e-05,-0.00016259459130540935,-0.0001650370468421454,2.2947806881818863e-05,5.9286,3.3571
1.5,6.884210790112153e-05,-0.00016406146833752958,-0.00016406146833752958,2.4898963891050568e-05,5.9286,3.3571
1.50390625,6.639965236438542e-05,-0.00013915965154345008,-0.00014892245514000154,2.5874542395666423e-05,5.9286,3.3571
1.5078125,6.591537238727395e-05,-0.0001323235834607462,-0.00013964393152056154,2.7341419427786666e-05,5.9286,3.3571
1.51171875,6.689095089188981e-05,-0.00013329916196536202,-0.0001337834419424735,2.6365840923170815e-05,5.9286,3.3571
1.515625,6.689095089188981e-05,-0.0001269473738597696,-0.00012206948133669033,2.4898963891050568e-05,5.9286,3.3571
1.51953125,6.396421537804225e-05,-0.00010546359110704205,-0.0001020455570656901,2.7341419427786666e-05,5.9286,3.3571
1.5234375,5.663684876783397e-05,-9.033159645990692e-05,-8.251293132219426e-05,3.075945346913862e-05,5.9286,3.3571
1.52734375,5.321881472648202e-05,-7.665946029449913e-05,-7.128325069352256e-05,3.1735031973754475e-05,5.9286,3.3571
1.53125,5.468569175860226e-05,-6.34716041062028e-05,-6.64053581704433e-05,3.026815494163423e-05,5.9286,3.3571
1.53515625,4.882520218051422e-05,-4.393897836270696e-05,-5.0290766468299394e-05,2.6365840923170815e-05,5.9286,3.3571
1.5390625,4.24804326253147e-05,-2.5395968224612813e-05,-2.7838423761348908e-05,2.3432086858930332e-05,5.9286,3.3571
1.54296875,4.052225706569008e-05,-7.81449949034868e-06,-5.372043953612585e-06,2.782569940489813e-05,5.9286,3.3571
1.546875,3.759552155184251e-05,3.415181138323021e-06,6.3419166521705815e-06,3.026815494163423e-05,5.9286,3.3571
1.55078125,2.7341419427786666e-05,9.727256015869265e-07,2.1480929849698623e-05,3.368618898298618e-05,5.9286,3.3571
1.5546875,1.952977284046691e-05,2.2456508354314478e-05,4.589846666666665e-05,3.710422302433812e-05,5.9286,3.3571
1.55859375,1.708731730373082e-05,4.24804326253147e-05,5.4194393231097874e-05,3.417748751049056e-05,5.9286,3.3571
1.5625,1.2693704757763014e-05,5.2243236221866166e-05,7.030898493324177e-05,3.56443645426108e-05,5.9286,3.3571
1.56640625,1.2693704757763014e-05,6.249733834592202e-05,8.056308705729762e-05,3.710422302433812e-05,5.9286,3.3571
1.5703125,1.0251249221026917e-05,7.714505301594566e-05,6.639965236438542e-05,3.6619943047226657e-05,5.9286,3.3571
1.57421875,8.30009221179521e-06,8.78904536675059e-05,7.812063152056152e-05,3.807980152895398e-05,5.9286,3.3571
1.578125,6.3419166521705815e-06,9.081718918135347e-05,9.912013429617761e-05,3.759552155184251e-05,5.9286,3.3571
1.58203125,9.275670716411063e-06,9.66776787594415e-05,9.765325726405737e-05,3.368618898298618e-05,5.9286,3.3571
1.5859375,1.0251249221026917e-05,0.00010399802681925686,0.00010937423642023343,3.075945346913862e-05,5.9286,3.3571
1.58984375,4.882058170443265e-06,0.00010741606086060883,0.00011180967340657662,3.026815494163423e-05,5.9286,3.3571
1.59375,3.899461115434491e-06,0.00011132539342946515,0.00010351374684214539,3.2710610478370326e-05,5.9286,3.3571
1.59765625,4.3907596429388745e-06,0.00011180967340657662,0.00011180967340657662,3.320190900587471e-05,5.9286,3.3571
1.6015625,2.4396026337071675e-06,0.00011669458448004882,0.00010546490385137713,3.2710610478370326e-05,5.9286,3.3571
1.60546875,3.415181138323021e-06,0.00011571900597543295,0.00010253816833752954,3.320190900587471e-05,5.9286,3.3571
1.609375,6.3419166521705815e-06,0.00010741606086060883,0.00011376784896620125,3.4661767487602035e-05,5.9286,3.3571
1.61328125,5.8576366750591184e-06,0.0001098585163973449,0.00011864574148928054,3.6619943047226657e-05,5.9286,3.3571
1.6171875,3.899461115434491e-06,0.00011571900597543295,0.00011132539342946515,3.759552155184251e-05,5.9286,3.3571
1.62109375,7.317495156786435e-06,0.00011376784896620125,0.00011230097193408102,3.807980152895398e-05,5.9286,3.3571
1.625,1.0735529198138386e-05,0.00011376784896620125,0.00011767016298466467,3.807980152895398e-05,5.9286,3.3571
1.62890625,9.759950693522533e-06,0.00010937423642023343,0.0001191370400167849,3.612864451972227e-05,5.9286,3.3571
1.6328125,9.275670716411063e-06,0.00010497360532387273,0.0001171858830075532,3.2226330501258854e-05,5.9286,3.3571
1.63671875,1.220240623025863e-05,0.00011621030450293735,0.0001196283385442893,3.368618898298618e-05,5.9286,3.3571
1.640625,1.5620440271610574e-05,0.00011669458448004882,0.00012499752959487296,3.759552155184251e-05,5.9286,3.3571
1.64453125,1.122682772564277e-05,0.0001171858830075532,0.00012743998513160907,3.807980152895398e-05,5.9286,3.3571
1.6484375,8.784372188906679e-06,0.00012304637258564124,0.00012402195109025713,3.710422302433812e-05,5.9286,3.3571
1.65234375,9.275670716411063e-06,0.00012206377553063248,0.0001171858830075532,3.5153066015106413e-05,5.9286,3.3571
1.65625,1.3669283262378869e-05,0.00012011261852140077,0.00011425212894331272,3.4661767487602035e-05,5.9286,3.3571
1.66015625,1.3669283262378869e-05,0.00011864574148928054,0.0001171858830075532,3.2710610478370326e-05,5.9286,3.3571
1.6640625,1.2693704757763014e-05,0.0001191370400167849,0.00012255507405813684,3.2710610478370326e-05,5.9286,3.3571
1.66796875,1.2693704757763014e-05,0.00011522770744792857,0.00012402195109025713,3.368618898298618e-05,5.9286,3.3571
1.671875,1.3177984734874485e-05,0.00011816146151216907,0.00012011261852140077,3.710422302433812e-05,5.9286,3.3571
1.67578125,1.659601877622643e-05,0.00012060391704890514,0.00012450623106736856,3.759552155184251e-05,5.9286,3.3571
1.6796875,1.659601877622643e-05,0.00011230097193408102,0.00012206377553063248,3.612864451972227e-05,5.9286,3.3571
1.68359375,1.8062895808346675e-05,0.00012011261852140077,0.00011230097193408102,3.710422302433812e-05,5.9286,3.3571
1.6875,1.708731730373082e-05,0.00013134229915007247,0.00011816146151216907,3.612864451972227e-05,5.9286,3.3571
1.69140625,1.7571597280842283e-05,0.00011376784896620125,0.0001171858830075532,3.2710610478370326e-05,5.9286,3.3571
1.6953125,2.0505351345082766e-05,0.00010448932534676126,0.00010839163936522468,3.2710610478370326e-05,5.9286,3.3571
1.69921875,2.0505351345082766e-05,0.00010937423642023343,0.00011474342747081712,3.6619943047226657e-05,5.9286,3.3571
1.703125,2.0989631322194234e-05,0.00010204686981002516,0.00011571900597543295,3.612864451972227e-05,5.9286,3.3571
1.70703125,2.0505351345082766e-05,0.00010351374684214539,0.00011180967340657662,3.2710610478370326e-05,5.9286,3.3571
1.7109375,2.001405281757838e-05,0.00010937423642023343,0.00010839163936522468,3.4661767487602035e-05,5.9286,3.3571
1.71484375,2.4898963891050568e-05,0.00010888293789272908,0.00010399802681925686,3.417748751049056e-05,5.9286,3.3571
1.71875,2.2947806881818863e-05,0.00010009571280079344,0.00010497360532387273,3.1735031973754475e-05,5.9286,3.3571
1.72265625,1.5620440271610574e-05,9.228406621347371e-05,0.00011132539342946515,3.2710610478370326e-05,5.9286,3.3571
1.7265625,1.952977284046691e-05,9.374392469520103e-05,0.00011279227046158538,3.2226330501258854e-05,5.9286,3.3571
1.73046875,2.197222837720301e-05,9.66776787594415e-05,9.765325726405737e-05,2.8808296459906905e-05,5.9286,3.3571
1.734375,2.1480929849698623e-05,9.813753724116884e-05,8.447241962615395e-05,2.8808296459906905e-05,5.9286,3.3571
1.73828125,2.6365840923170815e-05,9.813753724116884e-05,8.739915514000151e-05,3.2226330501258854e-05,5.9286,3.3571
1.7421875,2.4898963891050568e-05,9.228406621347371e-05,9.081718918135347e-05,3.2226330501258854e-05,5.9286,3.3571
1.74609375,2.0989631322194234e-05,8.78904536675059e-05,9.325964471808955e-05,3.026815494163423e-05,5.9286,3.3571
1.75,2.0989631322194234e-05,8.837473364461736e-05,8.886603217212176e-05,3.026815494163423e-05,5.9286,3.3571
1.75390625,2.0989631322194234e-05,8.153866556191347e-05,9.032589065384907e-05,3.1735031973754475e-05,5.9286,3.3571
1.7578125,2.6850120900282277e-05,7.080028346074615e-05,9.032589065384907e-05,3.026815494163423e-05,5.9286,3.3571
1.76171875,2.831699793240252e-05,8.1054385584802e-05,8.593227810788126e-05,2.9292576437018374e-05,5.9286,3.3571
1.765625,3.026815494163423e-05,8.398112109864956e-05,8.54479981307698e-05,3.026815494163423e-05,5.9286,3.3571
1.76953125,3.124373344625008e-05,7.958750855268176e-05,8.398112109864956e-05,3.1735031973754475e-05,5.9286,3.3571
1.7734375,2.782569940489813e-05,8.495669960326542e-05,8.447241962615395e-05,3.1735031973754475e-05,5.9286,3.3571
1.77734375,2.831699793240252e-05,8.739915514000151e-05,8.1054385584802e-05,3.124373344625008e-05,5.9286,3.3571
1.78125,2.7341419427786666e-05,9.276834619058517e-05,7.909621002517736e-05,3.417748751049056e-05,5.9286,3.3571
1.78515625,2.9292576437018374e-05,8.495669960326542e-05,7.909621002517736e-05,3.710422302433812e-05,5.9286,3.3571
1.7890625,2.978387496452276e-05,7.470259747920957e-05,7.470259747920957e-05,3.1735031973754475e-05,5.9286,3.3571
1.79296875,2.831699793240252e-05,7.714505301594566e-05,7.177586196536201e-05,2.9292576437018374e-05,5.9286,3.3571
1.796875,2.7341419427786666e-05,6.835782792401007e-05,7.812063152056152e-05,3.124373344625008e-05,5.9286,3.3571
1.80078125,2.782569940489813e-05,6.249733834592202e-05,8.398112109864956e-05,3.417748751049056e-05,5.9286,3.3571
1.8046875,3.1735031973754475e-05,7.372701897459371e-05,8.348982257114518e-05,3.320190900587471e-05,5.9286,3.3571
1.80859375,2.978387496452276e-05,7.763635154345006e-05,7.812063152056152e-05,3.2710610478370326e-05,5.9286,3.3571
1.8125,2.831699793240252e-05,7.177586196536201e-05,7.226014194247348e-05,3.4661767487602035e-05,5.9286,3.3571
1.81640625,3.026815494163423e-05,7.519389600671396e-05,6.103046131380178e-05,3.612864451972227e-05,5.9286,3.3571
1.8203125,2.3923385386434717e-05,7.128456343785763e-05,6.591537238727395e-05,3.56443645426108e-05,5.9286,3.3571
1.82421875,2.4898963891050568e-05,6.689095089188981e-05,7.909621002517736e-05,3.759552155184251e-05,5.9286,3.3571
1.828125,3.075945346913862e-05,6.933340642862591e-05,7.861193004806592e-05,3.857110005645836e-05,5.9286,3.3571
1.83203125,2.7341419427786666e-05,6.835782792401007e-05,7.519389600671396e-05,3.4661767487602035e-05,5.9286,3.3571
1.8359375,2.831699793240252e-05,7.226014194247348e-05,7.470259747920957e-05,3.6619943047226657e-05,5.9286,3.3571
1.83984375,2.978387496452276e-05,7.080028346074615e-05,6.73822494193942e-05,3.710422302433812e-05,5.9286,3.3571
1.84375,2.9292576437018374e-05,7.177586196536201e-05,6.005488280918593e-05,3.710422302433812e-05,5.9286,3.3571
1.84765625,3.075945346913862e-05,5.956358428168153e-05,6.542407385976958e-05,3.612864451972227e-05,5.9286,3.3571
1.8515625,2.782569940489813e-05,5.5169971735713725e-05,7.323572044708933e-05,3.759552155184251e-05,5.9286,3.3571
1.85546875,2.6850120900282277e-05,5.8103725799954205e-05,6.298161832303348e-05,3.807980152895398e-05,5.9286,3.3571
1.859375,2.8808296459906905e-05,5.272751619897764e-05,6.005488280918593e-05,3.56443645426108e-05,5.9286,3.3571
1.86328125,2.782569940489813e-05,4.7849623675898356e-05,5.956358428168153e-05,3.612864451972227e-05,5.9286,3.3571
1.8671875,2.5874542395666423e-05,4.930948215762568e-05,4.930948215762568e-05,3.56443645426108e-05,5.9286,3.3571
1.87109375,2.4898963891050568e-05,5.321881472648202e-05,4.833390365300982e-05,3.075945346913862e-05,5.9286,3.3571
1.875,2.831699793240252e-05,5.5169971735713725e-05,5.077635918974593e-05,2.9292576437018374e-05,5.9286,3.3571
1.87890625,3.124373344625008e-05,5.4194393231097874e-05,5.907930430457007e-05,3.2710610478370326e-05,5.9286,3.3571
1.8828125,2.8808296459906905e-05,4.735832514839397e-05,7.372701897459371e-05,3.6619943047226657e-05,5.9286,3.3571
1.88671875,2.7341419427786666e-05,4.589846666666665e-05,5.8103725799954205e-05,3.807980152895398e-05,5.9286,3.3571
1.890625,3.2226330501258854e-05,5.858800577706567e-05,3.857110005645836e-05,3.075945346913862e-05,5.9286,3.3571
1.89453125,3.320190900587471e-05,5.614555024032958e-05,4.052225706569008e-05,2.9292576437018374e-05,5.9286,3.3571
1.8984375,3.2226330501258854e-05,4.4915869611657883e-05,4.0037977088578615e-05,3.2710610478370326e-05,5.9286,3.3571
1.90234375,3.5153066015106413e-05,4.0037977088578615e-05,4.735832514839397e-05,3.2710610478370326e-05,5.9286,3.3571
1.90625,3.1735031973754475e-05,3.906239858396276e-05,5.761242727244982e-05,3.2226330501258854e-05,5.9286,3.3571
1.91015625,3.124373344625008e-05,4.443158963454641e-05,5.4194393231097874e-05,3.124373344625008e-05,5.9286,3.3571
1.9140625,3.124373344625008e-05,4.638274664377812e-05,4.0037977088578615e-05,3.1735031973754475e-05,5.9286,3.3571
1.91796875,3.075945346913862e-05,4.833390365300982e-05,3.807980152895398e-05,3.1735031973754475e-05,5.9286,3.3571
1.921875,3.5153066015106413e-05,4.638274664377812e-05,4.980078068513008e-05,3.1735031973754475e-05,5.9286,3.3571
1.92578125,3.417748751049056e-05,4.1013555593194466e-05,4.930948215762568e-05,3.2226330501258854e-05,5.9286,3.3571
1.9296875,3.124373344625008e-05,4.980078068513008e-05,6.200603981841764e-05,3.1735031973754475e-05,5.9286,3.3571
1.93359375,3.026815494163423e-05,6.005488280918593e-05,6.884210790112153e-05,3.320190900587471e-05,5.9286,3.3571
1.9375,3.417748751049056e-05,4.052225706569008e-05,5.2243236221866166e-05,2.9292576437018374e-05,5.9286,3.3571
1.94140625,3.6619943047226657e-05,2.9292576437018374e-05,3.954667856107423e-05,2.539026241855496e-05,5.9286,3.3571
1.9453125,3.6619943047226657e-05,3.906239858396276e-05,3.56443645426108e-05,2.6850120900282277e-05,5.9286,3.3571
1.94921875,3.417748751049056e-05,4.443158963454641e-05,3.4661767487602035e-05,2.978387496452276e-05,5.9286,3.3571
1.953125,3.1735031973754475e-05,3.6619943047226657e-05,4.24804326253147e-05,3.026815494163423e-05,5.9286,3.3571
1.95703125,3.2226330501258854e-05,4.0037977088578615e-05,4.198913409781032e-05,3.026815494163423e-05,5.9286,3.3571
1.9609375,3.2226330501258854e-05,4.68740451712825e-05,4.443158963454641e-05,3.2710610478370326e-05,5.9286,3.3571
1.96484375,3.417748751049056e-05,4.345601112993056e-05,4.930948215762568e-05,3.124373344625008e-05,5.9286,3.3571
1.96875,3.56443645426108e-05,4.3940291107042026e-05,3.954667856107423e-05,3.026815494163423e-05,5.9286,3.3571
1.97265625,3.417748751049056e-05,3.2226330501258854e-05,3.5153066015106413e-05,3.4661767487602035e-05,5.9286,3.3571
1.9765625,3.124373344625008e-05,3.1735031973754475e-05,4.052225706569008e-05,3.368618898298618e-05,5.9286,3.3571
1.98046875,3.124373344625008e-05,4.68740451712825e-05,4.735832514839397e-05,3.2710610478370326e-05,5.9286,3.3571
1.984375,3.124373344625008e-05,4.2964712602426175e-05,5.272751619897764e-05,3.1735031973754475e-05,5.9286,3.3571
1.98828125,3.1735031973754475e-05,3.026815494163423e-05,4.4915869611657883e-05,3.124373344625008e-05,5.9286,3.3571
1.9921875,3.417748751049056e-05,3.759552155184251e-05,3.857110005645836e-05,3.368618898298618e-05,5.9286,3.3571
1.99609375,3.368618898298618e-05,4.345601112993056e-05,3.710422302433812e-05,3.368618898298618e-05,5.9286,3.3571
2.0,3.2226330501258854e-05,4.1013555593194466e-05,4.1013555593194466e-05,3.4661767487602035e-05,5.9286,3.3571
2.00390625,3.612864451972227e-05,6.0546181336690305e-05,3.2226330501258854e-05,2.9292576437018374e-05,5.9286,3.3571
2.0078125,3.906239858396276e-05,7.958750855268176e-05,2.9292576437018374e-05,2.4407665363546186e-05,5.9286,3.3571
2.01171875,3.807980152895398e-05,6.347291685053787e-05,3.026815494163423e-05,2.9292576437018374e-05,5.9286,3.3571
2.015625,4.0037977088578615e-05,4.930948215762568e-05,2.3923385386434717e-05,2.8808296459906905e-05,5.9286,3.3571
2.01953125,3.612864451972227e-05,5.1267657717250315e-05,2.6850120900282277e-05,2.3432086858930332e-05,5.9286,3.3571
2.0234375,2.782569940489813e-05,3.906239858396276e-05,3.075945346913862e-05,2.4407665363546186e-05,5.9286,3.3571
2.02734375,2.978387496452276e-05,2.3923385386434717e-05,3.807980152895398e-05,2.4898963891050568e-05,5.9286,3.3571
2.03125,3.124373344625008e-05,1.8554194335851057e-05,3.4661767487602035e-05,2.782569940489813e-05,5.9286,3.3571
2.03515625,2.978387496452276e-05,2.001405281757838e-05,3.612864451972227e-05,3.026815494163423e-05,5.9286,3.3571
2.0390625,3.2710610478370326e-05,2.3923385386434717e-05,3.807980152895398e-05,2.831699793240252e-05,5.9286,3.3571
2.04296875,3.5153066015106413e-05,2.4898963891050568e-05,2.831699793240252e-05,2.6850120900282277e-05,5.9286,3.3571
2.046875,3.075945346913862e-05,2.8808296459906905e-05,3.807980152895398e-05,2.978387496452276e-05,5.9286,3.3571
2.05078125,3.075945346913862e-05,2.539026241855496e-05,3.906239858396276e-05,2.9292576437018374e-05,5.9286,3.3571
2.0546875,3.320190900587471e-05,2.9292576437018374e-05,2.4898963891050568e-05,2.6850120900282277e-05,5.9286,3.3571
2.05859375,3.124373344625008e-05,2.978387496452276e-05,3.124373344625008e-05,2.8808296459906905e-05,5.9286,3.3571
2.0625,3.2710610478370326e-05,2.6365840923170815e-05,3.759552155184251e-05,3.026815494163423e-05,5.9286,3.3571
2.06640625,3.6619943047226657e-05,3.2710610478370326e-05,2.5874542395666423e-05,3.2226330501258854e-05,5.9286,3.3571
2.0703125,3.612864451972227e-05,3.5153066015106413e-05,2.0505351345082766e-05,3.124373344625008e-05,5.9286,3.3571
2.07421875,3.417748751049056e-05,3.2710610478370326e-05,3.417748751049056e-05,2.782569940489813e-05,5.9286,3.3571
2.078125,3.2226330501258854e-05,3.2226330501258854e-05,3.857110005645836e-05,2.782569940489813e-05,5.9286,3.3571
2.08203125,3.026815494163423e-05,3.417748751049056e-05,3.026815494163423e-05,2.831699793240252e-05,5.9286,3.3571
2.0859375,3.1735031973754475e-05,2.2456508354314478e-05,2.6365840923170815e-05,2.8808296459906905e-05,5.9286,3.3571
2.08984375,3.320190900587471e-05,1.952977284046691e-05,2.3923385386434717e-05,2.6850120900282277e-05,5.9286,3.3571
2.09375,3.368618898298618e-05,2.8808296459906905e-05,2.539026241855496e-05,2.7341419427786666e-05,5.9286,3.3571
2.09765625,3.124373344625008e-05,2.782569940489813e-05,2.9292576437018374e-05,3.2226330501258854e-05,5.9286,3.3571
2.1015625,3.4661767487602035e-05,2.2456508354314478e-05,3.1735031973754475e-05,3.2226330501258854e-05,5.9286,3.3571
2.10546875,4.0037977088578615e-05,1.9038474312962526e-05,2.4898963891050568e-05,3.2226330501258854e-05,5.9286,3.3571
2.109375,3.4661767487602035e-05,2.6850120900282277e-05,2.2456508354314478e-05,3.2710610478370326e-05,5.9286,3.3571
2.11328125,3.2710610478370326e-05,3.612864451972227e-05,2.2456508354314478e-05,3.026815494163423e-05,5.9286,3.3571
2.1171875,4.0037977088578615e-05,3.612864451972227e-05,3.1735031973754475e-05,3.2226330501258854e-05,5.9286,3.3571
2.12109375,4.149783557030594e-05,2.7341419427786666e-05,3.1735031973754475e-05,3.5153066015106413e-05,5.9286,3.3571
2.125,4.0037977088578615e-05,1.659601877622643e-05,1.1718126253147162e-05,3.5153066015106413e-05,5.9286,3.3571
2.12890625,4.052225706569008e-05,1.2693704757763014e-05,4.3907596429388745e-06,3.417748751049056e-05,5.9286,3.3571
2.1328125,4.149783557030594e-05,4.3907596429388745e-06,-1.9540099122606378e-06,3.368618898298618e-05,5.9286,3.3571
2.13671875,3.807980152895398e-05,-7.81449949034868e-06,-1.465056757305258e-05,2.831699793240252e-05,5.9286,3.3571
2.140625,4.24804326253147e-05,-1.7584321637293062e-05,-1.8068601614404528e-05,2.7341419427786666e-05,5.9286,3.3571
2.14453125,4.735832514839397e-05,-2.5395968224612813e-05,-1.7584321637293062e-05,3.417748751049056e-05,5.9286,3.3571
2.1484375,4.4915869611657883e-05,-3.124943925230794e-05,-2.978958077058062e-05,3.2710610478370326e-05,5.9286,3.3571
2.15234375,4.4915869611657883e-05,-4.979946794079501e-05,-5.370880050965134e-05,2.5874542395666423e-05,5.9286,3.3571
2.15625,4.735832514839397e-05,-6.054486859235524e-05,-6.493848113832305e-05,2.4898963891050568e-05,5.9286,3.3571
2.16015625,5.614555024032958e-05,-7.665946029449913e-05,-8.447110688181888e-05,2.539026241855496e-05,5.9286,3.3571
2.1640625,6.298161832303348e-05,-0.00011034850218051424,-0.0001318322849332418,1.4644861766994721e-05,5.9286,3.3571
2.16796875,6.884210790112153e-05,-0.00012988112792401007,-0.00015283178770885786,7.317495156786435e-06,5.9286,3.3571
2.171875,7.128456343785763e-05,-0.00014403754406652934,-0.0001611277142732891,8.784372188906679e-06,5.9286,3.3571
2.17578125,7.61694745113298e-05,-0.00017382427193408104,-0.00018749640809948882,-9.784314076447807e-07,5.9286,3.3571
2.1796875,8.935031214923321e-05,-0.00018798770662699322,-0.00020311970127412834,-9.765656499580391e-06,5.9286,3.3571
2.18359375,9.47265217502098e-05,-0.0002040952797787442,-0.00022070117000839247,-9.784314076447807e-07,5.9286,3.3571
2.1875,9.423522322270541e-05,-0.00022899709657282368,-0.0002407180757289998,4.814270740825392e-07,5.9286,3.3571
2.19140625,0.00010155557128252079,-0.00022265232701762418,-0.0002338820076462959,-4.396465448996732e-06,5.9286,3.3571
2.1953125,0.00010009571280079344,-0.00023241513061417562,-0.0002377913402151522,-3.912185471885266e-06,5.9286,3.3571
2.19921875,9.521080172732127e-05,-0.0002490210208438239,-0.0002475541438117037,-2.9366069672694085e-06,5.9286,3.3571
2.203125,0.00010107129130540931,-0.00023876691871976808,-0.0002495053008209354,-5.372043953612585e-06,5.9286,3.3571
2.20703125,0.00010595620237888149,-0.00023485758615091173,-0.00024413610977035174,-2.445308439765025e-06,5.9286,3.3571
2.2109375,0.00010741606086060883,-0.0002377913402151522,-0.00025048789787594414,-1.469729935149168e-06,5.9286,3.3571
2.21484375,0.0001098585163973449,-0.00022802151806820784,-0.000260742,-6.838920985732827e-06,5.9286,3.3571
2.21875,9.716195873655297e-05,-0.00020995576935683223,-0.00025146347638056,-5.372043953612585e-06,5.9286,3.3571
2.22265625,8.398112109864956e-05,-0.00020947148937972075,-0.00024413610977035174,-9.784314076447807e-07,5.9286,3.3571
2.2265625,9.081718918135347e-05,-0.0002040952797787442,-0.0002314395521095598,-6.838920985732827e-06,5.9286,3.3571
2.23046875,9.423522322270541e-05,-0.00018163591852140076,-0.0002109313478614481,-4.396465448996732e-06,5.9286,3.3571
2.234375,8.984161067673761e-05,-0.00018310279555352105,-0.00019335689767757688,-2.9366069672694085e-06,5.9286,3.3571
2.23828125,8.935031214923321e-05,-0.000177242305975433,-0.00018358707553063248,-7.330219513237214e-06,5.9286,3.3571
2.2421875,8.984161067673761e-05,-0.0001513649106767376,-0.000186520829594873,-6.347622458228439e-06,5.9286,3.3571
2.24609375,8.935031214923321e-05,-0.00014843115661249714,-0.00019140574066834517,-2.445308439765025e-06,5.9286,3.3571
2.25,9.081718918135347e-05,-0.0001411108085526818,-0.00017773360450293736,-3.912185471885266e-06,5.9286,3.3571
2.25390625,8.593227810788126e-05,-0.00012841425089188984,-0.0001650370468421454,-4.396465448996732e-06,5.9286,3.3571
2.2578125,8.495669960326542e-05,-0.00013085670642862596,-0.00016064343429617763,-5.863342481116973e-06,5.9286,3.3571
2.26171875,8.593227810788126e-05,-0.0001269473738597696,-0.00014208638705729765,-3.4208869443808787e-06,5.9286,3.3571
2.265625,8.202996408941786e-05,-0.00011083278215762571,-0.00013085670642862596,-9.784314076447807e-07,5.9286,3.3571
2.26953125,8.056308705729762e-05,-0.00010400373262531472,-0.00012499621685053787,-5.863342481116973e-06,5.9286,3.3571
2.2734375,7.861193004806592e-05,-0.00010302113557030596,-0.00012108688428168156,-4.88776397650112e-06,5.9286,3.3571
2.27734375,7.714505301594566e-05,-9.472520900587474e-05,-0.00011669327173571374,-9.784314076447807e-07,5.9286,3.3571
2.28125,7.128456343785763e-05,-8.397980835431449e-05,-0.00010546359110704205,2.4396026337071675e-06,5.9286,3.3571
2.28515625,6.933340642862591e-05,-6.738093667505913e-05,-9.228275346913864e-05,6.3419166521705815e-06,5.9286,3.3571
2.2890625,7.567817598382543e-05,-7.079897071641108e-05,-8.447110688181888e-05,5.366338147554728e-06,5.9286,3.3571
2.29296875,7.567817598382543e-05,-6.542276111543451e-05,-7.567686323949036e-05,9.727256015869265e-07,5.9286,3.3571
2.296875,7.226014194247348e-05,-5.370880050965134e-05,-6.493848113832305e-05,9.727256015869265e-07,5.9286,3.3571
2.30078125,7.42183175020981e-05,-4.443027689021135e-05,-5.370880050965134e-05,4.814270740825392e-07,5.9286,3.3571
2.3046875,7.275144046997786e-05,-3.8085507335011836e-05,-4.1012242848859396e-05,4.814270740825392e-07,5.9286,3.3571
2.30859375,6.689095089188981e-05,-3.320059626153965e-05,-4.0036664344243545e-05,1.9483041062027766e-06,5.9286,3.3571
2.3125,6.347291685053787e-05,-1.7584321637293062e-05,-2.8814002265964762e-05,3.415181138323021e-06,5.9286,3.3571
2.31640625,6.103046131380178e-05,-1.611744460517282e-05,-1.953547864652477e-05,6.833215179674973e-06,5.9286,3.3571
2.3203125,5.663684876783397e-05,-5.372043953612585e-06,-1.3674989068436725e-05,9.275670716411063e-06,5.9286,3.3571
2.32421875,5.029207921263446e-05,1.6111738799114966e-05,1.0735529198138386e-05,6.3419166521705815e-06,5.9286,3.3571
2.328125,4.3940291107042026e-05,2.9292576437018374e-05,2.2456508354314478e-05,7.317495156786435e-06,5.9286,3.3571
2.33203125,4.052225706569008e-05,4.0037977088578615e-05,3.2226330501258854e-05,1.122682772564277e-05,5.9286,3.3571
2.3359375,3.026815494163423e-05,5.321881472648202e-05,4.589846666666665e-05,1.9038474312962526e-05,5.9286,3.3571
2.33984375,1.2693704757763014e-05,6.689095089188981e-05,6.689095089188981e-05,2.782569940489813e-05,5.9286,3.3571
2.34375,5.366338147554728e-06,8.886603217212176e-05,9.081718918135347e-05,3.320190900587471e-05,5.9286,3.3571
2.34765625,-2.445308439765025e-06,0.00011132539342946515,9.960441427328907e-05,4.345601112993056e-05,5.9286,3.3571
2.3515625,-1.1232533531700631e-05,0.00011864574148928054,0.00011376784896620125,5.077635918974593e-05,5.9286,3.3571
2.35546875,-1.611744460517282e-05,0.0001196283385442893,0.00012743998513160907,5.1267657717250315e-05,5.9286,3.3571
2.359375,-2.4904669697108428e-05,0.00012597310809948881,0.00014062082276951248,5.663684876783397e-05,5.9286,3.3571
2.36328125,-2.8814002265964762e-05,0.00013476033319142442,0.00016063772849011975,6.200603981841764e-05,5.9286,3.3571
2.3671875,-3.0273860747692085e-05,0.00014306327830624854,0.00016845639362783244,6.444849535515372e-05,5.9286,3.3571
2.37109375,-3.320059626153965e-05,0.00014501443531548025,0.00017138312914167998,6.981768640573737e-05,5.9286,3.3571
2.375,-3.320059626153965e-05,0.0001489237678843366,0.00017040755063706415,7.030898493324177e-05,5.9286,3.3571
2.37890625,-3.124943925230794e-05,0.00016308018402685586,0.00017529246171053633,6.835782792401007e-05,5.9286,3.3571
2.3828125,-3.4667473293659885e-05,0.0001601534485130083,0.00018994017638056,7.177586196536201e-05,5.9286,3.3571
2.38671875,-3.612733177538721e-05,0.00016210460552224,0.0001962849459357595,7.567817598382543e-05,5.9286,3.3571
2.390625,-3.515175327077136e-05,0.00016845639362783244,0.00019921869999999997,7.665375448844127e-05,5.9286,3.3571
2.39453125,-3.320059626153965e-05,0.00016308018402685586,0.0001914000348622873,7.275144046997786e-05,5.9286,3.3571
2.3984375,-2.7838423761348908e-05,0.0001650383595864805,0.00019238263191729608,7.030898493324177e-05,5.9286,3.3571
2.40234375,-2.6371546729228668e-05,0.0001669895165957122,0.00019238263191729608,7.030898493324177e-05,5.9286,3.3571
2.40625,-2.8814002265964762e-05,0.00016357148255436024,0.0001874977208438239,6.981768640573737e-05,5.9286,3.3571
2.41015625,-3.124943925230794e-05,0.0001625959040497444,0.0001850552653070878,6.689095089188981e-05,5.9286,3.3571
2.4140625,-2.588024820172428e-05,0.00016210460552224,0.0001762680402151522,6.444849535515372e-05,5.9286,3.3571
2.41796875,-1.953547864652477e-05,0.00015478425746242463,0.0001694319721324483,6.200603981841764e-05,5.9286,3.3571
2.421875,-1.5141866100556967e-05,0.00015429295893492023,0.00017138312914167998,5.956358428168153e-05,5.9286,3.3571
2.42578125,-1.3674989068436725e-05,0.0001508749248935683,0.0001572196944487678,5.907930430457007e-05,5.9286,3.3571
2.4296875,-1.2208112036316485e-05,0.00014843246935683223,0.0001489237678843366,5.614555024032958e-05,5.9286,3.3571
2.43359375,-7.81449949034868e-06,0.0001440388568108644,0.00015136622342107269,5.5169971735713725e-05,5.9286,3.3571
2.4375,-3.4208869443808787e-06,0.0001459900138200961,0.00015185050339818417,5.321881472648202e-05,5.9286,3.3571
2.44140625,1.4640241290913138e-06,0.0001508749248935683,0.0001533173804303044,5.077635918974593e-05,5.9286,3.3571
2.4453125,-2.852903028927045e-09,0.00014062082276951248,0.00015185050339818417,5.4194393231097874e-05,5.9286,3.3571
2.44921875,-5.863342481116973e-06,0.00013915394573739222,0.00015526853743953612,5.321881472648202e-05,5.9286,3.3571
2.453125,-2.445308439765025e-06,0.00013720278872816053,0.0001528260819028,5.2243236221866166e-05,5.9286,3.3571
2.45703125,6.833215179674973e-06,0.00013134229915007247,0.0001489237678843366,5.029207921263446e-05,5.9286,3.3571
2.4609375,4.882058170443265e-06,0.000130858019172961,0.00015234180192568854,4.882520218051422e-05,5.9286,3.3571
2.46484375,2.4396026337071675e-06,0.0001396452442648966,0.0001508749248935683,5.175193769436178e-05,5.9286,3.3571
2.46875,6.833215179674973e-06,0.00013720278872816053,0.00014550573384298465,4.930948215762568e-05,5.9286,3.3571
2.47265625,7.808793684290826e-06,0.00012939114214084076,0.0001489237678843366,4.7849623675898356e-05,5.9286,3.3571
2.4765625,8.30009221179521e-06,0.00012450623106736856,0.00014306327830624854,4.68740451712825e-05,5.9286,3.3571
2.48046875,6.3419166521705815e-06,0.00012060391704890514,0.0001323178776546883,4.735832514839397e-05,5.9286,3.3571
2.484375,8.30009221179521e-06,0.00011571900597543295,0.00012402195109025713,4.68740451712825e-05,5.9286,3.3571
2.48828125,1.1718126253147162e-05,0.00011279227046158538,0.00012011261852140077,4.4915869611657883e-05,5.9286,3.3571
2.4921875,1.3177984734874485e-05,0.00011230097193408102,0.00012939114214084076,4.443158963454641e-05,5.9286,3.3571
2.49609375,1.5620440271610574e-05,0.00011327655043869685,0.00012548180957198442,4.4915869611657883e-05,5.9286,3.3571
2.5,1.5620440271610574e-05,0.00010839163936522468,0.00011522770744792857,4.540716813916226e-05,5.9286,3.3571
2.50390625,1.5620440271610574e-05,9.960441427328907e-05,0.0001191370400167849,4.540716813916226e-05,5.9286,3.3571
2.5078125,2.001405281757838e-05,9.862883576867321e-05,0.00011180967340657662,4.345601112993056e-05,5.9286,3.3571
2.51171875,1.708731730373082e-05,0.00010253816833752954,0.00010595620237888149,4.4915869611657883e-05,5.9286,3.3571
2.515625,1.3669283262378869e-05,0.00010302244831464102,0.00010937423642023343,4.345601112993056e-05,5.9286,3.3571
2.51953125,1.3669283262378869e-05,9.521080172732127e-05,0.00010204686981002516,3.612864451972227e-05,5.9286,3.3571
2.5234375,1.4153563239490338e-05,9.130848770885785e-05,0.00010204686981002516,3.612864451972227e-05,5.9286,3.3571
2.52734375,2.0505351345082766e-05,8.837473364461736e-05,0.00010448932534676126,3.759552155184251e-05,5.9286,3.3571
2.53125,2.3432086858930332e-05,8.78904536675059e-05,8.935031214923321e-05,3.710422302433812e-05,5.9286,3.3571
2.53515625,2.3923385386434717e-05,8.642357663538565e-05,7.665375448844127e-05,3.320190900587471e-05,5.9286,3.3571
2.5390625,2.197222837720301e-05,7.958750855268176e-05,6.933340642862591e-05,2.978387496452276e-05,5.9286,3.3571
2.54296875,2.1480929849698623e-05,7.372701897459371e-05,7.323572044708933e-05,3.2226330501258854e-05,5.9286,3.3571
2.546875,2.0505351345082766e-05,7.665375448844127e-05,8.398112109864956e-05,3.320190900587471e-05,5.9286,3.3571
2.55078125,2.2456508354314478e-05,8.007178852979322e-05,8.54479981307698e-05,3.075945346913862e-05,5.9286,3.3571
2.5546875,2.6365840923170815e-05,7.958750855268176e-05,7.909621002517736e-05,3.2710610478370326e-05,5.9286,3.3571
2.55859375,2.7341419427786666e-05,7.665375448844127e-05,7.812063152056152e-05,3.417748751049056e-05,5.9286,3.3571
2.5625,2.4407665363546186e-05,6.786652939650567e-05,8.495669960326542e-05,3.4661767487602035e-05,5.9286,3.3571
2.56640625,2.4898963891050568e-05,6.689095089188981e-05,8.30055425940337e-05,2.978387496452276e-05,5.9286,3.3571
2.5703125,3.320190900587471e-05,8.447241962615395e-05,8.251424406652932e-05,2.6850120900282277e-05,5.9286,3.3571
2.57421875,3.417748751049056e-05,8.886603217212176e-05,9.521080172732127e-05,3.5153066015106413e-05,5.9286,3.3571
2.578125,2.978387496452276e-05,6.933340642862591e-05,8.447241962615395e-05,3.906239858396276e-05,5.9286,3.3571
2.58203125,2.5874542395666423e-05,5.175193769436178e-05,7.080028346074615e-05,4.1013555593194466e-05,5.9286,3.3571
2.5859375,2.001405281757838e-05,5.272751619897764e-05,6.591537238727395e-05,4.052225706569008e-05,5.9286,3.3571
2.58984375,1.708731730373082e-05,5.321881472648202e-05,5.858800577706567e-05,4.0037977088578615e-05,5.9286,3.3571
2.59375,2.2456508354314478e-05,5.4194393231097874e-05,6.005488280918593e-05,3.954667856107423e-05,5.9286,3.3571
2.59765625,2.2456508354314478e-05,5.858800577706567e-05,5.907930430457007e-05,3.954667856107423e-05,5.9286,3.3571
2.6015625,2.0989631322194234e-05,6.005488280918593e-05,6.152175984130616e-05,3.710422302433812e-05,5.9286,3.3571
2.60546875,2.6365840923170815e-05,5.761242727244982e-05,5.761242727244982e-05,3.320190900587471e-05,5.9286,3.3571
2.609375,2.6365840923170815e-05,5.029207921263446e-05,5.321881472648202e-05,3.368618898298618e-05,5.9286,3.3571
2.61328125,2.4407665363546186e-05,4.638274664377812e-05,5.663684876783397e-05,3.4661767487602035e-05,5.9286,3.3571
2.6171875,2.831699793240252e-05,4.589846666666665e-05,5.712814729533835e-05,3.5153066015106413e-05,5.9286,3.3571
2.62109375,3.124373344625008e-05,4.7849623675898356e-05,5.566127026321811e-05,3.759552155184251e-05,5.9286,3.3571
2.625,3.026815494163423e-05,4.735832514839397e-05,5.614555024032958e-05,3.368618898298618e-05,5.9286,3.3571
2.62890625,2.831699793240252e-05,5.321881472648202e-05,5.272751619897764e-05,2.978387496452276e-05,5.9286,3.3571
2.6328125,3.075945346913862e-05,5.029207921263446e-05,5.175193769436178e-05,3.2226330501258854e-05,5.9286,3.3571
2.63671875,3.4661767487602035e-05,4.735832514839397e-05,5.029207921263446e-05,3.2710610478370326e-05,5.9286,3.3571
2.640625,3.320190900587471e-05,4.833390365300982e-05,5.029207921263446e-05,3.5153066015106413e-05,5.9286,3.3571
2.64453125,3.2226330501258854e-05,4.540716813916226e-05,5.712814729533835e-05,3.5153066015106413e-05,5.9286,3.3571
2.6484375,3.124373344625008e-05,4.930948215762568e-05,5.1267657717250315e-05,3.417748751049056e-05,5.9286,3.3571
2.65234375,3.2226330501258854e-05,5.029207921263446e-05,4.882520218051422e-05,3.6619943047226657e-05,5.9286,3.3571
2.65625,3.2710610478370326e-05,5.029207921263446e-05,5.761242727244982e-05,3.56443645426108e-05,5.9286,3.3571
2.66015625,3.2226330501258854e-05,3.954667856107423e-05,4.345601112993056e-05,3.417748751049056e-05,5.9286,3.3571
2.6640625,3.2710610478370326e-05,3.075945346913862e-05,3.906239858396276e-05,3.4661767487602035e-05,5.9286,3.3571
2.66796875,3.368618898298618e-05,4.24804326253147e-05,4.0037977088578615e-05,3.56443645426108e-05,5.9286,3.3571
2.671875,3.124373344625008e-05,4.052225706569008e-05,3.6619943047226657e-05,3.759552155184251e-05,5.9286,3.3571
2.67578125,2.8808296459906905e-05,2.8808296459906905e-05,4.443158963454641e-05,3.906239858396276e-05,5.9286,3.3571
2.6796875,2.9292576437018374e-05,3.2226330501258854e-05,5.2243236221866166e-05,3.857110005645836e-05,5.9286,3.3571
2.68359375,2.6850120900282277e-05,3.954667856107423e-05,4.882520218051422e-05,3.6619943047226657e-05,5.9286,3.3571
2.6875,2.6365840923170815e-05,3.6619943047226657e-05,3.759552155184251e-05,3.612864451972227e-05,5.9286,3.3571
2.69140625,3.1735031973754475e-05,2.9292576437018374e-05,3.906239858396276e-05,3.710422302433812e-05,5.9286,3.3571
2.6953125,3.320190900587471e-05,2.6850120900282277e-05,3.807980152895398e-05,3.759552155184251e-05,5.9286,3.3571
2.69921875,3.417748751049056e-05,3.2226330501258854e-05,3.2710610478370326e-05,3.4661767487602035e-05,5.9286,3.3571
2.703125,3.4661767487602035e-05,2.831699793240252e-05,3.4661767487602035e-05,3.5153066015106413e-05,5.9286,3.3571
2.70703125,3.2226330501258854e-05,1.8554194335851057e-05,2.2947806881818863e-05,3.612864451972227e-05,5.9286,3.3571
2.7109375,3.56443645426108e-05,1.4153563239490338e-05,9.759950693522533e-06,3.4661767487602035e-05,5.9286,3.3571
2.71484375,3.807980152895398e-05,1.0251249221026917e-05,1.6111738799114966e-05,3.56443645426108e-05,5.9286,3.3571
2.71875,3.56443645426108e-05,5.8576366750591184e-06,2.2456508354314478e-05,3.759552155184251e-05,5.9286,3.3571
2.72265625,3.368618898298618e-05,6.3419166521705815e-06,7.317495156786435e-06,3.6619943047226657e-05,5.9286,3.3571
2.7265625,3.4661767487602035e-05,9.275670716411063e-06,-4.396465448996732e-06,3.368618898298618e-05,5.9286,3.3571
2.73046875,3.759552155184251e-05,9.727256015869265e-07,-1.469729935149168e-06,3.1735031973754475e-05,5.9286,3.3571
2.734375,3.759552155184251e-05,-9.765656499580391e-06,-5.863342481116973e-06,3.4661767487602035e-05,5.9286,3.3571
2.73828125,3.612864451972227e-05,-9.765656499580391e-06,-1.0256955027084775e-05,4.0037977088578615e-05,5.9286,3.3571
2.7421875,3.954667856107423e-05,-1.8068601614404528e-05,-2.100235567864501e-05,3.417748751049056e-05,5.9286,3.3571
2.74609375,3.954667856107423e-05,-4.150354137636378e-05,-3.0273860747692085e-05,3.2710610478370326e-05,5.9286,3.3571
2.75,3.954667856107423e-05,-5.175764350041963e-05,-3.4667473293659885e-05,3.320190900587471e-05,5.9286,3.3571
2.75390625,4.68740451712825e-05,-5.0775046445410866e-05,-4.0036664344243545e-05,2.978387496452276e-05,5.9286,3.3571
2.7578125,5.029207921263446e-05,-5.0290766468299394e-05,-3.124943925230794e-05,3.026815494163423e-05,5.9286,3.3571
2.76171875,4.833390365300982e-05,-4.34546983855955e-05,-3.8085507335011836e-05,2.782569940489813e-05,5.9286,3.3571
2.765625,5.468569175860226e-05,-4.979946794079501e-05,-6.054486859235524e-05,2.6365840923170815e-05,5.9286,3.3571
2.76953125,5.858800577706567e-05,-7.03076721889067e-05,-6.982339221179524e-05,2.6850120900282277e-05,5.9286,3.3571
2.7734375,5.663684876783397e-05,-8.788914092317084e-05,-9.57007875104906e-05,2.3923385386434717e-05,5.9286,3.3571
2.77734375,5.4194393231097874e-05,-0.00010009440005645839,-0.000118160148767834,2.6365840923170815e-05,5.9286,3.3571
2.78125,5.272751619897764e-05,-0.00010302113557030596,-0.00010546359110704205,3.368618898298618e-05,5.9286,3.3571
2.78515625,5.37101132539864e-05,-0.00011913572727244985,-0.0001020455570656901,3.1735031973754475e-05,5.9286,3.3571
2.7890625,5.468569175860226e-05,-0.00012304505984130618,-0.0001020455570656901,3.124373344625008e-05,5.9286,3.3571
2.79296875,5.8103725799954205e-05,-0.00011962702579995424,-0.00010497931112993059,3.2710610478370326e-05,5.9286,3.3571
2.796875,5.712814729533835e-05,-0.0001313409864057374,-0.00012402063834592204,3.026815494163423e-05,5.9286,3.3571
2.80078125,5.663684876783397e-05,-0.0001293898293965057,-0.000127438672387274,2.539026241855496e-05,5.9286,3.3571
2.8046875,6.249733834592202e-05,-0.0001337834419424735,-0.000127438672387274,1.952977284046691e-05,5.9286,3.3571
2.80859375,6.786652939650567e-05,-0.00014647999960326543,-0.00014061951002517742,2.2947806881818863e-05,5.9286,3.3571
2.8125,6.200603981841764e-05,-0.0001523404891813535,-0.00015038933217212177,2.978387496452276e-05,5.9286,3.3571
2.81640625,5.5169971735713725e-05,-0.00014941375366750594,-0.00014159508852979325,3.2226330501258854e-05,5.9286,3.3571
2.8203125,5.614555024032958e-05,-0.000136717196006714,-0.00013525031897459373,3.1735031973754475e-05,5.9286,3.3571
2.82421875,5.712814729533835e-05,-0.00013280786343785762,-0.00013036540790112156,3.368618898298618e-05,5.9286,3.3571
2.828125,5.761242727244982e-05,-0.0001313409864057374,-0.00012255376131380179,3.5153066015106413e-05,5.9286,3.3571
2.83203125,5.175193769436178e-05,-0.0001201113057770657,-0.0001176688502403296,3.759552155184251e-05,5.9286,3.3571
2.8359375,5.175193769436178e-05,-0.00011913572727244985,-0.00012597179535515373,3.417748751049056e-05,5.9286,3.3571
2.83984375,5.566127026321811e-05,-0.00012255376131380179,-0.0001313409864057374,2.831699793240252e-05,5.9286,3.3571
2.84375,5.858800577706567e-05,-0.00012060260430457008,-0.00011425081619897765,3.075945346913862e-05,5.9286,3.3571
2.84765625,5.8103725799954205e-05,-0.00011523341325398644,-0.00010106997856107424,3.075945346913862e-05,5.9286,3.3571
2.8515625,5.2243236221866166e-05,-9.716766454261083e-05,-0.00010643916961165789,3.320190900587471e-05,5.9286,3.3571
2.85546875,5.761242727244982e-05,-7.128325069352256e-05,-0.00010497931112993059,3.026815494163423e-05,5.9286,3.3571
2.859375,6.0546181336690305e-05,-5.810241305561915e-05,-9.618506748760206e-05,2.0505351345082766e-05,5.9286,3.3571
2.86328125,5.614555024032958e-05,-4.492157541771573e-05,-8.642226389105059e-05,2.4407665363546186e-05,5.9286,3.3571
2.8671875,5.029207921263446e-05,-4.052094432135502e-05,-7.225882919813841e-05,2.978387496452276e-05,5.9286,3.3571
2.87109375,4.882520218051422e-05,-3.856978731212331e-05,-6.200472707408257e-05,2.782569940489813e-05,5.9286,3.3571
2.875,4.4915869611657883e-05,-2.8814002265964762e-05,-4.8339609459067685e-05,2.9292576437018374e-05,5.9286,3.3571
2.87890625,3.807980152895398e-05,-2.929828224307623e-05,-3.612733177538721e-05,3.075945346913862e-05,5.9286,3.3571
2.8828125,3.56443645426108e-05,-2.978958077058062e-05,-3.2709297734035256e-05,2.7341419427786666e-05,5.9286,3.3571
2.88671875,3.2710610478370326e-05,-1.611744460517282e-05,-4.396465448996732e-06,2.978387496452276e-05,5.9286,3.3571
2.890625,2.782569940489813e-05,-2.445308439765025e-06,2.4898963891050568e-05,3.56443645426108e-05,5.9286,3.3571
2.89453125,2.3432086858930332e-05,9.275670716411063e-06,2.0989631322194234e-05,3.612864451972227e-05,5.9286,3.3571
2.8984375,2.0505351345082766e-05,2.001405281757838e-05,2.5874542395666423e-05,3.124373344625008e-05,5.9286,3.3571
2.90234375,2.1480929849698623e-05,4.24804326253147e-05,3.759552155184251e-05,3.1735031973754475e-05,5.9286,3.3571
2.90625,2.001405281757838e-05,5.2243236221866166e-05,4.198913409781032e-05,3.417748751049056e-05,5.9286,3.3571
2.91015625,1.8062895808346675e-05,4.638274664377812e-05,4.540716813916226e-05,3.2710610478370326e-05,5.9286,3.3571
2.9140625,1.4644861766994721e-05,4.930948215762568e-05,5.1267657717250315e-05,2.9292576437018374e-05,5.9286,3.3571
2.91796875,1.3177984734874485e-05,5.321881472648202e-05,6.444849535515372e-05,2.831699793240252e-05,5.9286,3.3571
2.921875,1.3177984734874485e-05,6.786652939650567e-05,7.177586196536201e-05,3.320190900587471e-05,5.9286,3.3571
2.92578125,8.30009221179521e-06,7.080028346074615e-05,8.30055425940337e-05,3.4661767487602035e-05,5.9286,3.3571
2.9296875,1.4153563239490338e-05,6.835782792401007e-05,8.690785661249712e-05,3.320190900587471e-05,5.9286,3.3571
2.93359375,1.659601877622643e-05,7.177586196536201e-05,7.61694745113298e-05,3.4661767487602035e-05,5.9286,3.3571
2.9375,1.4153563239490338e-05,7.812063152056152e-05,7.42183175020981e-05,3.1735031973754475e-05,5.9286,3.3571
2.94140625,1.3669283262378869e-05,8.690785661249712e-05,7.372701897459371e-05,2.7341419427786666e-05,5.9286,3.3571
2.9453125,1.0735529198138386e-05,7.861193004806592e-05,6.884210790112153e-05,2.6850120900282277e-05,5.9286,3.3571
2.94921875,1.220240623025863e-05,8.251424406652932e-05,7.226014194247348e-05,3.026815494163423e-05,5.9286,3.3571
2.953125,1.2693704757763014e-05,8.739915514000151e-05,8.642357663538565e-05,3.4661767487602035e-05,5.9286,3.3571
2.95703125,9.759950693522533e-06,7.958750855268176e-05,8.30055425940337e-05,3.5153066015106413e-05,5.9286,3.3571
2.9609375,9.759950693522533e-06,7.275144046997786e-05,7.909621002517736e-05,3.417748751049056e-05,5.9286,3.3571
2.96484375,1.3177984734874485e-05,8.251424406652932e-05,7.665375448844127e-05,3.417748751049056e-05,5.9286,3.3571
2.96875,1.3177984734874485e-05,8.30055425940337e-05,7.61694745113298e-05,3.368618898298618e-05,5.9286,3.3571
2.97265625,1.122682772564277e-05,7.665375448844127e-05,8.1054385584802e-05,3.075945346913862e-05,5.9286,3.3571
2.9765625,9.759950693522533e-06,7.909621002517736e-05,8.153866556191347e-05,3.2710610478370326e-05,5.9286,3.3571
2.98046875,1.1718126253147162e-05,7.714505301594566e-05,8.153866556191347e-05,3.807980152895398e-05,5.9286,3.3571
2.984375,1.8062895808346675e-05,8.78904536675059e-05,0.00010107129130540931,3.906239858396276e-05,5.9286,3.3571
2.98828125,1.952977284046691e-05,9.813753724116884e-05,0.00010937423642023343,3.6619943047226657e-05,5.9286,3.3571
2.9921875,1.3177984734874485e-05,9.423522322270541e-05,0.00010204686981002516,3.417748751049056e-05,5.9286,3.3571
2.99609375,1.5620440271610574e-05,9.618638023193711e-05,0.00010546490385137713,3.417748751049056e-05,5.9286,3.3571
3.0,1.9038474312962526e-05,9.716195873655297e-05,0.00010057999277790492,3.1735031973754475e-05,5.9286,3.3571
3.00390625,1.7571597280842283e-05,9.374392469520103e-05,9.325964471808955e-05,2.831699793240252e-05,5.9286,3.3571
3.0078125,1.8554194335851057e-05,9.716195873655297e-05,9.325964471808955e-05,2.978387496452276e-05,5.9286,3.3571
3.01171875,2.1480929849698623e-05,0.00010155557128252079,9.521080172732127e-05,3.2710610478370326e-05,5.9286,3.3571
3.015625,2.0989631322194234e-05,9.325964471808955e-05,9.325964471808955e-05,3.320190900587471e-05,5.9286,3.3571
3.01953125,1.952977284046691e-05,8.642357663538565e-05,0.00010155557128252079,2.978387496452276e-05,5.9286,3.3571
3.0234375,2.2456508354314478e-05,9.130848770885785e-05,0.00010155557128252079,3.1735031973754475e-05,5.9286,3.3571
3.02734375,2.2947806881818863e-05,8.690785661249712e-05,8.78904536675059e-05,3.6619943047226657e-05,5.9286,3.3571
3.03125,2.0989631322194234e-05,8.642357663538565e-05,8.935031214923321e-05,3.4661767487602035e-05,5.9286,3.3571
3.03515625,2.2947806881818863e-05,8.886603217212176e-05,8.739915514000151e-05,3.320190900587471e-05,5.9286,3.3571
3.0390625,2.4407665363546186e-05,8.78904536675059e-05,9.765325726405737e-05,3.5153066015106413e-05,5.9286,3.3571
3.04296875,2.539026241855496e-05,8.593227810788126e-05,0.00010057999277790492,3.417748751049056e-05,5.9286,3.3571
3.046875,2.3923385386434717e-05,8.495669960326542e-05,8.495669960326542e-05,2.9292576437018374e-05,5.9286,3.3571
3.05078125,2.3432086858930332e-05,8.54479981307698e-05,9.081718918135347e-05,3.124373344625008e-05,5.9286,3.3571
3.0546875,2.6365840923170815e-05,8.593227810788126e-05,8.593227810788126e-05,3.075945346913862e-05,5.9286,3.3571
3.05859375,2.7341419427786666e-05,8.398112109864956e-05,6.933340642862591e-05,2.831699793240252e-05,5.9286,3.3571
3.0625,2.978387496452276e-05,8.202996408941786e-05,7.665375448844127e-05,3.1735031973754475e-05,5.9286,3.3571
3.06640625,2.539026241855496e-05,8.398112109864956e-05,8.447241962615395e-05,3.1735031973754475e-05,5.9286,3.3571
3.0703125,2.539026241855496e-05,7.665375448844127e-05,7.470259747920957e-05,2.6365840923170815e-05,5.9286,3.3571
3.07421875,2.831699793240252e-05,7.519389600671396e-05,7.372701897459371e-05,2.7341419427786666e-05,5.9286,3.3571
3.078125,2.9292576437018374e-05,8.007178852979322e-05,7.567817598382543e-05,2.7341419427786666e-05,5.9286,3.3571
3.08203125,2.9292576437018374e-05,8.056308705729762e-05,8.30055425940337e-05,2.7341419427786666e-05,5.9286,3.3571
3.0859375,2.831699793240252e-05,7.323572044708933e-05,8.398112109864956e-05,2.831699793240252e-05,5.9286,3.3571
3.08984375,3.075945346913862e-05,7.470259747920957e-05,7.42183175020981e-05,2.6850120900282277e-05,5.9286,3.3571
3.09375,3.417748751049056e-05,7.763635154345006e-05,7.226014194247348e-05,2.5874542395666423e-05,5.9286,3.3571
3.09765625,3.417748751049056e-05,6.786652939650567e-05,7.080028346074615e-05,2.7341419427786666e-05,5.9286,3.3571
3.1015625,2.6850120900282277e-05,6.689095089188981e-05,6.689095089188981e-05,2.6850120900282277e-05,5.9286,3.3571
3.10546875,2.4407665363546186e-05,6.249733834592202e-05,6.347291685053787e-05,2.2947806881818863e-05,5.9286,3.3571
3.109375,3.075945346913862e-05,5.614555024032958e-05,6.347291685053787e-05,2.6365840923170815e-05,5.9286,3.3571
3.11328125,3.026815494163423e-05,6.200603981841764e-05,6.73822494193942e-05,2.7341419427786666e-05,5.9286,3.3571
3.1171875,2.9292576437018374e-05,6.396421537804225e-05,7.128456343785763e-05,2.5874542395666423e-05,5.9286,3.3571
3.12109375,3.1735031973754475e-05,5.663684876783397e-05,6.591537238727395e-05,3.026815494163423e-05,5.9286,3.3571
3.125,2.831699793240252e-05,5.272751619897764e-05,7.030898493324177e-05,2.8808296459906905e-05,5.9286,3.3571
3.12890625,3.026815494163423e-05,5.761242727244982e-05,8.007178852979322e-05,2.978387496452276e-05,5.9286,3.3571
3.1328125,3.56443645426108e-05,5.614555024032958e-05,6.396421537804225e-05,2.9292576437018374e-05,5.9286,3.3571
3.13671875,3.4661767487602035e-05,6.005488280918593e-05,5.175193769436178e-05,2.5874542395666423e-05,5.9286,3.3571
3.140625,3.368618898298618e-05,6.689095089188981e-05,5.761242727244982e-05,2.7341419427786666e-05,5.9286,3.3571
3.14453125,3.2226330501258854e-05,6.0546181336690305e-05,5.8103725799954205e-05,3.368618898298618e-05,5.9286,3.3571
3.1484375,3.2710610478370326e-05,5.5169971735713725e-05,5.712814729533835e-05,3.612864451972227e-05,5.9286,3.3571
3.15234375,3.1735031973754475e-05,5.4194393231097874e-05,6.591537238727395e-05,3.1735031973754475e-05,5.9286,3.3571
3.15625,2.978387496452276e-05,5.321881472648202e-05,6.639965236438542e-05,2.7341419427786666e-05,5.9286,3.3571
3.16015625,3.075945346913862e-05,4.882520218051422e-05,5.761242727244982e-05,2.9292576437018374e-05,5.9286,3.3571
3.1640625,3.026815494163423e-05,4.68740451712825e-05,5.8103725799954205e-05,2.978387496452276e-05,5.9286,3.3571
3.16796875,2.978387496452276e-05,4.930948215762568e-05,5.37101132539864e-05,2.7341419427786666e-05,5.9286,3.3571
3.171875,3.2710610478370326e-05,4.833390365300982e-05,5.468569175860226e-05,3.2710610478370326e-05,5.9286,3.3571
3.17578125,3.5153066015106413e-05,4.68740451712825e-05,5.566127026321811e-05,3.56443645426108e-05,5.9286,3.3571
3.1796875,3.2710610478370326e-05,4.68740451712825e-05,5.956358428168153e-05,3.320190900587471e-05,5.9286,3.3571
3.18359375,3.320190900587471e-05,6.200603981841764e-05,7.42183175020981e-05,3.026815494163423e-05,5.9286,3.3571
3.1875,3.124373344625008e-05,7.226014194247348e-05,7.714505301594566e-05,3.1735031973754475e-05,5.9286,3.3571
3.19140625,2.831699793240252e-05,4.443158963454641e-05,5.5169971735713725e-05,3.124373344625008e-05,5.9286,3.3571
3.1953125,3.2710610478370326e-05,3.857110005645836e-05,4.198913409781032e-05,2.831699793240252e-05,5.9286,3.3571
3.19921875,3.1735031973754475e-05,5.077635918974593e-05,5.175193769436178e-05,2.4898963891050568e-05,5.9286,3.3571
3.203125,3.5153066015106413e-05,5.1267657717250315e-05,5.321881472648202e-05,2.2947806881818863e-05,5.9286,3.3571
3.20703125,3.759552155184251e-05,5.272751619897764e-05,6.444849535515372e-05,2.8808296459906905e-05,5.9286,3.3571
3.2109375,3.4661767487602035e-05,5.321881472648202e-05,7.323572044708933e-05,2.782569940489813e-05,5.9286,3.3571
3.21484375,3.4661767487602035e-05,5.272751619897764e-05,6.298161832303348e-05,2.6850120900282277e-05,5.9286,3.3571
3.21875,3.4661767487602035e-05,5.029207921263446e-05,5.8103725799954205e-05,2.8808296459906905e-05,5.9286,3.3571
3.22265625,3.368618898298618e-05,4.443158963454641e-05,5.5169971735713725e-05,2.8808296459906905e-05,5.9286,3.3571
3.2265625,3.124373344625008e-05,4.735832514839397e-05,5.029207921263446e-05,2.6365840923170815e-05,5.9286,3.3571
3.23046875,3.026815494163423e-05,4.882520218051422e-05,5.029207921263446e-05,2.5874542395666423e-05,5.9286,3.3571
3.234375,3.1735031973754475e-05,5.468569175860226e-05,4.052225706569008e-05,2.782569940489813e-05,5.9286,3.3571
3.23828125,3.368618898298618e-05,6.200603981841764e-05,5.1267657717250315e-05,3.026815494163423e-05,5.9286,3.3571
3.2421875,3.368618898298618e-05,5.712814729533835e-05,6.493979388265811e-05,3.124373344625008e-05,5.9286,3.3571
3.24609375,3.2710610478370326e-05,5.321881472648202e-05,5.614555024032958e-05,2.8808296459906905e-05,5.9286,3.3571
3.25,3.124373344625008e-05,5.4194393231097874e-05,5.663684876783397e-05,2.7341419427786666e-05,5.9286,3.3571
3.25390625,3.075945346913862e-05,5.468569175860226e-05,5.8103725799954205e-05,3.1735031973754475e-05,5.9286,3.3571
3.2578125,3.075945346913862e-05,5.566127026321811e-05,4.198913409781032e-05,3.368618898298618e-05,5.9286,3.3571
3.26171875,3.1735031973754475e-05,5.614555024032958e-05,4.735832514839397e-05,3.2710610478370326e-05,5.9286,3.3571
3.265625,3.368618898298618e-05,5.077635918974593e-05,5.8103725799954205e-05,3.075945346913862e-05,5.9286,3.3571
3.26953125,3.2710610478370326e-05,4.3940291107042026e-05,4.638274664377812e-05,2.831699793240252e-05,5.9286,3.3571
3.2734375,2.978387496452276e-05,5.029207921263446e-05,4.589846666666665e-05,2.9292576437018374e-05,5.9286,3.3571
3.27734375,2.9292576437018374e-05,4.68740451712825e-05,4.540716813916226e-05,3.368618898298618e-05,5.9286,3.3571
3.28125,2.8808296459906905e-05,4.1013555593194466e-05,4.345601112993056e-05,3.320190900587471e-05,5.9286,3.3571
3.28515625,2.6365840923170815e-05,4.198913409781032e-05,4.68740451712825e-05,3.075945346913862e-05,5.9286,3.3571
3.2890625,3.2226330501258854e-05,3.612864451972227e-05,4.24804326253147e-05,3.026815494163423e-05,5.9286,3.3571
3.29296875,3.4661767487602035e-05,3.075945346913862e-05,4.149783557030594e-05,3.075945346913862e-05,5.9286,3.3571
3.296875,3.124373344625008e-05,3.368618898298618e-05,4.052225706569008e-05,3.075945346913862e-05,5.9286,3.3571
3.30078125,3.4661767487602035e-05,3.6619943047226657e-05,5.077635918974593e-05,3.124373344625008e-05,5.9286,3.3571
3.3046875,3.368618898298618e-05,2.831699793240252e-05,3.906239858396276e-05,3.320190900587471e-05,5.9286,3.3571
3.30859375,2.9292576437018374e-05,3.759552155184251e-05,3.56443645426108e-05,3.368618898298618e-05,5.9286,3.3571
3.3125,2.782569940489813e-05,3.906239858396276e-05,5.077635918974593e-05,3.320190900587471e-05,5.9286,3.3571
3.31640625,2.782569940489813e-05,3.2226330501258854e-05,4.4915869611657883e-05,3.320190900587471e-05,5.9286,3.3571
3.3203125,2.8808296459906905e-05,3.2226330501258854e-05,3.759552155184251e-05,3.368618898298618e-05,5.9286,3.3571
3.32421875,3.2226330501258854e-05,3.2710610478370326e-05,3.026815494163423e-05,3.026815494163423e-05,5.9286,3.3571
3.328125,3.5153066015106413e-05,3.1735031973754475e-05,4.0037977088578615e-05,2.831699793240252e-05,5.9286,3.3571
3.33203125,3.026815494163423e-05,2.539026241855496e-05,4.1013555593194466e-05,3.124373344625008e-05,5.9286,3.3571
3.3359375,2.7341419427786666e-05,2.6850120900282277e-05,3.368618898298618e-05,3.1735031973754475e-05,5.9286,3.3571
3.33984375,3.1735031973754475e-05,2.3432086858930332e-05,3.954667856107423e-05,3.417748751049056e-05,5.9286,3.3571
3.34375,3.026815494163423e-05,2.5874542395666423e-05,4.882520218051422e-05,3.5153066015106413e-05,5.9286,3.3571
3.34765625,2.4407665363546186e-05,3.857110005645836e-05,4.833390365300982e-05,3.1735031973754475e-05,5.9286,3.3571
3.3515625,2.6850120900282277e-05,4.68740451712825e-05,4.345601112993056e-05,3.026815494163423e-05,5.9286,3.3571
3.35546875,2.8808296459906905e-05,3.954667856107423e-05,4.24804326253147e-05,2.831699793240252e-05,5.9286,3.3571
3.359375,2.8808296459906905e-05,2.831699793240252e-05,3.6619943047226657e-05,2.539026241855496e-05,5.9286,3.3571
3.36328125,3.2710610478370326e-05,3.320190900587471e-05,3.906239858396276e-05,2.8808296459906905e-05,5.9286,3.3571
3.3671875,3.2226330501258854e-05,3.710422302433812e-05,4.638274664377812e-05,3.2226330501258854e-05,5.9286,3.3571
3.37109375,3.026815494163423e-05,3.56443645426108e-05,3.320190900587471e-05,3.320190900587471e-05,5.9286,3.3571
3.375,3.026815494163423e-05,3.759552155184251e-05,2.782569940489813e-05,3.1735031973754475e-05,5.9286,3.3571
3.37890625,2.978387496452276e-05,3.710422302433812e-05,2.831699793240252e-05,3.320190900587471e-05,5.9286,3.3571
3.3828125,3.075945346913862e-05,3.2710610478370326e-05,3.2710610478370326e-05,3.124373344625008e-05,5.9286,3.3571
3.38671875,3.320190900587471e-05,3.2226330501258854e-05,4.149783557030594e-05,2.7341419427786666e-05,5.9286,3.3571
3.390625,3.026815494163423e-05,3.075945346913862e-05,4.1013555593194466e-05,3.124373344625008e-05,5.9286,3.3571
3.39453125,2.8808296459906905e-05,2.978387496452276e-05,3.857110005645836e-05,2.831699793240252e-05,5.9286,3.3571
3.3984375,2.782569940489813e-05,3.1735031973754475e-05,3.320190900587471e-05,2.4898963891050568e-05,5.9286,3.3571
3.40234375,2.6365840923170815e-05,2.6365840923170815e-05,3.612864451972227e-05,2.6850120900282277e-05,5.9286,3.3571
3.40625,3.1735031973754475e-05,2.831699793240252e-05,3.6619943047226657e-05,3.026815494163423e-05,5.9286,3.3571
3.41015625,3.368618898298618e-05,3.320190900587471e-05,3.6619943047226657e-05,3.124373344625008e-05,5.9286,3.3571
3.4140625,3.075945346913862e-05,3.56443645426108e-05,3.857110005645836e-05,2.9292576437018374e-05,5.9286,3.3571
3.41796875,3.026815494163423e-05,2.5874542395666423e-05,3.6619943047226657e-05,3.124373344625008e-05,5.9286,3.3571
3.421875,3.026815494163423e-05,2.0989631322194234e-05,3.612864451972227e-05,3.2226330501258854e-05,5.9286,3.3571
3.42578125,3.2710610478370326e-05,3.026815494163423e-05,4.198913409781032e-05,3.320190900587471e-05,5.9286,3.3571
3.4296875,3.368618898298618e-05,2.9292576437018374e-05,3.417748751049056e-05,3.1735031973754475e-05,5.9286,3.3571
3.43359375,3.417748751049056e-05,2.0989631322194234e-05,2.9292576437018374e-05,2.6850120900282277e-05,5.9286,3.3571
3.4375,3.5153066015106413e-05,2.3432086858930332e-05,3.1735031973754475e-05,2.831699793240252e-05,5.9286,3.3571
3.44140625,3.5153066015106413e-05,3.124373344625008e-05,3.026815494163423e-05,2.978387496452276e-05,5.9286,3.3571
3.4453125,3.124373344625008e-05,2.782569940489813e-05,3.1735031973754475e-05,2.8808296459906905e-05,5.9286,3.3571
3.44921875,3.1735031973754475e-05,2.4407665363546186e-05,2.7341419427786666e-05,3.026815494163423e-05,5.9286,3.3571
3.453125,3.320190900587471e-05,2.2456508354314478e-05,2.4898963891050568e-05,2.831699793240252e-05,5.9286,3.3571
3.45703125,3.368618898298618e-05,2.539026241855496e-05,2.4407665363546186e-05,2.6850120900282277e-05,5.9286,3.3571
3.4609375,3.368618898298618e-05,3.320190900587471e-05,2.782569940489813e-05,2.5874542395666423e-05,5.9286,3.3571
3.46484375,2.831699793240252e-05,2.4898963891050568e-05,2.5874542395666423e-05,2.6365840923170815e-05,5.9286,3.3571
3.46875,3.026815494163423e-05,2.5874542395666423e-05,2.2456508354314478e-05,2.782569940489813e-05,5.9286,3.3571
3.47265625,3.5153066015106413e-05,2.1480929849698623e-05,2.0505351345082766e-05,2.831699793240252e-05,5.9286,3.3571
3.4765625,3.124373344625008e-05,2.197222837720301e-05,2.2456508354314478e-05,3.026815494163423e-05,5.9286,3.3571
3.48046875,2.782569940489813e-05,2.197222837720301e-05,2.2456508354314478e-05,2.6850120900282277e-05,5.9286,3.3571
3.484375,3.2710610478370326e-05,1.7571597280842283e-05,2.001405281757838e-05,2.7341419427786666e-05,5.9286,3.3571
3.48828125,3.320190900587471e-05,2.7341419427786666e-05,2.978387496452276e-05,3.026815494163423e-05,5.9286,3.3571
3.4921875,3.124373344625008e-05,2.978387496452276e-05,2.539026241855496e-05,2.782569940489813e-05,5.9286,3.3571
3.49609375,3.2226330501258854e-05,3.075945346913862e-05,2.4407665363546186e-05,3.075945346913862e-05,5.9286,3.3571
3.5,2.831699793240252e-05,2.831699793240252e-05,3.417748751049056e-05,3.075945346913862e-05,5.9286,3.3571
3.50390625,2.8808296459906905e-05,2.831699793240252e-05,4.540716813916226e-05,2.9292576437018374e-05,5.9286,3.3571
3.5078125,3.417748751049056e-05,2.782569940489813e-05,3.857110005645836e-05,3.320190900587471e-05,5.9286,3.3571
3.51171875,3.1735031973754475e-05,2.5874542395666423e-05,2.6850120900282277e-05,3.2710610478370326e-05,5.9286,3.3571
3.515625,3.124373344625008e-05,2.7341419427786666e-05,4.052225706569008e-05,3.1735031973754475e-05,5.9286,3.3571
3.51953125,3.2226330501258854e-05,3.1735031973754475e-05,3.857110005645836e-05,3.6619943047226657e-05,5.9286,3.3571
3.5234375,3.56443645426108e-05,2.2456508354314478e-05,1.659601877622643e-05,3.710422302433812e-05,5.9286,3.3571
3.52734375,3.5153066015106413e-05,2.2947806881818863e-05,2.2947806881818863e-05,3.2710610478370326e-05,5.9286,3.3571
3.53125,3.2226330501258854e-05,3.2226330501258854e-05,2.5874542395666423e-05,2.9292576437018374e-05,5.9286,3.3571
3.53515625,2.9292576437018374e-05,3.4661767487602035e-05,1.8554194335851057e-05,3.124373344625008e-05,5.9286,3.3571
3.5390625,2.6850120900282277e-05,2.7341419427786666e-05,1.7571597280842283e-05,3.320190900587471e-05,5.9286,3.3571
3.54296875,2.6850120900282277e-05,2.2456508354314478e-05,2.1480929849698623e-05,3.075945346913862e-05,5.9286,3.3571
3.546875,2.978387496452276e-05,2.5874542395666423e-05,2.7341419427786666e-05,3.026815494163423e-05,5.9286,3.3571
3.55078125,3.56443645426108e-05,2.6850120900282277e-05,2.9292576437018374e-05,2.831699793240252e-05,5.9286,3.3571
3.5546875,3.807980152895398e-05,2.831699793240252e-05,3.1735031973754475e-05,2.978387496452276e-05,5.9286,3.3571
3.55859375,3.710422302433812e-05,3.1735031973754475e-05,3.1735031973754475e-05,2.831699793240252e-05,5.9286,3.3571
3.5625,3.4661767487602035e-05,4.1013555593194466e-05,2.978387496452276e-05,2.4407665363546186e-05,5.9286,3.3571
3.56640625,3.417748751049056e-05,3.124373344625008e-05,2.3432086858930332e-05,2.539026241855496e-05,5.9286,3.3571
3.5703125,3.5153066015106413e-05,2.6850120900282277e-05,1.4644861766994721e-05,2.8808296459906905e-05,5.9286,3.3571
3.57421875,3.417748751049056e-05,3.320190900587471e-05,2.2456508354314478e-05,2.9292576437018374e-05,5.9286,3.3571
3.578125,3.320190900587471e-05,3.075945346913862e-05,3.417748751049056e-05,3.124373344625008e-05,5.9286,3.3571
3.58203125,3.1735031973754475e-05,2.5874542395666423e-05,2.4407665363546186e-05,3.2226330501258854e-05,5.9286,3.3571
3.5859375,3.124373344625008e-05,2.4407665363546186e-05,1.708731730373082e-05,2.6365840923170815e-05,5.9286,3.3571
3.58984375,3.4661767487602035e-05,2.1480929849698623e-05,2.001405281757838e-05,2.4407665363546186e-05,5.9286,3.3571
3.59375,3.417748751049056e-05,2.2456508354314478e-05,1.7571597280842283e-05,2.6850120900282277e-05,5.9286,3.3571
3.59765625,3.368618898298618e-05,3.612864451972227e-05,1.952977284046691e-05,3.320190900587471e-05,5.9286,3.3571
3.6015625,3.417748751049056e-05,2.8808296459906905e-05,2.0505351345082766e-05,3.2226330501258854e-05,5.9286,3.3571
3.60546875,2.831699793240252e-05,2.197222837720301e-05,2.4898963891050568e-05,2.6850120900282277e-05,5.9286,3.3571
3.609375,2.831699793240252e-05,3.368618898298618e-05,2.978387496452276e-05,2.8808296459906905e-05,5.9286,3.3571
3.61328125,2.831699793240252e-05,3.2226330501258854e-05,3.6619943047226657e-05,3.124373344625008e-05,5.9286,3.3571
3.6171875,2.6850120900282277e-05,3.759552155184251e-05,3.56443645426108e-05,3.075945346913862e-05,5.9286,3.3571
3.62109375,3.026815494163423e-05,4.149783557030594e-05,2.978387496452276e-05,3.075945346913862e-05,5.9286,3.3571
3.625,3.2226330501258854e-05,3.857110005645836e-05,3.612864451972227e-05,3.368618898298618e-05,5.9286,3.3571
3.62890625,3.320190900587471e-05,3.6619943047226657e-05,3.5153066015106413e-05,3.5153066015106413e-05,5.9286,3.3571
3.6328125,3.2710610478370326e-05,2.7341419427786666e-05,3.075945346913862e-05,2.8808296459906905e-05,5.9286,3.3571
3.63671875,3.368618898298618e-05,2.7341419427786666e-05,3.5153066015106413e-05,2.5874542395666423e-05,5.9286,3.3571
3.640625,2.978387496452276e-05,2.782569940489813e-05,2.831699793240252e-05,3.124373344625008e-05,5.9286,3.3571
3.64453125,2.8808296459906905e-05,2.4898963891050568e-05,2.2947806881818863e-05,3.2226330501258854e-05,5.9286,3.3571
3.6484375,3.320190900587471e-05,2.7341419427786666e-05,2.2947806881818863e-05,3.368618898298618e-05,5.9286,3.3571
3.65234375,3.2710610478370326e-05,3.2226330501258854e-05,2.782569940489813e-05,3.417748751049056e-05,5.9286,3.3571
3.65625,3.2710610478370326e-05,2.978387496452276e-05,3.417748751049056e-05,3.2226330501258854e-05,5.9286,3.3571
3.66015625,3.368618898298618e-05,2.978387496452276e-05,3.954667856107423e-05,3.368618898298618e-05,5.9286,3.3571
3.6640625,3.2710610478370326e-05,3.124373344625008e-05,4.052225706569008e-05,3.320190900587471e-05,5.9286,3.3571
3.66796875,3.368618898298618e-05,2.978387496452276e-05,3.368618898298618e-05,3.417748751049056e-05,5.9286,3.3571
3.671875,3.368618898298618e-05,3.56443645426108e-05,3.2226330501258854e-05,3.710422302433812e-05,5.9286,3.3571
3.67578125,3.1735031973754475e-05,3.612864451972227e-05,3.368618898298618e-05,3.124373344625008e-05,5.9286,3.3571
3.6796875,3.2710610478370326e-05,3.2226330501258854e-05,3.5153066015106413e-05,2.782569940489813e-05,5.9286,3.3571
3.68359375,3.368618898298618e-05,3.906239858396276e-05,4.0037977088578615e-05,3.124373344625008e-05,5.9286,3.3571
3.6875,3.124373344625008e-05,3.759552155184251e-05,3.710422302433812e-05,3.5153066015106413e-05,5.9286,3.3571
3.69140625,3.320190900587471e-05,3.710422302433812e-05,2.5874542395666423e-05,3.320190900587471e-05,5.9286,3.3571
3.6953125,3.2710610478370326e-05,3.1735031973754475e-05,2.6365840923170815e-05,3.320190900587471e-05,5.9286,3.3571
3.69921875,2.782569940489813e-05,3.026815494163423e-05,3.2226330501258854e-05,3.4661767487602035e-05,5.9286,3.3571
3.703125,3.075945346913862e-05,3.6619943047226657e-05,3.2226330501258854e-05,3.5153066015106413e-05,5.9286,3.3571
3.70703125,3.2226330501258854e-05,3.56443645426108e-05,3.954667856107423e-05,3.56443645426108e-05,5.9286,3.3571
3.7109375,3.026815494163423e-05,1.952977284046691e-05,3.4661767487602035e-05,3.320190900587471e-05,5.9286,3.3571
3.71484375,3.075945346913862e-05,1.0735529198138386e-05,2.8808296459906905e-05,3.320190900587471e-05,5.9286,3.3571
3.71875,3.320190900587471e-05,2.0505351345082766e-05,3.026815494163423e-05,3.320190900587471e-05,5.9286,3.3571
3.72265625,3.710422302433812e-05,2.0989631322194234e-05,2.8808296459906905e-05,3.320190900587471e-05,5.9286,3.3571
3.7265625,3.6619943047226657e-05,1.8554194335851057e-05,2.6850120900282277e-05,3.368618898298618e-05,5.9286,3.3571
3.73046875,3.2710610478370326e-05,2.9292576437018374e-05,2.6365840923170815e-05,3.2710610478370326e-05,5.9286,3.3571
3.734375,3.612864451972227e-05,3.906239858396276e-05,1.9038474312962526e-05,2.8808296459906905e-05,5.9286,3.3571
3.73828125,3.710422302433812e-05,3.759552155184251e-05,1.220240623025863e-05,2.782569940489813e-05,5.9286,3.3571
3.7421875,3.368618898298618e-05,4.540716813916226e-05,1.6111738799114966e-05,2.831699793240252e-05,5.9286,3.3571
3.74609375,3.4661767487602035e-05,5.175193769436178e-05,1.6111738799114966e-05,2.4407665363546186e-05,5.9286,3.3571
3.75,3.612864451972227e-05,4.7849623675898356e-05,1.6111738799114966e-05,2.6365840923170815e-05,5.9286,3.3571
3.75390625,3.612864451972227e-05,3.807980152895398e-05,3.075945346913862e-05,3.2226330501258854e-05,5.9286,3.3571
3.7578125,3.2226330501258854e-05,3.759552155184251e-05,4.052225706569008e-05,3.4661767487602035e-05,5.9286,3.3571
3.76171875,3.026815494163423e-05,2.9292576437018374e-05,4.052225706569008e-05,3.075945346913862e-05,5.9286,3.3571
3.765625,3.124373344625008e-05,9.759950693522533e-06,2.7341419427786666e-05,2.9292576437018374e-05,5.9286,3.3571
3.76953125,3.2226330501258854e-05,7.317495156786435e-06,1.9038474312962526e-05,2.7341419427786666e-05,5.9286,3.3571
3.7734375,3.56443645426108e-05,6.833215179674973e-06,2.3923385386434717e-05,2.831699793240252e-05,5.9286,3.3571
3.77734375,3.759552155184251e-05,1.0735529198138386e-05,2.0505351345082766e-05,3.417748751049056e-05,5.9286,3.3571
3.78125,3.368618898298618e-05,1.3669283262378869e-05,1.659601877622643e-05,3.2710610478370326e-05,5.9286,3.3571
3.78515625,2.831699793240252e-05,1.3669283262378869e-05,2.197222837720301e-05,2.7341419427786666e-05,5.9286,3.3571
3.7890625,3.1735031973754475e-05,1.8062895808346675e-05,2.001405281757838e-05,2.5874542395666423e-05,5.9286,3.3571
3.79296875,3.710422302433812e-05,1.220240623025863e-05,1.0735529198138386e-05,2.6850120900282277e-05,5.9286,3.3571
3.796875,3.56443645426108e-05,1.0251249221026917e-05,1.708731730373082e-05,2.6365840923170815e-05,5.9286,3.3571
3.80078125,2.9292576437018374e-05,1.5620440271610574e-05,2.3923385386434717e-05,2.7341419427786666e-05,5.9286,3.3571
3.8046875,3.5153066015106413e-05,1.4644861766994721e-05,2.6850120900282277e-05,2.6365840923170815e-05,5.9286,3.3571
3.80859375,3.612864451972227e-05,1.7571597280842283e-05,2.7341419427786666e-05,2.8808296459906905e-05,5.9286,3.3571
3.8125,3.1735031973754475e-05,2.5874542395666423e-05,2.9292576437018374e-05,3.2226330501258854e-05,5.9286,3.3571
3.81640625,3.1735031973754475e-05,2.978387496452276e-05,3.417748751049056e-05,3.075945346913862e-05,5.9286,3.3571
3.8203125,2.6365840923170815e-05,2.6365840923170815e-05,4.2964712602426175e-05,2.9292576437018374e-05,5.9286,3.3571
3.82421875,2.782569940489813e-05,2.782569940489813e-05,4.052225706569008e-05,2.7341419427786666e-05,5.9286,3.3571
3.828125,3.56443645426108e-05,2.831699793240252e-05,3.710422302433812e-05,3.026815494163423e-05,5.9286,3.3571
3.83203125,3.710422302433812e-05,2.9292576437018374e-05,4.149783557030594e-05,3.124373344625008e-05,5.9286,3.3571
3.8359375,3.4661767487602035e-05,2.4407665363546186e-05,4.1013555593194466e-05,3.4661767487602035e-05,5.9286,3.3571
3.83984375,3.026815494163423e-05,1.9038474312962526e-05,2.831699793240252e-05,3.4661767487602035e-05,5.9286,3.3571
3.84375,3.368618898298618e-05,2.3432086858930332e-05,2.1480929849698623e-05,2.8808296459906905e-05,5.9286,3.3571
3.84765625,3.759552155184251e-05,3.026815494163423e-05,2.3432086858930332e-05,2.4407665363546186e-05,5.9286,3.3571
3.8515625,3.56443645426108e-05,2.7341419427786666e-05,2.2947806881818863e-05,2.2947806881818863e-05,5.9286,3.3571
3.85546875,3.759552155184251e-05,2.0989631322194234e-05,2.6850120900282277e-05,2.539026241855496e-05,5.9286,3.3571
3.859375,3.857110005645836e-05,2.978387496452276e-05,2.1480929849698623e-05,2.3432086858930332e-05,5.9286,3.3571
3.86328125,4.0037977088578615e-05,2.5874542395666423e-05,2.3923385386434717e-05,2.2947806881818863e-05,5.9286,3.3571
3.8671875,3.857110005645836e-05,2.831699793240252e-05,2.782569940489813e-05,2.4898963891050568e-05,5.9286,3.3571
3.87109375,3.759552155184251e-05,3.612864451972227e-05,2.4898963891050568e-05,2.4407665363546186e-05,5.9286,3.3571
3.875,3.759552155184251e-05,2.6850120900282277e-05,2.9292576437018374e-05,2.978387496452276e-05,5.9286,3.3571
3.87890625,3.710422302433812e-05,2.9292576437018374e-05,3.417748751049056e-05,3.759552155184251e-05,5.9286,3.3571
3.8828125,3.759552155184251e-05,3.124373344625008e-05,3.320190900587471e-05,3.6619943047226657e-05,5.9286,3.3571
3.88671875,3.026815494163423e-05,2.831699793240252e-05,2.831699793240252e-05,3.368618898298618e-05,5.9286,3.3571
3.890625,3.026815494163423e-05,2.7341419427786666e-05,2.6365840923170815e-05,3.56443645426108e-05,5.9286,3.3571
3.89453125,3.2710610478370326e-05,2.2456508354314478e-05,2.782569940489813e-05,3.612864451972227e-05,5.9286,3.3571
3.8984375,3.417748751049056e-05,2.6365840923170815e-05,3.612864451972227e-05,3.2710610478370326e-05,5.9286,3.3571
3.90234375,3.417748751049056e-05,3.1735031973754475e-05,3.417748751049056e-05,3.320190900587471e-05,5.9286,3.3571
3.90625,3.2710610478370326e-05,2.4407665363546186e-05,2.831699793240252e-05,3.56443645426108e-05,5.9286,3.3571
3.91015625,3.6619943047226657e-05,2.5874542395666423e-05,2.6850120900282277e-05,3.56443645426108e-05,5.9286,3.3571
3.9140625,3.417748751049056e-05,3.368618898298618e-05,3.2710610478370326e-05,3.807980152895398e-05,5.9286,3.3571
3.91796875,3.4661767487602035e-05,3.2226330501258854e-05,3.954667856107423e-05,4.1013555593194466e-05,5.9286,3.3571
3.921875,3.5153066015106413e-05,2.978387496452276e-05,3.807980152895398e-05,3.368618898298618e-05,5.9286,3.3571
3.92578125,3.075945346913862e-05,3.075945346913862e-05,3.612864451972227e-05,2.9292576437018374e-05,5.9286,3.3571
3.9296875,3.124373344625008e-05,2.7341419427786666e-05,2.9292576437018374e-05,3.124373344625008e-05,5.9286,3.3571
3.93359375,3.320190900587471e-05,2.6365840923170815e-05,3.1735031973754475e-05,2.8808296459906905e-05,5.9286,3.3571
3.9375,3.320190900587471e-05,2.831699793240252e-05,3.6619943047226657e-05,2.9292576437018374e-05,5.9286,3.3571
3.94140625,3.2710610478370326e-05,3.417748751049056e-05,2.831699793240252e-05,3.2226330501258854e-05,5.9286,3.3571
3.9453125,3.368618898298618e-05,3.6619943047226657e-05,2.197222837720301e-05,3.075945346913862e-05,5.9286,3.3571
3.94921875,3.2226330501258854e-05,3.857110005645836e-05,2.782569940489813e-05,2.782569940489813e-05,5.9286,3.3571
3.953125,3.2226330501258854e-05,3.612864451972227e-05,2.6850120900282277e-05,2.831699793240252e-05,5.9286,3.3571
3.95703125,3.417748751049056e-05,2.9292576437018374e-05,1.708731730373082e-05,2.6365840923170815e-05,5.9286,3.3571
3.9609375,3.710422302433812e-05,2.6365840923170815e-05,1.659601877622643e-05,2.197222837720301e-05,5.9286,3.3571
3.96484375,3.5153066015106413e-05,2.831699793240252e-05,1.5136160294499114e-05,2.6850120900282277e-05,5.9286,3.3571
3.96875,3.1735031973754475e-05,3.2226330501258854e-05,1.4644861766994721e-05,2.782569940489813e-05,5.9286,3.3571
3.97265625,3.2710610478370326e-05,3.320190900587471e-05,1.952977284046691e-05,2.3432086858930332e-05,5.9286,3.3571
3.9765625,3.417748751049056e-05,3.417748751049056e-05,2.1480929849698623e-05,2.7341419427786666e-05,5.9286,3.3571
3.98046875,3.368618898298618e-05,2.6365840923170815e-05,2.539026241855496e-05,3.026815494163423e-05,5.9286,3.3571
3.984375,3.6619943047226657e-05,2.539026241855496e-05,2.6850120900282277e-05,2.9292576437018374e-05,5.9286,3.3571
3.98828125,3.320190900587471e-05,3.1735031973754475e-05,2.5874542395666423e-05,2.978387496452276e-05,5.9286,3.3571
3.9921875,3.320190900587471e-05,3.710422302433812e-05,3.124373344625008e-05,2.782569940489813e-05,5.9286,3.3571
3.99609375,3.2710610478370326e-05,2.6850120900282277e-05,3.124373344625008e-05,2.4898963891050568e-05,5.9286,3.3571
4.0,2.831699793240252e-05,2.8808296459906905e-05,3.1735031973754475e-05,2.8808296459906905e-05,5.9286,3.3571
4.00390625,2.782569940489813e-05,2.6365840923170815e-05,4.198913409781032e-05,3.1735031973754475e-05,5.9286,3.3571
4.0078125,2.978387496452276e-05,2.197222837720301e-05,4.198913409781032e-05,3.2226330501258854e-05,5.9286,3.3571
4.01171875,3.075945346913862e-05,3.026815494163423e-05,3.124373344625008e-05,2.978387496452276e-05,5.9286,3.3571
4.015625,2.782569940489813e-05,3.2710610478370326e-05,2.6365840923170815e-05,2.6365840923170815e-05,5.9286,3.3571
4.01953125,2.831699793240252e-05,3.075945346913862e-05,2.0505351345082766e-05,2.6850120900282277e-05,5.9286,3.3571
4.0234375,2.978387496452276e-05,2.6850120900282277e-05,2.6850120900282277e-05,2.6850120900282277e-05,5.9286,3.3571
4.02734375,3.368618898298618e-05,3.4661767487602035e-05,3.1735031973754475e-05,2.9292576437018374e-05,5.9286,3.3571
4.03125,3.4661767487602035e-05,3.320190900587471e-05,3.56443645426108e-05,3.320190900587471e-05,5.9286,3.3571
4.03515625,3.1735031973754475e-05,2.3923385386434717e-05,4.149783557030594e-05,2.978387496452276e-05,5.9286,3.3571
4.0390625,2.7341419427786666e-05,3.1735031973754475e-05,3.2226330501258854e-05,2.6850120900282277e-05,5.9286,3.3571
4.04296875,2.539026241855496e-05,3.2226330501258854e-05,2.782569940489813e-05,2.831699793240252e-05,5.9286,3.3571
4.046875,2.8808296459906905e-05,3.417748751049056e-05,3.4661767487602035e-05,3.124373344625008e-05,5.9286,3.3571
4.05078125,2.8808296459906905e-05,3.1735031973754475e-05,3.124373344625008e-05,3.124373344625008e-05,5.9286,3.3571
4.0546875,2.9292576437018374e-05,2.2456508354314478e-05,1.7571597280842283e-05,2.6365840923170815e-05,5.9286,3.3571
4.05859375,3.2710610478370326e-05,2.2456508354314478e-05,2.4898963891050568e-05,2.782569940489813e-05,5.9286,3.3571
4.0625,3.2226330501258854e-05,2.197222837720301e-05,3.026815494163423e-05,2.978387496452276e-05,5.9286,3.3571
4.06640625,3.2226330501258854e-05,2.2947806881818863e-05,1.9038474312962526e-05,2.6850120900282277e-05,5.9286,3.3571
4.0703125,3.124373344625008e-05,2.1480929849698623e-05,1.8554194335851057e-05,2.6850120900282277e-05,5.9286,3.3571
4.07421875,2.9292576437018374e-05,1.4153563239490338e-05,1.8062895808346675e-05,2.831699793240252e-05,5.9286,3.3571
4.078125,3.026815494163423e-05,1.708731730373082e-05,1.6111738799114966e-05,2.6850120900282277e-05,5.9286,3.3571
4.08203125,3.2710610478370326e-05,2.2456508354314478e-05,2.4898963891050568e-05,2.5874542395666423e-05,5.9286,3.3571
4.0859375,3.368618898298618e-05,2.0989631322194234e-05,2.7341419427786666e-05,2.6365840923170815e-05,5.9286,3.3571
4.08984375,3.417748751049056e-05,2.0989631322194234e-05,2.4898963891050568e-05,2.978387496452276e-05,5.9286,3.3571
4.09375,3.417748751049056e-05,1.708731730373082e-05,2.539026241855496e-05,3.1735031973754475e-05,5.9286,3.3571
4.09765625,3.612864451972227e-05,1.3669283262378869e-05,1.8554194335851057e-05,2.5874542395666423e-05,5.9286,3.3571
4.1015625,3.6619943047226657e-05,2.3432086858930332e-05,1.9038474312962526e-05,2.1480929849698623e-05,5.9286,3.3571
4.10546875,3.612864451972227e-05,2.197222837720301e-05,2.4407665363546186e-05,2.3923385386434717e-05,5.9286,3.3571
