timestamp,TP9,AF7,AF8,TP10,Valence,Arousal
0.0,-3.711454972152283e-05,1.4642634866865194e-06,-2.637100117189287e-05,-5.468962884260318e-05,4.2,3.7333
0.00390625,-1.5137644769970236e-05,4.846477821011774e-07,-3.3208976583504986e-05,-7.080172924696726e-05,4.2,3.7333
0.0078125,-1.7090431338979156e-05,-1.758023919127183e-05,-2.2955235886167685e-05,-6.103779640192262e-05,4.2,3.7333
0.01171875,-6.8366906416418514e-06,-8.789477210650787e-06,-5.863519777218272e-06,-5.566924454718851e-05,4.2,3.7333
0.015625,-1.1232071631952379e-05,9.76521761501489e-06,-6.8366906416418514e-06,-5.713222326390477e-05,4.2,3.7333
0.01953125,-3.85775284382391e-05,4.846477821011774e-07,-3.516176315251391e-05,-6.152760425421529e-05,4.2,3.7333
0.0234375,-2.5881193319600198e-05,-5.1600701914935596e-09,-2.4908022455176606e-05,-4.443588814526588e-05,4.2,3.7333
0.02734375,-1.953302576028075e-05,-3.222936087891965e-05,-1.953302576028075e-05,-3.759791273365375e-05,4.2,3.7333
0.03125,-4.150993071183335e-05,-6.44535616876478e-05,-3.8087720585946425e-05,-4.834146128328372e-05,4.2,3.7333
0.03515625,-3.4182147447928574e-05,-3.759791273365375e-05,-4.736829041886014e-05,-4.3462717280842284e-05,4.2,3.7333
0.0390625,-7.3264984939345226e-06,-1.7090431338979156e-05,-4.394608029297321e-05,-4.981088484016173e-05,4.2,3.7333
0.04296875,-7.816306346227194e-06,-2.8323787740901792e-05,-3.027657430991072e-05,-5.908500983291369e-05,4.2,3.7333
0.046875,-3.5645126164644834e-05,-3.1256190014496054e-05,-2.2465428033875013e-05,-4.63886747142748e-05,4.2,3.7333
0.05078125,-8.057210693217363e-05,-1.957946639200415e-06,-5.373711924925601e-06,-2.637100117189287e-05,4.2,3.7333
0.0546875,-0.00010058333563439381,-1.758023919127183e-05,1.4642634866865194e-06,-2.8813595593194464e-05,4.2,3.7333
0.05859375,-4.8831269135576395e-05,-1.7090431338979156e-05,-1.953302576028075e-05,-4.004050715495536e-05,4.2,3.7333
0.0625,-1.6607068326848233e-05,-3.4182147447928574e-05,-3.369233959563591e-05,-4.492569599755854e-05,4.2,3.7333
0.06640625,-1.2701495188830378e-05,-5.0294247852292655e-05,-3.61349340169375e-05,-4.541550384985121e-05,4.2,3.7333
0.0703125,4.846477821011774e-07,-4.63886747142748e-05,-2.3438598898298607e-05,-3.8087720585946425e-05,4.2,3.7333
0.07421875,-1.2211687336537721e-05,-2.0996004476997014e-05,-2.0996004476997014e-05,-4.63886747142748e-05,4.2,3.7333
0.078125,-2.783397988860912e-05,1.659674818646526e-05,-2.4908022455176606e-05,-5.224703442130157e-05,4.2,3.7333
0.08203125,-2.9786766457618055e-05,2.9272422034027697e-06,-5.863519777218272e-06,-2.7344172036316465e-05,4.2,3.7333
0.0859375,-6.44535616876478e-05,-4.004050715495536e-05,-1.2211687336537721e-05,-2.6860809024185542e-05,4.2,3.7333
0.08984375,-7.324432366826884e-05,-6.054798854962995e-05,-3.662474186923017e-05,-6.44535616876478e-05,4.2,3.7333
0.09375,-5.127386355687799e-05,-3.467195530022124e-05,-3.4182147447928574e-05,-6.787577181353474e-05,4.2,3.7333
0.09765625,-3.516176315251391e-05,-2.7344172036316465e-05,-2.9296958605325387e-05,-4.102012285954069e-05,4.2,3.7333
0.1015625,-2.0996004476997014e-05,-3.1256190014496054e-05,-4.297290942854962e-05,-3.61349340169375e-05,4.2,3.7333
0.10546875,-3.2719168731212314e-05,-2.8323787740901792e-05,-4.3462717280842284e-05,-4.394608029297321e-05,4.2,3.7333
0.109375,-3.467195530022124e-05,-1.953302576028075e-05,-4.102012285954069e-05,-3.906733629053176e-05,4.2,3.7333
0.11328125,-2.6860809024185542e-05,-2.3928406750591276e-05,-4.785165343099106e-05,-3.1256190014496054e-05,4.2,3.7333
0.1171875,-3.5645126164644834e-05,-3.85775284382391e-05,-4.443588814526588e-05,-3.711454972152283e-05,4.2,3.7333
0.12109375,-4.1993293723964275e-05,-2.051264146486609e-05,-2.8813595593194464e-05,-3.9550699302662685e-05,4.2,3.7333
0.125,-3.2719168731212314e-05,-6.353327629510943e-06,-6.8366906416418514e-06,-4.297290942854962e-05,4.2,3.7333
0.12890625,-4.981088484016173e-05,-2.783397988860912e-05,-5.1600701914935596e-09,-5.2736842273594245e-05,4.2,3.7333
0.1328125,-5.810539412832836e-05,-3.516176315251391e-05,-2.783397988860912e-05,-5.615260755931943e-05,4.2,3.7333
0.13671875,-7.3264984939345226e-06,-1.1721879484245051e-05,-5.2736842273594245e-05,-5.127386355687799e-05,4.2,3.7333
0.140625,9.275409762722219e-06,-2.0996004476997014e-05,-5.2736842273594245e-05,-4.8831269135576395e-05,4.2,3.7333
0.14453125,4.846477821011774e-07,-2.9786766457618055e-05,-3.1256190014496054e-05,-4.736829041886014e-05,4.2,3.7333
0.1484375,9.744556343938485e-07,-2.783397988860912e-05,-1.6607068326848233e-05,-5.810539412832836e-05,4.2,3.7333
0.15234375,-5.863519777218272e-06,-2.2955235886167685e-05,-1.7090431338979156e-05,-6.592298524452581e-05,4.2,3.7333
0.15625,-5.373711924925601e-06,1.5133769469748996e-05,-4.297290942854962e-05,-6.103779640192262e-05,4.2,3.7333
0.16015625,-9.769092915236114e-06,1.3180982900740076e-05,-2.2955235886167685e-05,-6.250077511863889e-05,4.2,3.7333
0.1640625,-1.5137644769970236e-05,1.2201367196154734e-05,7.322623193713298e-06,-6.44535616876478e-05,4.2,3.7333
0.16796875,-1.0742263779659709e-05,5.369836624704362e-06,-1.7090431338979156e-05,-6.152760425421529e-05,4.2,3.7333
0.171875,-4.297290942854962e-05,1.611338517433434e-05,-8.306114198519864e-06,-6.592298524452581e-05,4.2,3.7333
0.17578125,-4.443588814526588e-05,4.003663185473411e-05,3.900413067826364e-06,-7.275451581597617e-05,4.2,3.7333
0.1796875,1.415415376516367e-05,2.636712587167163e-05,-1.4164473905546643e-05,-7.324432366826884e-05,4.2,3.7333
0.18359375,2.8319912440680565e-05,2.8319912440680565e-05,-9.769092915236114e-06,-7.568691808957044e-05,4.2,3.7333
0.1875,9.275409762722219e-06,2.6850488883802553e-05,-7.3264984939345226e-06,-7.617672594186311e-05,4.2,3.7333
0.19140625,-1.1721879484245051e-05,2.636712587167163e-05,-1.5137644769970236e-05,-6.299058297093154e-05,4.2,3.7333
0.1953125,-2.0996004476997014e-05,3.0756062021820414e-05,2.9272422034027697e-06,-5.762203111619744e-05,4.2,3.7333
0.19921875,-2.4418214602883934e-05,3.3198656443122004e-05,1.5623577322041667e-05,-6.299058297093154e-05,4.2,3.7333
0.203125,-7.816306346227194e-06,2.1481937029068446e-05,4.390220920119034e-06,-6.054798854962995e-05,4.2,3.7333
0.20703125,-1.957946639200415e-06,-2.9311175036240086e-06,8.295794058136892e-06,-6.494336953994047e-05,4.2,3.7333
0.2109375,-1.0742263779659709e-05,4.846477821011774e-07,-9.279285062943457e-06,-7.324432366826884e-05,4.2,3.7333
0.21484375,-4.541550384985121e-05,5.853199636835285e-06,-2.539138546730753e-05,-6.592298524452581e-05,4.2,3.7333
0.21875,-4.492569599755854e-05,3.900413067826364e-06,-8.789477210650787e-06,-5.176367140917066e-05,4.2,3.7333
0.22265625,1.2201367196154734e-05,-2.9311175036240086e-06,-7.3264984939345226e-06,-4.785165343099106e-05,4.2,3.7333
0.2265625,1.7086556038757934e-05,-2.8323787740901792e-05,-2.1485812329289686e-05,-4.687848256656747e-05,4.2,3.7333
0.23046875,1.4642634866865194e-06,-3.9550699302662685e-05,-4.8831269135576395e-05,-4.8831269135576395e-05,4.2,3.7333
0.234375,-1.2211687336537721e-05,-7.816306346227194e-06,-3.662474186923017e-05,-5.5179436694895836e-05,4.2,3.7333
0.23828125,-4.88390407263293e-06,6.832815341420627e-06,-9.769092915236114e-06,-5.615260755931943e-05,4.2,3.7333
0.2421875,9.744556343938485e-07,1.1718004184023811e-05,-2.1485812329289686e-05,-5.5179436694895836e-05,4.2,3.7333
0.24609375,-4.297290942854962e-05,2.1971744881361118e-05,-1.0742263779659709e-05,-4.589886686198213e-05,4.2,3.7333
0.25,-6.592298524452581e-05,-2.4413096513313375e-06,-4.4005410605020075e-06,-4.1993293723964275e-05,4.2,3.7333
0.25390625,-3.85775284382391e-05,-1.2211687336537721e-05,-1.953302576028075e-05,-3.711454972152283e-05,4.2,3.7333
0.2578125,-1.2211687336537721e-05,1.757636389105059e-05,-1.3674666053253971e-05,-3.662474186923017e-05,4.2,3.7333
0.26171875,-7.816306346227194e-06,1.4642634866865194e-06,-1.31848582009613e-05,-4.785165343099106e-05,4.2,3.7333
0.265625,-1.3674666053253971e-05,-3.1256190014496054e-05,-2.2955235886167685e-05,-5.713222326390477e-05,4.2,3.7333
0.26953125,-4.88390407263293e-06,-4.981088484016173e-05,-4.297290942854962e-05,-5.468962884260318e-05,4.2,3.7333
0.2734375,-2.8813595593194464e-05,-4.736829041886014e-05,-3.076638216220339e-05,-4.102012285954069e-05,4.2,3.7333
0.27734375,-5.566924454718851e-05,-6.8366906416418514e-06,-3.4209253559166797e-06,-4.102012285954069e-05,4.2,3.7333
0.28125,-2.051264146486609e-05,-9.78330934615073e-07,-2.5881193319600198e-05,-5.468962884260318e-05,4.2,3.7333
0.28515625,-1.80700470435645e-05,-4.150993071183335e-05,-3.85775284382391e-05,-5.371645797817958e-05,4.2,3.7333
0.2890625,-6.054798854962995e-05,-4.004050715495536e-05,-3.4209253559166797e-06,-3.4182147447928574e-05,4.2,3.7333
0.29296875,-8.057210693217363e-05,-2.2465428033875013e-05,2.1481937029068446e-05,-2.051264146486609e-05,4.2,3.7333
0.296875,-6.201741210650796e-05,4.846477821011774e-07,-1.2701495188830378e-05,-3.076638216220339e-05,4.2,3.7333
0.30078125,-4.1993293723964275e-05,9.744556343938485e-07,-3.1256190014496054e-05,-4.053031500724802e-05,4.2,3.7333
0.3046875,-2.4908022455176606e-05,-2.3928406750591276e-05,-2.8323787740901792e-05,-3.8087720585946425e-05,4.2,3.7333
0.30859375,-2.3438598898298607e-05,-5.762203111619744e-05,-4.541550384985121e-05,-4.394608029297321e-05,4.2,3.7333
0.3125,-3.662474186923017e-05,-7.275451581597617e-05,-4.3462717280842284e-05,-4.63886747142748e-05,4.2,3.7333
0.31640625,-4.88390407263293e-06,-3.906733629053176e-05,-1.5627452622262893e-05,-4.932107698786906e-05,4.2,3.7333
0.3203125,6.343007489127956e-06,-5.863519777218272e-06,-1.758023919127183e-05,-4.8831269135576395e-05,4.2,3.7333
0.32421875,-2.8323787740901792e-05,-2.5881193319600198e-05,-3.1256190014496054e-05,-4.102012285954069e-05,4.2,3.7333
0.328125,-6.933875053025099e-05,-4.834146128328372e-05,-3.3208976583504986e-05,-2.6860809024185542e-05,4.2,3.7333
0.33203125,-7.227115280384526e-05,-4.150993071183335e-05,-2.051264146486609e-05,-1.3674666053253971e-05,4.2,3.7333
0.3359375,-4.394608029297321e-05,-9.279285062943457e-06,-2.4418214602883934e-05,-1.6607068326848233e-05,4.2,3.7333
0.33984375,-3.8087720585946425e-05,2.9272422034027697e-06,-3.2719168731212314e-05,-3.222936087891965e-05,4.2,3.7333
0.34375,-3.516176315251391e-05,-2.4418214602883934e-05,-2.539138546730753e-05,-4.687848256656747e-05,4.2,3.7333
0.34765625,-1.4654281757839313e-05,-4.443588814526588e-05,-3.516176315251391e-05,-4.297290942854962e-05,4.2,3.7333
0.3515625,-2.1485812329289686e-05,-4.687848256656747e-05,-3.8087720585946425e-05,-3.3208976583504986e-05,4.2,3.7333
0.35546875,-2.8323787740901792e-05,-2.4418214602883934e-05,-1.8559854895857155e-05,-2.5881193319600198e-05,4.2,3.7333
0.359375,-3.076638216220339e-05,9.744556343938485e-07,-7.816306346227194e-06,-2.2955235886167685e-05,4.2,3.7333
0.36328125,-8.300825651331348e-05,-7.3264984939345226e-06,-1.7090431338979156e-05,-3.2719168731212314e-05,4.2,3.7333
0.3671875,-0.000103999100920119,-2.4413096513313375e-06,6.832815341420627e-06,-2.3438598898298607e-05,4.2,3.7333
0.37109375,-2.6860809024185542e-05,-2.9311175036240086e-06,1.659674818646526e-05,-4.4005410605020075e-06,4.2,3.7333
0.375,3.270884859082933e-05,-2.051264146486609e-05,-1.953302576028075e-05,-2.8813595593194464e-05,4.2,3.7333
0.37890625,1.9529150460059524e-05,-4.834146128328372e-05,-5.078405570458532e-05,-6.738596396124207e-05,4.2,3.7333
0.3828125,4.390220920119034e-06,-5.566924454718851e-05,-6.348039082322422e-05,-7.666008895399403e-05,4.2,3.7333
0.38671875,-3.9107332082093364e-06,-6.054798854962995e-05,-5.6642415411612096e-05,-7.568691808957044e-05,4.2,3.7333
0.390625,-2.2465428033875013e-05,-6.494336953994047e-05,-4.150993071183335e-05,-6.397019867551687e-05,4.2,3.7333
0.39453125,-4.932107698786906e-05,-4.492569599755854e-05,-4.150993071183335e-05,-5.176367140917066e-05,4.2,3.7333
0.3984375,-4.932107698786906e-05,-2.5881193319600198e-05,-3.711454972152283e-05,-5.176367140917066e-05,4.2,3.7333
0.40234375,-3.61349340169375e-05,-3.076638216220339e-05,-2.8813595593194464e-05,-5.224703442130157e-05,4.2,3.7333
0.40625,-2.8813595593194464e-05,-4.492569599755854e-05,-1.1721879484245051e-05,-4.687848256656747e-05,4.2,3.7333
0.41015625,-1.0258900767528786e-05,-3.467195530022124e-05,-2.0022833612573422e-05,-3.711454972152283e-05,4.2,3.7333
0.4140625,-3.85775284382391e-05,-2.6860809024185542e-05,-2.197562018158234e-05,-3.1256190014496054e-05,4.2,3.7333
0.41796875,-9.667776249637596e-05,-1.0258900767528786e-05,-3.9107332082093364e-06,-3.61349340169375e-05,4.2,3.7333
0.421875,-7.422393937285419e-05,1.7086556038757934e-05,-1.4164473905546643e-05,-3.222936087891965e-05,4.2,3.7333
0.42578125,-2.2465428033875013e-05,-8.306114198519864e-06,-1.2701495188830378e-05,-3.4182147447928574e-05,4.2,3.7333
0.4296875,-2.4413096513313375e-06,-5.078405570458532e-05,-2.8813595593194464e-05,-5.615260755931943e-05,4.2,3.7333
0.43359375,-1.2211687336537721e-05,-5.468962884260318e-05,-4.981088484016173e-05,-6.640634825665674e-05,4.2,3.7333
0.4375,-3.61349340169375e-05,-2.0996004476997014e-05,-3.2719168731212314e-05,-4.589886686198213e-05,4.2,3.7333
0.44140625,-2.2955235886167685e-05,2.6850488883802553e-05,-1.31848582009613e-05,-2.2955235886167685e-05,4.2,3.7333
0.4453125,-1.2211687336537721e-05,-8.789477210650787e-06,-7.3264984939345226e-06,-4.1993293723964275e-05,4.2,3.7333
0.44921875,-2.0996004476997014e-05,-6.68961561089494e-05,-4.053031500724802e-05,-6.201741210650796e-05,4.2,3.7333
0.453125,-3.2719168731212314e-05,-5.762203111619744e-05,-4.932107698786906e-05,-6.103779640192262e-05,4.2,3.7333
0.45703125,-4.932107698786906e-05,-4.443588814526588e-05,-3.1256190014496054e-05,-5.713222326390477e-05,4.2,3.7333
0.4609375,-3.222936087891965e-05,-2.3438598898298607e-05,-4.297290942854962e-05,-5.322665012588692e-05,4.2,3.7333
0.46484375,-1.9043217907988078e-05,-2.7344172036316465e-05,-4.834146128328372e-05,-4.492569599755854e-05,4.2,3.7333
0.46875,-3.711454972152283e-05,-4.736829041886014e-05,-3.61349340169375e-05,-3.9550699302662685e-05,4.2,3.7333
0.47265625,-3.9550699302662685e-05,-3.516176315251391e-05,-2.2955235886167685e-05,-2.8323787740901792e-05,4.2,3.7333
0.4765625,-6.884894267795833e-05,-2.783397988860912e-05,-1.2701495188830378e-05,-2.8813595593194464e-05,4.2,3.7333
0.48046875,-0.00010058333563439381,-2.4418214602883934e-05,-2.7344172036316465e-05,-4.589886686198213e-05,4.2,3.7333
0.484375,-3.8087720585946425e-05,-4.053031500724802e-05,-4.589886686198213e-05,-4.150993071183335e-05,4.2,3.7333
0.48828125,3.900413067826364e-06,-6.640634825665674e-05,-4.004050715495536e-05,-4.297290942854962e-05,4.2,3.7333
0.4921875,-2.3928406750591276e-05,-6.006462553749903e-05,-3.076638216220339e-05,-5.468962884260318e-05,4.2,3.7333
0.49609375,-2.3438598898298607e-05,-2.1485812329289686e-05,-3.2719168731212314e-05,-4.8831269135576395e-05,4.2,3.7333
0.5,-1.758023919127183e-05,1.4642634866865194e-06,-2.4418214602883934e-05,-4.053031500724802e-05,4.2,3.7333
0.50390625,-4.63886747142748e-05,-2.2465428033875013e-05,-1.4164473905546643e-05,-3.369233959563591e-05,4.2,3.7333
0.5078125,-6.44535616876478e-05,-3.61349340169375e-05,-2.0022833612573422e-05,-2.783397988860912e-05,4.2,3.7333
0.51171875,-4.1993293723964275e-05,-4.1993293723964275e-05,-4.102012285954069e-05,-3.85775284382391e-05,4.2,3.7333
0.515625,-1.4164473905546643e-05,-4.785165343099106e-05,-4.932107698786906e-05,-4.541550384985121e-05,4.2,3.7333
0.51953125,-1.4654281757839313e-05,-3.5645126164644834e-05,-4.541550384985121e-05,-4.150993071183335e-05,4.2,3.7333
0.5234375,-1.7090431338979156e-05,-3.076638216220339e-05,-2.9296958605325387e-05,-4.297290942854962e-05,4.2,3.7333
0.52734375,-2.4908022455176606e-05,-5.322665012588692e-05,-4.004050715495536e-05,-3.711454972152283e-05,4.2,3.7333
0.53125,-4.248310157625695e-05,-5.566924454718851e-05,-4.932107698786906e-05,-2.8323787740901792e-05,4.2,3.7333
0.53515625,-4.541550384985121e-05,-4.589886686198213e-05,-3.027657430991072e-05,-3.173955302662698e-05,4.2,3.7333
0.5390625,-4.053031500724802e-05,-2.2955235886167685e-05,-3.467195530022124e-05,-3.2719168731212314e-05,4.2,3.7333
0.54296875,-5.4199820990310505e-05,-1.5137644769970236e-05,-3.759791273365375e-05,-2.5881193319600198e-05,4.2,3.7333
0.546875,-5.127386355687799e-05,-5.4199820990310505e-05,-3.3208976583504986e-05,-2.0022833612573422e-05,4.2,3.7333
0.55078125,-6.494336953994047e-05,-9.325555237048904e-05,-3.173955302662698e-05,-2.051264146486609e-05,4.2,3.7333
0.5546875,-6.835913482566566e-05,-5.957481768520636e-05,-1.758023919127183e-05,-1.31848582009613e-05,4.2,3.7333
0.55859375,-4.297290942854962e-05,-7.3264984939345226e-06,-1.3674666053253971e-05,-4.88390407263293e-06,4.2,3.7333
0.5625,-6.054798854962995e-05,-3.467195530022124e-05,-4.3462717280842284e-05,-3.369233959563591e-05,4.2,3.7333
0.56640625,-6.006462553749903e-05,-8.740363750362399e-05,-6.592298524452581e-05,-6.201741210650796e-05,4.2,3.7333
0.5703125,-3.516176315251391e-05,-8.740363750362399e-05,-6.494336953994047e-05,-6.006462553749903e-05,4.2,3.7333
0.57421875,-3.662474186923017e-05,-6.592298524452581e-05,-4.834146128328372e-05,-4.150993071183335e-05,4.2,3.7333
0.578125,-3.711454972152283e-05,-6.201741210650796e-05,-4.834146128328372e-05,-2.783397988860912e-05,4.2,3.7333
0.58203125,-3.2719168731212314e-05,-4.3462717280842284e-05,-4.63886747142748e-05,-2.783397988860912e-05,4.2,3.7333
0.5859375,-3.467195530022124e-05,-4.785165343099106e-05,-3.8087720585946425e-05,-2.2465428033875013e-05,4.2,3.7333
0.58984375,-3.467195530022124e-05,-6.68961561089494e-05,-3.222936087891965e-05,-2.197562018158234e-05,4.2,3.7333
0.59375,-5.908500983291369e-05,-4.785165343099106e-05,-3.076638216220339e-05,-2.8813595593194464e-05,4.2,3.7333
0.59765625,-6.787577181353474e-05,-1.2701495188830378e-05,-2.0996004476997014e-05,-3.3208976583504986e-05,4.2,3.7333
0.6015625,-3.662474186923017e-05,-2.3438598898298607e-05,-1.0258900767528786e-05,-3.8087720585946425e-05,4.2,3.7333
0.60546875,-2.2955235886167685e-05,-4.394608029297321e-05,-2.0022833612573422e-05,-3.662474186923017e-05,4.2,3.7333
0.609375,-4.297290942854962e-05,-5.0294247852292655e-05,-2.3438598898298607e-05,-1.9043217907988078e-05,4.2,3.7333
0.61328125,-8.447768007019148e-05,-2.3438598898298607e-05,-1.31848582009613e-05,-6.353327629510943e-06,4.2,3.7333
0.6171875,-0.00010204631435111008,-2.0022833612573422e-05,-1.8559854895857155e-05,-8.306114198519864e-06,4.2,3.7333
0.62109375,-7.71498968062867e-05,7.322623193713298e-06,-2.2465428033875013e-05,-1.5627452622262893e-05,4.2,3.7333
0.625,-2.3928406750591276e-05,2.392453145037004e-05,1.0738388479438484e-05,-1.80700470435645e-05,4.2,3.7333
0.62890625,6.343007489127956e-06,-2.5881193319600198e-05,3.710422958113986e-05,-4.88390407263293e-06,4.2,3.7333
0.6328125,-1.5627452622262893e-05,-7.812951251087205e-05,-2.0022833612573422e-05,-4.4005410605020075e-06,4.2,3.7333
0.63671875,-4.297290942854962e-05,-8.740363750362399e-05,-7.080172924696726e-05,-1.0742263779659709e-05,4.2,3.7333
0.640625,-7.959249122758829e-05,-6.592298524452581e-05,-6.68961561089494e-05,-1.0742263779659709e-05,4.2,3.7333
0.64453125,-9.228238150606545e-05,-9.912035691767757e-05,-7.275451581597617e-05,-4.4005410605020075e-06,4.2,3.7333
0.6484375,-9.082584762951093e-05,-0.00015771039882810708,-0.00010204631435111008,4.880028772411705e-06,4.2,3.7333
0.65234375,-0.00014110849057145033,-0.00016601135295643546,-8.98462319249256e-05,2.2944915745784713e-05,4.2,3.7333
0.65625,-0.00014891963684748606,-0.00016015299324940869,-0.00011962783831235217,4.198941842374304e-05,4.2,3.7333
0.66015625,-8.447768007019148e-05,-0.00015966318539711603,-0.00016454837423971922,5.956449754482338e-05,4.2,3.7333
0.6640625,-4.736829041886014e-05,-0.00018310306906538487,-0.00017431230708476385,7.66562136537728e-05,4.2,3.7333
0.66796875,-6.397019867551687e-05,-0.0002807552871961547,-0.00022753379714045928,6.249689981841766e-05,4.2,3.7333
0.671875,-0.00010350929306782633,-0.0002983368111573968,-0.0002534162752300297,3.759403743343253e-05,4.2,3.7333
0.67578125,-0.00010546207963683527,-0.0002475579155230029,-0.0002387671535423819,2.5387510167086303e-05,4.2,3.7333
0.6796875,-9.423516807507436e-05,-0.00021288467545281143,-0.00022265505313801785,1.9529150460059524e-05,4.2,3.7333
0.68359375,-0.00014843627383535513,-0.00022313841615014877,-0.00019140402319371325,3.0756062021820414e-05,4.2,3.7333
0.6875,-0.00018115028249637594,-0.00023534494341649495,-0.00014110849057145033,4.345239714045931e-05,4.2,3.7333
0.69140625,-0.00015722059097581444,-0.0002372977299855039,-0.00015087242341649498,4.003663185473411e-05,4.2,3.7333
0.6953125,-0.00013525013086442355,-0.0002036105504600595,-0.0001464834872663462,2.5387510167086303e-05,4.2,3.7333
0.69921875,-9.765093336079955e-05,-0.00016015299324940869,-0.00011718524389105055,1.8549534755474183e-05,4.2,3.7333
0.703125,-9.325555237048904e-05,-0.0001806604746440833,-0.00012401677446250092,3.222548557869841e-05,4.2,3.7333
0.70703125,-0.00010839448191042952,-0.0001874984500556954,-0.00011083707633173112,2.880327545281149e-05,4.2,3.7333
0.7109375,-9.86305490653849e-05,-0.0001806604746440833,-9.960371992980848e-05,1.3670790753032747e-05,4.2,3.7333
0.71484375,-9.423516807507436e-05,-0.00015234184697337298,-8.398787221789883e-05,-1.4681387869077439e-06,4.2,3.7333
0.71875,-9.814074121309222e-05,-0.00010888428976272218,-7.080172924696726e-05,-9.769092915236114e-06,4.2,3.7333
0.72265625,-0.00012255379574578469,-7.666008895399403e-05,-6.348039082322422e-05,-9.78330934615073e-07,4.2,3.7333
0.7265625,-0.00012011120132448309,-0.00010350929306782633,-3.027657430991072e-05,6.343007489127956e-06,4.2,3.7333
0.73046875,-8.545085093461508e-05,-0.00013427695999999997,-1.758023919127183e-05,2.9272422034027697e-06,4.2,3.7333
0.734375,-7.519711023727777e-05,-8.838325320820933e-05,-4.004050715495536e-05,4.880028772411705e-06,4.2,3.7333
0.73828125,-7.227115280384526e-05,-6.933875053025099e-05,-5.2736842273594245e-05,8.295794058136892e-06,4.2,3.7333
0.7421875,-9.130921064164185e-05,-6.884894267795833e-05,-5.322665012588692e-05,-4.88390407263293e-06,4.2,3.7333
0.74609375,-0.0001015565064988174,-6.640634825665674e-05,-4.3462717280842284e-05,-1.8559854895857155e-05,4.2,3.7333
0.75,-6.592298524452581e-05,-6.738596396124207e-05,-1.758023919127183e-05,-1.7090431338979156e-05,4.2,3.7333
0.75390625,-3.85775284382391e-05,-6.68961561089494e-05,9.744556343938485e-07,-6.8366906416418514e-06,4.2,3.7333
0.7578125,-5.615260755931943e-05,-6.592298524452581e-05,-9.279285062943457e-06,-6.8366906416418514e-06,4.2,3.7333
0.76171875,-8.008229907988096e-05,-5.957481768520636e-05,-2.1485812329289686e-05,-2.637100117189287e-05,4.2,3.7333
0.765625,-7.470730238498511e-05,-6.982855838254366e-05,-3.076638216220339e-05,-2.0022833612573422e-05,4.2,3.7333
0.76953125,-8.643046663920041e-05,-9.277218935835812e-05,-1.9043217907988078e-05,-2.9311175036240086e-06,4.2,3.7333
0.7734375,-7.617672594186311e-05,-9.325555237048904e-05,-8.789477210650787e-06,1.4642634866865194e-06,4.2,3.7333
0.77734375,-2.637100117189287e-05,-4.8831269135576395e-05,-1.8559854895857155e-05,-8.789477210650787e-06,4.2,3.7333
0.78125,-2.4418214602883934e-05,-5.127386355687799e-05,-3.2719168731212314e-05,-1.6607068326848233e-05,4.2,3.7333
0.78515625,-5.957481768520636e-05,-8.008229907988096e-05,-3.369233959563591e-05,-1.4164473905546643e-05,4.2,3.7333
0.7890625,-5.0294247852292655e-05,-7.666008895399403e-05,-9.769092915236114e-06,-6.353327629510943e-06,4.2,3.7333
0.79296875,-2.8813595593194464e-05,-8.105546994430456e-05,-7.816306346227194e-06,-1.31848582009613e-05,4.2,3.7333
0.796875,-5.4199820990310505e-05,-4.541550384985121e-05,-1.3674666053253971e-05,-1.758023919127183e-05,4.2,3.7333
0.80078125,-9.61879546440833e-05,-4.834146128328372e-05,-2.3928406750591276e-05,-2.2955235886167685e-05,4.2,3.7333
0.8046875,-0.000103999100920119,-8.203508564888989e-05,-4.150993071183335e-05,-2.7344172036316465e-05,4.2,3.7333
0.80859375,-9.033603977721826e-05,-0.00012109081702906842,-5.810539412832836e-05,-3.467195530022124e-05,4.2,3.7333
0.8125,-6.68961561089494e-05,-0.0001372029174334325,-5.224703442130157e-05,-4.150993071183335e-05,4.2,3.7333
0.81640625,-3.027657430991072e-05,-0.00010839448191042952,-4.297290942854962e-05,-2.4418214602883934e-05,4.2,3.7333
0.8203125,-3.711454972152283e-05,-9.520833893949796e-05,-4.932107698786906e-05,-3.076638216220339e-05,4.2,3.7333
0.82421875,-6.103779640192262e-05,-8.057210693217363e-05,-4.589886686198213e-05,-4.63886747142748e-05,4.2,3.7333
0.828125,-2.4908022455176606e-05,-9.520833893949796e-05,-2.8323787740901792e-05,-3.8087720585946425e-05,4.2,3.7333
0.83203125,-1.0742263779659709e-05,-0.00010937409761501485,-3.759791273365375e-05,-3.173955302662698e-05,4.2,3.7333
0.8359375,-5.859520198062103e-05,-6.44535616876478e-05,-5.078405570458532e-05,-3.8087720585946425e-05,4.2,3.7333
0.83984375,-6.787577181353474e-05,-5.322665012588692e-05,-2.9786766457618055e-05,-3.173955302662698e-05,4.2,3.7333
0.84375,-4.589886686198213e-05,-5.957481768520636e-05,-2.197562018158234e-05,-3.027657430991072e-05,4.2,3.7333
0.84765625,-5.127386355687799e-05,-9.130921064164185e-05,-4.248310157625695e-05,-2.9296958605325387e-05,4.2,3.7333
0.8515625,-6.250077511863889e-05,-0.0001166954360387579,-4.834146128328372e-05,-2.0996004476997014e-05,4.2,3.7333
0.85546875,-3.467195530022124e-05,-8.643046663920041e-05,-2.9296958605325387e-05,-1.4164473905546643e-05,4.2,3.7333
0.859375,-4.248310157625695e-05,-6.152760425421529e-05,-3.173955302662698e-05,-1.3674666053253971e-05,4.2,3.7333
0.86328125,-6.494336953994047e-05,-5.615260755931943e-05,-4.932107698786906e-05,-2.9296958605325387e-05,4.2,3.7333
0.8671875,-4.8831269135576395e-05,-8.594065878690774e-05,-5.4199820990310505e-05,-4.589886686198213e-05,4.2,3.7333
0.87109375,-4.297290942854962e-05,-0.00011864822260776682,-4.589886686198213e-05,-3.85775284382391e-05,4.2,3.7333
0.875,-2.3438598898298607e-05,-7.178134495155259e-05,-1.4164473905546643e-05,-2.4908022455176606e-05,4.2,3.7333
0.87890625,-1.2211687336537721e-05,-8.306114198519864e-06,2.2944915745784713e-05,-3.759791273365375e-05,4.2,3.7333
0.8828125,-1.8559854895857155e-05,-3.369233959563591e-05,-1.4164473905546643e-05,-2.8323787740901792e-05,4.2,3.7333
0.88671875,-2.2955235886167685e-05,-6.054798854962995e-05,-3.662474186923017e-05,-1.9043217907988078e-05,4.2,3.7333
0.890625,-6.299058297093154e-05,-6.152760425421529e-05,-1.6607068326848233e-05,-3.222936087891965e-05,4.2,3.7333
0.89453125,-6.982855838254366e-05,-0.00010253612220340275,-4.932107698786906e-05,-3.467195530022124e-05,4.2,3.7333
0.8984375,-3.076638216220339e-05,-8.98462319249256e-05,-4.248310157625695e-05,-2.9786766457618055e-05,4.2,3.7333
0.90234375,-2.4418214602883934e-05,-5.859520198062103e-05,-2.9786766457618055e-05,-2.197562018158234e-05,4.2,3.7333
0.90625,-1.1721879484245051e-05,-7.129153709925993e-05,-3.9550699302662685e-05,-2.2955235886167685e-05,4.2,3.7333
0.91015625,-3.076638216220339e-05,-0.00010350929306782633,-3.3208976583504986e-05,-1.80700470435645e-05,4.2,3.7333
0.9140625,-7.617672594186311e-05,-0.00010546207963683527,-3.5645126164644834e-05,-2.3438598898298607e-05,4.2,3.7333
0.91796875,-4.541550384985121e-05,-6.592298524452581e-05,-2.0996004476997014e-05,-3.2719168731212314e-05,4.2,3.7333
0.921875,-2.3928406750591276e-05,-5.859520198062103e-05,-2.197562018158234e-05,-3.906733629053176e-05,4.2,3.7333
0.92578125,-1.758023919127183e-05,-8.740363750362399e-05,-2.197562018158234e-05,-3.906733629053176e-05,4.2,3.7333
0.9296875,-3.2719168731212314e-05,-9.912035691767757e-05,-2.7344172036316465e-05,-4.1993293723964275e-05,4.2,3.7333
0.93359375,-6.787577181353474e-05,-0.00010058333563439381,-3.4182147447928574e-05,-3.5645126164644834e-05,4.2,3.7333
0.9375,-5.078405570458532e-05,-6.640634825665674e-05,-2.4908022455176606e-05,-3.3208976583504986e-05,4.2,3.7333
0.94140625,-4.834146128328372e-05,-5.468962884260318e-05,-6.8366906416418514e-06,-4.004050715495536e-05,4.2,3.7333
0.9453125,-5.6642415411612096e-05,-8.398787221789883e-05,-4.885230823224163e-07,-4.394608029297321e-05,4.2,3.7333
0.94921875,-4.004050715495536e-05,-8.49610430823224e-05,-1.957946639200415e-06,-3.85775284382391e-05,4.2,3.7333
0.953125,-4.4005410605020075e-06,-9.716757034866863e-05,-1.5627452622262893e-05,-2.6860809024185542e-05,4.2,3.7333
0.95703125,1.2201367196154734e-05,-0.00012109081702906842,-3.662474186923017e-05,-4.3462717280842284e-05,4.2,3.7333
0.9609375,-1.0258900767528786e-05,-0.00011083707633173112,-3.369233959563591e-05,-5.5179436694895836e-05,4.2,3.7333
0.96484375,-3.906733629053176e-05,-7.275451581597617e-05,-3.8087720585946425e-05,-3.516176315251391e-05,4.2,3.7333
0.96875,-4.394608029297321e-05,-8.349806436560615e-05,-3.61349340169375e-05,-2.0022833612573422e-05,4.2,3.7333
0.97265625,-6.738596396124207e-05,-8.594065878690774e-05,-2.4908022455176606e-05,-2.637100117189287e-05,4.2,3.7333
0.9765625,-5.713222326390477e-05,-7.519711023727777e-05,-2.8323787740901792e-05,-3.369233959563591e-05,4.2,3.7333
0.98046875,-1.7090431338979156e-05,-0.00010497871662470434,-4.004050715495536e-05,-4.443588814526588e-05,4.2,3.7333
0.984375,-2.539138546730753e-05,-0.00010595188748912793,-3.8087720585946425e-05,-4.736829041886014e-05,4.2,3.7333
0.98828125,-2.1485812329289686e-05,-9.033603977721826e-05,-1.2211687336537721e-05,-3.2719168731212314e-05,4.2,3.7333
0.9921875,-1.4164473905546643e-05,-8.98462319249256e-05,-4.4005410605020075e-06,-3.1256190014496054e-05,4.2,3.7333
0.99609375,-4.1993293723964275e-05,-8.935642407263293e-05,-2.051264146486609e-05,-4.834146128328372e-05,4.2,3.7333
1.0,-6.787577181353474e-05,-7.080172924696726e-05,-3.906733629053176e-05,-5.127386355687799e-05,4.2,3.7333
1.00390625,-4.8831269135576395e-05,-7.129153709925993e-05,-2.539138546730753e-05,-4.981088484016173e-05,4.2,3.7333
1.0078125,-2.783397988860912e-05,-9.667776249637596e-05,-1.6607068326848233e-05,-4.981088484016173e-05,4.2,3.7333
1.01171875,-3.3208976583504986e-05,-8.838325320820933e-05,-1.2211687336537721e-05,-4.297290942854962e-05,4.2,3.7333
1.015625,-5.713222326390477e-05,-4.785165343099106e-05,-1.0258900767528786e-05,-3.4182147447928574e-05,4.2,3.7333
1.01953125,-5.615260755931943e-05,-2.2955235886167685e-05,-2.8323787740901792e-05,-3.076638216220339e-05,4.2,3.7333
1.0234375,-1.4164473905546643e-05,-4.8831269135576395e-05,-2.7344172036316465e-05,-3.4182147447928574e-05,4.2,3.7333
1.02734375,-9.279285062943457e-06,-8.935642407263293e-05,-2.783397988860912e-05,-4.1993293723964275e-05,4.2,3.7333
1.03125,-1.4654281757839313e-05,-0.000103999100920119,-3.076638216220339e-05,-4.736829041886014e-05,4.2,3.7333
1.03515625,-1.7090431338979156e-05,-7.71498968062867e-05,-3.711454972152283e-05,-4.8831269135576395e-05,4.2,3.7333
1.0390625,-2.3928406750591276e-05,-4.3462717280842284e-05,-3.222936087891965e-05,-4.932107698786906e-05,4.2,3.7333
1.04296875,-1.80700470435645e-05,-4.053031500724802e-05,-2.9296958605325387e-05,-4.981088484016173e-05,4.2,3.7333
1.046875,-3.1256190014496054e-05,-5.713222326390477e-05,-2.0996004476997014e-05,-4.102012285954069e-05,4.2,3.7333
1.05078125,-5.127386355687799e-05,-6.835913482566566e-05,-8.789477210650787e-06,-3.173955302662698e-05,4.2,3.7333
1.0546875,-5.176367140917066e-05,-6.933875053025099e-05,-2.3928406750591276e-05,-3.711454972152283e-05,4.2,3.7333
1.05859375,-6.44535616876478e-05,-4.394608029297321e-05,-3.076638216220339e-05,-2.3438598898298607e-05,4.2,3.7333
1.0625,-6.494336953994047e-05,-1.953302576028075e-05,-1.80700470435645e-05,-2.051264146486609e-05,4.2,3.7333
1.06640625,-2.7344172036316465e-05,-6.494336953994047e-05,-3.711454972152283e-05,-4.443588814526588e-05,4.2,3.7333
1.0703125,-1.0258900767528786e-05,-7.86193203631647e-05,-3.027657430991072e-05,-3.759791273365375e-05,4.2,3.7333
1.07421875,-2.0996004476997014e-05,-5.0294247852292655e-05,1.947626498817442e-06,-1.953302576028075e-05,4.2,3.7333
1.078125,-2.0996004476997014e-05,-4.981088484016173e-05,-2.637100117189287e-05,-3.759791273365375e-05,4.2,3.7333
1.08203125,-3.076638216220339e-05,-5.908500983291369e-05,-6.152760425421529e-05,-4.785165343099106e-05,4.2,3.7333
1.0859375,-3.759791273365375e-05,-5.566924454718851e-05,-2.2465428033875013e-05,-4.150993071183335e-05,4.2,3.7333
1.08984375,-2.3438598898298607e-05,-8.398787221789883e-05,-7.3264984939345226e-06,-4.736829041886014e-05,4.2,3.7333
1.09375,-3.027657430991072e-05,-0.00010888428976272218,-4.1993293723964275e-05,-3.9550699302662685e-05,4.2,3.7333
1.09765625,-5.0294247852292655e-05,-0.0001064416953414206,-4.785165343099106e-05,-2.783397988860912e-05,4.2,3.7333
1.1015625,-6.68961561089494e-05,-7.519711023727777e-05,-4.8831269135576395e-05,-3.3208976583504986e-05,4.2,3.7333
1.10546875,-7.617672594186311e-05,-6.348039082322422e-05,-5.4199820990310505e-05,-4.3462717280842284e-05,4.2,3.7333
1.109375,-4.589886686198213e-05,-0.000122063987893492,-4.63886747142748e-05,-3.85775284382391e-05,4.2,3.7333
1.11328125,-2.4908022455176606e-05,-0.00014404089284504463,-6.543317739223314e-05,-1.6607068326848233e-05,4.2,3.7333
1.1171875,-4.004050715495536e-05,-0.00011913803046005949,-7.324432366826884e-05,-2.6860809024185542e-05,4.2,3.7333
1.12109375,-5.371645797817958e-05,-0.00010742131104600593,-5.762203111619744e-05,-4.932107698786906e-05,4.2,3.7333
1.125,-6.152760425421529e-05,-0.00012109081702906842,-4.63886747142748e-05,-3.4182147447928574e-05,4.2,3.7333
1.12890625,-6.884894267795833e-05,-0.00015575761225909818,-6.397019867551687e-05,-3.662474186923017e-05,4.2,3.7333
1.1328125,-6.982855838254366e-05,-0.00017089654179903866,-8.154527779659721e-05,-4.541550384985121e-05,4.2,3.7333
1.13671875,-5.468962884260318e-05,-0.00014159829842374301,-7.763970465857938e-05,-4.492569599755854e-05,4.2,3.7333
1.140625,-2.5881193319600198e-05,-0.0001318343655786984,-9.325555237048904e-05,-4.589886686198213e-05,4.2,3.7333
1.14453125,-2.783397988860912e-05,-0.00011815841475547415,-8.838325320820933e-05,-4.150993071183335e-05,4.2,3.7333
1.1484375,-3.9550699302662685e-05,-0.00014453070069733728,-8.008229907988096e-05,-3.759791273365375e-05,4.2,3.7333
1.15234375,-5.615260755931943e-05,-0.00018261326121309223,-5.957481768520636e-05,-4.541550384985121e-05,4.2,3.7333
1.15625,-8.349806436560615e-05,-0.00012743898458838785,-4.785165343099106e-05,-5.566924454718851e-05,4.2,3.7333
1.16015625,-5.713222326390477e-05,-9.472497592736703e-05,-5.078405570458532e-05,-6.152760425421529e-05,4.2,3.7333
1.1640625,-1.1721879484245051e-05,-9.814074121309222e-05,-4.981088484016173e-05,-6.201741210650796e-05,4.2,3.7333
1.16796875,-9.279285062943457e-06,-0.00010742131104600593,-3.711454972152283e-05,-6.201741210650796e-05,4.2,3.7333
1.171875,-3.516176315251391e-05,-0.0001464834872663462,-2.0022833612573422e-05,-5.0294247852292655e-05,4.2,3.7333
1.17578125,-4.3462717280842284e-05,-0.00013769272528572516,-4.394608029297321e-05,-5.322665012588692e-05,4.2,3.7333
1.1796875,-4.102012285954069e-05,-0.000103999100920119,-5.713222326390477e-05,-7.373413152056151e-05,4.2,3.7333
1.18359375,-4.443588814526588e-05,-9.520833893949796e-05,-4.8831269135576395e-05,-7.959249122758829e-05,4.2,3.7333
1.1875,-7.910268337529562e-05,-8.203508564888989e-05,-7.3264984939345226e-06,-5.957481768520636e-05,4.2,3.7333
1.19140625,-7.324432366826884e-05,-9.86305490653849e-05,1.4643961617456326e-05,-2.7344172036316465e-05,4.2,3.7333
1.1953125,1.3180982900740076e-05,-0.00010742131104600593,-3.662474186923017e-05,-3.2719168731212314e-05,4.2,3.7333
1.19921875,1.2691175048447404e-05,-0.00010546207963683527,-6.054798854962995e-05,-6.982855838254366e-05,4.2,3.7333
1.203125,-2.6860809024185542e-05,-0.00012499639016708627,-6.054798854962995e-05,-8.643046663920041e-05,4.2,3.7333
1.20703125,-7.3264984939345226e-06,-0.00013427695999999997,-5.127386355687799e-05,-7.812951251087205e-05,4.2,3.7333
1.2109375,-7.3264984939345226e-06,-0.00013915570400244143,-4.102012285954069e-05,-7.080172924696726e-05,4.2,3.7333
1.21484375,-3.467195530022124e-05,-0.00012353341145037,-4.8831269135576395e-05,-6.640634825665674e-05,4.2,3.7333
1.21875,-4.004050715495536e-05,-7.86193203631647e-05,-3.467195530022124e-05,-6.543317739223314e-05,4.2,3.7333
1.22265625,-4.834146128328372e-05,-6.006462553749903e-05,-2.051264146486609e-05,-6.884894267795833e-05,4.2,3.7333
1.2265625,-5.322665012588692e-05,-6.152760425421529e-05,-2.539138546730753e-05,-5.6642415411612096e-05,4.2,3.7333
1.23046875,-5.0294247852292655e-05,-7.324432366826884e-05,-9.769092915236114e-06,-3.027657430991072e-05,4.2,3.7333
1.234375,-3.711454972152283e-05,-8.349806436560615e-05,-8.789477210650787e-06,-2.9296958605325387e-05,4.2,3.7333
1.23828125,-1.6607068326848233e-05,-9.130921064164185e-05,-4.150993071183335e-05,-5.810539412832836e-05,4.2,3.7333
1.2421875,2.9272422034027697e-06,-9.082584762951093e-05,-6.592298524452581e-05,-8.545085093461508e-05,4.2,3.7333
1.24609375,-1.5627452622262893e-05,-6.201741210650796e-05,-4.004050715495536e-05,-8.105546994430456e-05,4.2,3.7333
1.25,-5.859520198062103e-05,-8.691382965133133e-05,-3.222936087891965e-05,-5.224703442130157e-05,4.2,3.7333
1.25390625,-4.248310157625695e-05,-0.00010693150319371327,-5.371645797817958e-05,-4.63886747142748e-05,4.2,3.7333
1.2578125,-1.80700470435645e-05,-5.176367140917066e-05,-3.85775284382391e-05,-5.371645797817958e-05,4.2,3.7333
1.26171875,-2.8323787740901792e-05,-5.4199820990310505e-05,-3.5645126164644834e-05,-6.640634825665674e-05,4.2,3.7333
1.265625,-3.906733629053176e-05,-8.252489350118256e-05,-3.467195530022124e-05,-4.3462717280842284e-05,4.2,3.7333
1.26953125,-3.5645126164644834e-05,-6.494336953994047e-05,-8.306114198519864e-06,-1.80700470435645e-05,4.2,3.7333
1.2734375,-5.127386355687799e-05,-5.322665012588692e-05,-2.197562018158234e-05,-3.711454972152283e-05,4.2,3.7333
1.27734375,-5.2736842273594245e-05,-6.592298524452581e-05,-4.834146128328372e-05,-5.566924454718851e-05,4.2,3.7333
1.28125,-1.3674666053253971e-05,-6.68961561089494e-05,-6.006462553749903e-05,-6.397019867551687e-05,4.2,3.7333
1.28515625,-2.9311175036240086e-06,-5.468962884260318e-05,-4.63886747142748e-05,-4.932107698786906e-05,4.2,3.7333
1.2890625,-2.6860809024185542e-05,-7.910268337529562e-05,-4.004050715495536e-05,-3.8087720585946425e-05,4.2,3.7333
1.29296875,-3.4182147447928574e-05,-9.082584762951093e-05,-4.102012285954069e-05,-3.759791273365375e-05,4.2,3.7333
1.296875,-1.6117260474555565e-05,-3.3208976583504986e-05,-4.885230823224163e-07,-2.539138546730753e-05,4.2,3.7333
1.30078125,-2.4908022455176606e-05,1.611338517433434e-05,1.1228196331731141e-05,-1.8559854895857155e-05,4.2,3.7333
1.3046875,-5.224703442130157e-05,-4.004050715495536e-05,-4.102012285954069e-05,-4.443588814526588e-05,4.2,3.7333
1.30859375,-4.785165343099106e-05,-0.00010009352778210115,-8.98462319249256e-05,-7.324432366826884e-05,4.2,3.7333
1.3125,-1.957946639200415e-06,-0.00011474264946974896,-6.787577181353474e-05,-5.2736842273594245e-05,4.2,3.7333
1.31640625,-3.9107332082093364e-06,-9.179901849393453e-05,-3.369233959563591e-05,-4.589886686198213e-05,4.2,3.7333
1.3203125,-5.615260755931943e-05,-4.687848256656747e-05,-2.9786766457618055e-05,-6.348039082322422e-05,4.2,3.7333
1.32421875,-5.810539412832836e-05,-2.8813595593194464e-05,-4.004050715495536e-05,-4.834146128328372e-05,4.2,3.7333
1.328125,-2.9786766457618055e-05,-4.736829041886014e-05,-4.443588814526588e-05,-3.076638216220339e-05,4.2,3.7333
1.33203125,-1.4164473905546643e-05,-5.371645797817958e-05,-1.5627452622262893e-05,-2.2955235886167685e-05,4.2,3.7333
1.3359375,-1.6117260474555565e-05,-2.637100117189287e-05,-1.8559854895857155e-05,-3.3208976583504986e-05,4.2,3.7333
1.33984375,-2.3928406750591276e-05,-4.834146128328372e-05,-3.662474186923017e-05,-4.492569599755854e-05,4.2,3.7333
1.34375,-2.3928406750591276e-05,-6.152760425421529e-05,-1.4654281757839313e-05,-3.759791273365375e-05,4.2,3.7333
1.34765625,-3.61349340169375e-05,-5.127386355687799e-05,-3.4209253559166797e-06,-3.711454972152283e-05,4.2,3.7333
1.3515625,-4.102012285954069e-05,-5.6642415411612096e-05,-1.5627452622262893e-05,-3.467195530022124e-05,4.2,3.7333
1.35546875,-1.953302576028075e-05,-3.173955302662698e-05,-4.885230823224163e-07,-2.5881193319600198e-05,4.2,3.7333
1.359375,-1.3674666053253971e-05,8.785601910429549e-06,-1.957946639200415e-06,-3.906733629053176e-05,4.2,3.7333
1.36328125,-2.1485812329289686e-05,6.343007489127956e-06,-2.2465428033875013e-05,-3.759791273365375e-05,4.2,3.7333
1.3671875,-2.4418214602883934e-05,-1.9043217907988078e-05,-3.4182147447928574e-05,-3.2719168731212314e-05,4.2,3.7333
1.37109375,-2.8813595593194464e-05,-4.785165343099106e-05,-3.369233959563591e-05,-4.297290942854962e-05,4.2,3.7333
1.375,-3.076638216220339e-05,-4.687848256656747e-05,-2.4418214602883934e-05,-4.589886686198213e-05,4.2,3.7333
1.37890625,-4.541550384985121e-05,-1.4681387869077439e-06,-5.863519777218272e-06,-3.076638216220339e-05,4.2,3.7333
1.3828125,-6.494336953994047e-05,6.343007489127956e-06,4.846477821011774e-07,-2.5881193319600198e-05,4.2,3.7333
1.38671875,-0.00011425284161745631,-1.2211687336537721e-05,-3.9107332082093364e-06,-3.662474186923017e-05,4.2,3.7333
1.390625,-0.00011230005504844737,-2.3928406750591276e-05,6.343007489127956e-06,-3.906733629053176e-05,4.2,3.7333
1.39453125,-6.44535616876478e-05,-3.4182147447928574e-05,5.369836624704362e-06,-3.711454972152283e-05,4.2,3.7333
1.3984375,-2.9296958605325387e-05,-7.3264984939345226e-06,3.4170500556954408e-06,-2.4418214602883934e-05,4.2,3.7333
1.40234375,1.3180982900740076e-05,2.0502321324483105e-05,-1.3674666053253971e-05,-3.076638216220339e-05,4.2,3.7333
1.40625,8.785601910429549e-06,-4.248310157625695e-05,-4.102012285954069e-05,-4.589886686198213e-05,4.2,3.7333
1.41015625,-1.953302576028075e-05,-9.130921064164185e-05,-3.2719168731212314e-05,-3.467195530022124e-05,4.2,3.7333
1.4140625,-3.8087720585946425e-05,-5.810539412832836e-05,-1.9043217907988078e-05,-2.0022833612573422e-05,4.2,3.7333
1.41796875,-5.468962884260318e-05,-2.1485812329289686e-05,-1.0742263779659709e-05,-1.8559854895857155e-05,4.2,3.7333
1.421875,-5.2736842273594245e-05,-1.4681387869077439e-06,9.744556343938485e-07,-2.0996004476997014e-05,4.2,3.7333
1.42578125,-1.31848582009613e-05,3.900413067826364e-06,1.415415376516367e-05,-1.6117260474555565e-05,4.2,3.7333
1.4296875,9.275409762722219e-06,-2.783397988860912e-05,1.3670790753032747e-05,-1.6607068326848233e-05,4.2,3.7333
1.43359375,4.846477821011774e-07,-5.566924454718851e-05,-5.373711924925601e-06,-2.637100117189287e-05,4.2,3.7333
1.4375,-2.4908022455176606e-05,-1.8559854895857155e-05,-4.4005410605020075e-06,-3.61349340169375e-05,4.2,3.7333
1.44140625,-5.4199820990310505e-05,3.5151443012130936e-05,1.5623577322041667e-05,-3.222936087891965e-05,4.2,3.7333
1.4453125,-5.127386355687799e-05,2.1971744881361118e-05,1.5133769469748996e-05,-2.9786766457618055e-05,4.2,3.7333
1.44921875,-5.176367140917066e-05,-3.027657430991072e-05,-4.885230823224163e-07,-4.102012285954069e-05,4.2,3.7333
1.453125,-7.373413152056151e-05,-3.759791273365375e-05,-1.957946639200415e-06,-3.076638216220339e-05,4.2,3.7333
1.45703125,-6.201741210650796e-05,-5.1600701914935596e-09,-5.1600701914935596e-09,-1.953302576028075e-05,4.2,3.7333
1.4609375,-3.9550699302662685e-05,7.322623193713298e-06,-1.31848582009613e-05,-2.5881193319600198e-05,4.2,3.7333
1.46484375,-1.957946639200415e-06,3.4170500556954408e-06,1.3180982900740076e-05,-1.8559854895857155e-05,4.2,3.7333
1.46875,3.417827214770735e-05,-7.3264984939345226e-06,3.5151443012130936e-05,-1.4654281757839313e-05,4.2,3.7333
1.47265625,-7.816306346227194e-06,-4.394608029297321e-05,-4.88390407263293e-06,-3.759791273365375e-05,4.2,3.7333
1.4765625,-5.908500983291369e-05,-2.2955235886167685e-05,-2.9296958605325387e-05,-4.443588814526588e-05,4.2,3.7333
1.48046875,-4.736829041886014e-05,-1.4681387869077439e-06,-1.4654281757839313e-05,-4.102012285954069e-05,4.2,3.7333
1.484375,-3.222936087891965e-05,-1.1232071631952379e-05,-5.373711924925601e-06,-4.248310157625695e-05,4.2,3.7333
1.48828125,-2.2955235886167685e-05,-1.5137644769970236e-05,-1.1721879484245051e-05,-3.5645126164644834e-05,4.2,3.7333
1.4921875,-4.1993293723964275e-05,-6.738596396124207e-05,-3.906733629053176e-05,-4.394608029297321e-05,4.2,3.7333
1.49609375,-6.543317739223314e-05,-4.492569599755854e-05,-4.492569599755854e-05,-4.297290942854962e-05,4.2,3.7333
1.5,-5.468962884260318e-05,-4.88390407263293e-06,-2.637100117189287e-05,-3.076638216220339e-05,4.2,3.7333
1.50390625,-3.906733629053176e-05,-7.3264984939345226e-06,-2.0996004476997014e-05,-3.662474186923017e-05,4.2,3.7333
1.5078125,-1.1232071631952379e-05,-4.004050715495536e-05,-3.61349340169375e-05,-4.102012285954069e-05,4.2,3.7333
1.51171875,-1.4681387869077439e-06,-7.275451581597617e-05,-3.2719168731212314e-05,-3.027657430991072e-05,4.2,3.7333
1.515625,-1.5137644769970236e-05,-3.1256190014496054e-05,-2.6860809024185542e-05,-2.1485812329289686e-05,4.2,3.7333
1.51953125,-2.0022833612573422e-05,3.4170500556954408e-06,-4.443588814526588e-05,-2.7344172036316465e-05,4.2,3.7333
1.5234375,-4.736829041886014e-05,-1.2701495188830378e-05,-4.297290942854962e-05,-3.61349340169375e-05,4.2,3.7333
1.52734375,-7.031836623483634e-05,-2.051264146486609e-05,-2.9786766457618055e-05,-3.61349340169375e-05,4.2,3.7333
1.53125,-9.033603977721826e-05,-3.662474186923017e-05,-1.0258900767528786e-05,-2.6860809024185542e-05,4.2,3.7333
1.53515625,-8.154527779659721e-05,-2.1485812329289686e-05,9.275409762722219e-06,-1.3674666053253971e-05,4.2,3.7333
1.5390625,-2.9296958605325387e-05,-1.4681387869077439e-06,-1.953302576028075e-05,-2.2955235886167685e-05,4.2,3.7333
1.54296875,4.390220920119034e-06,-2.1485812329289686e-05,-3.5645126164644834e-05,-4.492569599755854e-05,4.2,3.7333
1.546875,2.4407894462500963e-05,-9.279285062943457e-06,-2.1485812329289686e-05,-4.63886747142748e-05,4.2,3.7333
1.55078125,-4.885230823224163e-07,-3.1256190014496054e-05,-3.9550699302662685e-05,-4.981088484016173e-05,4.2,3.7333
1.5546875,-2.637100117189287e-05,-6.250077511863889e-05,-5.322665012588692e-05,-6.201741210650796e-05,4.2,3.7333
1.55859375,-2.197562018158234e-05,-1.3674666053253971e-05,-3.076638216220339e-05,-5.322665012588692e-05,4.2,3.7333
1.5625,-4.150993071183335e-05,5.853199636835285e-06,-2.783397988860912e-05,-5.0294247852292655e-05,4.2,3.7333
1.56640625,-4.541550384985121e-05,-2.1485812329289686e-05,-3.027657430991072e-05,-4.150993071183335e-05,4.2,3.7333
1.5703125,-2.0996004476997014e-05,-4.981088484016173e-05,-8.789477210650787e-06,-2.0996004476997014e-05,4.2,3.7333
1.57421875,-1.6117260474555565e-05,-5.957481768520636e-05,-1.957946639200415e-06,-2.3928406750591276e-05,4.2,3.7333
1.578125,-3.85775284382391e-05,-1.7090431338979156e-05,-1.7090431338979156e-05,-3.759791273365375e-05,4.2,3.7333
1.58203125,-6.054798854962995e-05,3.9546824002441465e-05,-9.769092915236114e-06,-3.5645126164644834e-05,4.2,3.7333
1.5859375,-3.759791273365375e-05,1.5623577322041667e-05,-4.4005410605020075e-06,-4.1993293723964275e-05,4.2,3.7333
1.58984375,-3.222936087891965e-05,-2.8813595593194464e-05,-1.6117260474555565e-05,-3.662474186923017e-05,4.2,3.7333
1.59375,-4.443588814526588e-05,-4.394608029297321e-05,-2.539138546730753e-05,-3.173955302662698e-05,4.2,3.7333
1.59765625,-2.8813595593194464e-05,-3.711454972152283e-05,-2.5881193319600198e-05,-4.1993293723964275e-05,4.2,3.7333
1.6015625,-2.1485812329289686e-05,5.369836624704362e-06,-1.4164473905546643e-05,-3.027657430991072e-05,4.2,3.7333
1.60546875,-1.6117260474555565e-05,-9.769092915236114e-06,-2.3928406750591276e-05,-1.4654281757839313e-05,4.2,3.7333
1.609375,-2.051264146486609e-05,-4.63886747142748e-05,-4.492569599755854e-05,-1.80700470435645e-05,4.2,3.7333
1.61328125,-4.248310157625695e-05,-3.467195530022124e-05,-2.4908022455176606e-05,-2.8323787740901792e-05,4.2,3.7333
1.6171875,-5.5179436694895836e-05,-1.2701495188830378e-05,-5.863519777218272e-06,-4.150993071183335e-05,4.2,3.7333
1.62109375,-3.8087720585946425e-05,2.880327545281149e-05,-2.197562018158234e-05,-4.932107698786906e-05,4.2,3.7333
1.625,-4.541550384985121e-05,1.2691175048447404e-05,-4.102012285954069e-05,-3.61349340169375e-05,4.2,3.7333
1.62890625,-7.178134495155259e-05,-6.152760425421529e-05,-4.492569599755854e-05,-3.3208976583504986e-05,4.2,3.7333
1.6328125,-5.0294247852292655e-05,-6.933875053025099e-05,-4.932107698786906e-05,-5.078405570458532e-05,4.2,3.7333
1.63671875,-3.222936087891965e-05,-3.9550699302662685e-05,-4.736829041886014e-05,-4.541550384985121e-05,4.2,3.7333
1.640625,-5.224703442130157e-05,-1.31848582009613e-05,-2.051264146486609e-05,-2.8813595593194464e-05,4.2,3.7333
1.64453125,-4.736829041886014e-05,6.343007489127956e-06,-9.78330934615073e-07,-1.31848582009613e-05,4.2,3.7333
1.6484375,-1.6117260474555565e-05,-2.5881193319600198e-05,-2.1485812329289686e-05,-1.2701495188830378e-05,4.2,3.7333
1.65234375,-1.957946639200415e-06,-4.981088484016173e-05,-5.4199820990310505e-05,-3.3208976583504986e-05,4.2,3.7333
1.65625,-1.31848582009613e-05,-3.4182147447928574e-05,-5.078405570458532e-05,-5.713222326390477e-05,4.2,3.7333
1.66015625,-2.5881193319600198e-05,2.9272422034027697e-06,-3.076638216220339e-05,-5.810539412832836e-05,4.2,3.7333
1.6640625,-2.1485812329289686e-05,-3.9107332082093364e-06,-4.102012285954069e-05,-3.906733629053176e-05,4.2,3.7333
1.66796875,-2.783397988860912e-05,-4.589886686198213e-05,-4.63886747142748e-05,-3.711454972152283e-05,4.2,3.7333
1.671875,-5.615260755931943e-05,-5.615260755931943e-05,-3.467195530022124e-05,-4.63886747142748e-05,4.2,3.7333
1.67578125,-5.957481768520636e-05,-2.539138546730753e-05,-1.80700470435645e-05,-4.297290942854962e-05,4.2,3.7333
1.6796875,-4.394608029297321e-05,6.343007489127956e-06,-1.6117260474555565e-05,-3.516176315251391e-05,4.2,3.7333
1.68359375,-3.8087720585946425e-05,1.806617174334326e-05,-1.6607068326848233e-05,-2.4908022455176606e-05,4.2,3.7333
1.6875,-2.9296958605325387e-05,6.832815341420627e-06,-2.1485812329289686e-05,-1.8559854895857155e-05,4.2,3.7333
1.69140625,-4.785165343099106e-05,-2.8813595593194464e-05,-9.279285062943457e-06,-1.6117260474555565e-05,4.2,3.7333
1.6953125,-8.8873061060502e-05,-1.5137644769970236e-05,-3.4209253559166797e-06,-1.3674666053253971e-05,4.2,3.7333
1.69921875,-6.884894267795833e-05,1.4642634866865194e-06,-3.662474186923017e-05,-3.369233959563591e-05,4.2,3.7333
1.703125,-3.2719168731212314e-05,6.343007489127956e-06,-4.150993071183335e-05,-5.322665012588692e-05,4.2,3.7333
1.70703125,-3.516176315251391e-05,4.846477821011774e-07,-3.662474186923017e-05,-5.5179436694895836e-05,4.2,3.7333
1.7109375,-2.7344172036316465e-05,-2.2465428033875013e-05,-2.2465428033875013e-05,-2.8813595593194464e-05,4.2,3.7333
1.71484375,9.744556343938485e-07,-2.8813595593194464e-05,-1.953302576028075e-05,-1.80700470435645e-05,4.2,3.7333
1.71875,-1.4654281757839313e-05,-8.306114198519864e-06,-2.2955235886167685e-05,-4.1993293723964275e-05,4.2,3.7333
1.72265625,-3.9550699302662685e-05,8.785601910429549e-06,-2.051264146486609e-05,-4.248310157625695e-05,4.2,3.7333
1.7265625,-3.85775284382391e-05,-1.3674666053253971e-05,-3.4182147447928574e-05,-4.394608029297321e-05,4.2,3.7333
1.73046875,-6.738596396124207e-05,-1.1721879484245051e-05,-2.5881193319600198e-05,-4.297290942854962e-05,4.2,3.7333
1.734375,-5.127386355687799e-05,-8.789477210650787e-06,-2.8813595593194464e-05,-3.369233959563591e-05,4.2,3.7333
1.73828125,-5.1600701914935596e-09,-5.373711924925601e-06,-3.1256190014496054e-05,-4.248310157625695e-05,4.2,3.7333
1.7421875,4.846477821011774e-07,3.900413067826364e-06,-2.2955235886167685e-05,-3.906733629053176e-05,4.2,3.7333
1.74609375,-2.6860809024185542e-05,-1.4164473905546643e-05,-4.150993071183335e-05,-3.369233959563591e-05,4.2,3.7333
1.75,-5.6642415411612096e-05,-3.2719168731212314e-05,-3.2719168731212314e-05,-3.9550699302662685e-05,4.2,3.7333
1.75390625,-6.299058297093154e-05,-3.85775284382391e-05,-1.953302576028075e-05,-2.9786766457618055e-05,4.2,3.7333
1.7578125,-7.422393937285419e-05,-1.80700470435645e-05,-3.027657430991072e-05,-1.5137644769970236e-05,4.2,3.7333
1.76171875,-7.178134495155259e-05,2.880327545281149e-05,-6.8366906416418514e-06,-6.353327629510943e-06,4.2,3.7333
1.765625,-2.6860809024185542e-05,8.295794058136892e-06,-1.1232071631952379e-05,-1.8559854895857155e-05,4.2,3.7333
1.76953125,-5.1600701914935596e-09,-4.785165343099106e-05,-4.102012285954069e-05,-3.467195530022124e-05,4.2,3.7333
1.7734375,-1.80700470435645e-05,-4.004050715495536e-05,-4.248310157625695e-05,-4.150993071183335e-05,4.2,3.7333
1.77734375,-4.1993293723964275e-05,-9.78330934615073e-07,-3.467195530022124e-05,-4.004050715495536e-05,4.2,3.7333
1.78125,-3.516176315251391e-05,4.443201284504465e-05,-1.6607068326848233e-05,-1.0258900767528786e-05,4.2,3.7333
1.78515625,-2.6860809024185542e-05,2.636712587167163e-05,-9.769092915236114e-06,-3.9107332082093364e-06,4.2,3.7333
1.7890625,-2.637100117189287e-05,-5.078405570458532e-05,-2.539138546730753e-05,-1.7090431338979156e-05,4.2,3.7333
1.79296875,-3.076638216220339e-05,-4.932107698786906e-05,-3.173955302662698e-05,-2.783397988860912e-05,4.2,3.7333
1.796875,-9.769092915236114e-06,-1.0258900767528786e-05,-1.953302576028075e-05,-4.785165343099106e-05,4.2,3.7333
1.80078125,6.343007489127956e-06,4.846477821011774e-07,-1.31848582009613e-05,-4.102012285954069e-05,4.2,3.7333
1.8046875,-1.8559854895857155e-05,1.0248580627145812e-05,-2.539138546730753e-05,-2.8813595593194464e-05,4.2,3.7333
1.80859375,-6.787577181353474e-05,-3.4209253559166797e-06,-2.3438598898298607e-05,-2.8323787740901792e-05,4.2,3.7333
1.8125,-8.105546994430456e-05,-3.222936087891965e-05,-9.769092915236114e-06,-2.783397988860912e-05,4.2,3.7333
1.81640625,-2.9296958605325387e-05,1.3670790753032747e-05,-7.3264984939345226e-06,-3.711454972152283e-05,4.2,3.7333
1.8203125,-4.88390407263293e-06,4.980056469977876e-05,-2.051264146486609e-05,-3.369233959563591e-05,4.2,3.7333
1.82421875,-1.6117260474555565e-05,9.76521761501489e-06,-3.173955302662698e-05,-2.8323787740901792e-05,4.2,3.7333
1.828125,-3.027657430991072e-05,-1.5627452622262893e-05,-2.637100117189287e-05,-4.834146128328372e-05,4.2,3.7333
1.83203125,-4.150993071183335e-05,-2.7344172036316465e-05,-2.783397988860912e-05,-4.492569599755854e-05,4.2,3.7333
1.8359375,-4.687848256656747e-05,-2.0022833612573422e-05,-2.2955235886167685e-05,-1.7090431338979156e-05,4.2,3.7333
1.83984375,-5.810539412832836e-05,1.9529150460059524e-05,-2.2465428033875013e-05,-1.9043217907988078e-05,4.2,3.7333
1.84375,-5.371645797817958e-05,1.0738388479438484e-05,-2.0996004476997014e-05,-4.150993071183335e-05,4.2,3.7333
1.84765625,-5.322665012588692e-05,-3.222936087891965e-05,-2.051264146486609e-05,-4.150993071183335e-05,4.2,3.7333
1.8515625,-4.492569599755854e-05,-2.1485812329289686e-05,-3.2719168731212314e-05,-2.783397988860912e-05,4.2,3.7333
1.85546875,-1.758023919127183e-05,-6.8366906416418514e-06,-3.369233959563591e-05,-2.197562018158234e-05,4.2,3.7333
1.859375,-5.1600701914935596e-09,-4.4005410605020075e-06,-3.027657430991072e-05,-2.4418214602883934e-05,4.2,3.7333
1.86328125,-3.4209253559166797e-06,1.1718004184023811e-05,-3.759791273365375e-05,-3.9550699302662685e-05,4.2,3.7333
1.8671875,-3.467195530022124e-05,-9.279285062943457e-06,-3.369233959563591e-05,-4.687848256656747e-05,4.2,3.7333
1.87109375,-3.5645126164644834e-05,-2.4908022455176606e-05,-1.3674666053253971e-05,-3.5645126164644834e-05,4.2,3.7333
1.875,4.880028772411705e-06,-2.5881193319600198e-05,-1.2211687336537721e-05,-3.4182147447928574e-05,4.2,3.7333
1.87890625,-1.6117260474555565e-05,-8.789477210650787e-06,-3.076638216220339e-05,-4.004050715495536e-05,4.2,3.7333
1.8828125,-6.640634825665674e-05,-5.1600701914935596e-09,-3.5645126164644834e-05,-3.9550699302662685e-05,4.2,3.7333
1.88671875,-5.468962884260318e-05,-2.8323787740901792e-05,-3.2719168731212314e-05,-3.222936087891965e-05,4.2,3.7333
1.890625,-5.713222326390477e-05,-4.492569599755854e-05,-2.8323787740901792e-05,-3.2719168731212314e-05,4.2,3.7333
1.89453125,-6.738596396124207e-05,-1.0258900767528786e-05,-4.885230823224163e-07,-2.8323787740901792e-05,4.2,3.7333
1.8984375,-4.102012285954069e-05,2.7340296736095225e-05,-2.9311175036240086e-06,-2.051264146486609e-05,4.2,3.7333
1.90234375,-2.8323787740901792e-05,6.832815341420627e-06,-3.2719168731212314e-05,-4.150993071183335e-05,4.2,3.7333
1.90625,-2.4418214602883934e-05,-4.004050715495536e-05,-6.152760425421529e-05,-6.397019867551687e-05,4.2,3.7333
1.91015625,-1.1721879484245051e-05,-6.348039082322422e-05,-6.933875053025099e-05,-5.615260755931943e-05,4.2,3.7333
1.9140625,-1.4654281757839313e-05,-4.589886686198213e-05,-5.176367140917066e-05,-2.4418214602883934e-05,4.2,3.7333
1.91796875,-3.3208976583504986e-05,-4.63886747142748e-05,-7.519711023727777e-05,-1.7090431338979156e-05,4.2,3.7333
1.921875,-8.545085093461508e-05,-6.299058297093154e-05,-0.0001166954360387579,-4.834146128328372e-05,4.2,3.7333
1.92578125,-7.031836623483634e-05,-9.228238150606545e-05,-0.00013525013086442355,-5.127386355687799e-05,4.2,3.7333
1.9296875,-2.9311175036240086e-06,-9.912035691767757e-05,-0.00013769272528572516,-4.63886747142748e-05,4.2,3.7333
1.93359375,-4.4005410605020075e-06,-0.00010253612220340275,-0.00015380482569008925,-6.884894267795833e-05,4.2,3.7333
1.9375,1.9529150460059524e-05,-0.00011523245732204163,-0.00018310306906538487,-6.397019867551687e-05,4.2,3.7333
1.94140625,1.806617174334326e-05,-7.324432366826884e-05,-0.00016650116080872815,-4.687848256656747e-05,4.2,3.7333
1.9453125,-7.816306346227194e-06,-5.5179436694895836e-05,-0.00012158062488136109,-3.711454972152283e-05,4.2,3.7333
1.94921875,3.4170500556954408e-06,-0.0001015565064988174,-0.0001269491767360952,-5.0294247852292655e-05,4.2,3.7333
1.953125,-1.957946639200415e-06,-9.228238150606545e-05,-0.00013134455772640573,-6.982855838254366e-05,4.2,3.7333
1.95703125,-1.0742263779659709e-05,-4.589886686198213e-05,-9.86305490653849e-05,-5.615260755931943e-05,4.2,3.7333
1.9609375,-1.758023919127183e-05,-3.662474186923017e-05,-8.691382965133133e-05,-3.4182147447928574e-05,4.2,3.7333
1.96484375,-4.589886686198213e-05,-2.8813595593194464e-05,-0.00012255379574578469,-4.834146128328372e-05,4.2,3.7333
1.96875,-4.3462717280842284e-05,-5.127386355687799e-05,-0.00011864822260776682,-6.201741210650796e-05,4.2,3.7333
1.97265625,-1.953302576028075e-05,-8.057210693217363e-05,-9.325555237048904e-05,-5.371645797817958e-05,4.2,3.7333
1.9765625,-1.9043217907988078e-05,-3.9550699302662685e-05,-7.617672594186311e-05,-4.736829041886014e-05,4.2,3.7333
1.98046875,-1.1721879484245051e-05,5.369836624704362e-06,-6.152760425421529e-05,-5.713222326390477e-05,4.2,3.7333
1.984375,-1.1232071631952379e-05,1.9529150460059524e-05,-6.397019867551687e-05,-6.054798854962995e-05,4.2,3.7333
1.98828125,-6.353327629510943e-06,-2.9311175036240086e-06,-4.981088484016173e-05,-3.467195530022124e-05,4.2,3.7333
1.9921875,2.437434351110099e-06,-5.1600701914935596e-09,-2.6860809024185542e-05,-1.9043217907988078e-05,4.2,3.7333
1.99609375,-6.353327629510943e-06,1.806617174334326e-05,-1.31848582009613e-05,-3.61349340169375e-05,4.2,3.7333
2.0,-2.9311175036240086e-06,1.7086556038757934e-05,-2.4908022455176606e-05,-5.6642415411612096e-05,4.2,3.7333
2.00390625,-1.1721879484245051e-05,1.2201367196154734e-05,-5.2736842273594245e-05,-5.2736842273594245e-05,4.2,3.7333
2.0078125,-2.0022833612573422e-05,-1.5627452622262893e-05,-5.908500983291369e-05,-4.736829041886014e-05,4.2,3.7333
2.01171875,-2.6860809024185542e-05,-3.2719168731212314e-05,-4.102012285954069e-05,-4.589886686198213e-05,4.2,3.7333
2.015625,-3.1256190014496054e-05,-3.9107332082093364e-06,-2.637100117189287e-05,-4.1993293723964275e-05,4.2,3.7333
2.01953125,9.76521761501489e-06,4.7847778130769825e-05,-1.31848582009613e-05,-2.8813595593194464e-05,4.2,3.7333
2.0234375,2.245510789349204e-05,3.466808000000001e-05,-2.2465428033875013e-05,-3.3208976583504986e-05,4.2,3.7333
2.02734375,-1.0742263779659709e-05,-1.758023919127183e-05,-5.957481768520636e-05,-4.492569599755854e-05,4.2,3.7333
2.03125,-1.6117260474555565e-05,-3.9550699302662685e-05,-7.324432366826884e-05,-5.0294247852292655e-05,4.2,3.7333
2.03515625,-2.783397988860912e-05,-3.516176315251391e-05,-5.127386355687799e-05,-5.127386355687799e-05,4.2,3.7333
2.0390625,-7.666008895399403e-05,2.3434723598077368e-05,-3.222936087891965e-05,-5.0294247852292655e-05,4.2,3.7333
2.04296875,-5.5179436694895836e-05,2.8319912440680565e-05,-3.8087720585946425e-05,-3.759791273365375e-05,4.2,3.7333
2.046875,-5.1600701914935596e-09,-1.953302576028075e-05,-4.150993071183335e-05,-3.2719168731212314e-05,4.2,3.7333
2.05078125,-4.885230823224163e-07,-2.5881193319600198e-05,-2.4908022455176606e-05,-4.394608029297321e-05,4.2,3.7333
2.0546875,-2.4418214602883934e-05,-2.8323787740901792e-05,-2.1485812329289686e-05,-5.078405570458532e-05,4.2,3.7333
2.05859375,-2.8813595593194464e-05,6.832815341420627e-06,-3.61349340169375e-05,-4.589886686198213e-05,4.2,3.7333
2.0625,-2.8323787740901792e-05,3.905701615014879e-05,-2.1485812329289686e-05,-3.516176315251391e-05,4.2,3.7333
2.06640625,-3.222936087891965e-05,2.5877318019378975e-05,-1.1232071631952379e-05,-3.369233959563591e-05,4.2,3.7333
2.0703125,-1.2701495188830378e-05,-1.2701495188830378e-05,-3.5645126164644834e-05,-4.785165343099106e-05,4.2,3.7333
2.07421875,-4.88390407263293e-06,-1.6117260474555565e-05,-3.369233959563591e-05,-4.102012285954069e-05,4.2,3.7333
2.078125,-4.004050715495536e-05,3.857365313801787e-05,-3.9107332082093364e-06,-2.0996004476997014e-05,4.2,3.7333
2.08203125,-5.566924454718851e-05,4.394220499275198e-05,-1.0742263779659709e-05,-2.9786766457618055e-05,4.2,3.7333
2.0859375,-3.516176315251391e-05,1.7086556038757934e-05,-4.248310157625695e-05,-4.687848256656747e-05,4.2,3.7333
2.08984375,-1.5137644769970236e-05,-2.3438598898298607e-05,-5.859520198062103e-05,-5.713222326390477e-05,4.2,3.7333
2.09375,-2.3438598898298607e-05,-4.63886747142748e-05,-5.224703442130157e-05,-4.394608029297321e-05,4.2,3.7333
2.09765625,-3.173955302662698e-05,-3.4209253559166797e-06,-3.759791273365375e-05,-3.173955302662698e-05,4.2,3.7333
2.1015625,-1.1721879484245051e-05,4.5894991561760886e-05,-1.80700470435645e-05,-3.1256190014496054e-05,4.2,3.7333
2.10546875,-2.9311175036240086e-06,4.882739383535516e-05,-3.3208976583504986e-05,-3.222936087891965e-05,4.2,3.7333
2.109375,-1.9043217907988078e-05,2.4407894462500963e-05,-2.051264146486609e-05,-1.80700470435645e-05,4.2,3.7333
2.11328125,-3.906733629053176e-05,1.2691175048447404e-05,3.900413067826364e-06,-2.4413096513313375e-06,4.2,3.7333
2.1171875,-5.4199820990310505e-05,1.2201367196154734e-05,-2.197562018158234e-05,-2.3928406750591276e-05,4.2,3.7333
2.12109375,-6.152760425421529e-05,2.1481937029068446e-05,-3.467195530022124e-05,-5.5179436694895836e-05,4.2,3.7333
2.125,-3.027657430991072e-05,2.2944915745784713e-05,-4.492569599755854e-05,-5.566924454718851e-05,4.2,3.7333
2.12890625,-2.6860809024185542e-05,-5.863519777218272e-06,-4.102012285954069e-05,-5.127386355687799e-05,4.2,3.7333
2.1328125,-3.8087720585946425e-05,-3.076638216220339e-05,-4.63886747142748e-05,-4.394608029297321e-05,4.2,3.7333
2.13671875,-2.0996004476997014e-05,-1.9043217907988078e-05,-6.592298524452581e-05,-3.467195530022124e-05,4.2,3.7333
2.140625,-2.637100117189287e-05,1.8549534755474183e-05,-3.8087720585946425e-05,-2.6860809024185542e-05,4.2,3.7333
2.14453125,-1.9043217907988078e-05,3.6131058716716266e-05,-1.0742263779659709e-05,-1.9043217907988078e-05,4.2,3.7333
2.1484375,-2.4413096513313375e-06,1.1718004184023811e-05,-2.051264146486609e-05,-2.783397988860912e-05,4.2,3.7333
2.15234375,-3.9107332082093364e-06,-2.637100117189287e-05,-3.85775284382391e-05,-4.1993293723964275e-05,4.2,3.7333
2.15625,-1.8559854895857155e-05,-1.9043217907988078e-05,-4.150993071183335e-05,-3.662474186923017e-05,4.2,3.7333
2.16015625,-2.2955235886167685e-05,3.417827214770735e-05,-1.9043217907988078e-05,-2.3438598898298607e-05,4.2,3.7333
2.1640625,-2.2465428033875013e-05,2.7830104588387897e-05,-3.662474186923017e-05,-3.2719168731212314e-05,4.2,3.7333
2.16796875,-4.443588814526588e-05,9.744556343938485e-07,-4.1993293723964275e-05,-4.981088484016173e-05,4.2,3.7333
2.171875,-5.224703442130157e-05,-5.1600701914935596e-09,-2.3928406750591276e-05,-4.541550384985121e-05,4.2,3.7333
2.17578125,-3.467195530022124e-05,9.275409762722219e-06,-3.85775284382391e-05,-3.3208976583504986e-05,4.2,3.7333
2.1796875,-3.5645126164644834e-05,4.296258928816664e-05,-5.908500983291369e-05,-4.63886747142748e-05,4.2,3.7333
2.18359375,-2.637100117189287e-05,5.175335126878767e-05,-5.127386355687799e-05,-4.8831269135576395e-05,4.2,3.7333
2.1875,-4.88390407263293e-06,8.295794058136892e-06,-2.637100117189287e-05,-4.1993293723964275e-05,4.2,3.7333
2.19140625,-9.78330934615073e-07,-2.5881193319600198e-05,-4.248310157625695e-05,-3.906733629053176e-05,4.2,3.7333
2.1953125,-1.4681387869077439e-06,-2.8813595593194464e-05,-6.006462553749903e-05,-2.3438598898298607e-05,4.2,3.7333
2.19921875,-2.637100117189287e-05,-1.957946639200415e-06,-5.5179436694895836e-05,-2.051264146486609e-05,4.2,3.7333
2.203125,-4.785165343099106e-05,2.6850488883802553e-05,-6.299058297093154e-05,-2.637100117189287e-05,4.2,3.7333
2.20703125,-3.759791273365375e-05,1.9529150460059524e-05,-5.859520198062103e-05,-2.0022833612573422e-05,4.2,3.7333
2.2109375,-3.662474186923017e-05,-4.004050715495536e-05,-7.568691808957044e-05,-1.2211687336537721e-05,4.2,3.7333
2.21484375,-5.176367140917066e-05,-6.103779640192262e-05,-8.300825651331348e-05,-9.769092915236114e-06,4.2,3.7333
2.21875,-3.9550699302662685e-05,9.744556343938485e-07,-6.250077511863889e-05,4.846477821011774e-07,4.2,3.7333
2.22265625,-1.953302576028075e-05,1.9039342607766855e-05,-7.86193203631647e-05,1.415415376516367e-05,4.2,3.7333
2.2265625,-3.9550699302662685e-05,-4.785165343099106e-05,-0.0001015565064988174,7.322623193713298e-06,4.2,3.7333
2.23046875,-6.348039082322422e-05,-0.0001015565064988174,-0.00012158062488136109,-2.4413096513313375e-06,4.2,3.7333
2.234375,-4.981088484016173e-05,-9.960371992980848e-05,-0.00012158062488136109,-2.9311175036240086e-06,4.2,3.7333
2.23828125,-5.859520198062103e-05,-3.711454972152283e-05,-0.00010888428976272218,1.3670790753032747e-05,4.2,3.7333
2.2421875,-4.1993293723964275e-05,-1.7090431338979156e-05,-0.0001118102471961547,3.3688464295414676e-05,4.2,3.7333
2.24609375,-1.31848582009613e-05,-8.447768007019148e-05,-0.0001425714692881666,1.611338517433434e-05,4.2,3.7333
2.25,-1.2211687336537721e-05,-0.0001498992525520714,-0.00018261326121309223,-5.1600701914935596e-09,4.2,3.7333
2.25390625,-2.197562018158234e-05,-0.0001469668502784771,-0.00017919749592736704,8.785601910429549e-06,4.2,3.7333
2.2578125,-3.5645126164644834e-05,-0.00012353341145037,-0.00016601135295643546,3.124586987411308e-05,4.2,3.7333
2.26171875,-2.1485812329289686e-05,-0.00010009352778210115,-0.00016601135295643546,4.2479226276035714e-05,4.2,3.7333
2.265625,-6.353327629510943e-06,-0.00011864822260776682,-0.00018505585563439382,2.5877318019378975e-05,4.2,3.7333
2.26953125,-5.373711924925601e-06,-0.00016015299324940869,-0.0001909142153414206,2.5387510167086303e-05,4.2,3.7333
2.2734375,-2.0996004476997014e-05,-0.0001669909686610208,-0.00018505585563439382,2.7830104588387897e-05,4.2,3.7333
2.27734375,-3.61349340169375e-05,-0.0001269491767360952,-0.000177728072370489,2.6850488883802553e-05,4.2,3.7333
2.28125,-3.61349340169375e-05,-8.838325320820933e-05,-0.00018115028249637594,3.0756062021820414e-05,4.2,3.7333
2.28515625,-4.102012285954069e-05,-8.789344535591666e-05,-0.0001748021149370565,1.5623577322041667e-05,4.2,3.7333
2.2890625,-1.1232071631952379e-05,-9.912035691767757e-05,-0.00016308539552300293,7.322623193713298e-06,4.2,3.7333
2.29296875,2.7340296736095225e-05,-0.00012401677446250092,-0.00015624742011139084,1.611338517433434e-05,4.2,3.7333
2.296875,-6.353327629510943e-06,-0.0001030259300556954,-0.00014891963684748606,7.81243104600597e-06,4.2,3.7333
2.30078125,-6.44535616876478e-05,-6.348039082322422e-05,-0.00014794646598306245,-1.1721879484245051e-05,4.2,3.7333
2.3046875,-5.908500983291369e-05,-6.397019867551687e-05,-0.00012939177115739678,-1.4681387869077439e-06,4.2,3.7333
2.30859375,-4.150993071183335e-05,-7.178134495155259e-05,-0.00011376303376516364,4.880028772411705e-06,4.2,3.7333
2.3125,-2.4908022455176606e-05,-8.8873061060502e-05,-0.00011523245732204163,4.390220920119034e-06,4.2,3.7333
2.31640625,-1.957946639200415e-06,-7.617672594186311e-05,-9.228238150606545e-05,-1.4681387869077439e-06,4.2,3.7333
2.3203125,-6.8366906416418514e-06,-1.2701495188830378e-05,-7.227115280384526e-05,-1.5627452622262893e-05,4.2,3.7333
2.32421875,-2.5881193319600198e-05,4.846477821011774e-07,-7.227115280384526e-05,-1.953302576028075e-05,4.2,3.7333
2.328125,-2.197562018158234e-05,-3.4209253559166797e-06,-4.589886686198213e-05,-1.758023919127183e-05,4.2,3.7333
2.33203125,-3.516176315251391e-05,-1.7090431338979156e-05,-4.1993293723964275e-05,-2.8813595593194464e-05,4.2,3.7333
2.3359375,-5.322665012588692e-05,1.3670790753032747e-05,-3.369233959563591e-05,-4.248310157625695e-05,4.2,3.7333
2.33984375,-6.44535616876478e-05,7.90988080750744e-05,3.4170500556954408e-06,-4.1993293723964275e-05,4.2,3.7333
2.34375,-8.740363750362399e-05,4.8337585983062497e-05,1.4642634866865194e-06,-3.9550699302662685e-05,4.2,3.7333
2.34765625,-5.322665012588692e-05,-1.5627452622262893e-05,-2.3438598898298607e-05,-5.468962884260318e-05,4.2,3.7333
2.3515625,-2.3438598898298607e-05,-3.61349340169375e-05,-2.4418214602883934e-05,-6.006462553749903e-05,4.2,3.7333
2.35546875,-3.5645126164644834e-05,-1.5627452622262893e-05,-3.222936087891965e-05,-6.592298524452581e-05,4.2,3.7333
2.359375,-5.078405570458532e-05,2.8319912440680565e-05,-1.2211687336537721e-05,-7.227115280384526e-05,4.2,3.7333
2.36328125,-7.470730238498511e-05,6.151728411383231e-05,9.76521761501489e-06,-6.397019867551687e-05,4.2,3.7333
2.3671875,-7.617672594186311e-05,6.151728411383231e-05,9.275409762722219e-06,-5.957481768520636e-05,4.2,3.7333
2.37109375,-4.981088484016173e-05,1.2201367196154734e-05,4.390220920119034e-06,-6.250077511863889e-05,4.2,3.7333
2.375,-3.9550699302662685e-05,1.5133769469748996e-05,1.9529150460059524e-05,-5.322665012588692e-05,4.2,3.7333
2.37890625,-6.68961561089494e-05,6.298670767071033e-05,3.3198656443122004e-05,-3.9550699302662685e-05,4.2,3.7333
2.3828125,-9.61879546440833e-05,7.275064051575494e-05,4.394220499275198e-05,-4.394608029297321e-05,4.2,3.7333
2.38671875,-8.105546994430456e-05,6.591266510414282e-05,4.7847778130769825e-05,-5.713222326390477e-05,4.2,3.7333
2.390625,-6.201741210650796e-05,4.4921820697337325e-05,3.0272699009689487e-05,-6.152760425421529e-05,4.2,3.7333
2.39453125,-5.566924454718851e-05,5.6638540111390876e-05,4.052643970702678e-05,-4.932107698786906e-05,4.2,3.7333
2.3984375,-2.197562018158234e-05,6.347651552300298e-05,3.710422958113986e-05,-5.615260755931943e-05,4.2,3.7333
2.40234375,-2.197562018158234e-05,7.177102481116961e-05,1.806617174334326e-05,-7.129153709925993e-05,4.2,3.7333
2.40625,-4.1993293723964275e-05,3.5151443012130936e-05,1.947626498817442e-06,-7.373413152056151e-05,4.2,3.7333
2.41015625,-3.5645126164644834e-05,1.947626498817442e-06,1.0738388479438484e-05,-8.008229907988096e-05,4.2,3.7333
2.4140625,-4.1993293723964275e-05,2.0992129176775774e-05,3.466808000000001e-05,-8.252489350118256e-05,4.2,3.7333
2.41796875,-5.127386355687799e-05,2.978289115739682e-05,3.905701615014879e-05,-6.640634825665674e-05,4.2,3.7333
2.421875,-5.5179436694895836e-05,6.493949423971923e-05,2.0992129176775774e-05,-6.152760425421529e-05,4.2,3.7333
2.42578125,-5.713222326390477e-05,4.882739383535516e-05,2.392453145037004e-05,-6.348039082322422e-05,4.2,3.7333
2.4296875,-6.299058297093154e-05,5.369836624704362e-06,8.295794058136892e-06,-6.68961561089494e-05,4.2,3.7333
2.43359375,-7.519711023727777e-05,-7.816306346227194e-06,-1.1232071631952379e-05,-6.933875053025099e-05,4.2,3.7333
2.4375,-3.222936087891965e-05,4.394220499275198e-05,9.76521761501489e-06,-5.224703442130157e-05,4.2,3.7333
2.44140625,-1.953302576028075e-05,9.081552748912796e-05,2.489770231479363e-05,-3.906733629053176e-05,4.2,3.7333
2.4453125,-5.859520198062103e-05,4.2479226276035714e-05,2.0018958312352182e-05,-5.0294247852292655e-05,4.2,3.7333
2.44921875,-6.054798854962995e-05,-7.3264984939345226e-06,1.9039342607766855e-05,-6.44535616876478e-05,4.2,3.7333
2.453125,-2.9786766457618055e-05,-1.3674666053253971e-05,1.2691175048447404e-05,-5.957481768520636e-05,4.2,3.7333
2.45703125,-1.1232071631952379e-05,1.9529150460059524e-05,7.81243104600597e-06,-5.078405570458532e-05,4.2,3.7333
2.4609375,-5.078405570458532e-05,4.198941842374304e-05,1.5623577322041667e-05,-5.224703442130157e-05,4.2,3.7333
2.46484375,-6.68961561089494e-05,5.712834796368355e-05,2.636712587167163e-05,-4.248310157625695e-05,4.2,3.7333
2.46875,-1.1721879484245051e-05,2.9293083305104147e-05,2.9293083305104147e-05,-4.150993071183335e-05,4.2,3.7333
2.47265625,1.0248580627145812e-05,-2.0996004476997014e-05,1.2201367196154734e-05,-6.006462553749903e-05,4.2,3.7333
2.4765625,-3.076638216220339e-05,-7.816306346227194e-06,1.3670790753032747e-05,-7.71498968062867e-05,4.2,3.7333
2.48046875,-4.541550384985121e-05,3.759403743343253e-05,2.489770231479363e-05,-7.959249122758829e-05,4.2,3.7333
2.484375,-2.3928406750591276e-05,4.638479941405356e-05,2.392453145037004e-05,-5.859520198062103e-05,4.2,3.7333
2.48828125,-1.9043217907988078e-05,2.4407894462500963e-05,1.0738388479438484e-05,-4.785165343099106e-05,4.2,3.7333
2.4921875,-3.61349340169375e-05,-1.31848582009613e-05,4.880028772411705e-06,-5.566924454718851e-05,4.2,3.7333
2.49609375,-3.467195530022124e-05,9.275409762722219e-06,2.6850488883802553e-05,-4.687848256656747e-05,4.2,3.7333
2.5,-3.9550699302662685e-05,3.857365313801787e-05,1.9039342607766855e-05,-4.8831269135576395e-05,4.2,3.7333
2.50390625,-4.589886686198213e-05,1.0738388479438484e-05,1.8549534755474183e-05,-5.0294247852292655e-05,4.2,3.7333
2.5078125,-2.1485812329289686e-05,6.343007489127956e-06,1.8549534755474183e-05,-3.4182147447928574e-05,4.2,3.7333
2.51171875,-8.789477210650787e-06,-1.4654281757839313e-05,9.744556343938485e-07,-4.541550384985121e-05,4.2,3.7333
2.515625,1.947626498817442e-06,-2.1485812329289686e-05,4.846477821011774e-07,-4.589886686198213e-05,4.2,3.7333
2.51953125,1.2691175048447404e-05,2.7340296736095225e-05,7.81243104600597e-06,-3.8087720585946425e-05,4.2,3.7333
2.5234375,-3.711454972152283e-05,2.0992129176775774e-05,-7.816306346227194e-06,-4.150993071183335e-05,4.2,3.7333
2.52734375,-6.787577181353474e-05,-2.8323787740901792e-05,-2.783397988860912e-05,-4.150993071183335e-05,4.2,3.7333
2.53125,-2.4908022455176606e-05,-3.61349340169375e-05,-1.6117260474555565e-05,-4.687848256656747e-05,4.2,3.7333
2.53515625,-1.6607068326848233e-05,-3.027657430991072e-05,-8.789477210650787e-06,-4.785165343099106e-05,4.2,3.7333
2.5390625,-6.006462553749903e-05,-9.769092915236114e-06,-1.4681387869077439e-06,-4.932107698786906e-05,4.2,3.7333
2.54296875,-5.0294247852292655e-05,1.5623577322041667e-05,2.0992129176775774e-05,-3.027657430991072e-05,4.2,3.7333
2.546875,9.744556343938485e-07,1.9529150460059524e-05,3.759403743343253e-05,-1.3674666053253971e-05,4.2,3.7333
2.55078125,1.1718004184023811e-05,-3.027657430991072e-05,3.900413067826364e-06,-4.394608029297321e-05,4.2,3.7333
2.5546875,-2.0022833612573422e-05,-5.224703442130157e-05,-3.8087720585946425e-05,-6.250077511863889e-05,4.2,3.7333
2.55859375,-4.834146128328372e-05,-4.297290942854962e-05,-4.63886747142748e-05,-5.957481768520636e-05,4.2,3.7333
2.5625,-5.078405570458532e-05,-1.0742263779659709e-05,-2.2465428033875013e-05,-4.63886747142748e-05,4.2,3.7333
2.56640625,-3.906733629053176e-05,7.322623193713298e-06,-6.8366906416418514e-06,-4.589886686198213e-05,4.2,3.7333
2.5703125,-1.4681387869077439e-06,-7.816306346227194e-06,1.2691175048447404e-05,-1.953302576028075e-05,4.2,3.7333
2.57421875,-3.4209253559166797e-06,-4.297290942854962e-05,4.390220920119034e-06,-1.953302576028075e-05,4.2,3.7333
2.578125,-3.906733629053176e-05,-5.078405570458532e-05,-5.0294247852292655e-05,-5.468962884260318e-05,4.2,3.7333
2.58203125,-3.1256190014496054e-05,-1.80700470435645e-05,-4.541550384985121e-05,-5.2736842273594245e-05,4.2,3.7333
2.5859375,-1.1232071631952379e-05,-4.88390407263293e-06,-2.539138546730753e-05,-3.85775284382391e-05,4.2,3.7333
2.58984375,-4.736829041886014e-05,-1.31848582009613e-05,-2.783397988860912e-05,-4.443588814526588e-05,4.2,3.7333
2.59375,-6.835913482566566e-05,-4.102012285954069e-05,-1.953302576028075e-05,-5.224703442130157e-05,4.2,3.7333
2.59765625,-1.0742263779659709e-05,-5.957481768520636e-05,-2.2465428033875013e-05,-4.394608029297321e-05,4.2,3.7333
2.6015625,7.81243104600597e-06,5.853199636835285e-06,-2.5881193319600198e-05,-3.369233959563591e-05,4.2,3.7333
2.60546875,-2.5881193319600198e-05,2.0502321324483105e-05,-1.7090431338979156e-05,-3.222936087891965e-05,4.2,3.7333
2.609375,-3.222936087891965e-05,-2.637100117189287e-05,-6.8366906416418514e-06,-3.369233959563591e-05,4.2,3.7333
2.61328125,-4.63886747142748e-05,-3.173955302662698e-05,-4.885230823224163e-07,-2.8323787740901792e-05,4.2,3.7333
2.6171875,-6.592298524452581e-05,-1.80700470435645e-05,-1.758023919127183e-05,-4.541550384985121e-05,4.2,3.7333
2.62109375,-3.027657430991072e-05,-9.78330934615073e-07,-4.297290942854962e-05,-5.566924454718851e-05,4.2,3.7333
2.625,-1.1721879484245051e-05,4.846477821011774e-07,-4.1993293723964275e-05,-5.2736842273594245e-05,4.2,3.7333
2.62890625,-5.863519777218272e-06,-1.8559854895857155e-05,-3.3208976583504986e-05,-5.468962884260318e-05,4.2,3.7333
2.6328125,-5.863519777218272e-06,4.880028772411705e-06,-3.4209253559166797e-06,-3.61349340169375e-05,4.2,3.7333
2.63671875,-2.1485812329289686e-05,2.9293083305104147e-05,-5.1600701914935596e-09,-2.0996004476997014e-05,4.2,3.7333
2.640625,-2.8323787740901792e-05,-1.4164473905546643e-05,-5.615260755931943e-05,-3.173955302662698e-05,4.2,3.7333
2.64453125,-4.1993293723964275e-05,-3.9550699302662685e-05,-5.2736842273594245e-05,-3.467195530022124e-05,4.2,3.7333
2.6484375,-6.44535616876478e-05,-7.373413152056151e-05,-4.3462717280842284e-05,-3.906733629053176e-05,4.2,3.7333
2.65234375,-6.884894267795833e-05,-0.00010790467405813685,-5.127386355687799e-05,-4.248310157625695e-05,4.2,3.7333
2.65625,-5.2736842273594245e-05,-5.566924454718851e-05,-3.027657430991072e-05,-2.9296958605325387e-05,4.2,3.7333
2.66015625,-4.248310157625695e-05,-1.6607068326848233e-05,-4.8831269135576395e-05,-2.637100117189287e-05,4.2,3.7333
2.6640625,-5.762203111619744e-05,-3.4182147447928574e-05,-5.078405570458532e-05,-1.953302576028075e-05,4.2,3.7333
2.66796875,-9.325555237048904e-05,-4.004050715495536e-05,-2.783397988860912e-05,-1.6607068326848233e-05,4.2,3.7333
2.671875,-0.00012792879244068054,-5.176367140917066e-05,-2.051264146486609e-05,-1.1721879484245051e-05,4.2,3.7333
2.67578125,-6.44535616876478e-05,-5.5179436694895836e-05,-2.539138546730753e-05,-1.2211687336537721e-05,4.2,3.7333
2.6796875,-1.4164473905546643e-05,-2.7344172036316465e-05,-2.4908022455176606e-05,-2.783397988860912e-05,4.2,3.7333
2.68359375,-6.738596396124207e-05,-3.222936087891965e-05,-2.2955235886167685e-05,-2.6860809024185542e-05,4.2,3.7333
2.6875,-7.617672594186311e-05,-5.078405570458532e-05,-3.759791273365375e-05,-2.4908022455176606e-05,4.2,3.7333
2.69140625,-4.297290942854962e-05,-7.959249122758829e-05,-3.759791273365375e-05,-4.004050715495536e-05,4.2,3.7333
2.6953125,-3.906733629053176e-05,-8.545085093461508e-05,-2.7344172036316465e-05,-4.8831269135576395e-05,4.2,3.7333
2.69921875,-4.053031500724802e-05,-4.394608029297321e-05,-3.759791273365375e-05,-5.224703442130157e-05,4.2,3.7333
2.703125,-4.541550384985121e-05,-2.3928406750591276e-05,-4.248310157625695e-05,-4.8831269135576395e-05,4.2,3.7333
2.70703125,-4.004050715495536e-05,-4.834146128328372e-05,-1.6117260474555565e-05,-4.053031500724802e-05,4.2,3.7333
2.7109375,-5.0294247852292655e-05,-5.6642415411612096e-05,-6.8366906416418514e-06,-3.85775284382391e-05,4.2,3.7333
2.71484375,-6.640634825665674e-05,-4.394608029297321e-05,-5.863519777218272e-06,-3.906733629053176e-05,4.2,3.7333
2.71875,-4.981088484016173e-05,4.846477821011774e-07,1.5623577322041667e-05,-2.5881193319600198e-05,4.2,3.7333
2.72265625,-4.004050715495536e-05,3.759403743343253e-05,1.9529150460059524e-05,-7.816306346227194e-06,4.2,3.7333
2.7265625,-2.8813595593194464e-05,-1.2701495188830378e-05,3.4170500556954408e-06,-1.758023919127183e-05,4.2,3.7333
2.73046875,-2.4413096513313375e-06,-6.103779640192262e-05,-2.9296958605325387e-05,-3.8087720585946425e-05,4.2,3.7333
2.734375,-2.4908022455176606e-05,-7.910268337529562e-05,-6.201741210650796e-05,-5.908500983291369e-05,4.2,3.7333
2.73828125,-7.324432366826884e-05,-7.324432366826884e-05,-7.324432366826884e-05,-6.933875053025099e-05,4.2,3.7333
2.7421875,-6.006462553749903e-05,-2.4908022455176606e-05,-2.0022833612573422e-05,-5.176367140917066e-05,4.2,3.7333
2.74609375,-3.1256190014496054e-05,-1.6117260474555565e-05,-3.4209253559166797e-06,-4.541550384985121e-05,4.2,3.7333
2.75,-4.102012285954069e-05,-5.127386355687799e-05,-4.297290942854962e-05,-4.589886686198213e-05,4.2,3.7333
2.75390625,-3.8087720585946425e-05,-6.494336953994047e-05,-4.150993071183335e-05,-3.906733629053176e-05,4.2,3.7333
2.7578125,-3.076638216220339e-05,-2.2955235886167685e-05,-3.369233959563591e-05,-3.8087720585946425e-05,4.2,3.7333
2.76171875,-6.250077511863889e-05,1.947626498817442e-06,-3.173955302662698e-05,-5.0294247852292655e-05,4.2,3.7333
2.765625,-4.785165343099106e-05,9.744556343938485e-07,-1.4681387869077439e-06,-4.004050715495536e-05,4.2,3.7333
2.76953125,-2.0022833612573422e-05,-8.789477210650787e-06,4.880028772411705e-06,-2.6860809024185542e-05,4.2,3.7333
2.7734375,-2.3438598898298607e-05,-3.076638216220339e-05,4.846477821011774e-07,-3.369233959563591e-05,4.2,3.7333
2.77734375,-3.4209253559166797e-06,1.5623577322041667e-05,1.0738388479438484e-05,-3.9550699302662685e-05,4.2,3.7333
2.78125,5.853199636835285e-06,2.1481937029068446e-05,-8.306114198519864e-06,-4.053031500724802e-05,4.2,3.7333
2.78515625,-4.88390407263293e-06,-1.3674666053253971e-05,-1.5137644769970236e-05,-4.248310157625695e-05,4.2,3.7333
2.7890625,-1.758023919127183e-05,-4.785165343099106e-05,-1.3674666053253971e-05,-4.8831269135576395e-05,4.2,3.7333
2.79296875,-2.0996004476997014e-05,-5.810539412832836e-05,-2.0022833612573422e-05,-2.783397988860912e-05,4.2,3.7333
2.796875,-3.9550699302662685e-05,-4.1993293723964275e-05,-3.85775284382391e-05,-1.4654281757839313e-05,4.2,3.7333
2.80078125,-3.61349340169375e-05,-3.2719168731212314e-05,-4.297290942854962e-05,-2.8813595593194464e-05,4.2,3.7333
2.8046875,-2.0996004476997014e-05,-1.5137644769970236e-05,-2.8813595593194464e-05,-3.076638216220339e-05,4.2,3.7333
2.80859375,-4.785165343099106e-05,-3.369233959563591e-05,-2.5881193319600198e-05,-1.953302576028075e-05,4.2,3.7333
2.8125,-6.397019867551687e-05,-6.835913482566566e-05,-4.785165343099106e-05,-3.4182147447928574e-05,4.2,3.7333
2.81640625,-4.541550384985121e-05,-3.467195530022124e-05,-3.369233959563591e-05,-4.394608029297321e-05,4.2,3.7333
2.8203125,-3.9107332082093364e-06,1.611338517433434e-05,2.9272422034027697e-06,-3.711454972152283e-05,4.2,3.7333
2.82421875,1.0738388479438484e-05,2.4407894462500963e-05,-2.197562018158234e-05,-5.5179436694895836e-05,4.2,3.7333
2.828125,-6.353327629510943e-06,-1.4681387869077439e-06,-3.076638216220339e-05,-5.762203111619744e-05,4.2,3.7333
2.83203125,-3.85775284382391e-05,-5.957481768520636e-05,-1.7090431338979156e-05,-4.932107698786906e-05,4.2,3.7333
2.8359375,-4.150993071183335e-05,-5.4199820990310505e-05,-2.0022833612573422e-05,-5.713222326390477e-05,4.2,3.7333
2.83984375,-7.816306346227194e-06,-1.2701495188830378e-05,-1.80700470435645e-05,-5.5179436694895836e-05,4.2,3.7333
2.84375,-2.3928406750591276e-05,4.880028772411705e-06,-1.2701495188830378e-05,-4.004050715495536e-05,4.2,3.7333
2.84765625,-4.443588814526588e-05,1.947626498817442e-06,-4.88390407263293e-06,-1.7090431338979156e-05,4.2,3.7333
2.8515625,8.785601910429549e-06,-3.076638216220339e-05,-1.953302576028075e-05,-1.0258900767528786e-05,4.2,3.7333
2.85546875,3.124586987411308e-05,-4.8831269135576395e-05,-2.637100117189287e-05,-2.4418214602883934e-05,4.2,3.7333
2.859375,-9.279285062943457e-06,-7.3264984939345226e-06,-1.953302576028075e-05,-2.6860809024185542e-05,4.2,3.7333
2.86328125,-4.541550384985121e-05,3.222548557869841e-05,-2.5881193319600198e-05,-2.4908022455176606e-05,4.2,3.7333
2.8671875,-4.150993071183335e-05,3.4170500556954408e-06,-4.3462717280842284e-05,-5.371645797817958e-05,4.2,3.7333
2.87109375,-4.053031500724802e-05,-5.4199820990310505e-05,-5.322665012588692e-05,-6.738596396124207e-05,4.2,3.7333
2.875,-7.031836623483634e-05,-5.5179436694895836e-05,-2.9786766457618055e-05,-4.932107698786906e-05,4.2,3.7333
2.87890625,-7.959249122758829e-05,-9.78330934615073e-07,-3.4209253559166797e-06,-3.076638216220339e-05,4.2,3.7333
2.8828125,-2.4418214602883934e-05,1.0738388479438484e-05,-2.197562018158234e-05,-3.3208976583504986e-05,4.2,3.7333
2.88671875,7.322623193713298e-06,-4.63886747142748e-05,-6.348039082322422e-05,-5.322665012588692e-05,4.2,3.7333
2.890625,8.785601910429549e-06,-6.250077511863889e-05,-5.615260755931943e-05,-4.3462717280842284e-05,4.2,3.7333
2.89453125,-1.1232071631952379e-05,-6.44535616876478e-05,-3.369233959563591e-05,-2.4418214602883934e-05,4.2,3.7333
2.8984375,-4.687848256656747e-05,-4.736829041886014e-05,-3.369233959563591e-05,-2.637100117189287e-05,4.2,3.7333
2.90234375,-2.1485812329289686e-05,-5.863519777218272e-06,-2.8813595593194464e-05,-2.539138546730753e-05,4.2,3.7333
2.90625,-1.2701495188830378e-05,9.744556343938485e-07,-2.0022833612573422e-05,-1.9043217907988078e-05,4.2,3.7333
2.91015625,-3.076638216220339e-05,-2.6860809024185542e-05,-2.1485812329289686e-05,-2.9296958605325387e-05,4.2,3.7333
2.9140625,-4.248310157625695e-05,-5.5179436694895836e-05,-2.539138546730753e-05,-4.394608029297321e-05,4.2,3.7333
2.91796875,-5.468962884260318e-05,-4.248310157625695e-05,-4.053031500724802e-05,-4.394608029297321e-05,4.2,3.7333
2.921875,-5.371645797817958e-05,8.785601910429549e-06,-3.369233959563591e-05,-3.516176315251391e-05,4.2,3.7333
2.92578125,-3.906733629053176e-05,-1.4681387869077439e-06,-3.5645126164644834e-05,-3.3208976583504986e-05,4.2,3.7333
2.9296875,-3.027657430991072e-05,-5.859520198062103e-05,-5.810539412832836e-05,-4.004050715495536e-05,4.2,3.7333
2.93359375,-3.61349340169375e-05,-6.250077511863889e-05,-3.369233959563591e-05,-3.662474186923017e-05,4.2,3.7333
2.9375,-6.8366906416418514e-06,-4.541550384985121e-05,-2.8323787740901792e-05,-3.711454972152283e-05,4.2,3.7333
2.94140625,-1.4164473905546643e-05,-2.0996004476997014e-05,-5.078405570458532e-05,-5.615260755931943e-05,4.2,3.7333
2.9453125,-4.1993293723964275e-05,-6.353327629510943e-06,-4.1993293723964275e-05,-5.468962884260318e-05,4.2,3.7333
2.94921875,-5.0294247852292655e-05,-1.7090431338979156e-05,-1.3674666053253971e-05,-2.7344172036316465e-05,4.2,3.7333
2.953125,-4.053031500724802e-05,-3.3208976583504986e-05,-1.5137644769970236e-05,-3.662474186923017e-05,4.2,3.7333
2.95703125,-2.3438598898298607e-05,-3.61349340169375e-05,-2.8323787740901792e-05,-5.468962884260318e-05,4.2,3.7333
2.9609375,-1.3674666053253971e-05,-5.373711924925601e-06,-6.054798854962995e-05,-4.394608029297321e-05,4.2,3.7333
2.96484375,-1.957946639200415e-06,-1.4164473905546643e-05,-6.738596396124207e-05,-4.492569599755854e-05,4.2,3.7333
2.96875,4.390220920119034e-06,-4.981088484016173e-05,-6.201741210650796e-05,-5.908500983291369e-05,4.2,3.7333
2.97265625,6.832815341420627e-06,-5.713222326390477e-05,-7.422393937285419e-05,-5.713222326390477e-05,4.2,3.7333
2.9765625,9.744556343938485e-07,-6.299058297093154e-05,-5.859520198062103e-05,-6.152760425421529e-05,4.2,3.7333
2.98046875,-7.3264984939345226e-06,-3.5645126164644834e-05,-6.397019867551687e-05,-6.592298524452581e-05,4.2,3.7333
2.984375,-1.1721879484245051e-05,-1.4681387869077439e-06,-7.71498968062867e-05,-5.078405570458532e-05,4.2,3.7333
2.98828125,-1.0258900767528786e-05,-1.7090431338979156e-05,-8.49610430823224e-05,-4.492569599755854e-05,4.2,3.7333
2.9921875,-1.2211687336537721e-05,-4.63886747142748e-05,-6.982855838254366e-05,-3.8087720585946425e-05,4.2,3.7333
2.99609375,-1.1232071631952379e-05,-3.173955302662698e-05,-4.687848256656747e-05,-3.85775284382391e-05,4.2,3.7333
3.0,-1.7090431338979156e-05,1.2201367196154734e-05,-4.589886686198213e-05,-4.834146128328372e-05,4.2,3.7333
3.00390625,-2.0996004476997014e-05,2.0992129176775774e-05,-2.9296958605325387e-05,-4.248310157625695e-05,4.2,3.7333
3.0078125,-2.4418214602883934e-05,3.900413067826364e-06,-2.8323787740901792e-05,-4.297290942854962e-05,4.2,3.7333
3.01171875,-2.3928406750591276e-05,-5.1600701914935596e-09,-4.3462717280842284e-05,-4.932107698786906e-05,4.2,3.7333
3.015625,-2.1485812329289686e-05,-1.6117260474555565e-05,-4.492569599755854e-05,-4.541550384985121e-05,4.2,3.7333
3.01953125,-5.863519777218272e-06,-6.353327629510943e-06,-3.906733629053176e-05,-4.443588814526588e-05,4.2,3.7333
3.0234375,-5.1600701914935596e-09,3.5151443012130936e-05,-9.279285062943457e-06,-2.8323787740901792e-05,4.2,3.7333
3.02734375,-4.88390407263293e-06,2.5387510167086303e-05,-1.80700470435645e-05,-3.027657430991072e-05,4.2,3.7333
3.03125,-1.5137644769970236e-05,-1.8559854895857155e-05,-4.541550384985121e-05,-4.3462717280842284e-05,4.2,3.7333
3.03515625,1.2201367196154734e-05,-1.80700470435645e-05,-4.687848256656747e-05,-4.589886686198213e-05,4.2,3.7333
3.0390625,4.4921820697337325e-05,-9.78330934615073e-07,-5.078405570458532e-05,-5.127386355687799e-05,4.2,3.7333
3.04296875,1.2691175048447404e-05,1.947626498817442e-06,-4.687848256656747e-05,-4.932107698786906e-05,4.2,3.7333
3.046875,-2.5881193319600198e-05,-2.0022833612573422e-05,-2.9296958605325387e-05,-4.394608029297321e-05,4.2,3.7333
3.05078125,-2.9786766457618055e-05,-6.201741210650796e-05,-4.785165343099106e-05,-5.078405570458532e-05,4.2,3.7333
3.0546875,-2.2465428033875013e-05,-3.516176315251391e-05,-6.348039082322422e-05,-5.859520198062103e-05,4.2,3.7333
3.05859375,-1.953302576028075e-05,3.710422958113986e-05,-2.9296958605325387e-05,-4.102012285954069e-05,4.2,3.7333
3.0625,-6.353327629510943e-06,3.3198656443122004e-05,-2.1485812329289686e-05,-2.637100117189287e-05,4.2,3.7333
3.06640625,-1.5627452622262893e-05,-8.306114198519864e-06,-4.589886686198213e-05,-3.906733629053176e-05,4.2,3.7333
3.0703125,-2.1485812329289686e-05,-4.443588814526588e-05,-4.492569599755854e-05,-4.492569599755854e-05,4.2,3.7333
3.07421875,-3.662474186923017e-05,-3.369233959563591e-05,-2.9786766457618055e-05,-4.004050715495536e-05,4.2,3.7333
3.078125,-4.834146128328372e-05,-2.4413096513313375e-06,-3.076638216220339e-05,-2.8813595593194464e-05,4.2,3.7333
3.08203125,-5.1600701914935596e-09,2.4407894462500963e-05,-2.637100117189287e-05,-2.5881193319600198e-05,4.2,3.7333
3.0859375,1.757636389105059e-05,1.2691175048447404e-05,-3.076638216220339e-05,-4.8831269135576395e-05,4.2,3.7333
3.08984375,-1.1232071631952379e-05,-1.0258900767528786e-05,-4.541550384985121e-05,-5.908500983291369e-05,4.2,3.7333
3.09375,-3.4182147447928574e-05,-1.80700470435645e-05,-5.5179436694895836e-05,-4.541550384985121e-05,4.2,3.7333
3.09765625,-2.637100117189287e-05,3.900413067826364e-06,-2.7344172036316465e-05,-2.4418214602883934e-05,4.2,3.7333
3.1015625,-4.541550384985121e-05,1.1228196331731141e-05,-1.0258900767528786e-05,-2.2955235886167685e-05,4.2,3.7333
3.10546875,-7.324432366826884e-05,4.846477821011774e-07,-1.80700470435645e-05,-5.0294247852292655e-05,4.2,3.7333
3.109375,-2.3928406750591276e-05,-6.8366906416418514e-06,-1.6117260474555565e-05,-4.687848256656747e-05,4.2,3.7333
3.11328125,1.7086556038757934e-05,-2.783397988860912e-05,-2.783397988860912e-05,-4.102012285954069e-05,4.2,3.7333
3.1171875,-6.8366906416418514e-06,-1.4164473905546643e-05,-4.63886747142748e-05,-4.8831269135576395e-05,4.2,3.7333
3.12109375,-2.0022833612573422e-05,1.1718004184023811e-05,-4.541550384985121e-05,-4.1993293723964275e-05,4.2,3.7333
3.125,-2.2465428033875013e-05,3.905701615014879e-05,-2.6860809024185542e-05,-2.8323787740901792e-05,4.2,3.7333
3.12890625,-4.102012285954069e-05,2.0018958312352182e-05,-3.076638216220339e-05,-2.2955235886167685e-05,4.2,3.7333
3.1328125,-2.051264146486609e-05,-3.4182147447928574e-05,-4.004050715495536e-05,-4.492569599755854e-05,4.2,3.7333
3.13671875,1.4643961617456326e-05,-2.0996004476997014e-05,-3.8087720585946425e-05,-5.224703442130157e-05,4.2,3.7333
3.140625,3.900413067826364e-06,-3.4209253559166797e-06,-3.759791273365375e-05,-4.394608029297321e-05,4.2,3.7333
3.14453125,-1.1232071631952379e-05,-6.353327629510943e-06,-2.8323787740901792e-05,-3.8087720585946425e-05,4.2,3.7333
3.1484375,-1.2701495188830378e-05,-1.1232071631952379e-05,-2.3928406750591276e-05,-2.783397988860912e-05,4.2,3.7333
3.15234375,-2.2955235886167685e-05,-1.953302576028075e-05,-3.9550699302662685e-05,-3.516176315251391e-05,4.2,3.7333
3.15625,-5.371645797817958e-05,-1.2701495188830378e-05,-5.224703442130157e-05,-5.0294247852292655e-05,4.2,3.7333
3.16015625,-5.810539412832836e-05,8.295794058136892e-06,-4.785165343099106e-05,-5.2736842273594245e-05,4.2,3.7333
3.1640625,-2.9296958605325387e-05,1.0248580627145812e-05,-2.7344172036316465e-05,-3.906733629053176e-05,4.2,3.7333
3.16796875,-2.539138546730753e-05,-2.1485812329289686e-05,-2.6860809024185542e-05,-3.2719168731212314e-05,4.2,3.7333
3.171875,-3.467195530022124e-05,-1.6117260474555565e-05,-3.516176315251391e-05,-2.7344172036316465e-05,4.2,3.7333
3.17578125,-1.0742263779659709e-05,2.1481937029068446e-05,-7.816306346227194e-06,-9.279285062943457e-06,4.2,3.7333
3.1796875,-1.3674666053253971e-05,1.806617174334326e-05,1.947626498817442e-06,-1.9043217907988078e-05,4.2,3.7333
3.18359375,-2.9786766457618055e-05,-1.758023919127183e-05,-2.0996004476997014e-05,-5.0294247852292655e-05,4.2,3.7333
3.1875,-4.248310157625695e-05,-3.3208976583504986e-05,-2.051264146486609e-05,-7.031836623483634e-05,4.2,3.7333
3.19140625,-6.44535616876478e-05,-4.150993071183335e-05,-2.7344172036316465e-05,-6.738596396124207e-05,4.2,3.7333
3.1953125,-5.0294247852292655e-05,-2.5881193319600198e-05,-1.8559854895857155e-05,-3.5645126164644834e-05,4.2,3.7333
3.19921875,-2.9786766457618055e-05,2.9272422034027697e-06,-7.3264984939345226e-06,-1.80700470435645e-05,4.2,3.7333
3.203125,-5.1600701914935596e-09,1.2201367196154734e-05,-7.816306346227194e-06,-2.0996004476997014e-05,4.2,3.7333
3.20703125,8.295794058136892e-06,-5.373711924925601e-06,-1.5137644769970236e-05,-3.3208976583504986e-05,4.2,3.7333
3.2109375,-2.051264146486609e-05,-3.076638216220339e-05,-4.541550384985121e-05,-4.394608029297321e-05,4.2,3.7333
3.21484375,-4.687848256656747e-05,-2.6860809024185542e-05,-3.076638216220339e-05,-5.371645797817958e-05,4.2,3.7333
3.21875,-5.566924454718851e-05,8.295794058136892e-06,-4.885230823224163e-07,-3.369233959563591e-05,4.2,3.7333
3.22265625,-5.908500983291369e-05,8.785601910429549e-06,-5.863519777218272e-06,-2.9311175036240086e-06,4.2,3.7333
3.2265625,-4.834146128328372e-05,-2.9786766457618055e-05,-2.6860809024185542e-05,-1.9043217907988078e-05,4.2,3.7333
3.23046875,-4.589886686198213e-05,-4.981088484016173e-05,-4.3462717280842284e-05,-3.173955302662698e-05,4.2,3.7333
3.234375,-3.173955302662698e-05,-3.4182147447928574e-05,-1.8559854895857155e-05,-2.6860809024185542e-05,4.2,3.7333
3.23828125,-2.0022833612573422e-05,-1.5137644769970236e-05,-4.88390407263293e-06,-1.80700470435645e-05,4.2,3.7333
3.2421875,-3.85775284382391e-05,-2.0022833612573422e-05,-3.516176315251391e-05,-2.2955235886167685e-05,4.2,3.7333
3.24609375,-5.2736842273594245e-05,-1.758023919127183e-05,-3.516176315251391e-05,-3.2719168731212314e-05,4.2,3.7333
3.25,-6.592298524452581e-05,-3.173955302662698e-05,-2.4418214602883934e-05,-3.5645126164644834e-05,4.2,3.7333
3.25390625,-7.275451581597617e-05,-2.5881193319600198e-05,-1.2701495188830378e-05,-2.197562018158234e-05,4.2,3.7333
3.2578125,-6.982855838254366e-05,3.5151443012130936e-05,5.853199636835285e-06,-7.816306346227194e-06,4.2,3.7333
3.26171875,-7.422393937285419e-05,3.124586987411308e-05,-8.306114198519864e-06,-5.373711924925601e-06,4.2,3.7333
3.265625,-8.935642407263293e-05,-2.0996004476997014e-05,-2.7344172036316465e-05,-1.953302576028075e-05,4.2,3.7333
3.26953125,-9.667776249637596e-05,-1.6607068326848233e-05,-8.306114198519864e-06,-2.4418214602883934e-05,4.2,3.7333
3.2734375,-9.423516807507436e-05,-8.789477210650787e-06,-9.78330934615073e-07,-1.6117260474555565e-05,4.2,3.7333
3.27734375,-8.838325320820933e-05,-9.769092915236114e-06,-6.353327629510943e-06,-1.5137644769970236e-05,4.2,3.7333
3.28125,-8.838325320820933e-05,1.4642634866865194e-06,-2.5881193319600198e-05,-1.9043217907988078e-05,4.2,3.7333
3.28515625,-9.765093336079955e-05,1.806617174334326e-05,-2.3928406750591276e-05,-3.076638216220339e-05,4.2,3.7333
3.2890625,-9.912035691767757e-05,-4.885230823224163e-07,5.369836624704362e-06,-2.1485812329289686e-05,4.2,3.7333
3.29296875,-0.0001030259300556954,-1.5137644769970236e-05,-1.957946639200415e-06,-9.279285062943457e-06,4.2,3.7333
3.296875,-9.960371992980848e-05,-2.539138546730753e-05,-1.1232071631952379e-05,-2.4908022455176606e-05,4.2,3.7333
3.30078125,-4.687848256656747e-05,-3.2719168731212314e-05,-8.306114198519864e-06,-2.6860809024185542e-05,4.2,3.7333
3.3046875,-1.0742263779659709e-05,-2.0996004476997014e-05,-1.8559854895857155e-05,-2.637100117189287e-05,4.2,3.7333
3.30859375,-2.4908022455176606e-05,-3.369233959563591e-05,-3.467195530022124e-05,-3.3208976583504986e-05,4.2,3.7333
3.3125,-3.906733629053176e-05,-4.004050715495536e-05,-2.0996004476997014e-05,-3.4182147447928574e-05,4.2,3.7333
3.31640625,-4.492569599755854e-05,-2.637100117189287e-05,-1.0258900767528786e-05,-3.027657430991072e-05,4.2,3.7333
3.3203125,-4.3462717280842284e-05,-2.051264146486609e-05,-1.758023919127183e-05,-2.3438598898298607e-05,4.2,3.7333
3.32421875,-6.054798854962995e-05,-3.4209253559166797e-06,-2.2955235886167685e-05,-1.9043217907988078e-05,4.2,3.7333
3.328125,-8.105546994430456e-05,-5.373711924925601e-06,-1.7090431338979156e-05,-2.197562018158234e-05,4.2,3.7333
3.33203125,-8.594065878690774e-05,-3.711454972152283e-05,-8.789477210650787e-06,-2.539138546730753e-05,4.2,3.7333
3.3359375,-5.6642415411612096e-05,-3.4182147447928574e-05,-1.3674666053253971e-05,-2.2465428033875013e-05,4.2,3.7333
3.33984375,-1.4654281757839313e-05,-8.306114198519864e-06,-1.1232071631952379e-05,-1.6117260474555565e-05,4.2,3.7333
3.34375,-1.1721879484245051e-05,3.4170500556954408e-06,-2.4418214602883934e-05,-1.6607068326848233e-05,4.2,3.7333
3.34765625,-1.953302576028075e-05,-2.6860809024185542e-05,-2.8813595593194464e-05,-2.783397988860912e-05,4.2,3.7333
3.3515625,-4.687848256656747e-05,-5.2736842273594245e-05,-1.5137644769970236e-05,-3.516176315251391e-05,4.2,3.7333
3.35546875,-7.910268337529562e-05,-3.85775284382391e-05,-3.4209253559166797e-06,-2.051264146486609e-05,4.2,3.7333
3.359375,-6.787577181353474e-05,-9.769092915236114e-06,3.4170500556954408e-06,-2.783397988860912e-05,4.2,3.7333
3.36328125,-5.4199820990310505e-05,-9.279285062943457e-06,-1.7090431338979156e-05,-4.8831269135576395e-05,4.2,3.7333
3.3671875,-5.762203111619744e-05,-3.4182147447928574e-05,-1.953302576028075e-05,-4.1993293723964275e-05,4.2,3.7333
3.37109375,-3.516176315251391e-05,-3.076638216220339e-05,-1.3674666053253971e-05,-4.053031500724802e-05,4.2,3.7333
3.375,-3.1256190014496054e-05,-2.4418214602883934e-05,-1.0742263779659709e-05,-3.222936087891965e-05,4.2,3.7333
3.37890625,-6.543317739223314e-05,-1.0742263779659709e-05,-2.3928406750591276e-05,-3.173955302662698e-05,4.2,3.7333
3.3828125,-5.615260755931943e-05,-5.863519777218272e-06,-3.711454972152283e-05,-4.004050715495536e-05,4.2,3.7333
3.38671875,-2.3438598898298607e-05,-1.953302576028075e-05,-1.9043217907988078e-05,-1.4654281757839313e-05,4.2,3.7333
3.390625,-2.4908022455176606e-05,-5.762203111619744e-05,-7.3264984939345226e-06,-1.3674666053253971e-05,4.2,3.7333
3.39453125,-4.394608029297321e-05,-7.324432366826884e-05,-3.5645126164644834e-05,-3.61349340169375e-05,4.2,3.7333
3.3984375,-7.470730238498511e-05,-2.4418214602883934e-05,-2.8813595593194464e-05,-1.6607068326848233e-05,4.2,3.7333
3.40234375,-4.589886686198213e-05,1.4642634866865194e-06,3.4170500556954408e-06,-7.3264984939345226e-06,4.2,3.7333
3.40625,-1.957946639200415e-06,-5.863519777218272e-06,-3.2719168731212314e-05,-3.85775284382391e-05,4.2,3.7333
3.41015625,1.947626498817442e-06,-3.4182147447928574e-05,-4.63886747142748e-05,-5.5179436694895836e-05,4.2,3.7333
3.4140625,-8.789477210650787e-06,-6.933875053025099e-05,-2.2465428033875013e-05,-4.394608029297321e-05,4.2,3.7333
3.41796875,-3.759791273365375e-05,-5.322665012588692e-05,-1.0742263779659709e-05,-3.3208976583504986e-05,4.2,3.7333
3.421875,-4.297290942854962e-05,-1.6117260474555565e-05,-2.2465428033875013e-05,-2.6860809024185542e-05,4.2,3.7333
3.42578125,-4.297290942854962e-05,-3.9107332082093364e-06,-3.85775284382391e-05,-2.783397988860912e-05,4.2,3.7333
3.4296875,-5.176367140917066e-05,-1.80700470435645e-05,-1.0742263779659709e-05,-2.9296958605325387e-05,4.2,3.7333
3.43359375,-4.589886686198213e-05,-2.2465428033875013e-05,3.710422958113986e-05,-2.4418214602883934e-05,4.2,3.7333
3.4375,-6.250077511863889e-05,-2.8323787740901792e-05,3.900413067826364e-06,-3.076638216220339e-05,4.2,3.7333
3.44140625,-6.152760425421529e-05,-4.8831269135576395e-05,-6.250077511863889e-05,-4.248310157625695e-05,4.2,3.7333
3.4453125,-3.61349340169375e-05,-6.152760425421529e-05,-5.371645797817958e-05,-4.932107698786906e-05,4.2,3.7333
3.44921875,-4.102012285954069e-05,-5.468962884260318e-05,-1.8559854895857155e-05,-4.589886686198213e-05,4.2,3.7333
3.453125,-4.394608029297321e-05,-6.006462553749903e-05,-2.4418214602883934e-05,-3.2719168731212314e-05,4.2,3.7333
3.45703125,-3.3208976583504986e-05,-5.371645797817958e-05,-3.711454972152283e-05,-3.467195530022124e-05,4.2,3.7333
3.4609375,-1.2211687336537721e-05,-9.279285062943457e-06,-1.2701495188830378e-05,-3.9550699302662685e-05,4.2,3.7333
3.46484375,-1.5627452622262893e-05,8.295794058136892e-06,-2.2955235886167685e-05,-4.004050715495536e-05,4.2,3.7333
3.46875,-4.1993293723964275e-05,-1.5627452622262893e-05,-2.539138546730753e-05,-3.2719168731212314e-05,4.2,3.7333
3.47265625,-5.713222326390477e-05,-3.369233959563591e-05,-2.9311175036240086e-06,-3.516176315251391e-05,4.2,3.7333
3.4765625,-7.568691808957044e-05,-4.004050715495536e-05,-1.7090431338979156e-05,-4.492569599755854e-05,4.2,3.7333
3.48046875,-5.176367140917066e-05,-2.1485812329289686e-05,-1.80700470435645e-05,-3.906733629053176e-05,4.2,3.7333
3.484375,-2.637100117189287e-05,6.343007489127956e-06,-2.5881193319600198e-05,-3.5645126164644834e-05,4.2,3.7333
3.48828125,-4.3462717280842284e-05,-3.173955302662698e-05,-4.8831269135576395e-05,-3.662474186923017e-05,4.2,3.7333
3.4921875,-4.63886747142748e-05,-7.470730238498511e-05,-4.8831269135576395e-05,-3.8087720585946425e-05,4.2,3.7333
3.49609375,-3.467195530022124e-05,-4.785165343099106e-05,-3.467195530022124e-05,-3.4182147447928574e-05,4.2,3.7333
3.5,-4.394608029297321e-05,-9.769092915236114e-06,-2.8323787740901792e-05,-3.516176315251391e-05,4.2,3.7333
3.50390625,-5.0294247852292655e-05,-5.1600701914935596e-09,-2.6860809024185542e-05,-3.906733629053176e-05,4.2,3.7333
3.5078125,-2.9296958605325387e-05,5.853199636835285e-06,-2.539138546730753e-05,-3.3208976583504986e-05,4.2,3.7333
3.51171875,-3.1256190014496054e-05,-2.637100117189287e-05,-2.637100117189287e-05,-3.3208976583504986e-05,4.2,3.7333
3.515625,-4.687848256656747e-05,-4.3462717280842284e-05,-3.2719168731212314e-05,-3.8087720585946425e-05,4.2,3.7333
3.51953125,-6.006462553749903e-05,-2.3438598898298607e-05,-3.61349340169375e-05,-3.2719168731212314e-05,4.2,3.7333
3.5234375,-7.568691808957044e-05,2.9272422034027697e-06,-1.758023919127183e-05,-2.3438598898298607e-05,4.2,3.7333
3.52734375,-4.981088484016173e-05,-1.1232071631952379e-05,-1.5627452622262893e-05,-3.2719168731212314e-05,4.2,3.7333
3.53125,-2.0022833612573422e-05,-5.322665012588692e-05,-5.2736842273594245e-05,-5.2736842273594245e-05,4.2,3.7333
3.53515625,-1.0742263779659709e-05,-6.299058297093154e-05,-6.348039082322422e-05,-5.322665012588692e-05,4.2,3.7333
3.5390625,-1.0742263779659709e-05,-4.981088484016173e-05,-5.859520198062103e-05,-4.150993071183335e-05,4.2,3.7333
3.54296875,-2.1485812329289686e-05,-3.9107332082093364e-06,-4.492569599755854e-05,-4.102012285954069e-05,4.2,3.7333
3.546875,-3.711454972152283e-05,-6.353327629510943e-06,-2.051264146486609e-05,-3.2719168731212314e-05,4.2,3.7333
3.55078125,-4.1993293723964275e-05,-5.0294247852292655e-05,-3.8087720585946425e-05,-3.027657430991072e-05,4.2,3.7333
3.5546875,-4.785165343099106e-05,-5.468962884260318e-05,-4.687848256656747e-05,-3.369233959563591e-05,4.2,3.7333
3.55859375,-5.762203111619744e-05,-2.1485812329289686e-05,-3.2719168731212314e-05,-3.173955302662698e-05,4.2,3.7333
3.5625,-5.762203111619744e-05,-4.885230823224163e-07,-1.6117260474555565e-05,-3.9550699302662685e-05,4.2,3.7333
3.56640625,-2.4418214602883934e-05,1.3180982900740076e-05,1.4642634866865194e-06,-2.3438598898298607e-05,4.2,3.7333
3.5703125,-8.789477210650787e-06,-7.816306346227194e-06,7.322623193713298e-06,-1.80700470435645e-05,4.2,3.7333
3.57421875,-2.0996004476997014e-05,-5.371645797817958e-05,-3.8087720585946425e-05,-3.759791273365375e-05,4.2,3.7333
3.578125,-2.2465428033875013e-05,-3.8087720585946425e-05,-4.492569599755854e-05,-2.8323787740901792e-05,4.2,3.7333
3.58203125,-4.443588814526588e-05,5.853199636835285e-06,-2.2955235886167685e-05,-1.5627452622262893e-05,4.2,3.7333
3.5859375,-6.006462553749903e-05,-6.8366906416418514e-06,-4.394608029297321e-05,-3.076638216220339e-05,4.2,3.7333
3.58984375,-4.150993071183335e-05,-5.713222326390477e-05,-4.443588814526588e-05,-3.9550699302662685e-05,4.2,3.7333
3.59375,-1.31848582009613e-05,-5.713222326390477e-05,-2.3928406750591276e-05,-2.8323787740901792e-05,4.2,3.7333
3.59765625,-1.3674666053253971e-05,-4.3462717280842284e-05,-3.2719168731212314e-05,-2.4418214602883934e-05,4.2,3.7333
3.6015625,-2.0022833612573422e-05,-2.8813595593194464e-05,-3.467195530022124e-05,-2.4418214602883934e-05,4.2,3.7333
3.60546875,-2.197562018158234e-05,-1.6607068326848233e-05,-2.9786766457618055e-05,-2.1485812329289686e-05,4.2,3.7333
3.609375,-2.4908022455176606e-05,-1.953302576028075e-05,-4.394608029297321e-05,-2.9296958605325387e-05,4.2,3.7333
3.61328125,-3.85775284382391e-05,-5.859520198062103e-05,-5.615260755931943e-05,-2.6860809024185542e-05,4.2,3.7333
3.6171875,-5.127386355687799e-05,-6.543317739223314e-05,-5.908500983291369e-05,-1.0742263779659709e-05,4.2,3.7333
3.62109375,-4.687848256656747e-05,-5.957481768520636e-05,-5.6642415411612096e-05,-4.88390407263293e-06,4.2,3.7333
3.625,-3.3208976583504986e-05,-5.224703442130157e-05,-6.348039082322422e-05,8.295794058136892e-06,4.2,3.7333
3.62890625,-3.222936087891965e-05,-8.300825651331348e-05,-7.910268337529562e-05,8.785601910429549e-06,4.2,3.7333
3.6328125,-3.2719168731212314e-05,-0.00012011120132448309,-9.667776249637596e-05,-1.957946639200415e-06,4.2,3.7333
3.63671875,-2.9296958605325387e-05,-0.00010107314348668648,-0.00010839448191042952,-2.4413096513313375e-06,4.2,3.7333
3.640625,-4.541550384985121e-05,-6.006462553749903e-05,-0.00011034726847943845,-9.78330934615073e-07,4.2,3.7333
3.64453125,-5.713222326390477e-05,-7.71498968062867e-05,-0.00011864822260776682,2.3434723598077368e-05,4.2,3.7333
3.6484375,-6.884894267795833e-05,-0.00013427695999999997,-0.00012353341145037,4.443201284504465e-05,4.2,3.7333
3.65234375,-7.617672594186311e-05,-0.0001469668502784771,-0.00012499639016708627,6.054411324940872e-05,4.2,3.7333
3.65625,-7.324432366826884e-05,-0.0001806604746440833,-0.00016845394737773705,4.5894991561760886e-05,4.2,3.7333
3.66015625,-9.960371992980848e-05,-0.00021483746202182038,-0.00022948658370946818,1.611338517433434e-05,4.2,3.7333
3.6640625,-5.713222326390477e-05,-0.0001611261641138323,-0.00020214757174334322,3.8083845285725205e-05,4.2,3.7333
3.66796875,2.6850488883802553e-05,-0.00018164009034866865,-0.00018212345336079955,8.154140249637597e-05,4.2,3.7333
3.671875,1.2201367196154734e-05,-0.00026513299464408325,-0.00023534494341649495,7.079785394674602e-05,4.2,3.7333
3.67578125,-7.227115280384526e-05,-0.0002709913543511101,-0.0002455986841138323,1.9529150460059524e-05,4.2,3.7333
3.6796875,-8.691382965133133e-05,-0.00022656062627603567,-0.00021874947999999997,-1.6117260474555565e-05,4.2,3.7333
3.68359375,-4.443588814526588e-05,-0.0002060531448813611,-0.00022021245871671624,-2.197562018158234e-05,4.2,3.7333
3.6875,-6.592298524452581e-05,-0.00018847162092011898,-0.00018945123662470433,2.245510789349204e-05,4.2,3.7333
3.69140625,-5.5179436694895836e-05,-0.00017235952051575492,-0.00015331501783779657,4.9310756847486085e-05,4.2,3.7333
3.6953125,-1.8559854895857155e-05,-0.00019432998062714579,-0.00016064280110170137,2.0502321324483105e-05,4.2,3.7333
3.69921875,-1.4164473905546643e-05,-0.00016747433167315173,-0.00014940944469977872,2.9272422034027697e-06,4.2,3.7333
3.703125,-2.8813595593194464e-05,-0.00013427695999999997,-0.00014306127714045928,-6.8366906416418514e-06,4.2,3.7333
3.70703125,-5.957481768520636e-05,-0.00013134455772640573,-0.0001455038715617609,-2.4908022455176606e-05,4.2,3.7333
3.7109375,-4.785165343099106e-05,-0.00015087242341649498,-0.00013769272528572516,-4.589886686198213e-05,4.2,3.7333
3.71484375,-5.224703442130157e-05,-0.00011962783831235217,-9.423516807507436e-05,-6.201741210650796e-05,4.2,3.7333
3.71875,-6.738596396124207e-05,-7.71498968062867e-05,-6.933875053025099e-05,-4.394608029297321e-05,4.2,3.7333
3.72265625,-9.082584762951093e-05,-5.6642415411612096e-05,-8.691382965133133e-05,-3.85775284382391e-05,4.2,3.7333
3.7265625,-9.569814679179063e-05,-3.173955302662698e-05,-8.008229907988096e-05,-5.371645797817958e-05,4.2,3.7333
3.73046875,-5.615260755931943e-05,-4.443588814526588e-05,-5.0294247852292655e-05,-6.884894267795833e-05,4.2,3.7333
3.734375,-2.8813595593194464e-05,-5.713222326390477e-05,-3.467195530022124e-05,-6.982855838254366e-05,4.2,3.7333
3.73828125,-3.2719168731212314e-05,-4.736829041886014e-05,-3.906733629053176e-05,-7.129153709925993e-05,4.2,3.7333
3.7421875,-4.736829041886014e-05,5.369836624704362e-06,-2.5881193319600198e-05,-7.910268337529562e-05,4.2,3.7333
3.74609375,-4.981088484016173e-05,3.3688464295414676e-05,-2.8323787740901792e-05,-5.713222326390477e-05,4.2,3.7333
3.75,-4.8831269135576395e-05,4.390220920119034e-06,-1.6607068326848233e-05,-5.566924454718851e-05,4.2,3.7333
3.75390625,-6.006462553749903e-05,2.7340296736095225e-05,2.0018958312352182e-05,-7.129153709925993e-05,4.2,3.7333
3.7578125,-7.324432366826884e-05,4.735797027847715e-05,3.5641250864423594e-05,-7.470730238498511e-05,4.2,3.7333
3.76171875,-8.447768007019148e-05,3.124586987411308e-05,2.489770231479363e-05,-7.959249122758829e-05,4.2,3.7333
3.765625,-4.394608029297321e-05,4.2479226276035714e-05,2.245510789349204e-05,-7.910268337529562e-05,4.2,3.7333
3.76953125,-2.0996004476997014e-05,2.6850488883802553e-05,-8.789477210650787e-06,-0.00010350929306782633,4.2,3.7333
3.7734375,-1.0742263779659709e-05,3.8083845285725205e-05,2.1971744881361118e-05,-6.835913482566566e-05,4.2,3.7333
3.77734375,-9.78330934615073e-07,6.298670767071033e-05,6.347651552300298e-05,-3.027657430991072e-05,4.2,3.7333
3.78125,-3.516176315251391e-05,5.5175561394674616e-05,1.415415376516367e-05,-8.203508564888989e-05,4.2,3.7333
3.78515625,-6.494336953994047e-05,5.2732966973373006e-05,2.0502321324483105e-05,-9.033603977721826e-05,4.2,3.7333
3.7890625,-3.369233959563591e-05,5.859132668039979e-05,4.8337585983062497e-05,-4.1993293723964275e-05,4.2,3.7333
3.79296875,1.806617174334326e-05,2.9272422034027697e-06,5.2732966973373006e-05,-4.932107698786906e-05,4.2,3.7333
3.796875,-1.2701495188830378e-05,-5.4199820990310505e-05,-1.8559854895857155e-05,-0.0001030259300556954,4.2,3.7333
3.80078125,-3.369233959563591e-05,-4.102012285954069e-05,-9.667776249637596e-05,-0.00011864822260776682,4.2,3.7333
3.8046875,-4.63886747142748e-05,-2.0022833612573422e-05,-4.8831269135576395e-05,-0.00011132688418402378,4.2,3.7333
3.80859375,-4.736829041886014e-05,-3.173955302662698e-05,-1.2211687336537721e-05,-0.00011278986290074005,4.2,3.7333
3.8125,-3.3208976583504986e-05,-6.006462553749903e-05,-3.027657430991072e-05,-0.00013036494202182039,4.2,3.7333
3.81640625,-4.834146128328372e-05,-5.0294247852292655e-05,-9.78330934615073e-07,-8.49610430823224e-05,4.2,3.7333
3.8203125,-3.8087720585946425e-05,8.785601910429549e-06,4.9310756847486085e-05,-3.467195530022124e-05,4.2,3.7333
3.82421875,-1.8559854895857155e-05,3.124586987411308e-05,4.735797027847715e-05,-5.908500983291369e-05,4.2,3.7333
3.828125,-4.88390407263293e-06,-4.88390407263293e-06,1.2691175048447404e-05,-8.691382965133133e-05,4.2,3.7333
3.83203125,7.322623193713298e-06,-3.369233959563591e-05,1.4643961617456326e-05,-6.103779640192262e-05,4.2,3.7333
3.8359375,7.81243104600597e-06,-3.027657430991072e-05,2.1481937029068446e-05,-5.810539412832836e-05,4.2,3.7333
3.83984375,1.757636389105059e-05,-3.4209253559166797e-06,2.0992129176775774e-05,-6.397019867551687e-05,4.2,3.7333
3.84375,1.5133769469748996e-05,1.806617174334326e-05,2.0018958312352182e-05,-5.371645797817958e-05,4.2,3.7333
3.84765625,-5.1600701914935596e-09,5.369836624704362e-06,1.8549534755474183e-05,-6.250077511863889e-05,4.2,3.7333
3.8515625,-3.3208976583504986e-05,-3.173955302662698e-05,2.245510789349204e-05,-4.8831269135576395e-05,4.2,3.7333
3.85546875,-4.150993071183335e-05,-1.1721879484245051e-05,4.980056469977876e-05,-2.8323787740901792e-05,4.2,3.7333
3.859375,-1.5627452622262893e-05,1.9529150460059524e-05,3.8083845285725205e-05,-6.348039082322422e-05,4.2,3.7333
3.86328125,-1.4654281757839313e-05,-5.863519777218272e-06,-3.9107332082093364e-06,-9.325555237048904e-05,4.2,3.7333
3.8671875,2.437434351110099e-06,-1.9043217907988078e-05,1.5623577322041667e-05,-5.224703442130157e-05,4.2,3.7333
3.87109375,3.0756062021820414e-05,-4.150993071183335e-05,4.052643970702678e-05,-3.467195530022124e-05,4.2,3.7333
3.875,2.1481937029068446e-05,-8.300825651331348e-05,1.9039342607766855e-05,-5.859520198062103e-05,4.2,3.7333
3.87890625,1.2691175048447404e-05,-7.275451581597617e-05,1.4642634866865194e-06,-6.592298524452581e-05,4.2,3.7333
3.8828125,6.832815341420627e-06,-4.4005410605020075e-06,3.905701615014879e-05,-3.759791273365375e-05,4.2,3.7333
3.88671875,1.4642634866865194e-06,1.1718004184023811e-05,7.128766179903869e-05,-1.7090431338979156e-05,4.2,3.7333
3.890625,-2.9311175036240086e-06,-5.224703442130157e-05,2.3434723598077368e-05,-3.759791273365375e-05,4.2,3.7333
3.89453125,-9.279285062943457e-06,-8.349806436560615e-05,-8.306114198519864e-06,-6.640634825665674e-05,4.2,3.7333
3.8984375,-2.8813595593194464e-05,-6.543317739223314e-05,9.744556343938485e-07,-6.397019867551687e-05,4.2,3.7333
3.90234375,-3.1256190014496054e-05,-5.468962884260318e-05,2.437434351110099e-06,-6.44535616876478e-05,4.2,3.7333
3.90625,-1.6607068326848233e-05,-4.687848256656747e-05,1.3670790753032747e-05,-6.738596396124207e-05,4.2,3.7333
3.91015625,-5.373711924925601e-06,-7.86193203631647e-05,1.5133769469748996e-05,-4.63886747142748e-05,4.2,3.7333
3.9140625,9.744556343938485e-07,-0.00010350929306782633,1.806617174334326e-05,-3.4182147447928574e-05,4.2,3.7333
3.91796875,-3.9107332082093364e-06,-8.252489350118256e-05,9.76521761501489e-06,-3.906733629053176e-05,4.2,3.7333
3.921875,1.4642634866865194e-06,-4.687848256656747e-05,6.343007489127956e-06,-4.785165343099106e-05,4.2,3.7333
3.92578125,5.369836624704362e-06,-3.8087720585946425e-05,2.0502321324483105e-05,-3.8087720585946425e-05,4.2,3.7333
3.9296875,-2.0996004476997014e-05,-5.371645797817958e-05,4.198941842374304e-05,-3.027657430991072e-05,4.2,3.7333
3.93359375,-3.85775284382391e-05,-7.812951251087205e-05,3.222548557869841e-05,-4.3462717280842284e-05,4.2,3.7333
3.9375,-3.85775284382391e-05,-7.227115280384526e-05,4.1009802719157705e-05,-3.9550699302662685e-05,4.2,3.7333
3.94140625,-4.785165343099106e-05,-4.443588814526588e-05,5.321632998550393e-05,-2.4908022455176606e-05,4.2,3.7333
3.9453125,-3.2719168731212314e-05,-2.9296958605325387e-05,2.489770231479363e-05,-3.759791273365375e-05,4.2,3.7333
3.94921875,-9.279285062943457e-06,-4.004050715495536e-05,4.390220920119034e-06,-4.8831269135576395e-05,4.2,3.7333
3.953125,1.0248580627145812e-05,-6.201741210650796e-05,2.392453145037004e-05,-3.516176315251391e-05,4.2,3.7333
3.95703125,-9.78330934615073e-07,-7.080172924696726e-05,2.0018958312352182e-05,-3.61349340169375e-05,4.2,3.7333
3.9609375,-1.5137644769970236e-05,-5.0294247852292655e-05,-1.2211687336537721e-05,-6.006462553749903e-05,4.2,3.7333
3.96484375,-5.863519777218272e-06,-4.004050715495536e-05,-1.7090431338979156e-05,-5.957481768520636e-05,4.2,3.7333
3.96875,-9.769092915236114e-06,-8.008229907988096e-05,-1.9043217907988078e-05,-4.053031500724802e-05,4.2,3.7333
3.97265625,-2.3928406750591276e-05,-9.667776249637596e-05,-2.3438598898298607e-05,-3.076638216220339e-05,4.2,3.7333
3.9765625,-3.2719168731212314e-05,-5.615260755931943e-05,9.76521761501489e-06,-2.2465428033875013e-05,4.2,3.7333
3.98046875,-2.6860809024185542e-05,-5.1600701914935596e-09,2.9293083305104147e-05,-3.85775284382391e-05,4.2,3.7333
3.984375,-2.9296958605325387e-05,1.2691175048447404e-05,1.2201367196154734e-05,-5.957481768520636e-05,4.2,3.7333
3.98828125,-5.615260755931943e-05,-4.88390407263293e-06,2.7340296736095225e-05,-3.711454972152283e-05,4.2,3.7333
3.9921875,-6.299058297093154e-05,-4.88390407263293e-06,3.173567772640575e-05,-5.863519777218272e-06,4.2,3.7333
3.99609375,-3.4209253559166797e-06,-2.8323787740901792e-05,-3.4209253559166797e-06,-2.197562018158234e-05,4.2,3.7333
4.0,2.0018958312352182e-05,-6.787577181353474e-05,-4.004050715495536e-05,-6.054798854962995e-05,4.2,3.7333
4.00390625,1.3670790753032747e-05,-6.348039082322422e-05,-5.371645797817958e-05,-6.640634825665674e-05,4.2,3.7333
4.0078125,9.76521761501489e-06,-6.397019867551687e-05,-6.201741210650796e-05,-5.762203111619744e-05,4.2,3.7333
4.01171875,1.4642634866865194e-06,-7.812951251087205e-05,-6.006462553749903e-05,-6.103779640192262e-05,4.2,3.7333
4.015625,-7.816306346227194e-06,-7.519711023727777e-05,-4.687848256656747e-05,-5.2736842273594245e-05,4.2,3.7333
4.01953125,-2.539138546730753e-05,-3.173955302662698e-05,-1.953302576028075e-05,-3.759791273365375e-05,4.2,3.7333
4.0234375,-2.0996004476997014e-05,4.345239714045931e-05,1.5133769469748996e-05,-2.4908022455176606e-05,4.2,3.7333
4.02734375,-2.5881193319600198e-05,2.0018958312352182e-05,1.5133769469748996e-05,-2.5881193319600198e-05,4.2,3.7333
4.03125,-5.5179436694895836e-05,-3.759791273365375e-05,-6.353327629510943e-06,-4.687848256656747e-05,4.2,3.7333
4.03515625,-2.5881193319600198e-05,-2.539138546730753e-05,-1.957946639200415e-06,-5.2736842273594245e-05,4.2,3.7333
4.0390625,1.2691175048447404e-05,2.6850488883802553e-05,-9.78330934615073e-07,-4.150993071183335e-05,4.2,3.7333
4.04296875,-9.78330934615073e-07,3.3688464295414676e-05,-1.0258900767528786e-05,-3.516176315251391e-05,4.2,3.7333
4.046875,-9.769092915236114e-06,9.76521761501489e-06,-2.051264146486609e-05,-4.394608029297321e-05,4.2,3.7333
4.05078125,-1.2211687336537721e-05,-2.8813595593194464e-05,-2.3438598898298607e-05,-6.006462553749903e-05,4.2,3.7333
4.0546875,-3.2719168731212314e-05,-6.884894267795833e-05,-2.637100117189287e-05,-6.592298524452581e-05,4.2,3.7333
4.05859375,-2.5881193319600198e-05,-3.61349340169375e-05,-2.4413096513313375e-06,-3.662474186923017e-05,4.2,3.7333
4.0625,-2.2465428033875013e-05,2.0502321324483105e-05,2.489770231479363e-05,-1.4654281757839313e-05,4.2,3.7333
4.06640625,-5.078405570458532e-05,-2.4413096513313375e-06,1.947626498817442e-06,-3.8087720585946425e-05,4.2,3.7333
4.0703125,-5.322665012588692e-05,-2.3438598898298607e-05,8.295794058136892e-06,-2.6860809024185542e-05,4.2,3.7333
4.07421875,-1.1721879484245051e-05,-3.467195530022124e-05,1.3670790753032747e-05,-7.816306346227194e-06,4.2,3.7333
4.078125,1.1718004184023811e-05,-2.8323787740901792e-05,4.846477821011774e-07,-3.173955302662698e-05,4.2,3.7333
4.08203125,5.853199636835285e-06,1.2691175048447404e-05,-2.9311175036240086e-06,-5.4199820990310505e-05,4.2,3.7333
4.0859375,-3.9107332082093364e-06,-2.9311175036240086e-06,-1.6117260474555565e-05,-6.592298524452581e-05,4.2,3.7333
4.08984375,-2.9296958605325387e-05,-4.492569599755854e-05,-2.0022833612573422e-05,-6.006462553749903e-05,4.2,3.7333
4.09375,-4.1993293723964275e-05,-4.297290942854962e-05,-3.369233959563591e-05,-5.176367140917066e-05,4.2,3.7333
4.09765625,-6.006462553749903e-05,-2.2465428033875013e-05,-2.051264146486609e-05,-3.4182147447928574e-05,4.2,3.7333
4.1015625,-5.4199820990310505e-05,1.5623577322041667e-05,4.390220920119034e-06,-2.8323787740901792e-05,4.2,3.7333
4.10546875,-2.9296958605325387e-05,-1.4164473905546643e-05,-2.5881193319600198e-05,-4.443588814526588e-05,4.2,3.7333
