timestamp,TP9,AF7,AF8,TP10,Valence,Arousal
0.0,2.6836038907453995e-05,5.174660347295338e-05,6.346922209201187e-05,5.846772823681988e-06,3.2667,5.8667
0.00390625,1.61040641153582e-05,3.612332478522927e-05,5.517258004119935e-05,9.747432892347604e-06,3.2667,5.8667
0.0078125,2.6836038907453995e-05,3.2222664716563657e-05,5.418193621423666e-05,8.282105564965264e-06,3.2667,5.8667
0.01171875,4.1014628680857526e-05,3.905397943999389e-05,6.687456024719614e-05,1.1708082133211235e-05,3.2667,5.8667
0.015625,4.1984634094758515e-05,2.976669356221862e-05,4.491528874952314e-05,1.0242754805828952e-05,3.2667,5.8667
0.01953125,2.8301366234836334e-05,1.1708082133211235e-05,2.3430700752269784e-05,-3.4198746410315264e-06,3.2667,5.8667
0.0234375,1.414341487449451e-05,2.0995368010986452e-05,4.1014628680857526e-05,-5.380523881895215e-06,3.2667,5.8667
0.02734375,3.9549301353475245e-05,4.538997224994279e-05,6.396454400549323e-05,6.81677823758298e-06,3.2667,5.8667
0.03125,5.907324010986491e-05,3.905397943999389e-05,5.517258004119935e-05,5.846772823681988e-06,3.2667,5.8667
0.03515625,4.784594340428776e-05,2.976669356221862e-05,4.685529957732507e-05,1.4507908415350242e-06,3.2667,5.8667
0.0390625,2.976669356221862e-05,4.9311270731670104e-05,2.6836038907453995e-05,-4.892199862669031e-07,3.2667,5.8667
0.04296875,2.8796688148317684e-05,4.7350621490806415e-05,-6.35052929579615e-06,-5.380523881895215e-06,3.2667,5.8667
0.046875,4.685529957732507e-05,6.933053140154111e-05,4.394528333562215e-05,-1.9545473136491865e-06,3.2667,5.8667
0.05078125,4.002398485389483e-05,7.616184612497136e-05,8.738914283054856e-05,-4.892199862669031e-07,3.2667,5.8667
0.0546875,3.2222664716563657e-05,4.881594881818876e-05,6.687456024719614e-05,-5.380523881895215e-06,3.2667,5.8667
0.05859375,3.416267554436558e-05,4.588529416342407e-05,3.905397943999389e-05,-3.9151965545128744e-06,3.2667,5.8667
0.0625,2.782668273441669e-05,2.537071158007171e-05,3.612332478522927e-05,9.76107341115437e-07,3.2667,5.8667
0.06640625,1.7074069529259133e-05,2.782668273441669e-05,2.4400706166170722e-05,9.76107341115437e-07,3.2667,5.8667
0.0703125,2.0500046097505106e-05,4.1984634094758515e-05,1.4638736787975858e-05,1.9461127550163724e-06,3.2667,5.8667
0.07421875,3.416267554436558e-05,4.002398485389483e-05,3.2222664716563657e-05,5.35145091020064e-06,3.2667,5.8667
0.078125,2.4414346684977204e-06,4.685529957732507e-05,3.7093330199130204e-05,1.9461127550163724e-06,3.2667,5.8667
0.08203125,-4.885201968413867e-06,4.9311270731670104e-05,4.978595423208969e-05,1.9461127550163724e-06,3.2667,5.8667
0.0859375,4.1984634094758515e-05,6.443922750591287e-05,5.321193080033566e-05,-1.479863813229599e-06,3.2667,5.8667
0.08984375,4.685529957732507e-05,6.297390017853052e-05,3.758865211261156e-05,-6.845851209277498e-06,3.2667,5.8667
0.09375,3.416267554436558e-05,4.295463950865945e-05,4.832062690470741e-05,1.9461127550163724e-06,3.2667,5.8667
0.09765625,1.7074069529259133e-05,3.172734280308231e-05,5.907324010986491e-05,5.846772823681988e-06,3.2667,5.8667
0.1015625,2.6361355407034407e-05,2.3430700752269784e-05,5.711259086900128e-05,2.4414346684977204e-06,3.2667,5.8667
0.10546875,4.247995600823987e-05,2.586603349355306e-05,5.370725271381701e-05,6.81677823758298e-06,3.2667,5.8667
0.109375,3.8558657526512546e-05,6.1033889350728596e-05,5.907324010986491e-05,8.282105564965264e-06,3.2667,5.8667
0.11328125,2.976669356221862e-05,6.54092329198138e-05,4.9311270731670104e-05,9.76107341115437e-07,3.2667,5.8667
0.1171875,1.9530040683604168e-05,5.418193621423666e-05,3.416267554436558e-05,4.807854276340891e-07,3.2667,5.8667
0.12109375,3.515331937132828e-05,5.711259086900128e-05,3.905397943999389e-05,2.9161181689173644e-06,3.2667,5.8667
0.125,4.148931218127717e-05,3.9549301353475245e-05,4.295463950865945e-05,6.81677823758298e-06,3.2667,5.8667
0.12890625,4.978595423208969e-05,2.9161181689173644e-06,5.564726354161894e-05,1.3173409460593575e-05,3.2667,5.8667
0.1328125,4.588529416342407e-05,3.319267013046459e-05,6.63998767467765e-05,1.7074069529259133e-05,3.2667,5.8667
0.13671875,4.1014628680857526e-05,7.665716803845271e-05,6.833988757457842e-05,1.7569391442740483e-05,3.2667,5.8667
0.140625,5.418193621423666e-05,6.933053140154111e-05,6.687456024719614e-05,2.0500046097505106e-05,3.2667,5.8667
0.14453125,5.1251281559472034e-05,0.00010447774884565496,5.810323469596397e-05,1.61040641153582e-05,3.2667,5.8667
0.1484375,5.8577918196383616e-05,7.323119147020673e-05,3.368799204394594e-05,7.80742206454562e-06,3.2667,5.8667
0.15234375,3.758865211261156e-05,2.4414346684977204e-06,5.224192538643473e-05,1.5134058701457206e-05,3.2667,5.8667
0.15625,4.1984634094758515e-05,4.7350621490806415e-05,6.833988757457842e-05,1.7569391442740483e-05,3.2667,5.8667
0.16015625,6.053856743724725e-05,6.249921667811093e-05,4.588529416342407e-05,6.3420947371633356e-06,3.2667,5.8667
0.1640625,4.394528333562215e-05,4.588529416342407e-05,3.0757337389181314e-05,9.27274939192796e-06,3.2667,5.8667
0.16796875,4.9311270731670104e-05,6.54092329198138e-05,3.9549301353475245e-05,2.0004724184023814e-05,3.2667,5.8667
0.171875,5.663790736858163e-05,7.812249536583504e-05,6.249921667811093e-05,1.414341487449451e-05,3.2667,5.8667
0.17578125,5.564726354161894e-05,7.030053681544212e-05,4.7350621490806415e-05,5.846772823681988e-06,3.2667,5.8667
0.1796875,5.4677258127718004e-05,4.295463950865945e-05,1.3668731374074923e-05,1.3668731374074923e-05,3.2667,5.8667
0.18359375,5.224192538643473e-05,3.8558657526512546e-05,1.3668731374074923e-05,1.3668731374074923e-05,3.2667,5.8667
0.1875,4.295463950865945e-05,2.976669356221862e-05,1.4638736787975858e-05,9.76107341115437e-07,3.2667,5.8667
0.19140625,2.2935378838788437e-05,-6.35052929579615e-06,1.806471335622183e-05,-1.4536485847258972e-08,3.2667,5.8667
0.1953125,3.416267554436558e-05,2.4896028079652068e-05,3.368799204394594e-05,1.1708082133211235e-05,3.2667,5.8667
0.19921875,5.6142585455100285e-05,5.760791278248263e-05,6.297390017853052e-05,1.7074069529259133e-05,3.2667,5.8667
0.203125,6.1033889350728596e-05,5.174660347295338e-05,5.2716608886854315e-05,1.3173409460593575e-05,3.2667,5.8667
0.20703125,4.588529416342407e-05,5.517258004119935e-05,4.538997224994279e-05,7.312100151064271e-06,3.2667,5.8667
0.2109375,3.2222664716563657e-05,4.394528333562215e-05,4.394528333562215e-05,7.312100151064271e-06,3.2667,5.8667
0.21484375,5.418193621423666e-05,2.782668273441669e-05,2.929201006179903e-05,1.414341487449451e-05,3.2667,5.8667
0.21875,6.1033889350728596e-05,4.832062690470741e-05,2.976669356221862e-05,6.81677823758298e-06,3.2667,5.8667
0.22265625,5.8577918196383616e-05,4.394528333562215e-05,3.172734280308231e-05,2.9161181689173644e-06,3.2667,5.8667
0.2265625,4.394528333562215e-05,7.80742206454562e-06,5.1251281559472034e-05,4.876767409780996e-06,3.2667,5.8667
0.23046875,3.515331937132828e-05,1.2678087547112227e-05,4.1984634094758515e-05,1.5134058701457206e-05,3.2667,5.8667
0.234375,5.028127614557104e-05,4.002398485389483e-05,3.2222664716563657e-05,2.246069533836879e-05,3.2667,5.8667
0.23828125,5.4677258127718004e-05,8.885447015793084e-05,6.54092329198138e-05,4.381445496299648e-06,3.2667,5.8667
0.2421875,4.002398485389483e-05,0.00012303168218814368,7.616184612497136e-05,-4.410518467994222e-06,3.2667,5.8667
0.24609375,3.0262015475699968e-05,5.711259086900128e-05,4.876767409780996e-06,5.35145091020064e-06,3.2667,5.8667
0.25,5.1251281559472034e-05,-2.589510646524758e-05,-4.052774132600899e-05,1.9530040683604168e-05,3.2667,5.8667
0.25390625,4.002398485389483e-05,-0.00012452608248722058,-0.00010840748188601512,2.0004724184023814e-05,3.2667,5.8667
0.2578125,5.907324010986491e-05,-0.00014894132513923857,-0.00016456460382696268,2.7331360820935345e-05,3.2667,5.8667
0.26171875,9.814175603570607e-05,-0.000142584693916228,-0.00016993059122301062,3.80839740260929e-05,3.2667,5.8667
0.265625,6.63998767467765e-05,-0.00021680042728618298,-0.00020654313599450676,4.7350621490806415e-05,3.2667,5.8667
0.26953125,7.859717886625463e-05,-0.0002788188585366598,-0.0002534336104707408,6.200389476462959e-05,3.2667,5.8667
0.2734375,9.861643953612571e-05,-0.00031444075948119325,-0.0003315293654962997,8.202315543450061e-05,3.2667,5.8667
0.27734375,9.081511939879453e-05,-0.00033982600754711224,-0.0003769338742320897,8.885447015793084e-05,3.2667,5.8667
0.28125,8.105315002059967e-05,-0.00041210173008926525,-0.0004262596814496071,7.713185153887235e-05,3.2667,5.8667
0.28515625,6.1033889350728596e-05,-0.00044285296555123216,-0.00042382434870832377,6.590455483329515e-05,3.2667,5.8667
0.2890625,7.372651338368808e-05,-0.00041990305022659644,-0.000409666397347982,0.00010447774884565496,3.2667,5.8667
0.29296875,7.079585872892346e-05,-0.0004277250087769894,-0.0004365169727412833,0.00013378429539330126,3.2667,5.8667
0.296875,6.443922750591287e-05,-0.0004013491168841077,-0.0003959831294880598,0.00012352700410162503,3.2667,5.8667
0.30078125,6.0043245523765904e-05,-0.0003803598508003357,-0.000377429196145571,0.0001381802773754482,3.2667,5.8667
0.3046875,3.319267013046459e-05,-0.00035984526821698326,-0.0003544792808209354,0.00013035831882505527,3.2667,5.8667
0.30859375,4.9311270731670104e-05,-0.0002988174807934691,-0.0003046787901029984,0.0001215663548607614,3.2667,5.8667
0.3125,4.34499614221408e-05,-0.0002846801678461891,-0.00030174813544823375,0.00011962634403295948,3.2667,5.8667
0.31640625,2.782668273441669e-05,-0.0002783235366231785,-0.0002597696032806897,0.00011523036205081251,3.2667,5.8667
0.3203125,3.4657997457846933e-05,-0.00022901836781872282,-0.0002041078032532235,0.00010253773801785303,3.2667,5.8667
0.32421875,2.8796688148317684e-05,-0.00020509844708018618,-0.00018361385908293278,0.00011083438006866555,3.2667,5.8667
0.328125,3.515331937132828e-05,-0.00013721870652018005,-0.00013379272995193408,0.00013572430622110318,3.2667,5.8667
0.33203125,2.0500046097505106e-05,-8.741821580224308e-05,-0.00010644683264515145,0.000149882257581445,3.2667,5.8667
0.3359375,9.76107341115437e-07,-6.8368960546273e-05,-9.474485243915466e-05,0.00015427823956359196,3.2667,5.8667
0.33984375,-1.173715510490581e-05,-4.8349699876401924e-05,-7.666560259708555e-05,0.00015574356689097426,3.2667,5.8667
0.34375,-2.2964451810482953e-05,-6.446830047760742e-05,-8.056626266575113e-05,0.0001684568293369955,3.2667,5.8667
0.34765625,-1.80731479148547e-05,-3.126109386129553e-05,-3.662708125734343e-05,0.00015427823956359196,3.2667,5.8667
0.3515625,-1.1241833191424462e-05,-6.845851209277498e-06,-1.9545473136491865e-06,0.00014501159209887846,3.2667,5.8667
0.35546875,-1.4667809759670433e-05,4.807854276340891e-07,-1.514249326009002e-05,0.00015916954345922022,3.2667,5.8667
0.359375,-2.2469129897001607e-05,9.76107341115437e-07,-8.311178536659837e-06,0.00014697224133974207,3.2667,5.8667
0.36328125,-2.2469129897001607e-05,-9.776505864042122e-06,6.3420947371633356e-06,0.00012109167136034176,3.2667,5.8667
0.3671875,-2.3934457224383946e-05,-1.4536485847258972e-08,2.6361355407034407e-05,0.00011326971280994889,3.2667,5.8667
0.37109375,-4.737969446250096e-05,4.881594881818876e-05,6.493454941939422e-05,0.00010594307617303729,3.2667,5.8667
0.375,-3.9557735912108054e-05,0.00010154709419089033,7.519184071107043e-05,9.667642870832379e-05,3.2667,5.8667
0.37890625,-3.175641577477682e-05,0.00014940757408102534,0.00011816101670557713,7.273586955672539e-05,3.2667,5.8667
0.3828125,-2.9795766533913192e-05,0.00015526888339055465,0.00011423971822384982,6.883520948805977e-05,3.2667,5.8667
0.38671875,-1.4172487846189085e-05,0.000128892991497673,0.00011130906356908519,5.810323469596397e-05,3.2667,5.8667
0.390625,-2.9795766533913192e-05,0.000128892991497673,0.000127922986083772,4.002398485389483e-05,3.2667,5.8667
0.39453125,-3.9557735912108054e-05,0.00011180438548256654,0.00012449700951552603,2.976669356221862e-05,3.2667,5.8667
0.3984375,-5.128035453116658e-05,8.689382091706722e-05,0.00012695298066987107,1.560874220187685e-05,3.2667,5.8667
0.40234375,-3.175641577477682e-05,0.00010887373082780192,0.00011962634403295948,9.76107341115437e-07,3.2667,5.8667
0.40625,-1.3202482432288093e-05,0.00015770421613183792,0.00012402232601510638,-2.4498692271305345e-06,3.2667,5.8667
0.41015625,-1.9538475242236984e-05,0.00017332749481956204,0.00012010102753337907,-8.311178536659837e-06,3.2667,5.8667
0.4140625,-2.6369789965667223e-05,0.00016356552544136718,0.00012449700951552603,-2.0508480656137976e-05,3.2667,5.8667
0.41796875,-2.9795766533913192e-05,0.00013621962813458453,0.00010400306534523537,-5.875845795376506e-06,3.2667,5.8667
0.421875,-1.4667809759670433e-05,9.471577946746009e-05,6.736988216067749e-05,-2.7835117293049507e-05,3.2667,5.8667
0.42578125,-2.589510646524758e-05,0.0001406156101167315,0.00011913102211947813,-4.785437796292058e-05,3.2667,5.8667
0.4296875,-3.761772508430613e-05,0.00013231896806591896,0.000148912252167544,-2.539978455176623e-05,3.2667,5.8667
0.43359375,-2.2469129897001607e-05,0.0001381802773754482,0.0001650308527687495,-2.4904462638284884e-05,3.2667,5.8667
0.4375,-1.0746511277943114e-05,0.00016356552544136718,0.00016893151283741507,-3.4191748516060154e-05,3.2667,5.8667
0.44140625,-1.7598464414435056e-05,0.0001518429068223087,0.0001406156101167315,-3.712240317082478e-05,3.2667,5.8667
0.4453125,-4.410518467994222e-06,0.0001562388888044556,0.00013231896806591896,-3.712240317082478e-05,3.2667,5.8667
0.44921875,1.7569391442740483e-05,0.00013768495546196685,0.00011669568937819485,-3.9557735912108054e-05,3.2667,5.8667
0.453125,-1.9538475242236984e-05,0.00010887373082780192,9.568578488136108e-05,-3.809240858472572e-05,3.2667,5.8667
0.45703125,-1.2707160518806745e-05,0.00010546839267261765,0.000127922986083772,-3.615239775692379e-05,3.2667,5.8667
0.4609375,2.3905384252689372e-05,0.000127922986083772,0.00014744692484016173,-3.9557735912108054e-05,3.2667,5.8667
0.46484375,1.2678087547112227e-05,0.00014940757408102534,0.0001420809374441138,-2.3934457224383946e-05,3.2667,5.8667
0.46875,1.1708082133211235e-05,0.00013425897889372088,0.00014257625935759516,-1.6133137087052714e-05,3.2667,5.8667
0.47265625,1.3173409460593575e-05,0.00013621962813458453,9.521110138094144e-05,-3.369642660257881e-05,3.2667,5.8667
0.4765625,2.7331360820935345e-05,0.00011570504555123216,9.128980289921411e-05,-5.5181014599832166e-05,3.2667,5.8667
0.48046875,2.4896028079652068e-05,9.471577946746009e-05,0.00014598159751277938,-3.761772508430613e-05,3.2667,5.8667
0.484375,2.6361355407034407e-05,0.00012206167677424275,0.00014404158668497745,-2.9300444620431846e-05,3.2667,5.8667
0.48828125,1.5134058701457206e-05,0.00015966486537270157,0.00013132832423895627,-5.225035994506754e-05,3.2667,5.8667
0.4921875,-1.479863813229599e-06,0.000148912252167544,0.00013768495546196685,-4.737969446250096e-05,3.2667,5.8667
0.49609375,3.4657997457846933e-05,0.00010253773801785303,0.00012839766958419165,-3.9557735912108054e-05,3.2667,5.8667
0.5,4.491528874952314e-05,9.764643412222472e-05,0.0001103390581551842,-3.3221743102159165e-05,3.2667,5.8667
0.50390625,2.4400706166170722e-05,0.00013964560470283054,0.00010107241069047074,-3.126109386129553e-05,3.2667,5.8667
0.5078125,1.7074069529259133e-05,0.00013425897889372088,9.128980289921411e-05,-5.225035994506754e-05,3.2667,5.8667
0.51171875,1.07380767193103e-05,9.081511939879453e-05,9.374577405355916e-05,-5.078503261768523e-05,3.2667,5.8667
0.515625,5.846772823681988e-06,8.495381008926522e-05,0.00010790372541390092,-3.8587730498207065e-05,3.2667,5.8667
0.51953125,1.0242754805828952e-05,7.859717886625463e-05,9.275513022659646e-05,-4.102306323949034e-05,3.2667,5.8667
0.5234375,1.7074069529259133e-05,7.958782269321732e-05,0.00011523036205081251,-4.444903980773634e-05,3.2667,5.8667
0.52734375,9.747432892347604e-06,9.422045755397874e-05,0.00011376503472343023,-4.444903980773634e-05,3.2667,5.8667
0.53125,1.4638736787975858e-05,7.226118605630574e-05,8.445848817578388e-05,-4.395371789425499e-05,3.2667,5.8667
0.53515625,1.0242754805828952e-05,7.12705422293431e-05,7.909250077973598e-05,-4.54190452216373e-05,3.2667,5.8667
0.5390625,1.7569391442740483e-05,8.689382091706722e-05,8.592381550316623e-05,-4.931970529030292e-05,3.2667,5.8667
0.54296875,1.5134058701457206e-05,7.616184612497136e-05,0.00011423971822384982,-3.9557735912108054e-05,3.2667,5.8667
0.546875,-1.6133137087052714e-05,7.469651879758908e-05,0.00011326971280994889,-4.005305782558941e-05,3.2667,5.8667
0.55078125,-3.4198746410315264e-06,8.398380467536429e-05,9.081511939879453e-05,-3.712240317082478e-05,3.2667,5.8667
0.5546875,2.929201006179903e-05,9.568578488136108e-05,0.00010594307617303729,-2.9795766533913192e-05,3.2667,5.8667
0.55859375,3.80839740260929e-05,9.96070833630884e-05,9.521110138094144e-05,-3.712240317082478e-05,3.2667,5.8667
0.5625,3.368799204394594e-05,7.713185153887235e-05,6.200389476462959e-05,-3.906241399862671e-05,3.2667,5.8667
0.56640625,1.5134058701457206e-05,4.832062690470741e-05,4.784594340428776e-05,-2.8825761120012203e-05,3.2667,5.8667
0.5703125,1.903471877012282e-05,7.17658641428244e-05,7.372651338368808e-05,-2.8330439206530853e-05,3.2667,5.8667
0.57421875,2.4896028079652068e-05,6.883520948805977e-05,8.202315543450061e-05,-3.3221743102159165e-05,3.2667,5.8667
0.578125,2.537071158007171e-05,6.150857285114824e-05,7.713185153887235e-05,-3.175641577477682e-05,3.2667,5.8667
0.58203125,1.0242754805828952e-05,6.736988216067749e-05,9.814175603570607e-05,-3.029108844739454e-05,3.2667,5.8667
0.5859375,-5.875845795376506e-06,6.883520948805977e-05,9.178512481269547e-05,-2.589510646524758e-05,3.2667,5.8667
0.58984375,7.312100151064271e-06,5.663790736858163e-05,6.933053140154111e-05,-1.80731479148547e-05,3.2667,5.8667
0.59375,2.1470051511406095e-05,5.8577918196383616e-05,7.469651879758908e-05,-2.1499124483100672e-05,3.2667,5.8667
0.59765625,2.2935378838788437e-05,8.592381550316623e-05,9.178512481269547e-05,-2.1499124483100672e-05,3.2667,5.8667
0.6015625,7.312100151064271e-06,7.372651338368808e-05,6.736988216067749e-05,-2.589510646524758e-05,3.2667,5.8667
0.60546875,-1.479863813229599e-06,6.980521490196077e-05,6.443922750591287e-05,-2.2964451810482953e-05,3.2667,5.8667
0.609375,1.414341487449451e-05,4.685529957732507e-05,6.933053140154111e-05,-1.4667809759670433e-05,3.2667,5.8667
0.61328125,1.3173409460593575e-05,3.4657997457846933e-05,7.12705422293431e-05,-9.281183950560774e-06,3.2667,5.8667
0.6171875,1.2678087547112227e-05,6.933053140154111e-05,6.736988216067749e-05,-9.776505864042122e-06,3.2667,5.8667
0.62109375,1.1212760219729887e-05,7.665716803845271e-05,5.6142585455100285e-05,-1.856846982833599e-05,3.2667,5.8667
0.625,6.3420947371633356e-06,4.881594881818876e-05,5.564726354161894e-05,-1.4172487846189085e-05,3.2667,5.8667
0.62890625,4.381445496299648e-06,6.933053140154111e-05,3.8558657526512546e-05,-1.2707160518806745e-05,3.2667,5.8667
0.6328125,1.61040641153582e-05,7.420119688410772e-05,4.881594881818876e-05,-1.4667809759670433e-05,3.2667,5.8667
0.63671875,3.6618646698710615e-05,5.370725271381701e-05,6.786520407415883e-05,-1.5637815173571368e-05,3.2667,5.8667
0.640625,6.81677823758298e-06,6.396454400549323e-05,6.443922750591287e-05,-1.9043153328755634e-05,3.2667,5.8667
0.64453125,2.4414346684977204e-06,6.0043245523765904e-05,4.247995600823987e-05,-1.9538475242236984e-05,3.2667,5.8667
0.6484375,2.976669356221862e-05,5.0776598059052385e-05,3.905397943999389e-05,-1.0746511277943114e-05,3.2667,5.8667
0.65234375,1.7569391442740483e-05,1.8539396856641472e-05,4.978595423208969e-05,-3.9151965545128744e-06,3.2667,5.8667
0.65625,2.0995368010986452e-05,2.0500046097505106e-05,3.758865211261156e-05,4.807854276340891e-07,3.2667,5.8667
0.66015625,1.414341487449451e-05,5.663790736858163e-05,3.123202088960096e-05,-2.9451911406118824e-06,3.2667,5.8667
0.6640625,2.537071158007171e-05,6.54092329198138e-05,5.711259086900128e-05,-6.35052929579615e-06,3.2667,5.8667
0.66796875,3.612332478522927e-05,6.396454400549323e-05,5.760791278248263e-05,-1.173715510490581e-05,3.2667,5.8667
0.671875,4.1984634094758515e-05,7.566652421149002e-05,5.564726354161894e-05,-6.35052929579615e-06,3.2667,5.8667
0.67578125,2.3430700752269784e-05,4.295463950865945e-05,5.810323469596397e-05,2.4414346684977204e-06,3.2667,5.8667
0.6796875,1.9461127550163724e-06,3.0262015475699968e-05,4.978595423208969e-05,-6.35052929579615e-06,3.2667,5.8667
0.68359375,4.051930676737618e-05,4.538997224994279e-05,5.663790736858163e-05,-9.281183950560774e-06,3.2667,5.8667
0.6875,5.2716608886854315e-05,5.370725271381701e-05,3.8558657526512546e-05,-5.380523881895215e-06,3.2667,5.8667
0.69140625,3.6618646698710615e-05,3.612332478522927e-05,3.319267013046459e-05,-4.410518467994222e-06,3.2667,5.8667
0.6953125,3.80839740260929e-05,1.07380767193103e-05,3.368799204394594e-05,-1.4536485847258972e-08,3.2667,5.8667
0.69921875,5.028127614557104e-05,3.416267554436558e-05,2.4896028079652068e-05,-4.892199862669031e-07,3.2667,5.8667
0.703125,6.200389476462959e-05,4.7350621490806415e-05,3.515331937132828e-05,-7.341173122758846e-06,3.2667,5.8667
0.70703125,5.517258004119935e-05,4.148931218127717e-05,2.246069533836879e-05,-5.380523881895215e-06,3.2667,5.8667
0.7109375,4.247995600823987e-05,2.537071158007171e-05,6.3420947371633356e-06,1.1212760219729887e-05,3.2667,5.8667
0.71484375,2.929201006179903e-05,2.8796688148317684e-05,1.903471877012282e-05,1.414341487449451e-05,3.2667,5.8667
0.71875,3.562800287174792e-05,2.4400706166170722e-05,3.8558657526512546e-05,5.35145091020064e-06,3.2667,5.8667
0.72265625,4.6380616076905426e-05,2.976669356221862e-05,6.150857285114824e-05,5.35145091020064e-06,3.2667,5.8667
0.7265625,4.491528874952314e-05,3.612332478522927e-05,5.663790736858163e-05,1.61040641153582e-05,3.2667,5.8667
0.73046875,5.517258004119935e-05,7.80742206454562e-06,8.777427478446612e-06,2.537071158007171e-05,3.2667,5.8667
0.734375,3.123202088960096e-05,1.07380767193103e-05,2.9161181689173644e-06,2.1965373424887445e-05,3.2667,5.8667
0.73828125,2.3905384252689372e-05,2.0500046097505106e-05,-1.4536485847258972e-08,1.6599386028839545e-05,3.2667,5.8667
0.7421875,6.150857285114824e-05,2.2935378838788437e-05,-9.281183950560774e-06,1.6599386028839545e-05,3.2667,5.8667
0.74609375,5.224192538643473e-05,-3.0765771947814184e-05,-1.2707160518806745e-05,1.806471335622183e-05,3.2667,5.8667
0.75,2.782668273441669e-05,-4.737969446250096e-05,-4.298371248035403e-05,2.1965373424887445e-05,3.2667,5.8667
0.75390625,2.4896028079652068e-05,-3.0765771947814184e-05,-3.029108844739454e-05,3.515331937132828e-05,3.2667,5.8667
0.7578125,4.394528333562215e-05,-3.8587730498207065e-05,-6.845851209277498e-06,4.1984634094758515e-05,3.2667,5.8667
0.76171875,5.760791278248263e-05,-4.884502178988328e-05,-1.3677165932707737e-05,4.051930676737618e-05,3.2667,5.8667
0.765625,5.2716608886854315e-05,-5.3241003772030235e-05,-5.714166384069583e-05,5.174660347295338e-05,3.2667,5.8667
0.76953125,1.6599386028839545e-05,-3.761772508430613e-05,-7.813092992446786e-05,5.224192538643473e-05,3.2667,5.8667
0.7734375,1.9461127550163724e-06,-4.4923723308155954e-05,-6.446830047760742e-05,4.538997224994279e-05,3.2667,5.8667
0.77734375,3.9549301353475245e-05,-6.690363321889069e-05,-5.4211009185931204e-05,4.978595423208969e-05,3.2667,5.8667
0.78125,7.566652421149002e-05,-6.494298397802703e-05,-4.785437796292058e-05,5.418193621423666e-05,3.2667,5.8667
0.78515625,6.249921667811093e-05,-4.444903980773634e-05,-4.102306323949034e-05,6.297390017853052e-05,3.2667,5.8667
0.7890625,3.562800287174792e-05,-1.7598464414435056e-05,-2.4429779137865295e-05,5.9568562023346254e-05,3.2667,5.8667
0.79296875,4.538997224994279e-05,-3.3221743102159165e-05,-1.6133137087052714e-05,4.441996683604179e-05,3.2667,5.8667
0.796875,6.687456024719614e-05,-1.660782058747236e-05,1.0242754805828952e-05,4.881594881818876e-05,3.2667,5.8667
0.80078125,5.8577918196383616e-05,3.0757337389181314e-05,2.4896028079652068e-05,4.148931218127717e-05,3.2667,5.8667
0.8046875,4.9311270731670104e-05,1.414341487449451e-05,2.0004724184023814e-05,2.6836038907453995e-05,3.2667,5.8667
0.80859375,4.9311270731670104e-05,1.8539396856641472e-05,2.0995368010986452e-05,2.1470051511406095e-05,3.2667,5.8667
0.8125,5.418193621423666e-05,6.786520407415883e-05,5.1251281559472034e-05,9.747432892347604e-06,3.2667,5.8667
0.81640625,5.224192538643473e-05,0.00013279365156633854,0.00011229970739604788,3.8861235828183e-06,3.2667,5.8667
0.8203125,6.590455483329515e-05,0.0001381802773754482,0.0001225569986877241,-8.311178536659837e-06,3.2667,5.8667
0.82421875,7.76271734523537e-05,9.081511939879453e-05,9.814175603570607e-05,-2.2469129897001607e-05,3.2667,5.8667
0.828125,5.321193080033566e-05,0.00014257625935759516,0.00012548765334248873,-2.9795766533913192e-05,3.2667,5.8667
0.83203125,5.1251281559472034e-05,0.00020653470143587395,0.00018358478611123826,-3.809240858472572e-05,3.2667,5.8667
0.8359375,8.592381550316623e-05,0.0002123960107454032,0.00019138610624856942,-4.3458395980773646e-05,3.2667,5.8667
0.83984375,9.325045214007781e-05,0.00020164339754024564,0.000201168714039826,-4.638905063553827e-05,3.2667,5.8667
0.84375,8.495381008926522e-05,0.0002123960107454032,0.0002001780702128633,-4.638905063553827e-05,3.2667,5.8667
0.84765625,9.228044672617682e-05,0.00020556469602197295,0.00019970338671244372,-5.3241003772030235e-05,3.2667,5.8667
0.8515625,9.715111220874336e-05,0.0001791888041290913,0.00019431676090333403,-6.20123293232624e-05,3.2667,5.8667
0.85546875,9.764643412222472e-05,0.00020653470143587395,0.00018994141733424884,-6.347765665064471e-05,3.2667,5.8667
0.859375,0.00010301242151827267,0.00023191994950179286,0.00018358478611123826,-6.8368960546273e-05,3.2667,5.8667
0.86328125,8.544913200274657e-05,0.00020556469602197295,0.00016893151283741507,-6.983428787365532e-05,3.2667,5.8667
0.8671875,7.420119688410772e-05,0.00020263404136720834,0.00017332749481956204,-5.7636985754177173e-05,3.2667,5.8667
0.87109375,9.764643412222472e-05,0.0002167919927275501,0.00018308946419775692,-5.274568185854889e-05,3.2667,5.8667
0.875,0.00011229970739604788,0.00020457405219501026,0.00017625814947432665,-4.052774132600899e-05,3.2667,5.8667
0.87890625,0.00010594307617303729,0.0001948120828168154,0.00015673421071793695,-3.565707584344244e-05,3.2667,5.8667
0.8828125,9.568578488136108e-05,0.00015819953804531927,0.0001435462647714961,-4.785437796292058e-05,3.2667,5.8667
0.88671875,8.788446474402991e-05,0.00014744692484016173,0.00014598159751277938,-4.3458395980773646e-05,3.2667,5.8667
0.890625,9.471577946746009e-05,0.00016453553085526816,0.0001528129122362096,-4.052774132600899e-05,3.2667,5.8667
0.89453125,9.521110138094144e-05,0.00013572430622110318,0.0001215663548607614,-3.712240317082478e-05,3.2667,5.8667
0.8984375,9.471577946746009e-05,0.00015037757949492634,0.0001215663548607614,-2.3934457224383946e-05,3.2667,5.8667
0.90234375,8.055782810711833e-05,0.00019091142274814984,0.00013865496087586785,-1.4667809759670433e-05,3.2667,5.8667
0.90625,8.348848276188294e-05,0.00017382281673304338,0.00013524962272068358,-3.9151965545128744e-06,3.2667,5.8667
0.91015625,9.228044672617682e-05,0.000127922986083772,0.00013524962272068358,2.9161181689173644e-06,3.2667,5.8667
0.9140625,9.275513022659646e-05,0.0001162003674647135,0.00012206167677424275,1.2203404046692583e-05,3.2667,5.8667
0.91796875,0.00010790372541390092,0.00012839766958419165,0.00010546839267261765,1.61040641153582e-05,3.2667,5.8667
0.921875,8.251847734798195e-05,0.00010301242151827267,0.00011523036205081251,6.81677823758298e-06,3.2667,5.8667
0.92578125,6.833988757457842e-05,6.736988216067749e-05,9.618110679484243e-05,1.5134058701457206e-05,3.2667,5.8667
0.9296875,9.715111220874336e-05,0.00010643839808651864,9.618110679484243e-05,1.61040641153582e-05,3.2667,5.8667
0.93359375,9.521110138094144e-05,0.000127922986083772,0.00011423971822384982,1.1212760219729887e-05,3.2667,5.8667
0.9375,9.228044672617682e-05,0.00011962634403295948,9.764643412222472e-05,1.5134058701457206e-05,3.2667,5.8667
0.94140625,8.055782810711833e-05,0.00010936905274128327,0.00010740840350041957,2.2935378838788437e-05,3.2667,5.8667
0.9453125,6.63998767467765e-05,9.128980289921411e-05,8.934979207141219e-05,2.6361355407034407e-05,3.2667,5.8667
0.94921875,5.0776598059052385e-05,7.909250077973598e-05,6.396454400549323e-05,2.929201006179903e-05,3.2667,5.8667
0.953125,5.418193621423666e-05,0.00011473504013733117,9.521110138094144e-05,3.4657997457846933e-05,3.2667,5.8667
0.95703125,7.226118605630574e-05,9.374577405355916e-05,0.00010301242151827267,1.9530040683604168e-05,3.2667,5.8667
0.9609375,7.17658641428244e-05,3.0262015475699968e-05,7.616184612497136e-05,2.1470051511406095e-05,3.2667,5.8667
0.96484375,0.00010253773801785303,5.810323469596397e-05,6.54092329198138e-05,2.6361355407034407e-05,3.2667,5.8667
0.96875,0.00011717037287861444,3.562800287174792e-05,5.760791278248263e-05,1.2678087547112227e-05,3.2667,5.8667
0.97265625,0.00010837840891432057,-1.4536485847258972e-08,5.224192538643473e-05,5.846772823681988e-06,3.2667,5.8667
0.9765625,0.00011570504555123216,2.0004724184023814e-05,3.26973482169833e-05,2.4414346684977204e-06,3.2667,5.8667
0.98046875,0.00012499233142900738,1.4638736787975858e-05,1.2203404046692583e-05,-9.84541899748251e-07,3.2667,5.8667
0.984375,0.00014647691942626072,2.2935378838788437e-05,1.414341487449451e-05,-1.3202482432288093e-05,3.2667,5.8667
0.98828125,0.00014647691942626072,1.6599386028839545e-05,1.9461127550163724e-06,-2.1003802569619322e-05,3.2667,5.8667
0.9921875,0.0001508729014084077,2.2935378838788437e-05,-8.806500450141185e-06,-1.9538475242236984e-05,3.2667,5.8667
0.99609375,0.00015770421613183792,2.4414346684977204e-06,-1.7103142500953707e-05,-2.2964451810482953e-05,3.2667,5.8667
1.0,0.00015427823956359196,-1.3677165932707737e-05,-2.736043379262992e-05,-2.0508480656137976e-05,3.2667,5.8667
1.00390625,0.00014794224675364307,2.246069533836879e-05,-1.479863813229599e-06,-3.0765771947814184e-05,3.2667,5.8667
1.0078125,0.0001391502827893492,1.9530040683604168e-05,-3.4198746410315264e-06,-3.9557735912108054e-05,3.2667,5.8667
1.01171875,0.0001674661855100328,1.3668731374074923e-05,-1.173715510490581e-05,-3.8587730498207065e-05,3.2667,5.8667
1.015625,0.00014697224133974207,2.2935378838788437e-05,-1.7598464414435056e-05,-2.8825761120012203e-05,3.2667,5.8667
1.01953125,0.0001371896335484855,1.6599386028839545e-05,-2.6369789965667223e-05,-2.4904462638284884e-05,3.2667,5.8667
1.0234375,0.0001874854461799038,8.282105564965264e-06,1.7569391442740483e-05,-3.9557735912108054e-05,3.2667,5.8667
1.02734375,0.00019431676090333403,1.414341487449451e-05,8.282105564965264e-06,-4.102306323949034e-05,3.2667,5.8667
1.03125,0.00018162413687037457,2.976669356221862e-05,9.76107341115437e-07,-4.248839056687268e-05,3.2667,5.8667
1.03515625,0.000176753471387808,2.1965373424887445e-05,2.4400706166170722e-05,-4.151838515297169e-05,3.2667,5.8667
1.0390625,0.00019285143357595177,3.172734280308231e-05,2.0995368010986452e-05,-4.102306323949034e-05,3.2667,5.8667
1.04296875,0.00017625814947432665,5.1251281559472034e-05,1.560874220187685e-05,-4.737969446250096e-05,3.2667,5.8667
1.046875,0.00015427823956359196,6.200389476462959e-05,1.07380767193103e-05,-4.199306865339133e-05,3.2667,5.8667
1.05078125,0.0001455069140123598,4.1014628680857526e-05,4.7350621490806415e-05,-4.005305782558941e-05,3.2667,5.8667
1.0546875,0.0001264576587563897,3.0262015475699968e-05,6.396454400549323e-05,-3.5161753929961096e-05,3.2667,5.8667
1.05859375,0.0001528129122362096,7.909250077973598e-05,7.76271734523537e-05,-2.1499124483100672e-05,3.2667,5.8667
1.0625,0.00015770421613183792,0.00010546839267261765,9.081511939879453e-05,-2.2469129897001607e-05,3.2667,5.8667
1.06640625,0.00012303168218814368,8.788446474402991e-05,9.471577946746009e-05,-1.7103142500953707e-05,3.2667,5.8667
1.0703125,0.00010643839808651864,5.224192538643473e-05,8.83591482444495e-05,-1.027182777752347e-05,3.2667,5.8667
1.07421875,9.568578488136108e-05,3.7093330199130204e-05,7.17658641428244e-05,-1.3202482432288093e-05,3.2667,5.8667
1.078125,0.0001049730707591363,5.418193621423666e-05,7.812249536583504e-05,-1.1241833191424462e-05,3.2667,5.8667
1.08203125,9.374577405355916e-05,5.4677258127718004e-05,7.469651879758908e-05,-8.311178536659837e-06,3.2667,5.8667
1.0859375,6.396454400549323e-05,4.685529957732507e-05,7.12705422293431e-05,-3.4198746410315264e-06,3.2667,5.8667
1.08984375,4.588529416342407e-05,5.0776598059052385e-05,7.519184071107043e-05,5.35145091020064e-06,3.2667,5.8667
1.09375,5.370725271381701e-05,4.34499614221408e-05,7.420119688410772e-05,1.0242754805828952e-05,3.2667,5.8667
1.09765625,4.588529416342407e-05,4.6380616076905426e-05,8.982447557183183e-05,7.312100151064271e-06,3.2667,5.8667
1.1015625,5.028127614557104e-05,5.663790736858163e-05,9.667642870832379e-05,8.282105564965264e-06,3.2667,5.8667
1.10546875,5.810323469596397e-05,1.8539396856641472e-05,9.667642870832379e-05,1.61040641153582e-05,3.2667,5.8667
1.109375,1.61040641153582e-05,2.3905384252689372e-05,8.689382091706722e-05,1.1708082133211235e-05,3.2667,5.8667
1.11328125,2.0500046097505106e-05,6.687456024719614e-05,6.63998767467765e-05,1.2203404046692583e-05,3.2667,5.8667
1.1171875,6.1033889350728596e-05,7.616184612497136e-05,9.471577946746009e-05,2.246069533836879e-05,3.2667,5.8667
1.12109375,4.538997224994279e-05,6.396454400549323e-05,9.715111220874336e-05,2.2935378838788437e-05,3.2667,5.8667
1.125,3.123202088960096e-05,3.758865211261156e-05,8.29931608484016e-05,2.3905384252689372e-05,3.2667,5.8667
1.12890625,2.976669356221862e-05,1.806471335622183e-05,7.566652421149002e-05,2.1965373424887445e-05,3.2667,5.8667
1.1328125,2.8796688148317684e-05,4.381445496299648e-06,8.006250619363697e-05,2.3905384252689372e-05,3.2667,5.8667
1.13671875,3.123202088960096e-05,9.747432892347604e-06,9.178512481269547e-05,2.929201006179903e-05,3.2667,5.8667
1.140625,4.1014628680857526e-05,1.6599386028839545e-05,9.275513022659646e-05,3.0262015475699968e-05,3.2667,5.8667
1.14453125,2.1470051511406095e-05,3.0262015475699968e-05,9.275513022659646e-05,2.3905384252689372e-05,3.2667,5.8667
1.1484375,6.3420947371633356e-06,3.905397943999389e-05,8.495381008926522e-05,1.7074069529259133e-05,3.2667,5.8667
1.15234375,1.3173409460593575e-05,4.1014628680857526e-05,8.544913200274657e-05,2.4896028079652068e-05,3.2667,5.8667
1.15625,1.2678087547112227e-05,4.9311270731670104e-05,8.934979207141219e-05,3.416267554436558e-05,3.2667,5.8667
1.16015625,2.537071158007171e-05,4.148931218127717e-05,8.055782810711833e-05,2.7331360820935345e-05,3.2667,5.8667
1.1640625,3.4114400823987124e-06,2.6836038907453995e-05,6.883520948805977e-05,1.8539396856641472e-05,3.2667,5.8667
1.16796875,-2.003379715571833e-05,2.782668273441669e-05,6.1033889350728596e-05,1.903471877012282e-05,3.2667,5.8667
1.171875,5.35145091020064e-06,9.747432892347604e-06,6.786520407415883e-05,3.0262015475699968e-05,3.2667,5.8667
1.17578125,7.312100151064271e-06,-1.9043153328755634e-05,4.051930676737618e-05,3.0757337389181314e-05,3.2667,5.8667
1.1796875,2.4414346684977204e-06,-6.35052929579615e-06,3.416267554436558e-05,2.246069533836879e-05,3.2667,5.8667
1.18359375,-1.4536485847258972e-08,5.35145091020064e-06,6.150857285114824e-05,2.3430700752269784e-05,3.2667,5.8667
1.1875,1.5134058701457206e-05,2.8796688148317684e-05,5.564726354161894e-05,2.782668273441669e-05,3.2667,5.8667
1.19140625,1.9530040683604168e-05,4.491528874952314e-05,4.832062690470741e-05,3.26973482169833e-05,3.2667,5.8667
1.1953125,1.8539396856641472e-05,3.515331937132828e-05,6.249921667811093e-05,2.976669356221862e-05,3.2667,5.8667
1.19921875,2.782668273441669e-05,3.416267554436558e-05,7.76271734523537e-05,3.0757337389181314e-05,3.2667,5.8667
1.203125,2.4414346684977204e-06,1.4638736787975858e-05,5.8577918196383616e-05,3.0757337389181314e-05,3.2667,5.8667
1.20703125,4.381445496299648e-06,-1.479863813229599e-06,3.2222664716563657e-05,3.0262015475699968e-05,3.2667,5.8667
1.2109375,2.6836038907453995e-05,-3.4198746410315264e-06,3.0262015475699968e-05,3.515331937132828e-05,3.2667,5.8667
1.21484375,2.0004724184023814e-05,-5.875845795376506e-06,2.782668273441669e-05,4.002398485389483e-05,3.2667,5.8667
1.21875,2.2935378838788437e-05,-3.4198746410315264e-06,3.172734280308231e-05,4.295463950865945e-05,3.2667,5.8667
1.22265625,2.6361355407034407e-05,4.381445496299648e-06,3.123202088960096e-05,4.002398485389483e-05,3.2667,5.8667
1.2265625,2.6836038907453995e-05,5.846772823681988e-06,3.123202088960096e-05,4.002398485389483e-05,3.2667,5.8667
1.23046875,2.3430700752269784e-05,1.5134058701457206e-05,3.758865211261156e-05,4.148931218127717e-05,3.2667,5.8667
1.234375,3.123202088960096e-05,4.876767409780996e-06,3.123202088960096e-05,4.1984634094758515e-05,3.2667,5.8667
1.23828125,1.3668731374074923e-05,-2.736043379262992e-05,3.0757337389181314e-05,4.1014628680857526e-05,3.2667,5.8667
1.2421875,-8.311178536659837e-06,-1.2707160518806745e-05,1.2678087547112227e-05,3.905397943999389e-05,3.2667,5.8667
1.24609375,2.3430700752269784e-05,1.2203404046692583e-05,1.414341487449451e-05,4.441996683604179e-05,3.2667,5.8667
1.25,4.002398485389483e-05,1.9530040683604168e-05,3.368799204394594e-05,4.784594340428776e-05,3.2667,5.8667
1.25390625,2.976669356221862e-05,1.2203404046692583e-05,4.1014628680857526e-05,4.538997224994279e-05,3.2667,5.8667
1.2578125,2.537071158007171e-05,7.80742206454562e-06,4.784594340428776e-05,4.7350621490806415e-05,3.2667,5.8667
1.26171875,2.929201006179903e-05,1.3668731374074923e-05,4.7350621490806415e-05,4.978595423208969e-05,3.2667,5.8667
1.265625,4.394528333562215e-05,1.2203404046692583e-05,4.394528333562215e-05,4.588529416342407e-05,3.2667,5.8667
1.26953125,3.7093330199130204e-05,-1.479863813229599e-06,3.368799204394594e-05,4.34499614221408e-05,3.2667,5.8667
1.2734375,3.319267013046459e-05,-1.7103142500953707e-05,1.1708082133211235e-05,4.881594881818876e-05,3.2667,5.8667
1.27734375,4.1014628680857526e-05,6.81677823758298e-06,2.0995368010986452e-05,5.4677258127718004e-05,3.2667,5.8667
1.28125,3.905397943999389e-05,1.4638736787975858e-05,3.758865211261156e-05,4.978595423208969e-05,3.2667,5.8667
1.28515625,2.4400706166170722e-05,1.07380767193103e-05,2.586603349355306e-05,4.538997224994279e-05,3.2667,5.8667
1.2890625,4.1014628680857526e-05,9.76107341115437e-07,2.782668273441669e-05,4.9311270731670104e-05,3.2667,5.8667
1.29296875,4.978595423208969e-05,-9.776505864042122e-06,3.2222664716563657e-05,4.784594340428776e-05,3.2667,5.8667
1.296875,1.9530040683604168e-05,-9.776505864042122e-06,2.1965373424887445e-05,4.051930676737618e-05,3.2667,5.8667
1.30078125,3.416267554436558e-05,-2.6369789965667223e-05,2.1470051511406095e-05,4.832062690470741e-05,3.2667,5.8667
1.3046875,5.9568562023346254e-05,-8.311178536659837e-06,3.319267013046459e-05,5.224192538643473e-05,3.2667,5.8667
1.30859375,4.002398485389483e-05,-4.892199862669031e-07,1.3668731374074923e-05,4.247995600823987e-05,3.2667,5.8667
1.3125,3.7093330199130204e-05,-1.4667809759670433e-05,-3.9151965545128744e-06,4.1984634094758515e-05,3.2667,5.8667
1.31640625,3.4657997457846933e-05,9.27274939192796e-06,4.876767409780996e-06,4.295463950865945e-05,3.2667,5.8667
1.3203125,4.441996683604179e-05,3.9549301353475245e-05,1.2678087547112227e-05,4.1014628680857526e-05,3.2667,5.8667
1.32421875,4.588529416342407e-05,9.747432892347604e-06,4.381445496299648e-06,4.1984634094758515e-05,3.2667,5.8667
1.328125,3.7093330199130204e-05,-9.281183950560774e-06,3.4114400823987124e-06,4.441996683604179e-05,3.2667,5.8667
1.33203125,2.782668273441669e-05,-1.173715510490581e-05,1.61040641153582e-05,3.80839740260929e-05,3.2667,5.8667
1.3359375,9.27274939192796e-06,-2.0508480656137976e-05,4.381445496299648e-06,3.368799204394594e-05,3.2667,5.8667
1.33984375,3.4657997457846933e-05,8.282105564965264e-06,1.1212760219729887e-05,3.758865211261156e-05,3.2667,5.8667
1.34375,5.2716608886854315e-05,3.4657997457846933e-05,3.6618646698710615e-05,4.051930676737618e-05,3.2667,5.8667
1.34765625,4.441996683604179e-05,7.80742206454562e-06,4.002398485389483e-05,4.491528874952314e-05,3.2667,5.8667
1.3515625,3.758865211261156e-05,-8.806500450141185e-06,2.4896028079652068e-05,4.9311270731670104e-05,3.2667,5.8667
1.35546875,3.905397943999389e-05,-1.479863813229599e-06,-5.875845795376506e-06,4.685529957732507e-05,3.2667,5.8667
1.359375,4.34499614221408e-05,-1.3677165932707737e-05,-2.736043379262992e-05,4.34499614221408e-05,3.2667,5.8667
1.36328125,4.394528333562215e-05,1.4507908415350242e-06,-1.6133137087052714e-05,4.832062690470741e-05,3.2667,5.8667
1.3671875,3.758865211261156e-05,1.8539396856641472e-05,7.312100151064271e-06,5.0776598059052385e-05,3.2667,5.8667
1.37109375,2.4400706166170722e-05,1.8539396856641472e-05,1.0242754805828952e-05,5.0776598059052385e-05,3.2667,5.8667
1.375,2.586603349355306e-05,1.0242754805828952e-05,1.9461127550163724e-06,5.2716608886854315e-05,3.2667,5.8667
1.37890625,2.3430700752269784e-05,6.81677823758298e-06,-1.9538475242236984e-05,4.881594881818876e-05,3.2667,5.8667
1.3828125,2.586603349355306e-05,1.1708082133211235e-05,-2.6369789965667223e-05,4.784594340428776e-05,3.2667,5.8667
1.38671875,3.319267013046459e-05,1.560874220187685e-05,-9.776505864042122e-06,4.784594340428776e-05,3.2667,5.8667
1.390625,1.5134058701457206e-05,1.1708082133211235e-05,-1.2211838605325397e-05,4.1014628680857526e-05,3.2667,5.8667
1.39453125,2.1470051511406095e-05,8.282105564965264e-06,-4.5914367135118653e-05,3.0262015475699968e-05,3.2667,5.8667
1.3984375,6.200389476462959e-05,2.3905384252689372e-05,-4.298371248035403e-05,3.416267554436558e-05,3.2667,5.8667
1.40234375,6.980521490196077e-05,3.612332478522927e-05,-1.2211838605325397e-05,3.7093330199130204e-05,3.2667,5.8667
1.40625,5.663790736858163e-05,4.051930676737618e-05,-4.885201968413867e-06,3.80839740260929e-05,3.2667,5.8667
1.41015625,4.1984634094758515e-05,2.537071158007171e-05,-3.4198746410315264e-06,4.6380616076905426e-05,3.2667,5.8667
1.4140625,5.1251281559472034e-05,1.61040641153582e-05,-4.892199862669031e-07,4.9311270731670104e-05,3.2667,5.8667
1.41796875,5.4677258127718004e-05,9.27274939192796e-06,1.07380767193103e-05,4.441996683604179e-05,3.2667,5.8667
1.421875,4.784594340428776e-05,-1.479863813229599e-06,1.806471335622183e-05,3.758865211261156e-05,3.2667,5.8667
1.42578125,2.929201006179903e-05,3.4114400823987124e-06,-1.7598464414435056e-05,3.8558657526512546e-05,3.2667,5.8667
1.4296875,1.806471335622183e-05,-9.776505864042122e-06,-2.2469129897001607e-05,3.905397943999389e-05,3.2667,5.8667
1.43359375,4.7350621490806415e-05,-3.9151965545128744e-06,-1.9538475242236984e-05,3.8558657526512546e-05,3.2667,5.8667
1.4375,6.1033889350728596e-05,1.0242754805828952e-05,-3.9557735912108054e-05,4.441996683604179e-05,3.2667,5.8667
1.44140625,6.396454400549323e-05,6.81677823758298e-06,-1.3202482432288093e-05,4.7350621490806415e-05,3.2667,5.8667
1.4453125,5.370725271381701e-05,-1.4536485847258972e-08,3.8861235828183e-06,4.491528874952314e-05,3.2667,5.8667
1.44921875,4.394528333562215e-05,1.61040641153582e-05,8.282105564965264e-06,4.247995600823987e-05,3.2667,5.8667
1.453125,6.053856743724725e-05,3.319267013046459e-05,1.560874220187685e-05,3.8558657526512546e-05,3.2667,5.8667
1.45703125,6.053856743724725e-05,2.0995368010986452e-05,1.2203404046692583e-05,4.247995600823987e-05,3.2667,5.8667
1.4609375,6.1033889350728596e-05,3.123202088960096e-05,2.0004724184023814e-05,4.832062690470741e-05,3.2667,5.8667
1.46484375,5.028127614557104e-05,2.782668273441669e-05,-4.885201968413867e-06,4.832062690470741e-05,3.2667,5.8667
1.46875,3.7093330199130204e-05,2.2935378838788437e-05,-2.1499124483100672e-05,5.224192538643473e-05,3.2667,5.8667
1.47265625,4.832062690470741e-05,2.976669356221862e-05,1.4507908415350242e-06,5.4677258127718004e-05,3.2667,5.8667
1.4765625,5.760791278248263e-05,2.8301366234836334e-05,9.27274939192796e-06,5.663790736858163e-05,3.2667,5.8667
1.48046875,6.346922209201187e-05,2.4400706166170722e-05,2.6361355407034407e-05,5.8577918196383616e-05,3.2667,5.8667
1.484375,4.441996683604179e-05,1.9530040683604168e-05,2.246069533836879e-05,5.564726354161894e-05,3.2667,5.8667
1.48828125,4.394528333562215e-05,-3.4198746410315264e-06,-2.003379715571833e-05,4.7350621490806415e-05,3.2667,5.8667
1.4921875,6.590455483329515e-05,-2.539978455176623e-05,-5.714166384069583e-05,4.1014628680857526e-05,3.2667,5.8667
1.49609375,7.323119147020673e-05,-1.7598464414435056e-05,-7.080429328755628e-05,4.002398485389483e-05,3.2667,5.8667
1.5,9.471577946746009e-05,-9.281183950560774e-06,-5.95769965819791e-05,3.9549301353475245e-05,3.2667,5.8667
1.50390625,9.081511939879453e-05,-1.5637815173571368e-05,-6.397297856412607e-05,2.4896028079652068e-05,3.2667,5.8667
1.5078125,0.00010400306534523537,-2.4904462638284884e-05,-6.8368960546273e-05,2.1470051511406095e-05,3.2667,5.8667
1.51171875,0.00010400306534523537,-5.811166925459679e-05,-9.718018518043795e-05,4.784594340428776e-05,3.2667,5.8667
1.515625,9.764643412222472e-05,-0.00011377346928206301,-0.00013038739179674984,6.883520948805977e-05,3.2667,5.8667
1.51953125,0.00010936905274128327,-0.00012452608248722058,-0.00010987280921339743,4.978595423208969e-05,3.2667,5.8667
1.5234375,0.00010350774343175402,-0.00010205085066300451,-8.888354312962539e-05,3.416267554436558e-05,3.2667,5.8667
1.52734375,0.00011326971280994889,-0.00011036813112687878,-0.00012013010050507364,5.028127614557104e-05,3.2667,5.8667
1.53125,0.00012742766417029065,-0.00011133813654077974,-0.00015577263986266883,7.030053681544212e-05,3.2667,5.8667
1.53515625,0.00011423971822384982,-0.00010644683264515145,-0.00014308001582970933,6.1033889350728596e-05,3.2667,5.8667
1.5390625,9.128980289921411e-05,-8.349691732051576e-05,-0.00010937748729991608,5.224192538643473e-05,3.2667,5.8667
1.54296875,7.030053681544212e-05,-0.00010254617257648587,-0.0001235354386602579,7.079585872892346e-05,3.2667,5.8667
1.546875,6.933053140154111e-05,-0.00011769476776379036,-0.00013379272995193408,7.469651879758908e-05,3.2667,5.8667
1.55078125,4.491528874952314e-05,-6.739895513237203e-05,-7.226962061493859e-05,8.348848276188294e-05,3.2667,5.8667
1.5546875,2.537071158007171e-05,-3.223109927519647e-05,-1.5637815173571368e-05,9.861643953612571e-05,3.2667,5.8667
1.55859375,5.35145091020064e-06,-1.4536485847258972e-08,-1.3202482432288093e-05,0.00010740840350041957,3.2667,5.8667
1.5625,-1.3202482432288093e-05,2.4896028079652068e-05,7.312100151064271e-06,0.00012010102753337907,3.2667,5.8667
1.56640625,-3.3221743102159165e-05,1.7569391442740483e-05,3.8558657526512546e-05,0.00013328897347981988,3.2667,5.8667
1.5703125,-4.3458395980773646e-05,2.6361355407034407e-05,4.6380616076905426e-05,0.00013231896806591896,3.2667,5.8667
1.57421875,-3.468707042954151e-05,8.202315543450061e-05,8.006250619363697e-05,0.0001391502827893492,3.2667,5.8667
1.578125,-6.20123293232624e-05,9.228044672617682e-05,8.982447557183183e-05,0.00014843756866712442,3.2667,5.8667
1.58203125,-6.494298397802703e-05,8.398380467536429e-05,9.325045214007781e-05,0.00014257625935759516,3.2667,5.8667
1.5859375,-4.444903980773634e-05,0.00010546839267261765,0.00012449700951552603,0.00014647691942626072,3.2667,5.8667
1.58984375,-5.4211009185931204e-05,0.00012206167677424275,0.00012695298066987107,0.00014598159751277938,3.2667,5.8667
1.59375,-6.347765665064471e-05,0.00014012028820325014,0.00013671495004806587,0.0001455069140123598,3.2667,5.8667
1.59765625,-6.983428787365532e-05,0.00013378429539330126,0.00015720889421835658,0.00015037757949492634,3.2667,5.8667
1.6015625,-6.347765665064471e-05,0.00012010102753337907,0.00016356552544136718,0.000148912252167544,3.2667,5.8667
1.60546875,-7.813092992446786e-05,0.00012059634944686041,0.00016893151283741507,0.0001528129122362096,3.2667,5.8667
1.609375,-8.302223382009614e-05,0.0001371896335484855,0.00016796150742351415,0.00015427823956359196,3.2667,5.8667
1.61328125,-9.03488704570077e-05,0.0001381802773754482,0.00016796150742351415,0.00014843756866712442,3.2667,5.8667
1.6171875,-9.961551792172122e-05,0.00013768495546196685,0.00015673421071793695,0.000148912252167544,3.2667,5.8667
1.62109375,-6.104232390936141e-05,0.00014598159751277938,0.00014598159751277938,0.0001508729014084077,3.2667,5.8667
1.625,-4.052774132600899e-05,0.0001435462647714961,0.00014794224675364307,0.00013964560470283054,3.2667,5.8667
1.62890625,-4.785437796292058e-05,0.00012742766417029065,0.0001455069140123598,0.00013378429539330126,3.2667,5.8667
1.6328125,-5.274568185854889e-05,0.00011326971280994889,0.00013132832423895627,0.00013425897889372088,3.2667,5.8667
1.63671875,-3.809240858472572e-05,0.00013035831882505527,0.0001445162701853971,0.00013572430622110318,3.2667,5.8667
1.640625,-1.4667809759670433e-05,0.00013132832423895627,0.00014012028820325014,0.00014111093203021284,3.2667,5.8667
1.64453125,-5.380523881895215e-06,0.00012839766958419165,0.0001308536407385366,0.0001371896335484855,3.2667,5.8667
1.6484375,1.9461127550163724e-06,0.00012695298066987107,0.00012206167677424275,0.00013231896806591896,3.2667,5.8667
1.65234375,-1.7103142500953707e-05,8.495381008926522e-05,9.471577946746009e-05,0.00013328897347981988,3.2667,5.8667
1.65625,-1.0746511277943114e-05,6.297390017853052e-05,8.738914283054856e-05,0.00013035831882505527,3.2667,5.8667
1.66015625,2.4414346684977204e-06,9.521110138094144e-05,0.00010154709419089033,0.000127922986083772,3.2667,5.8667
1.6640625,-4.885201968413867e-06,0.00010154709419089033,0.00010253773801785303,0.00012303168218814368,3.2667,5.8667
1.66796875,1.1212760219729887e-05,8.202315543450061e-05,9.228044672617682e-05,0.00012109167136034176,3.2667,5.8667
1.671875,-1.4536485847258972e-08,8.29931608484016e-05,9.128980289921411e-05,0.00011863570020599677,3.2667,5.8667
1.67578125,-1.4536485847258972e-08,7.372651338368808e-05,9.325045214007781e-05,0.0001049730707591363,3.2667,5.8667
1.6796875,2.929201006179903e-05,7.909250077973598e-05,8.83591482444495e-05,8.641913741664757e-05,3.2667,5.8667
1.68359375,2.782668273441669e-05,0.00011473504013733117,8.495381008926522e-05,7.12705422293431e-05,3.2667,5.8667
1.6875,3.0757337389181314e-05,8.105315002059967e-05,8.348848276188294e-05,6.297390017853052e-05,3.2667,5.8667
1.69140625,3.0757337389181314e-05,5.370725271381701e-05,7.616184612497136e-05,5.810323469596397e-05,3.2667,5.8667
1.6953125,2.6836038907453995e-05,8.641913741664757e-05,6.396454400549323e-05,5.370725271381701e-05,3.2667,5.8667
1.69921875,1.9530040683604168e-05,0.00011130906356908519,5.4677258127718004e-05,4.7350621490806415e-05,3.2667,5.8667
1.703125,2.0500046097505106e-05,0.00010204241610437167,8.105315002059967e-05,4.051930676737618e-05,3.2667,5.8667
1.70703125,8.282105564965264e-06,6.63998767467765e-05,6.297390017853052e-05,2.6836038907453995e-05,3.2667,5.8667
1.7109375,-1.7598464414435056e-05,4.9311270731670104e-05,1.9530040683604168e-05,2.246069533836879e-05,3.2667,5.8667
1.71484375,2.9161181689173644e-06,6.346922209201187e-05,2.537071158007171e-05,2.246069533836879e-05,3.2667,5.8667
1.71875,2.2935378838788437e-05,6.200389476462959e-05,3.8558657526512546e-05,1.903471877012282e-05,3.2667,5.8667
1.72265625,1.1212760219729887e-05,5.711259086900128e-05,2.0500046097505106e-05,1.3173409460593575e-05,3.2667,5.8667
1.7265625,2.9161181689173644e-06,7.12705422293431e-05,5.35145091020064e-06,-1.4536485847258972e-08,3.2667,5.8667
1.73046875,-3.4198746410315264e-06,7.469651879758908e-05,-8.806500450141185e-06,-1.479863813229599e-06,3.2667,5.8667
1.734375,5.846772823681988e-06,6.736988216067749e-05,-3.9557735912108054e-05,-9.84541899748251e-07,3.2667,5.8667
1.73828125,7.312100151064271e-06,6.297390017853052e-05,-3.9557735912108054e-05,-7.341173122758846e-06,3.2667,5.8667
1.7421875,4.807854276340891e-07,5.224192538643473e-05,-3.712240317082478e-05,4.807854276340891e-07,3.2667,5.8667
1.74609375,-1.4172487846189085e-05,5.370725271381701e-05,-3.175641577477682e-05,5.35145091020064e-06,3.2667,5.8667
1.75,-1.1241833191424462e-05,5.418193621423666e-05,-3.712240317082478e-05,6.3420947371633356e-06,3.2667,5.8667
1.75390625,-2.1973807983520257e-05,4.491528874952314e-05,-5.0310349117265585e-05,1.1708082133211235e-05,3.2667,5.8667
1.7578125,-8.642757197528039e-05,3.515331937132828e-05,-0.00010401149990386818,1.1708082133211235e-05,3.2667,5.8667
1.76171875,-7.52002752697032e-05,2.4400706166170722e-05,-0.00014308001582970933,1.3668731374074923e-05,3.2667,5.8667
1.765625,-5.910231308155948e-05,2.6361355407034407e-05,-0.00012403076057373923,1.9530040683604168e-05,3.2667,5.8667
1.76953125,-4.102306323949034e-05,2.0500046097505106e-05,-0.00012159542783245595,1.5134058701457206e-05,3.2667,5.8667
1.7734375,8.777427478446612e-06,2.4896028079652068e-05,-0.00014747599781185627,1.1708082133211235e-05,3.2667,5.8667
1.77734375,1.414341487449451e-05,3.2222664716563657e-05,-0.000142584693916228,1.7569391442740483e-05,3.2667,5.8667
1.78125,1.806471335622183e-05,3.8558657526512546e-05,-0.00010254617257648587,1.806471335622183e-05,3.2667,5.8667
1.78515625,3.4657997457846933e-05,3.6618646698710615e-05,-7.569559718318456e-05,1.903471877012282e-05,3.2667,5.8667
1.7890625,4.784594340428776e-05,3.368799204394594e-05,-6.787363863279165e-05,2.6836038907453995e-05,3.2667,5.8667
1.79296875,4.685529957732507e-05,5.846772823681988e-06,-9.082355395742734e-05,2.537071158007171e-05,3.2667,5.8667
1.796875,5.564726354161894e-05,-3.9151965545128744e-06,-0.0001030414944899672,1.9530040683604168e-05,3.2667,5.8667
1.80078125,4.588529416342407e-05,-4.892199862669031e-07,-8.39922392339971e-05,2.0500046097505106e-05,3.2667,5.8667
1.8046875,3.123202088960096e-05,-1.6133137087052714e-05,-6.690363321889069e-05,2.3430700752269784e-05,3.2667,5.8667
1.80859375,5.760791278248263e-05,8.777427478446612e-06,-6.347765665064471e-05,1.9530040683604168e-05,3.2667,5.8667
1.8125,6.980521490196077e-05,2.0004724184023814e-05,-7.276494252841993e-05,1.3173409460593575e-05,3.2667,5.8667
1.81640625,7.226118605630574e-05,1.3668731374074923e-05,-6.690363321889069e-05,1.2678087547112227e-05,3.2667,5.8667
1.8203125,7.566652421149002e-05,2.2935378838788437e-05,-5.4211009185931204e-05,8.282105564965264e-06,3.2667,5.8667
1.82421875,6.396454400549323e-05,1.6599386028839545e-05,-4.444903980773634e-05,2.4414346684977204e-06,3.2667,5.8667
1.828125,7.958782269321732e-05,-1.0746511277943114e-05,-2.686511187914857e-05,2.4414346684977204e-06,3.2667,5.8667
1.83203125,8.83591482444495e-05,-1.027182777752347e-05,-3.369642660257881e-05,4.807854276340891e-07,3.2667,5.8667
1.8359375,7.519184071107043e-05,9.27274939192796e-06,-5.617165842679486e-05,-1.9545473136491865e-06,3.2667,5.8667
1.83984375,6.590455483329515e-05,1.3173409460593575e-05,-2.9300444620431846e-05,-2.9451911406118824e-06,3.2667,5.8667
1.84375,7.469651879758908e-05,1.1708082133211235e-05,6.81677823758298e-06,9.76107341115437e-07,3.2667,5.8667
1.84765625,6.833988757457842e-05,1.560874220187685e-05,-2.4498692271305345e-06,4.876767409780996e-06,3.2667,5.8667
1.8515625,8.445848817578388e-05,1.414341487449451e-05,-1.0746511277943114e-05,2.9161181689173644e-06,3.2667,5.8667
1.85546875,0.00011717037287861444,-8.806500450141185e-06,-2.3934457224383946e-05,8.282105564965264e-06,3.2667,5.8667
1.859375,8.202315543450061e-05,-2.4429779137865295e-05,-1.4172487846189085e-05,1.4638736787975858e-05,3.2667,5.8667
1.86328125,7.713185153887235e-05,6.3420947371633356e-06,-2.4498692271305345e-06,1.806471335622183e-05,3.2667,5.8667
1.8671875,0.00011913102211947813,1.7074069529259133e-05,-2.9795766533913192e-05,2.246069533836879e-05,3.2667,5.8667
1.87109375,0.00010107241069047074,3.4114400823987124e-06,-2.736043379262992e-05,2.4896028079652068e-05,3.2667,5.8667
1.875,9.667642870832379e-05,1.2203404046692583e-05,-1.9043153328755634e-05,2.1965373424887445e-05,3.2667,5.8667
1.87890625,0.00010837840891432057,9.747432892347604e-06,-2.4498692271305345e-06,2.929201006179903e-05,3.2667,5.8667
1.8828125,0.00011326971280994889,1.1708082133211235e-05,2.6361355407034407e-05,3.80839740260929e-05,3.2667,5.8667
1.88671875,0.00010057708877698939,1.9530040683604168e-05,2.1965373424887445e-05,3.319267013046459e-05,3.2667,5.8667
1.890625,8.592381550316623e-05,-7.341173122758846e-06,-8.806500450141185e-06,2.6361355407034407e-05,3.2667,5.8667
1.89453125,8.055782810711833e-05,-1.514249326009002e-05,-9.281183950560774e-06,2.246069533836879e-05,3.2667,5.8667
1.8984375,0.00010790372541390092,1.7074069529259133e-05,2.0004724184023814e-05,2.4896028079652068e-05,3.2667,5.8667
1.90234375,0.0001406156101167315,2.246069533836879e-05,3.4657997457846933e-05,3.80839740260929e-05,3.2667,5.8667
1.90625,0.00012938831341115434,1.4638736787975858e-05,3.2222664716563657e-05,4.538997224994279e-05,3.2667,5.8667
1.91015625,0.00011766569479209578,1.1212760219729887e-05,2.3430700752269784e-05,3.758865211261156e-05,3.2667,5.8667
1.9140625,9.764643412222472e-05,1.4507908415350242e-06,2.4400706166170722e-05,4.1014628680857526e-05,3.2667,5.8667
1.91796875,7.76271734523537e-05,1.6599386028839545e-05,3.26973482169833e-05,3.6618646698710615e-05,3.2667,5.8667
1.921875,9.471577946746009e-05,2.929201006179903e-05,5.0776598059052385e-05,2.8301366234836334e-05,3.2667,5.8667
1.92578125,7.566652421149002e-05,-1.3677165932707737e-05,5.760791278248263e-05,2.929201006179903e-05,3.2667,5.8667
1.9296875,5.2716608886854315e-05,-1.7598464414435056e-05,5.907324010986491e-05,2.782668273441669e-05,3.2667,5.8667
1.93359375,3.80839740260929e-05,2.3430700752269784e-05,5.370725271381701e-05,2.7331360820935345e-05,3.2667,5.8667
1.9375,2.929201006179903e-05,2.2935378838788437e-05,4.051930676737618e-05,2.929201006179903e-05,3.2667,5.8667
1.94140625,1.9530040683604168e-05,9.27274939192796e-06,5.8577918196383616e-05,4.1984634094758515e-05,3.2667,5.8667
1.9453125,1.2203404046692583e-05,-4.885201968413867e-06,7.909250077973598e-05,3.905397943999389e-05,3.2667,5.8667
1.94921875,1.61040641153582e-05,-1.479863813229599e-06,4.148931218127717e-05,3.319267013046459e-05,3.2667,5.8667
1.953125,-5.17756764446479e-05,-4.892199862669031e-07,1.07380767193103e-05,3.416267554436558e-05,3.2667,5.8667
1.95703125,-9.815019059433891e-05,2.4414346684977204e-06,2.3905384252689372e-05,4.9311270731670104e-05,3.2667,5.8667
1.9609375,-9.961551792172122e-05,1.9530040683604168e-05,4.881594881818876e-05,4.881594881818876e-05,3.2667,5.8667
1.96484375,-0.00013185271912413216,2.246069533836879e-05,7.958782269321732e-05,3.2222664716563657e-05,3.2667,5.8667
1.96875,-0.00017090059663691157,-3.4198746410315264e-06,7.812249536583504e-05,3.7093330199130204e-05,3.2667,5.8667
1.97265625,-0.00020363311975280383,-8.806500450141185e-06,5.2716608886854315e-05,3.416267554436558e-05,3.2667,5.8667
1.9765625,-0.00021680042728618298,1.4507908415350242e-06,3.562800287174792e-05,3.4657997457846933e-05,3.2667,5.8667
1.98046875,-0.00022315705850919356,7.80742206454562e-06,5.907324010986491e-05,3.416267554436558e-05,3.2667,5.8667
1.984375,-0.00019091985730678265,2.0500046097505106e-05,6.053856743724725e-05,3.172734280308231e-05,3.2667,5.8667
1.98828125,-0.00016993059122301062,8.777427478446612e-06,5.028127614557104e-05,3.319267013046459e-05,3.2667,5.8667
1.9921875,-0.00014111936658884567,-2.9451911406118824e-06,5.418193621423666e-05,3.9549301353475245e-05,3.2667,5.8667
1.99609375,-7.71609245105669e-05,8.777427478446612e-06,5.224192538643473e-05,4.295463950865945e-05,3.2667,5.8667
2.0,-6.300297315022507e-05,1.1212760219729887e-05,4.9311270731670104e-05,4.6380616076905426e-05,3.2667,5.8667
2.00390625,-5.274568185854889e-05,3.4114400823987124e-06,4.978595423208969e-05,3.8558657526512546e-05,3.2667,5.8667
2.0078125,-4.931970529030292e-05,-1.514249326009002e-05,8.152783352101926e-05,3.0262015475699968e-05,3.2667,5.8667
2.01171875,-4.981502720378424e-05,-2.539978455176623e-05,6.346922209201187e-05,4.051930676737618e-05,3.2667,5.8667
2.015625,9.27274939192796e-06,-2.3934457224383946e-05,3.8558657526512546e-05,4.6380616076905426e-05,3.2667,5.8667
2.01953125,2.782668273441669e-05,-1.514249326009002e-05,4.34499614221408e-05,3.416267554436558e-05,3.2667,5.8667
2.0234375,4.381445496299648e-06,4.807854276340891e-07,4.34499614221408e-05,5.370725271381701e-05,3.2667,5.8667
2.02734375,-1.2707160518806745e-05,-9.776505864042122e-06,7.469651879758908e-05,4.832062690470741e-05,3.2667,5.8667
2.03125,-6.35052929579615e-06,-3.468707042954151e-05,6.590455483329515e-05,3.7093330199130204e-05,3.2667,5.8667
2.03515625,-7.341173122758846e-06,-2.736043379262992e-05,7.312100151064271e-06,6.053856743724725e-05,3.2667,5.8667
2.0390625,1.4638736787975858e-05,-2.4429779137865295e-05,6.3420947371633356e-06,6.396454400549323e-05,3.2667,5.8667
2.04296875,4.148931218127717e-05,-5.225035994506754e-05,4.538997224994279e-05,6.297390017853052e-05,3.2667,5.8667
2.046875,2.0004724184023814e-05,-2.9300444620431846e-05,3.416267554436558e-05,5.711259086900128e-05,3.2667,5.8667
2.05078125,5.370725271381701e-05,6.3420947371633356e-06,1.2678087547112227e-05,5.418193621423666e-05,3.2667,5.8667
2.0546875,9.471577946746009e-05,-5.6646341927214474e-05,-2.3934457224383946e-05,6.396454400549323e-05,3.2667,5.8667
2.05859375,9.568578488136108e-05,-8.789289930266272e-05,-7.326026444190128e-05,6.54092329198138e-05,3.2667,5.8667
2.0625,0.00010400306534523537,-7.326026444190128e-05,-6.007231849546045e-05,6.736988216067749e-05,3.2667,5.8667
2.06640625,0.00010740840350041957,-0.00010644683264515145,-4.3458395980773646e-05,6.833988757457842e-05,3.2667,5.8667
2.0703125,0.00012742766417029065,-0.00013428805186541543,-6.0547001995880066e-05,5.760791278248263e-05,3.2667,5.8667
2.07421875,0.0001420809374441138,-0.00015480263444876783,-9.91408344213016e-05,5.028127614557104e-05,3.2667,5.8667
2.078125,0.00015427823956359196,-0.00017139591855039291,-9.961551792172122e-05,5.418193621423666e-05,3.2667,5.8667
2.08203125,0.000149882257581445,-0.0001621292710856794,-8.349691732051576e-05,5.810323469596397e-05,3.2667,5.8667
2.0859375,0.00016307020352788584,-0.00017775254977340352,-9.375420861219197e-05,3.7093330199130204e-05,3.2667,5.8667
2.08984375,0.00017869348221560995,-0.00020753377982146945,-0.0001211001059189746,3.515331937132828e-05,3.2667,5.8667
2.09375,0.000176753471387808,-0.00023048369514610514,-0.00014405002124361028,3.6618646698710615e-05,3.2667,5.8667
2.09765625,0.00018994141733424884,-0.0002363450044556344,-0.00013917935576104372,2.3905384252689372e-05,3.2667,5.8667
2.1015625,0.00016942683475089642,-0.00020313779783932248,-0.00010987280921339743,3.416267554436558e-05,3.2667,5.8667
2.10546875,0.00016990151825131607,-0.00018994985189288167,-8.25269119066148e-05,3.0757337389181314e-05,3.2667,5.8667
2.109375,0.00020457405219501026,-0.00016309927649958038,-6.007231849546045e-05,2.0995368010986452e-05,3.2667,5.8667
2.11328125,0.00019431676090333403,-0.00012696141522850385,-4.981502720378424e-05,1.3668731374074923e-05,3.2667,5.8667
2.1171875,0.0001894460954207675,-0.00016503928732738234,-7.619091909666591e-05,-1.4536485847258972e-08,3.2667,5.8667
2.12109375,0.00016113019270008391,-0.00014991133055313954,-2.589510646524758e-05,-5.875845795376506e-06,3.2667,5.8667
2.125,0.00013671495004806587,-0.00011866477317769132,3.368799204394594e-05,-1.4172487846189085e-05,3.2667,5.8667
2.12890625,0.00011130906356908519,-0.00010498150531776914,4.002398485389483e-05,-3.0765771947814184e-05,3.2667,5.8667
2.1328125,0.00010057708877698939,-6.543830589150838e-05,3.123202088960096e-05,-4.444903980773634e-05,3.2667,5.8667
2.13671875,0.00012695298066987107,-4.444903980773634e-05,1.6599386028839545e-05,-5.274568185854889e-05,3.2667,5.8667
2.140625,9.178512481269547e-05,-4.54190452216373e-05,4.491528874952314e-05,-6.640831130540934e-05,3.2667,5.8667
2.14453125,9.521110138094144e-05,-5.4211009185931204e-05,6.297390017853052e-05,-7.765624642404822e-05,3.2667,5.8667
2.1484375,0.0001225569986877241,-3.4191748516060154e-05,4.002398485389483e-05,-8.056626266575113e-05,3.2667,5.8667
2.15234375,7.958782269321732e-05,-3.3221743102159165e-05,2.3905384252689372e-05,-9.181419778439005e-05,3.2667,5.8667
2.15625,7.323119147020673e-05,-2.589510646524758e-05,2.246069533836879e-05,-0.00011280346386816205,3.2667,5.8667
2.16015625,8.152783352101926e-05,8.777427478446612e-06,7.812249536583504e-05,-0.00012062542241855499,3.2667,5.8667
2.1640625,7.958782269321732e-05,2.0500046097505106e-05,0.00010107241069047074,-0.00010937748729991608,3.2667,5.8667
2.16796875,7.273586955672539e-05,1.414341487449451e-05,8.152783352101926e-05,-0.0001157341185229267,3.2667,5.8667
2.171875,6.346922209201187e-05,2.6361355407034407e-05,8.348848276188294e-05,-0.0001211001059189746,3.2667,5.8667
2.17578125,4.394528333562215e-05,6.0043245523765904e-05,9.814175603570607e-05,-0.0001196347785915923,3.2667,5.8667
2.1796875,2.976669356221862e-05,5.6142585455100285e-05,0.000127922986083772,-0.0001225654332463569,3.2667,5.8667
2.18359375,5.1251281559472034e-05,5.174660347295338e-05,0.00013035831882505527,-0.00010987280921339743,3.2667,5.8667
2.1875,5.4677258127718004e-05,9.814175603570607e-05,0.00012109167136034176,-0.00010743747647211415,3.2667,5.8667
2.19140625,2.976669356221862e-05,0.00011717037287861444,0.00011523036205081251,-0.0001157341185229267,3.2667,5.8667
2.1953125,2.9161181689173644e-06,0.0001049730707591363,0.00011277439089646753,-0.00010743747647211415,3.2667,5.8667
2.19921875,-2.4498692271305345e-06,0.00010790372541390092,0.00010447774884565496,-0.00010157616716258487,3.2667,5.8667
2.203125,1.903471877012282e-05,0.00011277439089646753,0.00011229970739604788,-9.76755070939193e-05,3.2667,5.8667
2.20703125,2.9161181689173644e-06,0.00011229970739604788,0.00011376503472343023,-9.571485785305563e-05,3.2667,5.8667
2.2109375,-1.3677165932707737e-05,0.00010887373082780192,0.00010837840891432057,-9.131887587090869e-05,3.2667,5.8667
2.21484375,-2.589510646524758e-05,0.00010936905274128327,0.00011083438006866555,-8.838822121614404e-05,3.2667,5.8667
2.21875,-2.003379715571833e-05,0.0001264576587563897,0.00012010102753337907,-9.131887587090869e-05,3.2667,5.8667
2.22265625,-1.173715510490581e-05,0.00012010102753337907,0.00012402232601510638,-8.789289930266272e-05,3.2667,5.8667
2.2265625,-1.7103142500953707e-05,0.0001264576587563897,0.00011962634403295948,-8.496224464789807e-05,3.2667,5.8667
2.23046875,-1.9545473136491865e-06,0.0001406156101167315,0.00011473504013733117,-8.448756114747845e-05,3.2667,5.8667
2.234375,-1.6133137087052714e-05,0.00012548765334248873,9.96070833630884e-05,-7.86262518379492e-05,3.2667,5.8667
2.23828125,-1.80731479148547e-05,0.00011863570020599677,9.128980289921411e-05,-7.080429328755628e-05,3.2667,5.8667
2.2421875,1.2203404046692583e-05,0.00013231896806591896,0.00010643839808651864,-6.593362780498972e-05,3.2667,5.8667
2.24609375,3.4114400823987124e-06,0.0001455069140123598,0.0001049730707591363,-6.690363321889069e-05,3.2667,5.8667
2.25,-1.80731479148547e-05,0.00015037757949492634,9.422045755397874e-05,-7.37349479423209e-05,3.2667,5.8667
2.25390625,-2.4904462638284884e-05,0.00013132832423895627,8.29931608484016e-05,-6.886428245975434e-05,3.2667,5.8667
2.2578125,-6.35052929579615e-06,0.00013425897889372088,8.445848817578388e-05,-5.95769965819791e-05,3.2667,5.8667
2.26171875,-9.281183950560774e-06,0.00015134758490882735,0.00010740840350041957,-6.0547001995880066e-05,3.2667,5.8667
2.265625,-1.9043153328755634e-05,0.00014257625935759516,0.00011130906356908519,-5.7636985754177173e-05,3.2667,5.8667
2.26953125,-2.736043379262992e-05,0.00013475430080720223,9.521110138094144e-05,-5.567633651331351e-05,3.2667,5.8667
2.2734375,-4.4923723308155954e-05,0.00013865496087586785,8.251847734798195e-05,-5.7636985754177173e-05,3.2667,5.8667
2.27734375,-2.1973807983520257e-05,0.00014158561553063247,7.958782269321732e-05,-5.128035453116658e-05,3.2667,5.8667
2.28125,2.9161181689173644e-06,0.00011180438548256654,8.105315002059967e-05,-4.298371248035403e-05,3.2667,5.8667
2.28515625,1.9461127550163724e-06,0.00010107241069047074,9.228044672617682e-05,-4.102306323949034e-05,3.2667,5.8667
2.2890625,-1.2707160518806745e-05,0.00011863570020599677,9.228044672617682e-05,-3.615239775692379e-05,3.2667,5.8667
2.29296875,-2.0508480656137976e-05,8.29931608484016e-05,8.006250619363697e-05,-3.565707584344244e-05,3.2667,5.8667
2.296875,-8.806500450141185e-06,8.006250619363697e-05,8.398380467536429e-05,-3.761772508430613e-05,3.2667,5.8667
2.30078125,-4.892199862669031e-07,8.689382091706722e-05,8.689382091706722e-05,-3.468707042954151e-05,3.2667,5.8667
2.3046875,4.807854276340891e-07,7.030053681544212e-05,9.667642870832379e-05,-3.126109386129553e-05,3.2667,5.8667
2.30859375,-6.845851209277498e-06,7.566652421149002e-05,8.788446474402991e-05,-3.126109386129553e-05,3.2667,5.8667
2.3125,9.76107341115437e-07,6.63998767467765e-05,4.978595423208969e-05,-3.3221743102159165e-05,3.2667,5.8667
2.31640625,3.8861235828183e-06,5.028127614557104e-05,4.588529416342407e-05,-2.589510646524758e-05,3.2667,5.8667
2.3203125,8.777427478446612e-06,8.83591482444495e-05,0.00010643839808651864,-2.3934457224383946e-05,3.2667,5.8667
2.32421875,4.051930676737618e-05,0.00012742766417029065,0.00014012028820325014,-3.712240317082478e-05,3.2667,5.8667
2.328125,9.747432892347604e-06,5.517258004119935e-05,6.63998767467765e-05,-3.3221743102159165e-05,3.2667,5.8667
2.33203125,1.2678087547112227e-05,2.586603349355306e-05,2.4414346684977204e-06,-3.126109386129553e-05,3.2667,5.8667
2.3359375,7.616184612497136e-05,7.812249536583504e-05,1.3668731374074923e-05,-3.906241399862671e-05,3.2667,5.8667
2.33984375,8.592381550316623e-05,6.053856743724725e-05,2.929201006179903e-05,-3.5161753929961096e-05,3.2667,5.8667
2.34375,0.00010301242151827267,4.34499614221408e-05,3.2222664716563657e-05,-4.151838515297169e-05,3.2667,5.8667
2.34765625,0.00010643839808651864,3.80839740260929e-05,-2.4498692271305345e-06,-4.931970529030292e-05,3.2667,5.8667
2.3515625,0.00010790372541390092,2.537071158007171e-05,-3.712240317082478e-05,-4.444903980773634e-05,3.2667,5.8667
2.35546875,0.00011962634403295948,4.295463950865945e-05,-9.281183950560774e-06,-4.981502720378424e-05,3.2667,5.8667
2.359375,0.00012402232601510638,5.028127614557104e-05,1.61040641153582e-05,-5.617165842679486e-05,3.2667,5.8667
2.36328125,0.00010936905274128327,6.200389476462959e-05,1.7074069529259133e-05,-6.446830047760742e-05,3.2667,5.8667
2.3671875,0.00010154709419089033,5.321193080033566e-05,1.9461127550163724e-06,-6.739895513237203e-05,3.2667,5.8667
2.37109375,0.00011913102211947813,5.4677258127718004e-05,9.747432892347604e-06,-6.300297315022507e-05,3.2667,5.8667
2.375,0.00013524962272068358,7.958782269321732e-05,1.07380767193103e-05,-6.153764582284276e-05,3.2667,5.8667
2.37890625,0.00013035831882505527,6.443922750591287e-05,6.81677823758298e-06,-5.274568185854889e-05,3.2667,5.8667
2.3828125,0.00010837840891432057,5.711259086900128e-05,4.588529416342407e-05,-4.4923723308155954e-05,3.2667,5.8667
2.38671875,0.00010693371999999998,7.519184071107043e-05,4.247995600823987e-05,-4.052774132600899e-05,3.2667,5.8667
2.390625,0.00010936905274128327,8.738914283054856e-05,1.2678087547112227e-05,-4.298371248035403e-05,3.2667,5.8667
2.39453125,0.00010643839808651864,8.641913741664757e-05,-5.875845795376506e-06,-3.712240317082478e-05,3.2667,5.8667
2.3984375,0.00011669568937819485,7.519184071107043e-05,-9.281183950560774e-06,-2.589510646524758e-05,3.2667,5.8667
2.40234375,0.00010107241069047074,6.54092329198138e-05,9.747432892347604e-06,-1.80731479148547e-05,3.2667,5.8667
2.40625,9.911176144960706e-05,5.760791278248263e-05,1.5134058701457206e-05,-1.027182777752347e-05,3.2667,5.8667
2.41015625,9.667642870832379e-05,4.7350621490806415e-05,7.312100151064271e-06,-5.380523881895215e-06,3.2667,5.8667
2.4140625,8.934979207141219e-05,5.663790736858163e-05,4.381445496299648e-06,-9.84541899748251e-07,3.2667,5.8667
2.41796875,9.814175603570607e-05,6.053856743724725e-05,1.0242754805828952e-05,7.80742206454562e-06,3.2667,5.8667
2.421875,6.590455483329515e-05,2.1965373424887445e-05,1.1708082133211235e-05,8.777427478446612e-06,3.2667,5.8667
2.42578125,6.297390017853052e-05,3.368799204394594e-05,2.1470051511406095e-05,1.2203404046692583e-05,3.2667,5.8667
2.4296875,9.667642870832379e-05,6.736988216067749e-05,4.588529416342407e-05,1.903471877012282e-05,3.2667,5.8667
2.43359375,8.152783352101926e-05,7.323119147020673e-05,5.1251281559472034e-05,1.8539396856641472e-05,3.2667,5.8667
2.4375,6.980521490196077e-05,7.079585872892346e-05,2.586603349355306e-05,2.4400706166170722e-05,3.2667,5.8667
2.44140625,6.833988757457842e-05,5.370725271381701e-05,1.7569391442740483e-05,3.562800287174792e-05,3.2667,5.8667
2.4453125,6.150857285114824e-05,2.8301366234836334e-05,1.2203404046692583e-05,3.9549301353475245e-05,3.2667,5.8667
2.44921875,5.028127614557104e-05,3.0262015475699968e-05,-4.892199862669031e-07,2.929201006179903e-05,3.2667,5.8667
2.453125,5.1251281559472034e-05,3.4657997457846933e-05,-4.885201968413867e-06,3.123202088960096e-05,3.2667,5.8667
2.45703125,4.394528333562215e-05,3.319267013046459e-05,-4.410518467994222e-06,4.34499614221408e-05,3.2667,5.8667
2.4609375,4.247995600823987e-05,5.418193621423666e-05,2.9161181689173644e-06,4.394528333562215e-05,3.2667,5.8667
2.46484375,6.200389476462959e-05,7.079585872892346e-05,1.0242754805828952e-05,4.394528333562215e-05,3.2667,5.8667
2.46875,5.224192538643473e-05,6.687456024719614e-05,2.0500046097505106e-05,4.34499614221408e-05,3.2667,5.8667
2.47265625,3.9549301353475245e-05,6.493454941939422e-05,5.35145091020064e-06,3.905397943999389e-05,3.2667,5.8667
2.4765625,3.80839740260929e-05,4.832062690470741e-05,-6.35052929579615e-06,4.1984634094758515e-05,3.2667,5.8667
2.48046875,4.538997224994279e-05,4.588529416342407e-05,1.5134058701457206e-05,4.394528333562215e-05,3.2667,5.8667
2.484375,5.9568562023346254e-05,4.9311270731670104e-05,1.6599386028839545e-05,4.002398485389483e-05,3.2667,5.8667
2.48828125,4.6380616076905426e-05,4.051930676737618e-05,-9.776505864042122e-06,3.758865211261156e-05,3.2667,5.8667
2.4921875,3.758865211261156e-05,4.978595423208969e-05,-9.84541899748251e-07,3.515331937132828e-05,3.2667,5.8667
2.49609375,2.0995368010986452e-05,5.8577918196383616e-05,2.6836038907453995e-05,3.758865211261156e-05,3.2667,5.8667
2.5,2.0995368010986452e-05,5.321193080033566e-05,1.4507908415350242e-06,4.295463950865945e-05,3.2667,5.8667
2.50390625,3.123202088960096e-05,4.295463950865945e-05,-1.027182777752347e-05,4.295463950865945e-05,3.2667,5.8667
2.5078125,2.537071158007171e-05,5.663790736858163e-05,6.3420947371633356e-06,4.002398485389483e-05,3.2667,5.8667
2.51171875,3.8558657526512546e-05,5.9568562023346254e-05,-6.845851209277498e-06,3.905397943999389e-05,3.2667,5.8667
2.515625,1.7569391442740483e-05,3.8558657526512546e-05,4.807854276340891e-07,4.002398485389483e-05,3.2667,5.8667
2.51953125,2.0004724184023814e-05,2.6836038907453995e-05,1.560874220187685e-05,4.394528333562215e-05,3.2667,5.8667
2.5234375,5.663790736858163e-05,1.6599386028839545e-05,3.123202088960096e-05,4.394528333562215e-05,3.2667,5.8667
2.52734375,3.9549301353475245e-05,1.560874220187685e-05,3.26973482169833e-05,4.491528874952314e-05,3.2667,5.8667
2.53125,3.6618646698710615e-05,2.4896028079652068e-05,-6.35052929579615e-06,5.370725271381701e-05,3.2667,5.8667
2.53515625,2.976669356221862e-05,3.0262015475699968e-05,-1.2211838605325397e-05,5.810323469596397e-05,3.2667,5.8667
2.5390625,3.515331937132828e-05,3.172734280308231e-05,-1.027182777752347e-05,4.832062690470741e-05,3.2667,5.8667
2.54296875,4.1014628680857526e-05,2.976669356221862e-05,1.9461127550163724e-06,4.148931218127717e-05,3.2667,5.8667
2.546875,2.3905384252689372e-05,5.321193080033566e-05,2.1470051511406095e-05,3.758865211261156e-05,3.2667,5.8667
2.55078125,1.1708082133211235e-05,4.7350621490806415e-05,2.7331360820935345e-05,4.34499614221408e-05,3.2667,5.8667
2.5546875,9.76107341115437e-07,2.1965373424887445e-05,7.312100151064271e-06,5.0776598059052385e-05,3.2667,5.8667
2.55859375,2.7331360820935345e-05,4.247995600823987e-05,-1.4667809759670433e-05,5.321193080033566e-05,3.2667,5.8667
2.5625,3.7093330199130204e-05,3.416267554436558e-05,-3.0765771947814184e-05,5.663790736858163e-05,3.2667,5.8667
2.56640625,2.246069533836879e-05,2.4896028079652068e-05,-2.8825761120012203e-05,6.053856743724725e-05,3.2667,5.8667
2.5703125,-2.4498692271305345e-06,4.7350621490806415e-05,-1.5637815173571368e-05,6.396454400549323e-05,3.2667,5.8667
2.57421875,-1.856846982833599e-05,4.051930676737618e-05,-2.1003802569619322e-05,6.1033889350728596e-05,3.2667,5.8667
2.578125,1.0242754805828952e-05,1.07380767193103e-05,-9.281183950560774e-06,5.028127614557104e-05,3.2667,5.8667
2.58203125,1.2678087547112227e-05,1.1708082133211235e-05,-4.885201968413867e-06,4.784594340428776e-05,3.2667,5.8667
2.5859375,1.07380767193103e-05,1.2203404046692583e-05,-2.9451911406118824e-06,5.418193621423666e-05,3.2667,5.8667
2.58984375,-2.9451911406118824e-06,6.3420947371633356e-06,-8.806500450141185e-06,5.418193621423666e-05,3.2667,5.8667
2.59375,-5.875845795376506e-06,2.3905384252689372e-05,-2.589510646524758e-05,5.2716608886854315e-05,3.2667,5.8667
2.59765625,-3.4198746410315264e-06,3.7093330199130204e-05,-1.80731479148547e-05,5.028127614557104e-05,3.2667,5.8667
2.6015625,-6.35052929579615e-06,1.560874220187685e-05,-5.875845795376506e-06,5.028127614557104e-05,3.2667,5.8667
2.60546875,1.2203404046692583e-05,1.560874220187685e-05,-4.885201968413867e-06,5.907324010986491e-05,3.2667,5.8667
2.609375,-1.6133137087052714e-05,1.6599386028839545e-05,-4.892199862669031e-07,6.493454941939422e-05,3.2667,5.8667
2.61328125,-2.4429779137865295e-05,9.27274939192796e-06,-4.885201968413867e-06,6.346922209201187e-05,3.2667,5.8667
2.6171875,7.80742206454562e-06,1.3668731374074923e-05,-2.2964451810482953e-05,6.200389476462959e-05,3.2667,5.8667
2.62109375,-9.281183950560774e-06,1.1212760219729887e-05,-1.173715510490581e-05,6.1033889350728596e-05,3.2667,5.8667
2.625,-8.311178536659837e-06,5.846772823681988e-06,9.27274939192796e-06,6.053856743724725e-05,3.2667,5.8667
2.62890625,-1.4172487846189085e-05,-2.1973807983520257e-05,-1.7598464414435056e-05,5.1251281559472034e-05,3.2667,5.8667
2.6328125,-2.3934457224383946e-05,-2.1003802569619322e-05,-2.2469129897001607e-05,5.418193621423666e-05,3.2667,5.8667
2.63671875,-1.2211838605325397e-05,-4.885201968413867e-06,-4.410518467994222e-06,6.053856743724725e-05,3.2667,5.8667
2.640625,-1.0746511277943114e-05,-1.0746511277943114e-05,-6.35052929579615e-06,5.564726354161894e-05,3.2667,5.8667
2.64453125,-2.2964451810482953e-05,-2.2469129897001607e-05,-7.81585662317849e-06,5.2716608886854315e-05,3.2667,5.8667
2.6484375,-4.199306865339133e-05,-3.3221743102159165e-05,-3.4198746410315264e-06,5.1251281559472034e-05,3.2667,5.8667
2.65234375,-2.6369789965667223e-05,-2.8825761120012203e-05,-5.875845795376506e-06,4.832062690470741e-05,3.2667,5.8667
2.65625,-1.173715510490581e-05,-1.660782058747236e-05,-1.173715510490581e-05,4.881594881818876e-05,3.2667,5.8667
2.66015625,-1.514249326009002e-05,-1.4172487846189085e-05,-4.410518467994222e-06,5.0776598059052385e-05,3.2667,5.8667
2.6640625,-2.686511187914857e-05,-1.027182777752347e-05,7.312100151064271e-06,5.663790736858163e-05,3.2667,5.8667
2.66796875,-3.0765771947814184e-05,-1.80731479148547e-05,-1.4172487846189085e-05,5.321193080033566e-05,3.2667,5.8667
2.671875,-2.1003802569619322e-05,-7.81585662317849e-06,-1.514249326009002e-05,3.0262015475699968e-05,3.2667,5.8667
2.67578125,-2.9795766533913192e-05,4.807854276340891e-07,1.4507908415350242e-06,3.80839740260929e-05,3.2667,5.8667
2.6796875,-2.7835117293049507e-05,-5.3241003772030235e-05,-4.005305782558941e-05,4.9311270731670104e-05,3.2667,5.8667
2.68359375,-2.34391353109026e-05,-0.00010205085066300451,-5.128035453116658e-05,3.8558657526512546e-05,3.2667,5.8667
2.6875,-1.2211838605325397e-05,-7.86262518379492e-05,-2.1003802569619322e-05,3.2222664716563657e-05,3.2667,5.8667
2.69140625,-1.7598464414435056e-05,-6.347765665064471e-05,-2.6369789965667223e-05,3.368799204394594e-05,3.2667,5.8667
2.6953125,-1.660782058747236e-05,-7.472559176928359e-05,-3.662708125734343e-05,4.1984634094758515e-05,3.2667,5.8667
2.69921875,1.9530040683604168e-05,-9.131887587090869e-05,-5.225035994506754e-05,4.7350621490806415e-05,3.2667,5.8667
2.703125,-9.776505864042122e-06,-0.00010498150531776914,-5.910231308155948e-05,4.051930676737618e-05,3.2667,5.8667
2.70703125,-2.1003802569619322e-05,-0.00011036813112687878,-4.931970529030292e-05,4.295463950865945e-05,3.2667,5.8667
2.7109375,1.4638736787975858e-05,-0.0001362487011062791,-8.106158457923249e-05,5.6142585455100285e-05,3.2667,5.8667
2.71484375,1.1708082133211235e-05,-0.00013818871193408102,-0.00010401149990386818,5.321193080033566e-05,3.2667,5.8667
2.71875,1.2203404046692583e-05,-0.00015088133596704052,-0.00010937748729991608,5.6142585455100285e-05,3.2667,5.8667
2.72265625,1.9461127550163724e-06,-0.00016503928732738234,-0.0001123081419546807,5.564726354161894e-05,3.2667,5.8667
2.7265625,-3.4198746410315264e-06,-0.0001377140284336614,-8.838822121614404e-05,5.028127614557104e-05,3.2667,5.8667
2.73046875,-1.2707160518806745e-05,-0.00011133813654077974,-7.86262518379492e-05,5.711259086900128e-05,3.2667,5.8667
2.734375,-1.856846982833599e-05,-0.0001352580572793164,-0.00010498150531776914,7.030053681544212e-05,3.2667,5.8667
2.73828125,-3.369642660257881e-05,-0.0001494160086396582,-8.741821580224308e-05,7.079585872892346e-05,3.2667,5.8667
2.7421875,-6.153764582284276e-05,-9.76755070939193e-05,-2.9300444620431846e-05,5.907324010986491e-05,3.2667,5.8667
2.74609375,-4.199306865339133e-05,-5.5181014599832166e-05,-1.856846982833599e-05,6.346922209201187e-05,3.2667,5.8667
2.75,-3.809240858472572e-05,-5.0310349117265585e-05,-1.3677165932707737e-05,7.079585872892346e-05,3.2667,5.8667
2.75390625,-6.397297856412607e-05,-1.7598464414435056e-05,3.4657997457846933e-05,6.736988216067749e-05,3.2667,5.8667
2.7578125,-6.347765665064471e-05,3.0262015475699968e-05,7.519184071107043e-05,5.370725271381701e-05,3.2667,5.8667
2.76171875,-5.7636985754177173e-05,5.224192538643473e-05,0.00010008176686350804,4.832062690470741e-05,3.2667,5.8667
2.765625,-4.54190452216373e-05,5.321193080033566e-05,0.00012402232601510638,5.8577918196383616e-05,3.2667,5.8667
2.76953125,-5.371568727244985e-05,8.105315002059967e-05,0.0001601395488731212,5.8577918196383616e-05,3.2667,5.8667
2.7734375,-4.395371789425499e-05,0.0001103390581551842,0.00017869348221560995,4.9311270731670104e-05,3.2667,5.8667
2.77734375,-4.298371248035403e-05,0.00011473504013733117,0.00019724741555809868,4.247995600823987e-05,3.2667,5.8667
2.78125,-5.3241003772030235e-05,0.00013475430080720223,0.00022801928943312725,4.9311270731670104e-05,3.2667,5.8667
2.78515625,-5.5181014599832166e-05,0.0001684568293369955,0.0002631665068772411,5.1251281559472034e-05,3.2667,5.8667
2.7890625,-5.371568727244985e-05,0.00022019733088273437,0.0003090663375265125,4.002398485389483e-05,3.2667,5.8667
2.79296875,-3.565707584344244e-05,0.0002470685446890974,0.0002871070660288395,4.1984634094758515e-05,3.2667,5.8667
2.796875,-5.128035453116658e-05,0.00022558395669184403,0.00025536518673990996,4.588529416342407e-05,3.2667,5.8667
2.80078125,-4.54190452216373e-05,0.00024657322277561603,0.0002890470768566414,4.247995600823987e-05,3.2667,5.8667
2.8046875,-1.3202482432288093e-05,0.00027538444740978104,0.0003227496053864347,3.758865211261156e-05,3.2667,5.8667
2.80859375,-1.9538475242236984e-05,0.0002685531326863507,0.0003110269867673762,4.1014628680857526e-05,3.2667,5.8667
2.8125,-2.686511187914857e-05,0.00025437454291294727,0.0003124923140947585,5.321193080033566e-05,3.2667,5.8667
2.81640625,-3.175641577477682e-05,0.00026902781618677043,0.0003344722240054932,5.0776598059052385e-05,3.2667,5.8667
2.8203125,-1.0746511277943114e-05,0.0002890470768566414,0.00032665026545510034,4.6380616076905426e-05,3.2667,5.8667
2.82421875,1.07380767193103e-05,0.00028172044021972987,0.00032518493812771793,5.1251281559472034e-05,3.2667,5.8667
2.828125,7.80742206454562e-06,0.00028172044021972987,0.0003422735441428244,5.907324010986491e-05,3.2667,5.8667
2.83203125,5.35145091020064e-06,0.00027391912008239863,0.00033007624202334624,5.9568562023346254e-05,3.2667,5.8667
2.8359375,-4.410518467994222e-06,0.0002685531326863507,0.0003158976522499428,6.396454400549323e-05,3.2667,5.8667
2.83984375,2.8796688148317684e-05,0.0002695231381002518,0.0003207889561455711,7.030053681544212e-05,3.2667,5.8667
2.84375,5.028127614557104e-05,0.0002651271561181048,0.00031298763600823987,7.226118605630574e-05,3.2667,5.8667
2.84765625,3.0262015475699968e-05,0.00025829584139467455,0.00030223502280308227,8.105315002059967e-05,3.2667,5.8667
2.8515625,6.81677823758298e-06,0.00023681125339742118,0.0002851464167879759,8.83591482444495e-05,3.2667,5.8667
2.85546875,1.0242754805828952e-05,0.00023875126422522315,0.0002631665068772411,8.982447557183183e-05,3.2667,5.8667
2.859375,2.782668273441669e-05,0.00022558395669184403,0.00024900855551689935,0.00010154709419089033,3.2667,5.8667
2.86328125,5.35145091020064e-06,0.000202138719453727,0.0002392465861387045,0.00010984373624170291,3.2667,5.8667
2.8671875,-9.281183950560774e-06,0.00019677273205767908,0.0002285146113466086,0.00011326971280994889,3.2667,5.8667
2.87109375,-1.9538475242236984e-05,0.00018651544076600288,0.0002260586401922636,0.00011913102211947813,3.2667,5.8667
2.875,-2.589510646524758e-05,0.00020164339754024564,0.00022801928943312725,0.00012839766958419165,3.2667,5.8667
2.87890625,-2.1973807983520257e-05,0.000202138719453727,0.00022312798553749904,0.00013768495546196685,3.2667,5.8667
2.8828125,-8.806500450141185e-06,0.00018505011343862053,0.000201168714039826,0.00013671495004806587,3.2667,5.8667
2.88671875,-1.479863813229599e-06,0.00016699150200961315,0.00017039684016479742,0.00013621962813458453,3.2667,5.8667
2.890625,-2.1499124483100672e-05,0.00014744692484016173,0.00016259552002746618,0.00014305094285801476,3.2667,5.8667
2.89453125,-9.776505864042122e-06,0.00012839766958419165,0.0001518429068223087,0.00014794224675364307,3.2667,5.8667
2.8984375,3.416267554436558e-05,0.00013279365156633854,0.00013768495546196685,0.00014697224133974207,3.2667,5.8667
2.90234375,5.4677258127718004e-05,0.0001406156101167315,0.00014598159751277938,0.0001508729014084077,3.2667,5.8667
2.90625,7.273586955672539e-05,0.00011913102211947813,0.00013768495546196685,0.00015819953804531927,3.2667,5.8667
2.91015625,3.9549301353475245e-05,9.374577405355916e-05,0.00011962634403295948,0.00016453553085526816,3.2667,5.8667
2.9140625,2.976669356221862e-05,0.00010693371999999998,0.00011962634403295948,0.0001718621674921797,3.2667,5.8667
2.91796875,4.247995600823987e-05,0.00011130906356908519,0.00011570504555123216,0.00017722815488822766,3.2667,5.8667
2.921875,1.1212760219729887e-05,0.00010350774343175402,0.00011669568937819485,0.00018505011343862053,3.2667,5.8667
2.92578125,-5.4211009185931204e-05,0.00011130906356908519,0.00012303168218814368,0.0001874854461799038,3.2667,5.8667
2.9296875,-9.961551792172122e-05,0.00010107241069047074,0.00010693371999999998,0.00018455479152513918,3.2667,5.8667
2.93359375,-9.181419778439005e-05,8.202315543450061e-05,9.471577946746009e-05,0.00017722815488822766,3.2667,5.8667
2.9375,-0.0001723659239642939,7.519184071107043e-05,7.030053681544212e-05,0.00016893151283741507,3.2667,5.8667
2.94140625,-0.0002905414771557183,8.495381008926522e-05,5.760791278248263e-05,0.00017625814947432665,3.2667,5.8667
2.9453125,-0.0003037087846890974,9.618110679484243e-05,6.396454400549323e-05,0.00017821879871519035,3.2667,5.8667
2.94921875,-0.0002876108225009537,9.178512481269547e-05,6.297390017853052e-05,0.00016990151825131607,3.2667,5.8667
2.953125,-0.000260264925194171,7.079585872892346e-05,6.053856743724725e-05,0.00016063487078660257,3.2667,5.8667
2.95703125,-0.0002729575492271305,6.443922750591287e-05,5.174660347295338e-05,0.00015233822873579004,3.2667,5.8667
2.9609375,-0.00028711550058747236,8.29931608484016e-05,6.736988216067749e-05,0.00015574356689097426,3.2667,5.8667
2.96484375,-0.0002885808279148546,6.883520948805977e-05,6.200389476462959e-05,0.00016406084735484853,3.2667,5.8667
2.96875,-0.0002885808279148546,5.1251281559472034e-05,4.441996683604179e-05,0.00016210019811398484,3.2667,5.8667
2.97265625,-0.0002753928819684138,5.418193621423666e-05,4.685529957732507e-05,0.00015966486537270157,3.2667,5.8667
2.9765625,-0.00027685820929579613,6.297390017853052e-05,4.978595423208969e-05,0.00015330823414969096,3.2667,5.8667
2.98046875,-0.0003285987108415351,5.2716608886854315e-05,5.711259086900128e-05,0.0001445162701853971,3.2667,5.8667
2.984375,-0.00040427977153887235,5.321193080033566e-05,6.053856743724725e-05,0.00014257625935759516,3.2667,5.8667
2.98828125,-0.00041210173008926525,6.1033889350728596e-05,4.295463950865945e-05,0.0001308536407385366,3.2667,5.8667
2.9921875,-0.00038719116552376586,5.321193080033566e-05,2.7331360820935345e-05,0.00012499233142900738,3.2667,5.8667
2.99609375,-0.000431625668845655,5.2716608886854315e-05,2.1965373424887445e-05,0.000127922986083772,3.2667,5.8667
3.0,-0.0004799608322362096,5.907324010986491e-05,4.1014628680857526e-05,0.00012109167136034176,3.2667,5.8667
3.00390625,-0.0005292866394537271,5.8577918196383616e-05,4.441996683604179e-05,0.00012010102753337907,3.2667,5.8667
3.0078125,-0.0005756817920164796,5.4677258127718004e-05,3.562800287174792e-05,0.00011816101670557713,3.2667,5.8667
3.01171875,-0.0005854437613946745,5.6142585455100285e-05,3.80839740260929e-05,0.00010107241069047074,3.2667,5.8667
3.015625,-0.000598136385427634,5.517258004119935e-05,4.6380616076905426e-05,9.325045214007781e-05,3.2667,5.8667
3.01953125,-0.000648906881559472,6.249921667811093e-05,4.685529957732507e-05,9.568578488136108e-05,3.2667,5.8667
3.0234375,-0.0007040939980865186,6.833988757457842e-05,4.832062690470741e-05,9.178512481269547e-05,3.2667,5.8667
3.02734375,-0.0006904107302265964,4.588529416342407e-05,4.9311270731670104e-05,9.422045755397874e-05,3.2667,5.8667
3.03125,-0.0007123906401373311,3.2222664716563657e-05,4.441996683604179e-05,0.00010936905274128327,3.2667,5.8667
3.03515625,-0.0007494985068223085,4.002398485389483e-05,4.247995600823987e-05,0.00012499233142900738,3.2667,5.8667
3.0390625,-0.0007416971866849775,4.881594881818876e-05,3.2222664716563657e-05,0.0001371896335484855,3.2667,5.8667
3.04296875,-0.0007226479314290074,5.517258004119935e-05,3.8558657526512546e-05,0.00014257625935759516,3.2667,5.8667
3.046875,-0.00067332212421149,3.368799204394594e-05,5.224192538643473e-05,0.00014940757408102534,3.2667,5.8667
3.05078125,-0.0006572241620233462,1.9530040683604168e-05,4.881594881818876e-05,0.0001528129122362096,3.2667,5.8667
3.0546875,-0.0006601548166781109,3.612332478522927e-05,4.538997224994279e-05,0.00015673421071793695,3.2667,5.8667
3.05859375,-0.0006831047320027466,4.295463950865945e-05,3.9549301353475245e-05,0.00015574356689097426,3.2667,5.8667
3.0625,-0.0007031239926726178,3.9549301353475245e-05,4.34499614221408e-05,0.00014940757408102534,3.2667,5.8667
3.06640625,-0.000717756627533379,3.123202088960096e-05,6.200389476462959e-05,0.00014744692484016173,3.2667,5.8667
3.0703125,-0.0007079946581551842,3.26973482169833e-05,5.517258004119935e-05,0.00014404158668497745,3.2667,5.8667
3.07421875,-0.0006713821133836881,4.051930676737618e-05,4.784594340428776e-05,0.00014647691942626072,3.2667,5.8667
3.078125,-0.0007275185969115739,3.172734280308231e-05,4.002398485389483e-05,0.00014647691942626072,3.2667,5.8667
3.08203125,-0.0007314398953933012,2.8301366234836334e-05,2.4896028079652068e-05,0.00014697224133974207,3.2667,5.8667
3.0859375,-0.0006420755668360418,5.370725271381701e-05,2.8301366234836334e-05,0.00015037757949492634,3.2667,5.8667
3.08984375,-0.0006074030328923475,5.810323469596397e-05,3.612332478522927e-05,0.00014940757408102534,3.2667,5.8667
3.09375,-0.0005932450815320057,3.319267013046459e-05,3.123202088960096e-05,0.0001508729014084077,3.2667,5.8667
3.09765625,-0.0005844531175677118,2.782668273441669e-05,2.8301366234836334e-05,0.000149882257581445,3.2667,5.8667
3.1015625,-0.0005639591733974211,4.1014628680857526e-05,3.515331937132828e-05,0.00014744692484016173,3.2667,5.8667
3.10546875,-0.0005576025421744107,3.0262015475699968e-05,3.4657997457846933e-05,0.0001445162701853971,3.2667,5.8667
3.109375,-0.0005556625313466086,2.782668273441669e-05,3.123202088960096e-05,0.0001420809374441138,3.2667,5.8667
3.11328125,-0.0005449099181414511,3.416267554436558e-05,4.34499614221408e-05,0.000149882257581445,3.2667,5.8667
3.1171875,-0.000554671887519646,4.295463950865945e-05,5.4677258127718004e-05,0.00015330823414969096,3.2667,5.8667
3.12109375,-0.0005097627006973373,4.784594340428776e-05,4.538997224994279e-05,0.00015916954345922022,3.2667,5.8667
3.125,-0.0004780208214084077,3.905397943999389e-05,5.0776598059052385e-05,0.0001728321729060807,3.2667,5.8667
3.12890625,-0.0005092673787838559,4.784594340428776e-05,4.9311270731670104e-05,0.00017235748940566106,3.2667,5.8667
3.1328125,-0.0005034060694743267,3.9549301353475245e-05,2.929201006179903e-05,0.00016210019811398484,3.2667,5.8667
3.13671875,-0.0004902181235278858,3.7093330199130204e-05,3.562800287174792e-05,0.0001664961800961318,3.2667,5.8667
3.140625,-0.00047948614873579,8.251847734798195e-05,6.346922209201187e-05,0.00016942683475089642,3.2667,5.8667
3.14453125,-0.0004741201613397421,6.883520948805977e-05,6.1033889350728596e-05,0.00016699150200961315,3.2667,5.8667
3.1484375,-0.0004799608322362096,3.562800287174792e-05,5.0776598059052385e-05,0.0001728321729060807,3.2667,5.8667
3.15234375,-0.0004736248394262608,4.247995600823987e-05,5.321193080033566e-05,0.00016259552002746618,3.2667,5.8667
3.15625,-0.00042479435412222475,5.517258004119935e-05,4.881594881818876e-05,0.00014501159209887846,3.2667,5.8667
3.16015625,-0.00037889452347295336,6.0043245523765904e-05,5.224192538643473e-05,0.00011913102211947813,3.2667,5.8667
3.1640625,-0.00035984526821698326,5.418193621423666e-05,4.978595423208969e-05,0.00012010102753337907,3.2667,5.8667
3.16796875,-0.00030954945558556493,5.370725271381701e-05,2.537071158007171e-05,0.00012695298066987107,3.2667,5.8667
3.171875,-0.0003051741120164797,3.758865211261156e-05,1.2678087547112227e-05,0.00010984373624170291,3.2667,5.8667
3.17578125,-0.000291016160656138,2.976669356221862e-05,1.806471335622183e-05,0.00010740840350041957,3.2667,5.8667
3.1796875,-0.00022266173659571222,4.832062690470741e-05,1.61040641153582e-05,0.00010594307617303729,3.2667,5.8667
3.18359375,-0.00023194902247348744,5.517258004119935e-05,2.3905384252689372e-05,0.00010936905274128327,3.2667,5.8667
3.1875,-0.0002539082939711604,3.319267013046459e-05,2.537071158007171e-05,0.00012109167136034176,3.2667,5.8667
3.19140625,-0.0002431763191790646,4.588529416342407e-05,9.27274939192796e-06,0.00012548765334248873,3.2667,5.8667
3.1953125,-0.00023584968254215306,8.006250619363697e-05,1.6599386028839545e-05,0.0001308536407385366,3.2667,5.8667
3.19921875,-0.0002505029558159762,6.883520948805977e-05,3.515331937132828e-05,0.00013328897347981988,3.2667,5.8667
3.203125,-0.00027052221648584724,4.247995600823987e-05,3.0262015475699968e-05,0.00012938831341115434,3.2667,5.8667
3.20703125,-0.000304183468189517,4.051930676737618e-05,3.172734280308231e-05,0.00012499233142900738,3.2667,5.8667
3.2109375,-0.0003481432880109865,3.26973482169833e-05,3.0757337389181314e-05,0.00012449700951552603,3.2667,5.8667
3.21484375,-0.0003251933726863508,4.295463950865945e-05,2.7331360820935345e-05,0.00013132832423895627,3.2667,5.8667
3.21875,-0.00030564879551689937,4.148931218127717e-05,3.905397943999389e-05,0.0001371896335484855,3.2667,5.8667
3.22265625,-0.0003461826387701228,4.002398485389483e-05,4.295463950865945e-05,0.00014647691942626072,3.2667,5.8667
3.2265625,-0.00038768648743724724,5.760791278248263e-05,4.6380616076905426e-05,0.00015673421071793695,3.2667,5.8667
3.23046875,-0.0004057450988662547,5.0776598059052385e-05,3.416267554436558e-05,0.00016063487078660257,3.2667,5.8667
3.234375,-0.00039794377872892346,3.7093330199130204e-05,6.3420947371633356e-06,0.00016406084735484853,3.2667,5.8667
3.23828125,-0.00041356705741664755,2.6361355407034407e-05,7.312100151064271e-06,0.00016210019811398484,3.2667,5.8667
3.2421875,-0.0004086757535210193,2.0004724184023814e-05,2.1965373424887445e-05,0.0001547735614770733,3.2667,5.8667
3.24609375,-0.0004326163126726177,3.8558657526512546e-05,3.758865211261156e-05,0.0001508729014084077,3.2667,5.8667
3.25,-0.00044237828205081255,3.172734280308231e-05,2.976669356221862e-05,0.0001435462647714961,3.2667,5.8667
3.25390625,-0.00043408164,2.3905384252689372e-05,1.3668731374074923e-05,0.00013425897889372088,3.2667,5.8667
3.2578125,-0.0004335863180865186,5.0776598059052385e-05,1.4638736787975858e-05,0.00012499233142900738,3.2667,5.8667
3.26171875,-0.0004008744333836881,5.0776598059052385e-05,2.537071158007171e-05,0.00012695298066987107,3.2667,5.8667
3.265625,-0.00042382434870832377,2.929201006179903e-05,2.929201006179903e-05,0.00013621962813458453,3.2667,5.8667
3.26953125,-0.00044384360937819485,2.1470051511406095e-05,1.560874220187685e-05,0.0001445162701853971,3.2667,5.8667
3.2734375,-0.00039891378414282444,2.7331360820935345e-05,1.8539396856641472e-05,0.0001528129122362096,3.2667,5.8667
3.27734375,-0.0003886564928511482,3.0262015475699968e-05,4.295463950865945e-05,0.00015037757949492634,3.2667,5.8667
3.28125,-0.0003930524748332952,2.8796688148317684e-05,5.028127614557104e-05,0.00014697224133974207,3.2667,5.8667
3.28515625,-0.0003940224802471961,2.4400706166170722e-05,4.002398485389483e-05,0.00014158561553063247,3.2667,5.8667
3.2890625,-0.0003759638688181887,3.26973482169833e-05,3.172734280308231e-05,0.00013132832423895627,3.2667,5.8667
3.29296875,-0.0003520439480796521,1.903471877012282e-05,1.2203404046692583e-05,0.00012206167677424275,3.2667,5.8667
3.296875,-0.00034568731685664147,-1.9545473136491865e-06,2.4414346684977204e-06,0.00012109167136034176,3.2667,5.8667
3.30078125,-0.0003422819787014572,1.9530040683604168e-05,2.6836038907453995e-05,0.00013182364615243761,3.2667,5.8667
3.3046875,-0.00034667796068360416,4.247995600823987e-05,2.8796688148317684e-05,0.00014012028820325014,3.2667,5.8667
3.30859375,-0.00032372804535896844,3.6618646698710615e-05,1.5134058701457206e-05,0.00014940757408102534,3.2667,5.8667
3.3125,-0.00033396469823758295,3.416267554436558e-05,1.6599386028839545e-05,0.00015330823414969096,3.2667,5.8667
3.31640625,-0.00034960861533836875,3.4657997457846933e-05,2.6836038907453995e-05,0.000149882257581445,3.2667,5.8667
3.3203125,-0.00033982600754711224,3.2222664716563657e-05,3.319267013046459e-05,0.000148912252167544,3.2667,5.8667
3.32421875,-0.00034764796609750514,3.562800287174792e-05,3.6618646698710615e-05,0.0001455069140123598,3.2667,5.8667
3.328125,-0.00032566805618677045,2.976669356221862e-05,3.319267013046459e-05,0.000149882257581445,3.2667,5.8667
3.33203125,-0.00032713338351415274,2.8796688148317684e-05,1.7569391442740483e-05,0.00015526888339055465,3.2667,5.8667
3.3359375,-0.0003105400994125276,2.4400706166170722e-05,-2.4498692271305345e-06,0.00014794224675364307,3.2667,5.8667
3.33984375,-0.00032079739070420385,-3.9151965545128744e-06,4.381445496299648e-06,0.0001420809374441138,3.2667,5.8667
3.34375,-0.0003359253474784466,-6.35052929579615e-06,2.1470051511406095e-05,0.0001420809374441138,3.2667,5.8667
3.34765625,-0.00033836068021972994,1.3668731374074923e-05,2.586603349355306e-05,0.00013865496087586785,3.2667,5.8667
3.3515625,-0.00033495534206454564,1.9530040683604168e-05,2.4896028079652068e-05,0.00013671495004806587,3.2667,5.8667
3.35546875,-0.0003173714141359579,3.0262015475699968e-05,7.312100151064271e-06,0.0001381802773754482,3.2667,5.8667
3.359375,-0.0003378859967193103,4.685529957732507e-05,1.6599386028839545e-05,0.00014012028820325014,3.2667,5.8667
3.36328125,-0.00030663943934386206,5.370725271381701e-05,3.319267013046459e-05,0.0001435462647714961,3.2667,5.8667
3.3671875,-0.0002524429666437781,3.9549301353475245e-05,2.4400706166170722e-05,0.00014647691942626072,3.2667,5.8667
3.37109375,-0.0002534336104707408,2.0500046097505106e-05,1.6599386028839545e-05,0.00014404158668497745,3.2667,5.8667
3.375,-0.00023584968254215306,9.27274939192796e-06,2.6361355407034407e-05,0.0001455069140123598,3.2667,5.8667
3.37890625,-0.00021925639844052794,2.4896028079652068e-05,3.6618646698710615e-05,0.00014647691942626072,3.2667,5.8667
3.3828125,-0.00019288050654764629,4.441996683604179e-05,2.976669356221862e-05,0.00014158561553063247,3.2667,5.8667
3.38671875,-0.00017969256060120544,3.416267554436558e-05,2.4400706166170722e-05,0.00014012028820325014,3.2667,5.8667
3.390625,-0.00017921787710078587,1.2678087547112227e-05,1.1212760219729887e-05,0.0001445162701853971,3.2667,5.8667
3.39453125,-0.00018458386449683376,3.4114400823987124e-06,1.0242754805828952e-05,0.0001420809374441138,3.2667,5.8667
3.3984375,-0.00019727648852979325,2.0500046097505106e-05,2.929201006179903e-05,0.0001391502827893492,3.2667,5.8667
3.40234375,-0.00015723796719005112,3.562800287174792e-05,4.295463950865945e-05,0.00013572430622110318,3.2667,5.8667
3.40625,-0.00012062542241855499,3.4657997457846933e-05,3.123202088960096e-05,0.00012449700951552603,3.2667,5.8667
3.41015625,-0.00013086207529716947,2.3430700752269784e-05,1.2678087547112227e-05,0.00012449700951552603,3.2667,5.8667
3.4140625,-0.00013185271912413216,-7.341173122758846e-06,1.3173409460593575e-05,0.00012742766417029065,3.2667,5.8667
3.41796875,-0.00012939674796978715,1.7569391442740483e-05,3.0757337389181314e-05,0.00011962634403295948,3.2667,5.8667
3.421875,-0.00010987280921339743,4.881594881818876e-05,4.685529957732507e-05,0.00012059634944686041,3.2667,5.8667
3.42578125,-0.0001225654332463569,2.976669356221862e-05,4.002398485389483e-05,0.00012303168218814368,3.2667,5.8667
3.4296875,-0.0001494160086396582,2.6361355407034407e-05,2.0995368010986452e-05,0.00012303168218814368,3.2667,5.8667
3.43359375,-0.00014894132513923857,2.0004724184023814e-05,3.26973482169833e-05,0.0001308536407385366,3.2667,5.8667
3.4375,-0.00015088133596704052,-9.776505864042122e-06,5.028127614557104e-05,0.00013182364615243761,3.2667,5.8667
3.44140625,-0.00015527731794918748,3.4114400823987124e-06,2.4400706166170722e-05,0.0001371896335484855,3.2667,5.8667
3.4453125,-0.0001591986164309148,5.8577918196383616e-05,2.8301366234836334e-05,0.00013475430080720223,3.2667,5.8667
3.44921875,-0.00014355469933012894,1.3668731374074923e-05,3.4657997457846933e-05,0.00013425897889372088,3.2667,5.8667
3.453125,-0.00017432657320515756,-2.686511187914857e-05,2.0004724184023814e-05,0.00014305094285801476,3.2667,5.8667
3.45703125,-0.00017775254977340352,1.9461127550163724e-06,1.6599386028839545e-05,0.00014305094285801476,3.2667,5.8667
3.4609375,-0.00013721870652018005,1.7074069529259133e-05,1.806471335622183e-05,0.0001455069140123598,3.2667,5.8667
3.46484375,-0.00017090059663691157,3.7093330199130204e-05,3.0757337389181314e-05,0.0001391502827893492,3.2667,5.8667
3.46875,-0.0001811578879285878,1.903471877012282e-05,3.4657997457846933e-05,0.00012986299691157392,3.2667,5.8667
3.47265625,-0.0001752965786190585,4.807854276340891e-07,4.6380616076905426e-05,0.00012938831341115434,3.2667,5.8667
3.4765625,-0.00016553460924086365,1.6599386028839545e-05,5.2716608886854315e-05,0.00013475430080720223,3.2667,5.8667
3.48046875,-0.00014111936658884567,2.976669356221862e-05,5.174660347295338e-05,0.00013621962813458453,3.2667,5.8667
3.484375,-0.00015577263986266883,3.6618646698710615e-05,4.9311270731670104e-05,0.00012402232601510638,3.2667,5.8667
3.48828125,-0.00019044517380636302,1.7569391442740483e-05,4.1984634094758515e-05,0.0001215663548607614,3.2667,5.8667
3.4921875,-0.00020996911256275272,-2.1499124483100672e-05,4.832062690470741e-05,0.0001215663548607614,3.2667,5.8667
3.49609375,-0.00016896058580910964,-3.4198746410315264e-06,5.321193080033566e-05,0.00011717037287861444,3.2667,5.8667
3.5,-0.0001157341185229267,3.368799204394594e-05,5.8577918196383616e-05,0.00011913102211947813,3.2667,5.8667
3.50390625,-0.00011916009509117268,4.051930676737618e-05,5.321193080033566e-05,0.00011180438548256654,3.2667,5.8667
3.5078125,-0.00013135739721065081,7.958782269321732e-05,3.8558657526512546e-05,0.00010057708877698939,3.2667,5.8667
3.51171875,-0.00013818871193408102,4.051930676737618e-05,4.491528874952314e-05,9.96070833630884e-05,3.2667,5.8667
3.515625,-0.0001123081419546807,-2.9451911406118824e-06,4.002398485389483e-05,0.00010253773801785303,3.2667,5.8667
3.51953125,-0.00011377346928206301,3.758865211261156e-05,2.7331360820935345e-05,0.00010253773801785303,3.2667,5.8667
3.5234375,-0.00010644683264515145,4.002398485389483e-05,2.6836038907453995e-05,9.325045214007781e-05,3.2667,5.8667
3.52734375,-0.00011426879119554437,2.537071158007171e-05,4.1984634094758515e-05,8.934979207141219e-05,3.2667,5.8667
3.53125,-0.0001211001059189746,2.4896028079652068e-05,5.0776598059052385e-05,9.275513022659646e-05,3.2667,5.8667
3.53515625,-8.741821580224308e-05,1.2678087547112227e-05,3.515331937132828e-05,8.934979207141219e-05,3.2667,5.8667
3.5390625,-7.129961520103762e-05,2.537071158007171e-05,4.832062690470741e-05,9.178512481269547e-05,3.2667,5.8667
3.54296875,-4.4923723308155954e-05,5.9568562023346254e-05,7.958782269321732e-05,7.372651338368808e-05,3.2667,5.8667
3.546875,-4.884502178988328e-05,3.0757337389181314e-05,7.323119147020673e-05,5.2716608886854315e-05,3.2667,5.8667
3.55078125,-4.005305782558941e-05,-2.34391353109026e-05,-1.5637815173571368e-05,6.443922750591287e-05,3.2667,5.8667
3.5546875,6.3420947371633356e-06,-6.446830047760742e-05,-8.838822121614404e-05,6.493454941939422e-05,3.2667,5.8667
3.55859375,8.282105564965264e-06,-0.00011670412393682766,-9.815019059433891e-05,6.933053140154111e-05,3.2667,5.8667
3.5625,3.80839740260929e-05,-0.000166999936568246,-0.00016357396,6.396454400549323e-05,3.2667,5.8667
3.56640625,4.6380616076905426e-05,-0.0002363450044556344,-0.00023487967712825208,4.538997224994279e-05,3.2667,5.8667
3.5703125,4.978595423208969e-05,-0.00027685820929579613,-0.0002866408170870527,2.1470051511406095e-05,3.2667,5.8667
3.57421875,7.372651338368808e-05,-0.0002802841858640421,-0.0003461826387701228,2.782668273441669e-05,3.2667,5.8667
3.578125,9.521110138094144e-05,-0.00033543002556496524,-0.00039012182017853056,3.905397943999389e-05,3.2667,5.8667
3.58203125,0.00010301242151827267,-0.00039158714750591286,-0.0004013491168841077,3.80839740260929e-05,3.2667,5.8667
3.5859375,8.055782810711833e-05,-0.00040281444421149,-0.0004286950141908903,4.6380616076905426e-05,3.2667,5.8667
3.58984375,0.00010693371999999998,-0.0004125970520027466,-0.0004736248394262608,4.247995600823987e-05,3.2667,5.8667
3.59375,0.00014697224133974207,-0.00039695313490196077,-0.000455070906083772,2.6361355407034407e-05,3.2667,5.8667
3.59765625,0.00014111093203021284,-0.00037938984538643473,-0.0004443182928786144,3.0757337389181314e-05,3.2667,5.8667
3.6015625,9.764643412222472e-05,-0.00039061714209201193,-0.00046043689347981986,4.6380616076905426e-05,3.2667,5.8667
3.60546875,0.00010057708877698939,-0.00038768648743724724,-0.0004433482874647135,4.588529416342407e-05,3.2667,5.8667
3.609375,0.00013132832423895627,-0.00036034059013046463,-0.000430655663431754,3.0757337389181314e-05,3.2667,5.8667
3.61328125,0.00010400306534523537,-0.0003378859967193103,-0.00041160640817578393,2.1470051511406095e-05,3.2667,5.8667
3.6171875,0.00010984373624170291,-0.00034568731685664147,-0.0004018444387975891,2.3905384252689372e-05,3.2667,5.8667
3.62109375,0.00010887373082780192,-0.0003290940327550164,-0.00036863723218127714,3.172734280308231e-05,3.2667,5.8667
3.625,0.00010984373624170291,-0.00028810614441443505,-0.0003618059174578469,3.123202088960096e-05,3.2667,5.8667
3.62890625,0.00011130906356908519,-0.0002426809972655833,-0.0003442219895292592,2.3905384252689372e-05,3.2667,5.8667
3.6328125,7.616184612497136e-05,-0.00023878033719691767,-0.000307609444757763,1.7569391442740483e-05,3.2667,5.8667
3.63671875,9.081511939879453e-05,-0.00022901836781872282,-0.00029737279187914853,7.80742206454562e-06,3.2667,5.8667
3.640625,5.028127614557104e-05,-0.00017725722785992217,-0.000264660907176318,-4.885201968413867e-06,3.2667,5.8667
3.64453125,1.3668731374074923e-05,-0.00017042591313649197,-0.00026173025252155337,-1.80731479148547e-05,3.2667,5.8667
3.6484375,2.1965373424887445e-05,-0.0001684652638956283,-0.0002519682831433585,-1.856846982833599e-05,3.2667,5.8667
3.65234375,3.8861235828183e-06,-0.0001591986164309148,-0.0002299883732326238,-2.9300444620431846e-05,3.2667,5.8667
3.65625,-3.0765771947814184e-05,-0.00014308001582970933,-0.00020313779783932248,-5.470633109941255e-05,3.2667,5.8667
3.66015625,-0.00010108084524910353,-0.00010937748729991608,-0.00014894132513923857,-7.666560259708555e-05,3.2667,5.8667
3.6640625,-0.00017775254977340352,-9.181419778439005e-05,-0.00014601067048447395,-8.545756656137941e-05,3.2667,5.8667
3.66796875,-0.0003554492862348363,-6.347765665064471e-05,-0.00012793142064240485,-9.668486326695659e-05,3.2667,5.8667
3.671875,-0.0005722558154482337,-6.446830047760742e-05,-0.00011476411310902571,-0.00010743747647211415,3.2667,5.8667
3.67578125,-0.0007382712101167315,-5.5181014599832166e-05,-0.00012646609331502253,-0.00011816945126420997,3.2667,5.8667
3.6796875,-0.0008588820960494393,-3.5161753929961096e-05,-8.39922392339971e-05,-0.00012549608790112153,3.2667,5.8667
3.68359375,-0.0009404244660563057,-1.9043153328755634e-05,-4.981502720378424e-05,-0.00012062542241855499,3.2667,5.8667
3.6875,-0.0009687403687769894,4.295463950865945e-05,-4.785437796292058e-05,-0.00012892206446936752,3.2667,5.8667
3.69140625,-0.0009482257861936369,2.537071158007171e-05,-4.884502178988328e-05,-0.00014161468850232699,3.2667,5.8667
3.6953125,-0.000939433822229343,1.2678087547112227e-05,-2.2469129897001607e-05,-0.00014454534315709166,3.2667,5.8667
3.69921875,-0.0009238105435416189,6.980521490196077e-05,2.9161181689173644e-06,-0.00014747599781185627,3.2667,5.8667
3.703125,-0.0009208798888868543,9.521110138094144e-05,2.246069533836879e-05,-0.00015674264527656978,3.2667,5.8667
3.70703125,-0.0009697103741908902,9.228044672617682e-05,3.8558657526512546e-05,-0.00016309927649958038,3.2667,5.8667
3.7109375,-0.0009687403687769894,5.564726354161894e-05,3.4657997457846933e-05,-0.00015674264527656978,3.2667,5.8667
3.71484375,-0.0009667797195361257,5.224192538643473e-05,4.9311270731670104e-05,-0.00014648535398489358,3.2667,5.8667
3.71875,-0.000968245046863508,7.273586955672539e-05,6.1033889350728596e-05,-0.00014355469933012894,3.2667,5.8667
3.72265625,-0.000968245046863508,8.641913741664757e-05,6.980521490196077e-05,-0.00013917935576104372,3.2667,5.8667
3.7265625,-0.000968245046863508,9.275513022659646e-05,8.544913200274657e-05,-0.00012549608790112153,3.2667,5.8667
3.73046875,-0.000968245046863508,8.934979207141219e-05,7.519184071107043e-05,-0.00012696141522850385,3.2667,5.8667
3.734375,-0.000968245046863508,0.00011180438548256654,7.17658641428244e-05,-0.0001362487011062791,3.2667,5.8667
3.73828125,-0.000968245046863508,0.00011326971280994889,9.228044672617682e-05,-0.0001298920698832685,3.2667,5.8667
3.7421875,-0.000968245046863508,9.568578488136108e-05,0.00010740840350041957,-0.00012696141522850385,3.2667,5.8667
3.74609375,-0.000968245046863508,0.0001049730707591363,8.689382091706722e-05,-0.0001284267425558862,3.2667,5.8667
3.75,-0.000968245046863508,0.00010350774343175402,9.715111220874336e-05,-0.0001196347785915923,3.2667,5.8667
3.75390625,-0.000968245046863508,7.713185153887235e-05,0.00012010102753337907,-0.0001123081419546807,3.2667,5.8667
3.7578125,-0.000968245046863508,7.909250077973598e-05,0.00010154709419089033,-0.0001123081419546807,3.2667,5.8667
3.76171875,-0.000968245046863508,0.00010447774884565496,9.568578488136108e-05,-0.00011183345845426108,3.2667,5.8667
3.765625,-0.000968245046863508,9.861643953612571e-05,9.618110679484243e-05,-0.00010890280379949647,3.2667,5.8667
3.76953125,-0.000968245046863508,9.031979748531318e-05,8.348848276188294e-05,-0.00010205085066300451,3.2667,5.8667
3.7734375,-0.000968245046863508,8.398380467536429e-05,8.152783352101926e-05,-0.00010060616174868391,3.2667,5.8667
3.77734375,-0.000968245046863508,6.980521490196077e-05,8.544913200274657e-05,-9.375420861219197e-05,3.2667,5.8667
3.78125,-0.000968245046863508,9.814175603570607e-05,8.788446474402991e-05,-8.496224464789807e-05,3.2667,5.8667
3.78515625,-0.0009667797195361257,8.202315543450061e-05,0.00010107241069047074,-8.39922392339971e-05,3.2667,5.8667
3.7890625,-0.0009677703633630884,6.493454941939422e-05,0.00010008176686350804,-8.39922392339971e-05,3.2667,5.8667
3.79296875,-0.0009658097141222247,6.786520407415883e-05,9.178512481269547e-05,-8.39922392339971e-05,3.2667,5.8667
3.796875,-0.0009179492342320896,7.079585872892346e-05,8.495381008926522e-05,-7.765624642404822e-05,3.2667,5.8667
3.80078125,-0.0008574167687220569,0.00010301242151827267,9.128980289921411e-05,-6.494298397802703e-05,3.2667,5.8667
3.8046875,-0.000824209562105745,8.544913200274657e-05,9.422045755397874e-05,-5.617165842679486e-05,3.2667,5.8667
3.80859375,-0.0008051603068497749,6.150857285114824e-05,8.982447557183183e-05,-5.274568185854889e-05,3.2667,5.8667
3.8125,-0.0007665871128374151,6.249921667811093e-05,8.445848817578388e-05,-4.8349699876401924e-05,3.2667,5.8667
3.81640625,-0.0007128859620508125,7.079585872892346e-05,7.079585872892346e-05,-4.931970529030292e-05,3.2667,5.8667
3.8203125,-0.0006528281800411993,6.0043245523765904e-05,6.297390017853052e-05,-4.54190452216373e-05,3.2667,5.8667
3.82421875,-0.0005908097487907225,5.663790736858163e-05,6.736988216067749e-05,-3.906241399862671e-05,3.2667,5.8667
3.828125,-0.0005859184448950942,7.12705422293431e-05,8.29931608484016e-05,-4.6884372549019615e-05,3.2667,5.8667
3.83203125,-0.0005580978640878919,7.323119147020673e-05,7.812249536583504e-05,-5.4211009185931204e-05,3.2667,5.8667
3.8359375,-0.0004848521361318379,0.00010008176686350804,7.12705422293431e-05,-4.54190452216373e-05,3.2667,5.8667
3.83984375,-0.00045701091691157395,9.814175603570607e-05,8.006250619363697e-05,-4.54190452216373e-05,3.2667,5.8667
3.84375,-0.0004282203306904707,8.738914283054856e-05,7.226118605630574e-05,-4.4923723308155954e-05,3.2667,5.8667
3.84765625,-0.00041746771748531317,9.715111220874336e-05,9.422045755397874e-05,-4.395371789425499e-05,3.2667,5.8667
3.8515625,-0.0003950131240741588,8.689382091706722e-05,0.00010400306534523537,-4.638905063553827e-05,3.2667,5.8667
3.85546875,-0.00034764796609750514,9.031979748531318e-05,6.786520407415883e-05,-4.102306323949034e-05,3.2667,5.8667
3.859375,-0.00032127207420462345,0.00010204241610437167,6.736988216067749e-05,-4.102306323949034e-05,3.2667,5.8667
3.86328125,-0.0003037087846890974,8.885447015793084e-05,8.202315543450061e-05,-4.199306865339133e-05,3.2667,5.8667
3.8671875,-0.00031004477749904625,8.544913200274657e-05,6.63998767467765e-05,-4.052774132600899e-05,3.2667,5.8667
3.87109375,-0.00026270025793545434,8.83591482444495e-05,6.346922209201187e-05,-3.906241399862671e-05,3.2667,5.8667
3.875,-0.00021046443447623407,7.859717886625463e-05,6.200389476462959e-05,-3.029108844739454e-05,3.2667,5.8667
3.87890625,-0.00020654313599450676,8.885447015793084e-05,8.885447015793084e-05,-3.175641577477682e-05,3.2667,5.8667
3.8828125,-0.00020070246509803921,7.909250077973598e-05,0.0001049730707591363,-2.8330439206530853e-05,3.2667,5.8667
3.88671875,-0.00018945452997940032,4.6380616076905426e-05,6.1033889350728596e-05,-2.6369789965667223e-05,3.2667,5.8667
3.890625,-0.000166999936568246,5.370725271381701e-05,4.685529957732507e-05,-3.8587730498207065e-05,3.2667,5.8667
3.89453125,-0.00015527731794918748,5.370725271381701e-05,5.028127614557104e-05,-3.9557735912108054e-05,3.2667,5.8667
3.8984375,-0.00012207011133287556,4.247995600823987e-05,4.491528874952314e-05,-3.712240317082478e-05,3.2667,5.8667
3.90234375,-0.00011670412393682766,1.9461127550163724e-06,4.441996683604179e-05,-3.468707042954151e-05,3.2667,5.8667
3.90625,-0.00011329878578164339,-8.806500450141185e-06,4.784594340428776e-05,-3.9557735912108054e-05,3.2667,5.8667
3.91015625,-0.00010644683264515145,6.81677823758298e-06,5.907324010986491e-05,-3.8587730498207065e-05,3.2667,5.8667
3.9140625,-0.0001157341185229267,1.6599386028839545e-05,6.297390017853052e-05,-2.686511187914857e-05,3.2667,5.8667
3.91796875,-9.131887587090869e-05,4.6380616076905426e-05,6.1033889350728596e-05,-2.2469129897001607e-05,3.2667,5.8667
3.921875,-0.00011329878578164339,6.980521490196077e-05,8.251847734798195e-05,-3.0765771947814184e-05,3.2667,5.8667
3.92578125,-0.00010890280379949647,5.907324010986491e-05,6.0043245523765904e-05,-3.8587730498207065e-05,3.2667,5.8667
3.9296875,-6.397297856412607e-05,5.174660347295338e-05,3.758865211261156e-05,-3.662708125734343e-05,3.2667,5.8667
3.93359375,-7.37349479423209e-05,6.687456024719614e-05,4.9311270731670104e-05,-3.272642118867782e-05,3.2667,5.8667
3.9375,-8.203158999313345e-05,5.174660347295338e-05,5.564726354161894e-05,-3.126109386129553e-05,3.2667,5.8667
3.94140625,-7.86262518379492e-05,2.3430700752269784e-05,5.760791278248263e-05,-2.9300444620431846e-05,3.2667,5.8667
3.9453125,-8.203158999313345e-05,3.515331937132828e-05,7.079585872892346e-05,-2.6369789965667223e-05,3.2667,5.8667
3.94921875,-9.424953052567332e-05,4.491528874952314e-05,6.443922750591287e-05,-2.686511187914857e-05,3.2667,5.8667
3.953125,-8.155690649271384e-05,5.2716608886854315e-05,5.711259086900128e-05,-2.0508480656137976e-05,3.2667,5.8667
3.95703125,-7.813092992446786e-05,7.812249536583504e-05,5.711259086900128e-05,-2.0508480656137976e-05,3.2667,5.8667
3.9609375,-8.349691732051576e-05,7.273586955672539e-05,7.665716803845271e-05,-2.2469129897001607e-05,3.2667,5.8667
3.96484375,-5.5181014599832166e-05,5.6142585455100285e-05,8.445848817578388e-05,-1.5637815173571368e-05,3.2667,5.8667
3.96875,-2.1499124483100672e-05,6.493454941939422e-05,7.566652421149002e-05,-1.3677165932707737e-05,3.2667,5.8667
3.97265625,-1.2707160518806745e-05,5.2716608886854315e-05,8.29931608484016e-05,-1.4667809759670433e-05,3.2667,5.8667
3.9765625,-7.81585662317849e-06,3.7093330199130204e-05,7.469651879758908e-05,-1.6133137087052714e-05,3.2667,5.8667
3.98046875,1.4507908415350242e-06,4.1984634094758515e-05,6.297390017853052e-05,-1.80731479148547e-05,3.2667,5.8667
3.984375,2.4896028079652068e-05,5.711259086900128e-05,6.396454400549323e-05,-1.9538475242236984e-05,3.2667,5.8667
3.98828125,1.5134058701457206e-05,5.1251281559472034e-05,6.396454400549323e-05,-1.514249326009002e-05,3.2667,5.8667
3.9921875,2.586603349355306e-05,3.562800287174792e-05,6.980521490196077e-05,-1.4172487846189085e-05,3.2667,5.8667
3.99609375,4.148931218127717e-05,3.0757337389181314e-05,5.810323469596397e-05,-1.7103142500953707e-05,3.2667,5.8667
4.0,4.491528874952314e-05,5.321193080033566e-05,5.2716608886854315e-05,-1.660782058747236e-05,3.2667,5.8667
4.00390625,5.6142585455100285e-05,5.907324010986491e-05,6.0043245523765904e-05,-1.4667809759670433e-05,3.2667,5.8667
4.0078125,5.1251281559472034e-05,3.6618646698710615e-05,5.174660347295338e-05,-1.80731479148547e-05,3.2667,5.8667
4.01171875,4.538997224994279e-05,2.7331360820935345e-05,4.491528874952314e-05,-2.2469129897001607e-05,3.2667,5.8667
4.015625,4.491528874952314e-05,5.2716608886854315e-05,5.028127614557104e-05,-1.3677165932707737e-05,3.2667,5.8667
4.01953125,8.348848276188294e-05,6.053856743724725e-05,5.174660347295338e-05,-1.173715510490581e-05,3.2667,5.8667
4.0234375,0.00010837840891432057,4.1014628680857526e-05,5.1251281559472034e-05,-1.3202482432288093e-05,3.2667,5.8667
4.02734375,0.00010253773801785303,3.758865211261156e-05,5.564726354161894e-05,-5.875845795376506e-06,3.2667,5.8667
4.03125,0.00010643839808651864,4.148931218127717e-05,5.370725271381701e-05,-4.885201968413867e-06,3.2667,5.8667
4.03515625,7.079585872892346e-05,6.0043245523765904e-05,5.564726354161894e-05,-6.845851209277498e-06,3.2667,5.8667
4.0390625,8.495381008926522e-05,4.002398485389483e-05,4.7350621490806415e-05,-7.341173122758846e-06,3.2667,5.8667
4.04296875,0.00012986299691157392,2.782668273441669e-05,3.368799204394594e-05,-5.380523881895215e-06,3.2667,5.8667
4.046875,0.00011523036205081251,1.2203404046692583e-05,8.282105564965264e-06,-1.7598464414435056e-05,3.2667,5.8667
4.05078125,9.228044672617682e-05,-1.4172487846189085e-05,-1.027182777752347e-05,-2.0508480656137976e-05,3.2667,5.8667
4.0546875,6.980521490196077e-05,-2.539978455176623e-05,-2.8825761120012203e-05,-1.5637815173571368e-05,3.2667,5.8667
4.05859375,0.00011473504013733117,-3.0765771947814184e-05,-4.102306323949034e-05,-9.281183950560774e-06,3.2667,5.8667
4.0625,0.00014404158668497745,-5.95769965819791e-05,-7.619091909666591e-05,-5.380523881895215e-06,3.2667,5.8667
4.06640625,0.00013475430080720223,-9.327952511177236e-05,-0.0001157341185229267,-5.380523881895215e-06,3.2667,5.8667
4.0703125,0.00015330823414969096,-0.00011036813112687878,-0.0001367233846066987,-3.4198746410315264e-06,3.2667,5.8667
4.07421875,0.00017869348221560995,-0.00016650461465476466,-0.00019191050113374534,-1.027182777752347e-05,3.2667,5.8667
4.078125,0.0001933467554894331,-0.0002133950891309987,-0.0002363450044556344,-5.875845795376506e-06,3.2667,5.8667
4.08203125,0.0001933467554894331,-0.00023242370597390707,-0.00022315705850919356,1.4507908415350242e-06,3.2667,5.8667
