timestamp,TP9,AF7,AF8,TP10,Valence,Arousal
0.0,-1.4170045355916663e-05,0.00021630172334172578,0.00026659950304417485,6.249787008468759e-05,3.2,3.667
0.00390625,-1.8557755129320183e-05,0.00021972413696498056,0.0002709872128175784,5.663296468757154e-05,3.2,3.667
0.0078125,-1.9055028903639254e-05,0.000226071690437171,0.00027489227451590756,5.711561276264593e-05,3.2,3.667
0.01171875,-8.305139958800616e-06,0.00021287930971847105,0.0002753895482902266,4.736027136644543e-05,3.2,3.667
0.015625,-4.400078260471481e-06,0.0002309566739848936,0.000281239827988098,3.416789064774551e-05,3.2,3.667
0.01953125,-1.4749384115357955e-06,0.00022947947836118106,0.0002773347662897688,3.8072952346074645e-05,3.2,3.667
0.0234375,9.675533623254964e-07,0.00019774171100022888,0.0002558496140993362,4.149536596932938e-05,3.2,3.667
0.02734375,-1.2368487067952571e-08,0.00019579649300068667,0.00023973209353170063,3.7590304271000245e-05,3.2,3.667
0.03125,6.832458759441543e-06,0.00019042886137788967,0.00024559699892881667,3.514781249713895e-05,3.2,3.667
0.03515625,4.8726150606546385e-06,0.00017381406703593502,0.00022997675213550013,3.8570226120393695e-05,3.2,3.667
0.0390625,4.389966985580251e-06,0.00015771117216754408,0.00020068147654840924,3.514781249713895e-05,3.2,3.667
0.04296875,1.4159934081025426e-05,0.00014842385314717328,0.0001860265259052415,2.8317610949874137e-05,3.2,3.667
0.046875,2.880025902494853e-05,0.00014207629967498287,0.00016307880379034105,2.6357767251087223e-05,3.2,3.667
0.05078125,3.222267264820327e-05,0.00013182368450446327,0.00014207629967498287,3.0262828949416358e-05,3.2,3.667
0.0546875,2.5875119176012844e-05,0.00011766600763561456,0.000140613729750515,3.368524257267111e-05,3.2,3.667
0.05859375,2.7820337175555066e-05,0.00011131845416342415,0.00014501606522316322,2.880025902494853e-05,3.2,3.667
0.0625,3.7107656195925866e-05,0.00011327829786221105,0.00013524609812771803,3.270532072327767e-05,3.2,3.667
0.06640625,3.466516442206456e-05,0.0001049709006912337,0.00011962585133440149,3.7107656195925866e-05,3.2,3.667
0.0703125,2.489519732661938e-05,8.642551404898148e-05,0.00012059114748455025,3.466516442206456e-05,3.2,3.667
0.07421875,1.8547643854428954e-05,7.90980387273976e-05,0.0001147408677866789,2.978018087434198e-05,3.2,3.667
0.078125,1.6587800155642044e-05,8.250582665140766e-05,8.690816212405587e-05,2.6855041025406294e-05,3.2,3.667
0.08203125,3.1725398873884204e-05,7.12879153307393e-05,8.446567035019458e-05,2.293535362783248e-05,3.2,3.667
0.0859375,4.5400427667658515e-05,5.565304283817809e-05,8.15405305012589e-05,2.0507487553215867e-05,3.2,3.667
0.08984375,4.980276314030672e-05,6.0538026385900675e-05,6.298051815976199e-05,2.5377845401693774e-05,3.2,3.667
0.09375,5.0285411215381113e-05,5.7612886536965004e-05,6.444308808422983e-05,2.978018087434198e-05,3.2,3.667
0.09765625,4.295793589379722e-05,5.224525491416803e-05,6.738285363241019e-05,3.1725398873884204e-05,3.2,3.667
0.1015625,5.0285411215381113e-05,5.0285411215381113e-05,6.200059631036852e-05,3.368524257267111e-05,3.2,3.667
0.10546875,5.9075456461432847e-05,3.368524257267111e-05,5.419047291371025e-05,3.61277343465324e-05,3.2,3.667
0.109375,5.615031661249716e-05,2.0507487553215867e-05,3.320259449759672e-05,3.7590304271000245e-05,3.2,3.667
0.11328125,5.419047291371025e-05,1.9527565703822404e-05,1.7567722005035504e-05,3.320259449759672e-05,3.2,3.667
0.1171875,4.784291944151982e-05,2.0507487553215867e-05,1.8547643854428954e-05,2.880025902494853e-05,3.2,3.667
0.12109375,4.83255675165942e-05,1.610515208056766e-05,1.4642582156099819e-05,3.320259449759672e-05,3.2,3.667
0.125,5.32105510643168e-05,1.3662660306706357e-05,1.3662660306706357e-05,3.563046057221334e-05,3.2,3.667
0.12890625,6.0055378310826296e-05,1.903029192950335e-05,1.1220168532845065e-05,3.368524257267111e-05,3.2,3.667
0.1328125,6.249787008468759e-05,2.5377845401693774e-05,1.3662660306706357e-05,3.124275079880982e-05,3.2,3.667
0.13671875,5.565304283817809e-05,2.0010213778896796e-05,1.9527565703822404e-05,3.270532072327767e-05,3.2,3.667
0.140625,6.0538026385900675e-05,1.610515208056766e-05,2.391527547722593e-05,3.563046057221334e-05,3.2,3.667
0.14453125,6.298051815976199e-05,1.0737520457770684e-05,1.8547643854428954e-05,3.905287419546809e-05,3.2,3.667
0.1484375,5.7612886536965004e-05,1.947475211718952e-06,7.31510683451593e-06,4.1012717894255e-05,3.2,3.667
0.15234375,6.0055378310826296e-05,4.849052872511095e-07,1.0737520457770684e-05,3.905287419546809e-05,3.2,3.667
0.15625,6.249787008468759e-05,-1.9575864866101822e-06,2.0507487553215867e-05,3.61277343465324e-05,3.2,3.667
0.16015625,5.7612886536965004e-05,-8.802413733119685e-06,8.777676758983772e-06,3.7590304271000245e-05,3.2,3.667
0.1640625,5.7612886536965004e-05,-9.285061808194071e-06,9.675533623254964e-07,4.5400427667658515e-05,3.2,3.667
0.16796875,6.590565800869766e-05,-1.9575864866101822e-06,-6.842570034332773e-06,4.5897701441977586e-05,3.2,3.667
0.171875,5.565304283817809e-05,-3.917430185397095e-06,-7.822491883726229e-06,3.466516442206456e-05,3.2,3.667
0.17578125,5.615031661249716e-05,1.8547643854428954e-05,1.1717442307164134e-05,3.270532072327767e-05,3.2,3.667
0.1796875,6.932807163195242e-05,1.6587800155642044e-05,-3.917430185397095e-06,4.736027136644543e-05,3.2,3.667
0.18359375,6.444308808422983e-05,-1.8075107054245797e-05,-3.22327839230945e-05,5.1747981139848956e-05,3.2,3.667
0.1875,5.8592808386358454e-05,-7.822491883726229e-06,-3.4675275696955793e-05,4.638034951705198e-05,3.2,3.667
0.19140625,5.711561276264593e-05,1.3662660306706357e-05,-1.3672771581597594e-05,4.638034951705198e-05,3.2,3.667
0.1953125,5.32105510643168e-05,9.274950533302842e-06,-7.822491883726229e-06,6.0055378310826296e-05,3.2,3.667
0.19921875,3.955014796978716e-05,-8.802413733119685e-06,-1.514996720531011e-05,7.373040710460063e-05,3.2,3.667
0.203125,2.5377845401693774e-05,-1.709518520485234e-05,-1.465269343099105e-05,7.519297702906846e-05,3.2,3.667
0.20703125,2.245270555275809e-05,-1.4170045355916663e-05,-3.420156411078025e-06,6.738285363241019e-05,3.2,3.667
0.2109375,2.147278370336464e-05,-5.862648184939317e-06,-6.359921959258386e-06,6.346316623483636e-05,3.2,3.667
0.21484375,2.880025902494853e-05,2.4301232867933393e-06,-1.1727553582055363e-05,6.738285363241019e-05,3.2,3.667
0.21875,4.197801404440378e-05,1.610515208056766e-05,3.892693211261182e-06,6.298051815976199e-05,3.2,3.667
0.22265625,4.638034951705198e-05,2.0990135628290246e-05,9.274950533302842e-06,5.9558104536507226e-05,3.2,3.667
0.2265625,4.4420505818265065e-05,1.903029192950335e-05,7.812380608834999e-06,6.200059631036852e-05,3.2,3.667
0.23046875,4.4420505818265065e-05,2.293535362783248e-05,1.806499577935456e-05,6.834814978255896e-05,3.2,3.667
0.234375,4.5897701441977586e-05,2.6855041025406294e-05,2.0990135628290246e-05,6.98107197070268e-05,3.2,3.667
0.23828125,4.4917779592584136e-05,2.4412549251545002e-05,1.562250400549327e-05,6.786550170748456e-05,3.2,3.667
0.2421875,4.4420505818265065e-05,1.3662660306706357e-05,4.8726150606546385e-06,6.249787008468759e-05,3.2,3.667
0.24609375,3.8570226120393695e-05,1.708507392996111e-05,-7.822491883726229e-06,5.7612886536965004e-05,3.2,3.667
0.25,3.368524257267111e-05,2.928290710002291e-05,-4.882726335545868e-06,6.688557985809112e-05,3.2,3.667
0.25390625,4.197801404440378e-05,2.8317610949874137e-05,6.335184985122481e-06,6.834814978255896e-05,3.2,3.667
0.2578125,5.7612886536965004e-05,3.0262828949416358e-05,2.7337689100480687e-05,6.932807163195242e-05,3.2,3.667
0.26171875,6.688557985809112e-05,2.4412549251545002e-05,3.0760102723735426e-05,7.17705634058137e-05,3.2,3.667
0.265625,5.9075456461432847e-05,1.1220168532845065e-05,2.293535362783248e-05,6.884542355687803e-05,3.2,3.667
0.26953125,5.468774668802932e-05,1.610515208056766e-05,2.7337689100480687e-05,7.12879153307393e-05,3.2,3.667
0.2734375,6.542300993362327e-05,1.2200090382238528e-05,3.222267264820327e-05,7.323313333028156e-05,3.2,3.667
0.27734375,6.151794823529415e-05,8.295028683909378e-06,1.903029192950335e-05,6.786550170748456e-05,3.2,3.667
0.28125,5.711561276264593e-05,3.0262828949416358e-05,9.757598608377222e-06,6.640293178301672e-05,3.2,3.667
0.28515625,6.396044000915543e-05,3.7107656195925866e-05,1.0737520457770684e-05,6.98107197070268e-05,3.2,3.667
0.2890625,6.98107197070268e-05,3.124275079880982e-05,8.777676758983772e-06,7.567562510414284e-05,3.2,3.667
0.29296875,6.444308808422983e-05,3.6610382421606796e-05,1.8547643854428954e-05,7.421305517967499e-05,3.2,3.667
0.296875,6.103530016021975e-05,2.0010213778896796e-05,1.2200090382238528e-05,6.396044000915543e-05,3.2,3.667
0.30078125,4.784291944151982e-05,-1.0747631732661909e-05,1.947475211718952e-06,6.640293178301672e-05,3.2,3.667
0.3046875,4.4917779592584136e-05,-2.8327722224765366e-05,-1.514996720531011e-05,6.346316623483636e-05,3.2,3.667
0.30859375,6.688557985809112e-05,-2.7347800375371913e-05,-3.22327839230945e-05,6.396044000915543e-05,3.2,3.667
0.3125,5.51703947631037e-05,-2.1980168752574932e-05,-2.7347800375371913e-05,7.17705634058137e-05,3.2,3.667
0.31640625,6.346316623483636e-05,-1.8075107054245797e-05,-3.917430185397095e-06,6.738285363241019e-05,3.2,3.667
0.3203125,9.667812921950104e-05,-3.6137845621423636e-05,-1.1727553582055363e-05,6.884542355687803e-05,3.2,3.667
0.32421875,0.00011229837601281758,-9.374847494621193e-05,-8.153601607690543e-05,7.958068680247197e-05,3.2,3.667
0.328125,0.0001147408677866789,-0.00015916922766765845,-0.00014305170710002284,8.250582665140766e-05,3.2,3.667
0.33203125,0.00011522351586175326,-0.0001748041001602197,-0.00014891661249713889,7.615827317921724e-05,3.2,3.667
0.3359375,0.00013036111457999543,-0.00018309687163195235,-0.000158189305818265,6.834814978255896e-05,3.2,3.667
0.33984375,0.0001454987132982376,-0.00024120477473105968,-0.00023974220480659186,6.0055378310826296e-05,3.2,3.667
0.34375,0.00013866851175097278,-0.00026122735699702444,-0.00029735283413138015,5.565304283817809e-05,3.2,3.667
0.34765625,0.00013915115982604718,-0.0002592675132982375,-0.0002910052806591897,6.0055378310826296e-05,3.2,3.667
0.3515625,0.00016307880379034105,-0.00028710021896086055,-0.0003144502765484092,5.126533306477456e-05,3.2,3.667
0.35546875,0.00017284877088578622,-0.0003007752477546348,-0.00031591284647287704,4.5400427667658515e-05,3.2,3.667
0.359375,0.00017773375443350882,-0.0003041976613778896,-0.0003095652930006866,5.224525491416803e-05,3.2,3.667
0.36328125,0.00018456395598077363,-0.0003007752477546348,-0.0003261654616433966,4.784291944151982e-05,3.2,3.667
0.3671875,0.00018310138605630581,-0.0002817325873380636,-0.0003178580644724193,3.0262828949416358e-05,3.2,3.667
0.37109375,0.0001806588942824445,-0.000282215235413138,-0.00030712280122682534,1.708507392996111e-05,3.2,3.667
0.375,0.00018700644775463491,-0.0002646351449210346,-0.0002885627888853284,1.2682738457312907e-05,3.2,3.667
0.37890625,0.00019091150945296407,-0.00022850966778667885,-0.000282215235413138,1.0240246683451615e-05,3.2,3.667
0.3828125,0.00017773375443350882,-0.00019823447035019452,-0.000271479972167544,-4.950165621423394e-07,3.2,3.667
0.38671875,0.00017529126265964753,-0.0001699191166124971,-0.00024412991457999536,-1.514996720531011e-05,3.2,3.667
0.390625,0.00017967897243305106,-0.00015233902612039367,-0.00024070750095674063,-2.0020325053788026e-05,3.2,3.667
0.39453125,0.00017333141896086062,-0.00010496638626688025,-0.0002011596101991302,-3.711776747081709e-05,3.2,3.667
0.3984375,0.0001708889271869993,-0.00010546366004119933,-0.00017088441276264587,-5.273801426413364e-05,3.2,3.667
0.40234375,0.00015086634492103457,-0.00011717884513618674,-0.00015868657959258408,-4.933022634012357e-05,3.2,3.667
0.40625,0.0001596563901670863,-6.835826105745019e-05,-0.00011181121351338975,-6.0050863886472844e-05,3.2,3.667
0.41015625,0.0001806588942824445,-6.591576928358889e-05,-0.00011473635336232544,-6.0050863886472844e-05,3.2,3.667
0.4140625,0.0001694263572625315,-2.7845074149690977e-05,-8.446115592584112e-05,-5.760837211261155e-05,3.2,3.667
0.41796875,0.00016111896009155416,-1.3672771581597594e-05,-6.10307857358663e-05,-6.0050863886472844e-05,3.2,3.667
0.421875,0.00015526868039368277,-4.150547724422062e-05,-6.053351196154723e-05,-5.858829396200501e-05,3.2,3.667
0.42578125,0.00014355349529869535,7.812380608834999e-06,-3.760041554589148e-05,-6.249335566033414e-05,3.2,3.667
0.4296875,0.0001333008801281758,2.928290710002291e-05,-4.835030449073012e-05,-6.297600373540854e-05,3.2,3.667
0.43359375,0.00011962585133440149,2.489519732661938e-05,-2.930764407415882e-05,-6.541849550926984e-05,3.2,3.667
0.4375,0.00010643347061570156,3.514781249713895e-05,-7.3252181094071595e-06,-5.809102018768594e-05,3.2,3.667
0.44140625,8.690816212405587e-05,4.1012717894255e-05,-1.4749384115357955e-06,-4.444524279240098e-05,3.2,3.667
0.4453125,6.494036185854887e-05,5.2727902989242406e-05,2.489519732661938e-05,-4.298267286793314e-05,3.2,3.667
0.44921875,5.32105510643168e-05,6.590565800869766e-05,3.466516442206456e-05,-4.1022829169146234e-05,3.2,3.667
0.453125,3.955014796978716e-05,6.98107197070268e-05,5.51703947631037e-05,-3.760041554589148e-05,3.2,3.667
0.45703125,3.955014796978716e-05,8.83707320485237e-05,7.811811687800414e-05,-3.2715431998168894e-05,3.2,3.667
0.4609375,5.1747981139848956e-05,0.00011376094593728543,7.421305517967499e-05,-2.442266052643623e-05,3.2,3.667
0.46484375,4.5897701441977586e-05,0.000124013561107805,7.030799348134586e-05,-2.442266052643623e-05,3.2,3.667
0.46875,2.7337689100480687e-05,0.00013572874620279243,7.860076495307854e-05,-2.588523045090407e-05,3.2,3.667
0.47265625,1.3662660306706357e-05,0.00013670866805218587,8.104325672693983e-05,-2.3442738677042775e-05,3.2,3.667
0.4765625,1.806499577935456e-05,0.00014842385314717328,8.690816212405587e-05,-2.1000246903181482e-05,3.2,3.667
0.48046875,1.9527565703822404e-05,0.00017967897243305106,0.00010399097884184024,-1.8557755129320183e-05,3.2,3.667
0.484375,8.777676758983772e-06,0.00013476345005264363,0.00010106583899290458,-1.56326152803845e-05,3.2,3.667
0.48828125,-1.0747631732661909e-05,9.227579374685285e-05,0.00010106583899290458,-1.270747543144882e-05,3.2,3.667
0.4921875,-2.979029214923321e-05,7.519297702906846e-05,0.00011376094593728543,-5.862648184939317e-06,3.2,3.667
0.49609375,-1.2210201657129751e-05,6.200059631036852e-05,0.00011522351586175326,2.4301232867933393e-06,3.2,3.667
0.5,7.31510683451593e-06,4.686299759212636e-05,0.00011668608578622112,1.2682738457312907e-05,3.2,3.667
0.50390625,-9.776646372167264e-07,5.468774668802932e-05,0.00012597340480659193,1.903029192950335e-05,3.2,3.667
0.5078125,-4.882726335545868e-06,9.373836367132068e-05,0.00014599598707255664,6.832458759441543e-06,3.2,3.667
0.51171875,4.8726150606546385e-06,8.250582665140766e-05,0.00012938119273060199,4.849052872511095e-07,3.2,3.667
0.515625,2.4412549251545002e-05,7.17705634058137e-05,7.665554695353629e-05,1.947475211718952e-06,3.2,3.667
0.51953125,3.0262828949416358e-05,0.00010204576084229802,5.8592808386358454e-05,-1.2368487067952571e-08,3.2,3.667
0.5234375,1.562250400549327e-05,4.980276314030672e-05,6.494036185854887e-05,-1.4749384115357955e-06,3.2,3.667
0.52734375,3.320259449759672e-05,1.708507392996111e-05,2.197005747768371e-05,-4.882726335545868e-06,3.2,3.667
0.53125,5.076805929045549e-05,6.786550170748456e-05,1.2682738457312907e-05,-1.953767697871364e-05,3.2,3.667
0.53515625,6.151794823529415e-05,8.295028683909378e-06,9.274950533302842e-06,-2.6367878525978456e-05,3.2,3.667
0.5390625,6.98107197070268e-05,-3.809768932021055e-05,-3.4675275696955793e-05,-1.0747631732661909e-05,3.2,3.667
0.54296875,9.81406991439689e-05,1.3180012231631976e-05,-2.979029214923321e-05,-2.0020325053788026e-05,3.2,3.667
0.546875,0.00013182368450446327,-1.514996720531011e-05,-5.7125724037537166e-05,-4.248539909361407e-05,3.2,3.667
0.55078125,0.00014111100352483407,-4.3465320943007527e-05,-6.639841735866328e-05,-4.6887734566262276e-05,3.2,3.667
0.5546875,0.0001499010487708858,-2.7347800375371913e-05,-6.541849550926984e-05,-3.321270577248796e-05,3.2,3.667
0.55859375,0.00014696128322270544,-2.1980168752574932e-05,-7.03034790569924e-05,-4.835030449073012e-05,3.2,3.667
0.5625,0.00014403614337376975,-1.4170045355916663e-05,-6.786098728313112e-05,-6.10307857358663e-05,3.2,3.667
0.56640625,0.00013915115982604718,-4.950165621423394e-07,-4.590781271686882e-05,-6.10307857358663e-05,3.2,3.667
0.5703125,0.00013572874620279243,-1.3190123506523206e-05,-4.835030449073012e-05,-6.639841735866328e-05,3.2,3.667
0.57421875,0.00011572078963607233,-8.802413733119685e-06,-5.5677779812313995e-05,-5.760837211261155e-05,3.2,3.667
0.578125,0.00012987846650492106,2.880025902494853e-05,4.849052872511095e-07,-6.34732775097276e-05,3.2,3.667
0.58203125,0.00014647863514763104,-1.56326152803845e-05,-2.3442738677042775e-05,-5.956821581139846e-05,3.2,3.667
0.5859375,0.00013378352820325018,7.812380608834999e-06,-1.953767697871364e-05,-5.858829396200501e-05,3.2,3.667
0.58984375,0.00013866851175097278,4.3937857743190686e-05,-1.2210201657129751e-05,-6.297600373540854e-05,3.2,3.667
0.59375,0.00013426617627832456,4.4917779592584136e-05,-1.9055028903639254e-05,-5.760837211261155e-05,3.2,3.667
0.59765625,0.00012987846650492106,6.738285363241019e-05,2.0010213778896796e-05,-6.737833920805672e-05,3.2,3.667
0.6015625,0.00011327829786221105,6.396044000915543e-05,5.852536910048087e-06,-6.395592558480198e-05,3.2,3.667
0.60546875,0.00010741339246509499,8.007796057679104e-05,1.8547643854428954e-05,-5.809102018768594e-05,3.2,3.667
0.609375,0.00011181572793774322,5.711561276264593e-05,3.514781249713895e-05,-4.981287441519796e-05,3.2,3.667
0.61328125,9.423563744563975e-05,4.784291944151982e-05,2.8317610949874137e-05,-4.981287441519796e-05,3.2,3.667
0.6171875,9.0813223822385e-05,7.811811687800414e-05,5.1747981139848956e-05,-5.7125724037537166e-05,3.2,3.667
0.62109375,9.179314567177845e-05,6.590565800869766e-05,5.9558104536507226e-05,-4.394796901808191e-05,3.2,3.667
0.625,7.421305517967499e-05,7.373040710460063e-05,6.249787008468759e-05,-3.4192627621881414e-05,3.2,3.667
0.62890625,5.9075456461432847e-05,8.88533801235981e-05,6.542300993362327e-05,-2.8810370299839752e-05,3.2,3.667
0.6328125,5.3707824838635856e-05,8.446567035019458e-05,5.711561276264593e-05,-2.1980168752574932e-05,3.2,3.667
0.63671875,4.638034951705198e-05,0.00010008591714351112,6.738285363241019e-05,-2.051759882810709e-05,3.2,3.667
0.640625,3.61277343465324e-05,9.667812921950104e-05,8.739081019913024e-05,-1.3190123506523206e-05,3.2,3.667
0.64453125,4.1012717894255e-05,7.079064155642026e-05,8.83707320485237e-05,-8.802413733119685e-06,3.2,3.667
0.6484375,3.61277343465324e-05,7.90980387273976e-05,8.494831842526894e-05,-5.38000010986493e-06,3.2,3.667
0.65234375,2.245270555275809e-05,8.544559219958801e-05,9.81406991439689e-05,2.4301232867933393e-06,3.2,3.667
0.65625,2.147278370336464e-05,6.590565800869766e-05,0.00010643347061570156,2.9273970611124084e-06,3.2,3.667
0.66015625,1.2682738457312907e-05,7.079064155642026e-05,0.00010595082254062716,-3.420156411078025e-06,3.2,3.667
0.6640625,1.4159934081025426e-05,7.713819502861067e-05,0.00010448825261615931,-1.4749384115357955e-06,3.2,3.667
0.66796875,2.489519732661938e-05,7.469570325474939e-05,9.960326906843672e-05,3.410045136186795e-06,3.2,3.667
0.671875,1.51252302311742e-05,9.0813223822385e-05,0.0001049709006912337,4.389966985580251e-06,3.2,3.667
0.67578125,3.410045136186795e-06,8.300310042572673e-05,0.00011376094593728543,6.832458759441543e-06,3.2,3.667
0.6796875,-2.9375083360036384e-06,7.860076495307854e-05,0.00011033853231403068,3.892693211261182e-06,3.2,3.667
0.68359375,-7.822491883726229e-06,8.348574850080111e-05,0.00011131845416342415,1.947475211718952e-06,3.2,3.667
0.6875,-4.882726335545868e-06,6.884542355687803e-05,0.00011033853231403068,5.852536910048087e-06,3.2,3.667
0.69140625,-4.950165621423394e-07,6.590565800869766e-05,0.00011083580608834975,1.0737520457770684e-05,3.2,3.667
0.6953125,-4.882726335545868e-06,5.9075456461432847e-05,0.00011033853231403068,1.562250400549327e-05,3.2,3.667
0.69921875,-5.38000010986493e-06,6.200059631036852e-05,0.00010937323616388192,1.806499577935456e-05,3.2,3.667
0.703125,4.8726150606546385e-06,8.348574850080111e-05,0.00012255099118333717,2.147278370336464e-05,3.2,3.667
0.70703125,7.31510683451593e-06,7.665554695353629e-05,0.0001215710693339437,2.391527547722593e-05,3.2,3.667
0.7109375,-4.882726335545868e-06,6.738285363241019e-05,0.00010546817446555278,2.0010213778896796e-05,3.2,3.667
0.71484375,-1.9055028903639254e-05,6.396044000915543e-05,0.00010789604054016939,1.562250400549327e-05,3.2,3.667
0.71875,-1.3672771581597594e-05,5.615031661249716e-05,0.00010937323616388192,1.51252302311742e-05,3.2,3.667
0.72265625,-6.359921959258386e-06,4.784291944151982e-05,0.00010399097884184024,1.4159934081025426e-05,3.2,3.667
0.7265625,9.675533623254964e-07,4.4420505818265065e-05,0.00010252840891737241,1.562250400549327e-05,3.2,3.667
0.73046875,1.3662660306706357e-05,5.2727902989242406e-05,0.00010595082254062716,1.6587800155642044e-05,3.2,3.667
0.734375,4.849052872511095e-07,3.955014796978716e-05,0.00011327829786221105,1.4642582156099819e-05,3.2,3.667
0.73828125,-2.0020325053788026e-05,4.4917779592584136e-05,0.00010985588423895629,2.0990135628290246e-05,3.2,3.667
0.7421875,-4.882726335545868e-06,5.565304283817809e-05,0.0001069307443900206,2.293535362783248e-05,3.2,3.667
0.74609375,1.947475211718952e-06,3.124275079880982e-05,0.00010937323616388192,2.0010213778896796e-05,3.2,3.667
0.75,-9.767709883268459e-06,3.320259449759672e-05,9.373836367132068e-05,2.343262740215154e-05,3.2,3.667
0.75390625,-7.3252181094071595e-06,4.784291944151982e-05,8.642551404898148e-05,2.4412549251545002e-05,3.2,3.667
0.7578125,-2.9375083360036384e-06,4.197801404440378e-05,0.00010546817446555278,1.903029192950335e-05,3.2,3.667
0.76171875,-1.2368487067952571e-08,3.8570226120393695e-05,9.912062099336234e-05,2.0990135628290246e-05,3.2,3.667
0.765625,1.1220168532845065e-05,4.197801404440378e-05,7.860076495307854e-05,2.4412549251545002e-05,3.2,3.667
0.76953125,2.9273970611124084e-06,4.003279604486154e-05,7.323313333028156e-05,2.147278370336464e-05,3.2,3.667
0.7734375,-2.4548602609292513e-06,3.8570226120393695e-05,7.17705634058137e-05,2.7337689100480687e-05,3.2,3.667
0.77734375,6.335184985122481e-06,4.9305489365987664e-05,7.421305517967499e-05,3.563046057221334e-05,3.2,3.667
0.78125,9.675533623254964e-07,4.736027136644543e-05,7.763546880292974e-05,3.7107656195925866e-05,3.2,3.667
0.78515625,8.777676758983772e-06,3.905287419546809e-05,7.17705634058137e-05,3.1725398873884204e-05,3.2,3.667
0.7890625,9.274950533302842e-06,3.955014796978716e-05,6.0055378310826296e-05,2.0507487553215867e-05,3.2,3.667
0.79296875,4.849052872511095e-07,3.905287419546809e-05,4.3455209668116294e-05,1.806499577935456e-05,3.2,3.667
0.796875,1.4642582156099819e-05,4.4917779592584136e-05,4.051544411993593e-05,2.197005747768371e-05,3.2,3.667
0.80078125,2.343262740215154e-05,4.736027136644543e-05,4.9305489365987664e-05,2.147278370336464e-05,3.2,3.667
0.8046875,1.0240246683451615e-05,3.955014796978716e-05,4.784291944151982e-05,1.1717442307164134e-05,3.2,3.667
0.80859375,-1.6612537129777955e-05,3.905287419546809e-05,4.4917779592584136e-05,4.8726150606546385e-06,3.2,3.667
0.8125,-1.1230279807736301e-05,5.2727902989242406e-05,4.5400427667658515e-05,1.610515208056766e-05,3.2,3.667
0.81640625,2.0010213778896796e-05,5.468774668802932e-05,4.736027136644543e-05,2.343262740215154e-05,3.2,3.667
0.8203125,2.978018087434198e-05,3.8570226120393695e-05,4.3937857743190686e-05,3.1725398873884204e-05,3.2,3.667
0.82421875,4.003279604486154e-05,4.295793589379722e-05,4.149536596932938e-05,3.320259449759672e-05,3.2,3.667
0.828125,2.5377845401693774e-05,5.224525491416803e-05,3.6610382421606796e-05,2.0507487553215867e-05,3.2,3.667
0.83203125,2.9273970611124084e-06,3.955014796978716e-05,3.1725398873884204e-05,1.51252302311742e-05,3.2,3.667
0.8359375,1.4642582156099819e-05,4.197801404440378e-05,4.1012717894255e-05,1.4642582156099819e-05,3.2,3.667
0.83984375,2.7337689100480687e-05,4.784291944151982e-05,4.1012717894255e-05,1.4159934081025426e-05,3.2,3.667
0.84375,2.197005747768371e-05,2.343262740215154e-05,3.270532072327767e-05,1.708507392996111e-05,3.2,3.667
0.84765625,8.777676758983772e-06,1.6587800155642044e-05,3.8570226120393695e-05,7.812380608834999e-06,3.2,3.667
0.8515625,2.5377845401693774e-05,3.0262828949416358e-05,3.955014796978716e-05,9.675533623254964e-07,3.2,3.667
0.85546875,4.1012717894255e-05,3.563046057221334e-05,3.368524257267111e-05,1.51252302311742e-05,3.2,3.667
0.859375,3.6610382421606796e-05,4.5400427667658515e-05,2.7820337175555066e-05,2.293535362783248e-05,3.2,3.667
0.86328125,1.903029192950335e-05,4.3455209668116294e-05,2.7337689100480687e-05,2.391527547722593e-05,3.2,3.667
0.8671875,1.8547643854428954e-05,3.466516442206456e-05,2.928290710002291e-05,2.978018087434198e-05,3.2,3.667
0.87109375,2.978018087434198e-05,4.051544411993593e-05,2.7337689100480687e-05,2.5875119176012844e-05,3.2,3.667
0.875,3.416789064774551e-05,4.3455209668116294e-05,2.147278370336464e-05,1.4159934081025426e-05,3.2,3.667
0.87890625,4.5400427667658515e-05,3.466516442206456e-05,2.489519732661938e-05,9.274950533302842e-06,3.2,3.667
0.8828125,4.4420505818265065e-05,2.928290710002291e-05,2.6855041025406294e-05,6.832458759441543e-06,3.2,3.667
0.88671875,3.7107656195925866e-05,3.8570226120393695e-05,2.391527547722593e-05,7.31510683451593e-06,3.2,3.667
0.890625,4.638034951705198e-05,4.5897701441977586e-05,3.6610382421606796e-05,8.295028683909378e-06,3.2,3.667
0.89453125,4.3937857743190686e-05,3.6610382421606796e-05,5.1747981139848956e-05,1.708507392996111e-05,3.2,3.667
0.8984375,3.6610382421606796e-05,4.686299759212636e-05,2.7820337175555066e-05,2.0507487553215867e-05,3.2,3.667
0.90234375,3.955014796978716e-05,4.882284129091327e-05,4.849052872511095e-07,1.562250400549327e-05,3.2,3.667
0.90625,5.0285411215381113e-05,3.7107656195925866e-05,9.757598608377222e-06,1.51252302311742e-05,3.2,3.667
0.91015625,5.468774668802932e-05,4.295793589379722e-05,2.197005747768371e-05,1.610515208056766e-05,3.2,3.667
0.9140625,4.784291944151982e-05,5.663296468757154e-05,2.5875119176012844e-05,1.562250400549327e-05,3.2,3.667
0.91796875,5.1747981139848956e-05,5.8592808386358454e-05,2.8317610949874137e-05,1.562250400549327e-05,3.2,3.667
0.921875,5.1747981139848956e-05,5.0285411215381113e-05,2.5875119176012844e-05,1.2682738457312907e-05,3.2,3.667
0.92578125,5.468774668802932e-05,4.1012717894255e-05,5.3698888349737e-06,1.3180012231631976e-05,3.2,3.667
0.9296875,5.809553461203938e-05,2.928290710002291e-05,-7.822491883726229e-06,2.147278370336464e-05,3.2,3.667
0.93359375,5.126533306477456e-05,2.489519732661938e-05,5.852536910048087e-06,2.391527547722593e-05,3.2,3.667
0.9375,4.882284129091327e-05,3.514781249713895e-05,7.31510683451593e-06,1.9527565703822404e-05,3.2,3.667
0.94140625,6.590565800869766e-05,3.7107656195925866e-05,3.892693211261182e-06,2.6855041025406294e-05,3.2,3.667
0.9453125,8.250582665140766e-05,1.2200090382238528e-05,-1.2368487067952571e-08,2.928290710002291e-05,3.2,3.667
0.94921875,7.17705634058137e-05,-1.56326152803845e-05,-2.3940012451361846e-05,2.197005747768371e-05,3.2,3.667
0.953125,6.444308808422983e-05,-2.4548602609292513e-06,2.4301232867933393e-06,8.777676758983772e-06,3.2,3.667
0.95703125,7.079064155642026e-05,5.852536910048087e-06,-9.767709883268459e-06,1.708507392996111e-05,3.2,3.667
0.9609375,8.056060865186543e-05,-6.0050863886472844e-05,-7.811360245365068e-05,4.5897701441977586e-05,3.2,3.667
0.96484375,0.00010399097884184024,-0.000108388799890135,-0.00014599147264820323,4.4917779592584136e-05,3.2,3.667
0.96875,0.00011131845416342415,-0.00012889403023117415,-0.00017138168653696494,3.905287419546809e-05,3.2,3.667
0.97265625,0.0001069307443900206,-0.00015770665774319064,-0.0001625916412909132,6.346316623483636e-05,3.2,3.667
0.9765625,0.00010302568269169148,-0.00019286683872739754,-0.00021190949914396884,7.665554695353629e-05,3.2,3.667
0.98046875,9.960326906843672e-05,-0.0002177597788418402,-0.00024070750095674063,8.494831842526894e-05,3.2,3.667
0.984375,0.00010887596238956285,-0.00024022485288166623,-0.0002685402066193636,8.983330197299155e-05,3.2,3.667
0.98828125,0.00011572078963607233,-0.0002748877600915541,-0.00030370038760357056,8.398302227512018e-05,3.2,3.667
0.9921875,0.00011718335956054019,-0.00030027797398031583,-0.00030662552745250624,9.618085544518197e-05,3.2,3.667
0.99609375,0.00010839331431448846,-0.00032324032179446095,-0.00029785010790569924,0.00010789604054016939,3.2,3.667
1.0,9.277306752117192e-05,-0.00032226039994506746,-0.00029442769428244446,0.0001147408677866789,3.2,3.667
1.00390625,6.200059631036852e-05,-0.00032372296986953535,-0.00030760544930189974,0.0001372059418265049,3.2,3.667
1.0078125,4.149536596932938e-05,-0.000326648109718471,-0.0003007752477546348,0.00015477140661936372,3.2,3.667
1.01171875,4.882284129091327e-05,-0.00030370038760357056,-0.00027050005031815054,0.00015086634492103457,3.2,3.667
1.015625,4.003279604486154e-05,-0.00029687018605630575,-0.0002529199598260471,0.00015184626677042804,3.2,3.667
1.01953125,3.6610382421606796e-05,-0.0003007752477546348,-0.0002524373117509727,0.0001616162338658732,3.2,3.667
1.0234375,3.0760102723735426e-05,-0.00027001740224307614,-0.0002343599474845502,0.00015771117216754408,3.2,3.667
1.02734375,1.610515208056766e-05,-0.00024266734465552755,-0.0002006769621240558,0.00015086634492103457,3.2,3.667
1.03125,3.892693211261182e-06,-0.0002177597788418402,-0.00017528674823529407,0.00015086634492103457,3.2,3.667
1.03515625,-1.2210201657129751e-05,-0.00019286683872739754,-0.00014501155079880976,0.00015086634492103457,3.2,3.667
1.0390625,-2.051759882810709e-05,-0.00018211694978255888,-0.0001132737834378576,0.00015234354054474708,3.2,3.667
1.04296875,-3.663511939574271e-05,-0.00015037918242160673,-7.76309543785763e-05,0.00014305622152437628,3.2,3.667
1.046875,-6.297600373540854e-05,-0.00011473635336232544,-4.639046079194321e-05,0.0001503836968459602,3.2,3.667
1.05078125,-8.592372585030896e-05,-8.836621762417026e-05,-3.760041554589148e-05,0.00015869109401693752,3.2,3.667
1.0546875,-9.1788631247425e-05,-5.225536618905925e-05,9.757598608377222e-06,0.00014696128322270544,3.2,3.667
1.05859375,-8.690364769970242e-05,-2.296009060196839e-05,6.298051815976199e-05,0.00014647863514763104,3.2,3.667
1.0625,-8.836621762417026e-05,-1.56326152803845e-05,5.9075456461432847e-05,0.00015526868039368277,3.2,3.667
1.06640625,-9.42311230212863e-05,-9.776646372167264e-07,7.275048525520716e-05,0.00015330883669489588,3.2,3.667
1.0703125,-9.276855309681846e-05,4.3455209668116294e-05,0.0001264560528816663,0.00014451879144884415,3.2,3.667
1.07421875,-9.374847494621193e-05,6.98107197070268e-05,0.0001425735734493019,0.00013572874620279243,3.2,3.667
1.078125,-9.813618471961544e-05,8.83707320485237e-05,0.0001425735734493019,0.00011766600763561456,3.2,3.667
1.08203125,-0.00010106132456855113,0.00012303363925841154,0.00018163881613183794,0.00010546817446555278,3.2,3.667
1.0859375,-8.93461394735637e-05,0.00013476345005264363,0.00017431134081025406,0.00010154848706797895,3.2,3.667
1.08984375,-8.836621762417026e-05,0.0001381712379766537,0.00017284877088578622,8.739081019913024e-05,3.2,3.667
1.09375,-9.130598317235061e-05,0.00014305622152437628,0.0002021440464728771,7.860076495307854e-05,3.2,3.667
1.09765625,-7.76309543785763e-05,0.0001499010487708858,0.00020556646009613184,6.834814978255896e-05,3.2,3.667
1.1015625,-7.226332275577932e-05,0.0001567312503181506,0.00020458653824673837,5.565304283817809e-05,3.2,3.667
1.10546875,-6.443857365987637e-05,0.00016307880379034105,0.00020068147654840924,5.32105510643168e-05,3.2,3.667
1.109375,-5.760837211261155e-05,0.00016015366394140536,0.00018748909582970931,5.126533306477456e-05,3.2,3.667
1.11328125,-4.298267286793314e-05,0.00017235149711146717,0.00017333141896086062,3.8072952346074645e-05,3.2,3.667
1.1171875,-3.0287565923552273e-05,0.00017773375443350882,0.0001786990505836576,2.6357767251087223e-05,3.2,3.667
1.12109375,-2.930764407415882e-05,0.0001762565588097963,0.00018212146420691234,1.3662660306706357e-05,3.2,3.667
1.125,-1.9055028903639254e-05,0.00018504660405584803,0.00017675383258411537,4.8726150606546385e-06,3.2,3.667
1.12890625,-1.270747543144882e-05,0.00018798636960402838,0.00016063631201647976,4.8726150606546385e-06,3.2,3.667
1.1328125,-1.1727553582055363e-05,0.00019335400122682536,0.0001694263572625315,5.852536910048087e-06,3.2,3.667
1.13671875,-5.38000010986493e-06,0.00020164677269855804,0.0001860265259052415,4.389966985580251e-06,3.2,3.667
1.140625,8.777676758983772e-06,0.0001967764148500801,0.00017235149711146717,-2.9375083360036384e-06,3.2,3.667
1.14453125,1.6587800155642044e-05,0.00018650917398031584,0.00016552129556420233,-3.420156411078025e-06,3.2,3.667
1.1484375,7.812380608834999e-06,0.00017919632435797666,0.0001503836968459602,5.852536910048087e-06,3.2,3.667
1.15234375,1.0240246683451615e-05,0.00018212146420691234,0.00014159365159990847,1.2682738457312907e-05,3.2,3.667
1.15625,1.610515208056766e-05,0.00019189143130235754,0.00015771117216754408,6.832458759441543e-06,3.2,3.667
1.16015625,1.7567722005035504e-05,0.0001899315876035706,0.00014159365159990847,-6.359921959258386e-06,3.2,3.667
1.1640625,2.928290710002291e-05,0.00018114154235751887,0.00012451083488212406,-8.802413733119685e-06,3.2,3.667
1.16796875,3.368524257267111e-05,0.00017967897243305106,0.00012987846650492106,-6.359921959258386e-06,3.2,3.667
1.171875,3.0262828949416358e-05,0.00017040627911192493,0.0001215710693339437,-1.0264983657587521e-05,3.2,3.667
1.17578125,3.1725398873884204e-05,0.00017333141896086062,0.00012303363925841154,-1.0264983657587521e-05,3.2,3.667
1.1796875,3.6610382421606796e-05,0.00017773375443350882,0.00012303363925841154,-5.862648184939317e-06,3.2,3.667
1.18359375,3.124275079880982e-05,0.0001694263572625315,0.00011033853231403068,-7.822491883726229e-06,3.2,3.667
1.1875,3.222267264820327e-05,0.00017186884903639277,0.0001049709006912337,-1.0747631732661909e-05,3.2,3.667
1.19140625,4.051544411993593e-05,0.00016746651356374458,0.0001049709006912337,-1.3672771581597594e-05,3.2,3.667
1.1953125,3.7107656195925866e-05,0.00015624860224307624,0.00010643347061570156,-1.611526335545889e-05,3.2,3.667
1.19921875,3.8570226120393695e-05,0.00015526868039368277,0.00011668608578622112,-1.2210201657129751e-05,3.2,3.667
1.203125,3.955014796978716e-05,0.00015819382024261848,0.00011668608578622112,-1.270747543144882e-05,3.2,3.667
1.20703125,3.905287419546809e-05,0.00014940377499656672,0.00010008591714351112,-1.4170045355916663e-05,3.2,3.667
1.2109375,4.4917779592584136e-05,0.000140613729750515,9.129587189745938e-05,-1.465269343099105e-05,3.2,3.667
1.21484375,4.882284129091327e-05,0.0001376885899015793,0.00010154848706797895,-1.2210201657129751e-05,3.2,3.667
1.21875,5.565304283817809e-05,0.0001333008801281758,0.00011912857756008242,-1.2210201657129751e-05,3.2,3.667
1.22265625,6.151794823529415e-05,0.0001313410364293889,0.00011278102408789198,-1.2210201657129751e-05,3.2,3.667
1.2265625,7.12879153307393e-05,0.00012743597473105974,9.81406991439689e-05,-8.802413733119685e-06,3.2,3.667
1.23046875,7.275048525520716e-05,0.00011864592948500802,0.00010154848706797895,-7.822491883726229e-06,3.2,3.667
1.234375,7.323313333028156e-05,0.00011816328140993363,9.764342536964982e-05,-7.822491883726229e-06,3.2,3.667
1.23828125,7.17705634058137e-05,0.0001215710693339437,8.983330197299155e-05,-6.359921959258386e-06,3.2,3.667
1.2421875,5.565304283817809e-05,0.00011181572793774322,8.007796057679104e-05,-4.882726335545868e-06,3.2,3.667
1.24609375,5.1747981139848956e-05,0.00010595082254062716,6.738285363241019e-05,-1.9575864866101822e-06,3.2,3.667
1.25,4.980276314030672e-05,0.00010643347061570156,6.738285363241019e-05,2.4301232867933393e-06,3.2,3.667
1.25390625,4.4917779592584136e-05,0.00010985588423895629,7.17705634058137e-05,-1.2368487067952571e-08,3.2,3.667
1.2578125,4.3455209668116294e-05,0.00010643347061570156,8.056060865186543e-05,3.410045136186795e-06,3.2,3.667
1.26171875,3.8570226120393695e-05,9.373836367132068e-05,8.348574850080111e-05,7.31510683451593e-06,3.2,3.667
1.265625,4.5400427667658515e-05,9.471828552071414e-05,7.567562510414284e-05,1.947475211718952e-06,3.2,3.667
1.26953125,4.5897701441977586e-05,9.667812921950104e-05,7.421305517967499e-05,4.389966985580251e-06,3.2,3.667
1.2734375,4.4420505818265065e-05,0.00010058319091783019,9.0813223822385e-05,1.3662660306706357e-05,3.2,3.667
1.27734375,3.563046057221334e-05,0.00010595082254062716,0.00010252840891737241,1.1717442307164134e-05,3.2,3.667
1.28125,2.978018087434198e-05,8.88533801235981e-05,8.83707320485237e-05,1.4648271366445655e-06,3.2,3.667
1.28515625,3.514781249713895e-05,7.22532114808881e-05,6.640293178301672e-05,-2.9375083360036384e-06,3.2,3.667
1.2890625,3.61277343465324e-05,7.323313333028156e-05,6.834814978255896e-05,2.4301232867933393e-06,3.2,3.667
1.29296875,4.295793589379722e-05,7.22532114808881e-05,7.421305517967499e-05,7.31510683451593e-06,3.2,3.667
1.296875,4.3937857743190686e-05,6.834814978255896e-05,7.373040710460063e-05,4.8726150606546385e-06,3.2,3.667
1.30078125,4.295793589379722e-05,6.98107197070268e-05,7.615827317921724e-05,3.410045136186795e-06,3.2,3.667
1.3046875,5.663296468757154e-05,6.640293178301672e-05,7.030799348134586e-05,7.31510683451593e-06,3.2,3.667
1.30859375,6.0055378310826296e-05,6.932807163195242e-05,6.346316623483636e-05,1.3662660306706357e-05,3.2,3.667
1.3125,4.83255675165942e-05,0.00010058319091783019,9.912062099336234e-05,1.1220168532845065e-05,3.2,3.667
1.31640625,4.5400427667658515e-05,0.00011376094593728543,0.00012547613103227286,2.9273970611124084e-06,3.2,3.667
1.3203125,5.615031661249716e-05,6.0055378310826296e-05,5.7612886536965004e-05,-1.2368487067952571e-08,3.2,3.667
1.32421875,4.784291944151982e-05,9.274950533302842e-06,9.675533623254964e-07,4.389966985580251e-06,3.2,3.667
1.328125,4.686299759212636e-05,-1.0747631732661909e-05,-1.1727553582055363e-05,1.1220168532845065e-05,3.2,3.667
1.33203125,3.6610382421606796e-05,-2.7347800375371913e-05,-3.321270577248796e-05,1.562250400549327e-05,3.2,3.667
1.3359375,3.0262828949416358e-05,-2.2462816827649318e-05,-2.930764407415882e-05,9.274950533302842e-06,3.2,3.667
1.33984375,5.2727902989242406e-05,-5.760837211261155e-05,-5.273801426413364e-05,3.410045136186795e-06,3.2,3.667
1.34375,5.419047291371025e-05,-6.737833920805672e-05,-6.493584743419544e-05,2.4301232867933393e-06,3.2,3.667
1.34765625,4.4917779592584136e-05,-5.420058418860148e-05,-5.518050603799494e-05,1.947475211718952e-06,3.2,3.667
1.3515625,2.6357767251087223e-05,-6.884090913252456e-05,-5.5677779812313995e-05,-2.4548602609292513e-06,3.2,3.667
1.35546875,2.880025902494853e-05,-3.663511939574271e-05,-3.2715431998168894e-05,-5.862648184939317e-06,3.2,3.667
1.359375,4.784291944151982e-05,-2.588523045090407e-05,-1.709518520485234e-05,3.892693211261182e-06,3.2,3.667
1.36328125,4.882284129091327e-05,-2.4905308601510617e-05,-7.822491883726229e-06,1.2200090382238528e-05,3.2,3.667
1.3671875,4.686299759212636e-05,-7.3252181094071595e-06,1.2682738457312907e-05,9.757598608377222e-06,3.2,3.667
1.37109375,4.4420505818265065e-05,-3.917430185397095e-06,2.245270555275809e-05,7.31510683451593e-06,3.2,3.667
1.375,4.4420505818265065e-05,9.757598608377222e-06,2.0990135628290246e-05,4.8726150606546385e-06,3.2,3.667
1.37890625,4.2475287818722844e-05,2.391527547722593e-05,4.2475287818722844e-05,1.947475211718952e-06,3.2,3.667
1.3828125,3.563046057221334e-05,2.5377845401693774e-05,4.784291944151982e-05,8.295028683909378e-06,3.2,3.667
1.38671875,3.905287419546809e-05,2.0507487553215867e-05,4.295793589379722e-05,1.708507392996111e-05,3.2,3.667
1.390625,3.8072952346074645e-05,1.806499577935456e-05,5.126533306477456e-05,1.2200090382238528e-05,3.2,3.667
1.39453125,4.2475287818722844e-05,3.368524257267111e-05,6.249787008468759e-05,6.832458759441543e-06,3.2,3.667
1.3984375,4.295793589379722e-05,4.197801404440378e-05,6.494036185854887e-05,5.852536910048087e-06,3.2,3.667
1.40234375,3.905287419546809e-05,4.295793589379722e-05,6.298051815976199e-05,5.852536910048087e-06,3.2,3.667
1.40625,4.686299759212636e-05,4.4917779592584136e-05,6.688557985809112e-05,7.31510683451593e-06,3.2,3.667
1.41015625,4.4917779592584136e-05,3.905287419546809e-05,7.323313333028156e-05,7.31510683451593e-06,3.2,3.667
1.4140625,3.8072952346074645e-05,4.5897701441977586e-05,8.983330197299155e-05,8.777676758983772e-06,3.2,3.667
1.41796875,3.8072952346074645e-05,4.736027136644543e-05,9.179314567177845e-05,6.832458759441543e-06,3.2,3.667
1.421875,3.270532072327767e-05,3.416789064774551e-05,7.860076495307854e-05,9.757598608377222e-06,3.2,3.667
1.42578125,2.5377845401693774e-05,2.7820337175555066e-05,7.763546880292974e-05,7.31510683451593e-06,3.2,3.667
1.4296875,2.978018087434198e-05,3.955014796978716e-05,7.615827317921724e-05,-1.2368487067952571e-08,3.2,3.667
1.43359375,3.416789064774551e-05,4.295793589379722e-05,8.592824027466241e-05,7.31510683451593e-06,3.2,3.667
1.4375,4.3937857743190686e-05,4.1012717894255e-05,9.179314567177845e-05,1.610515208056766e-05,3.2,3.667
1.44140625,5.711561276264593e-05,4.1012717894255e-05,8.83707320485237e-05,9.757598608377222e-06,3.2,3.667
1.4453125,4.83255675165942e-05,3.7590304271000245e-05,9.667812921950104e-05,2.4301232867933393e-06,3.2,3.667
1.44921875,3.0760102723735426e-05,4.2475287818722844e-05,9.667812921950104e-05,5.852536910048087e-06,3.2,3.667
1.453125,2.880025902494853e-05,4.736027136644543e-05,9.373836367132068e-05,1.1220168532845065e-05,3.2,3.667
1.45703125,2.391527547722593e-05,5.1747981139848956e-05,0.00010985588423895629,1.4642582156099819e-05,3.2,3.667
1.4609375,2.4412549251545002e-05,4.5400427667658515e-05,9.129587189745938e-05,2.0010213778896796e-05,3.2,3.667
1.46484375,3.270532072327767e-05,3.905287419546809e-05,6.834814978255896e-05,2.197005747768371e-05,3.2,3.667
1.46875,3.7590304271000245e-05,4.5400427667658515e-05,6.590565800869766e-05,2.343262740215154e-05,3.2,3.667
1.47265625,4.686299759212636e-05,4.295793589379722e-05,6.444308808422983e-05,1.9527565703822404e-05,3.2,3.667
1.4765625,4.784291944151982e-05,5.224525491416803e-05,7.22532114808881e-05,1.2200090382238528e-05,3.2,3.667
1.48046875,3.61277343465324e-05,5.565304283817809e-05,7.763546880292974e-05,1.562250400549327e-05,3.2,3.667
1.484375,1.610515208056766e-05,4.5897701441977586e-05,7.22532114808881e-05,1.1717442307164134e-05,3.2,3.667
1.48828125,1.1717442307164134e-05,3.905287419546809e-05,7.079064155642026e-05,1.51252302311742e-05,3.2,3.667
1.4921875,2.6357767251087223e-05,3.514781249713895e-05,8.300310042572673e-05,2.7337689100480687e-05,3.2,3.667
1.49609375,3.124275079880982e-05,3.905287419546809e-05,8.983330197299155e-05,2.197005747768371e-05,3.2,3.667
1.5,2.343262740215154e-05,3.222267264820327e-05,9.520093359578854e-05,1.4159934081025426e-05,3.2,3.667
1.50390625,2.0507487553215867e-05,2.489519732661938e-05,9.716077729457544e-05,2.489519732661938e-05,3.2,3.667
1.5078125,4.197801404440378e-05,3.222267264820327e-05,6.396044000915543e-05,2.6855041025406294e-05,3.2,3.667
1.51171875,4.003279604486154e-05,3.7590304271000245e-05,4.784291944151982e-05,2.147278370336464e-05,3.2,3.667
1.515625,2.0507487553215867e-05,3.563046057221334e-05,6.0055378310826296e-05,2.7820337175555066e-05,3.2,3.667
1.51953125,2.0507487553215867e-05,3.514781249713895e-05,5.126533306477456e-05,2.0990135628290246e-05,3.2,3.667
1.5234375,2.0507487553215867e-05,2.928290710002291e-05,4.4917779592584136e-05,1.0240246683451615e-05,3.2,3.667
1.52734375,3.124275079880982e-05,3.466516442206456e-05,3.7590304271000245e-05,1.610515208056766e-05,3.2,3.667
1.53125,4.9305489365987664e-05,4.686299759212636e-05,3.368524257267111e-05,2.0507487553215867e-05,3.2,3.667
1.53515625,5.0285411215381113e-05,4.638034951705198e-05,3.466516442206456e-05,2.5377845401693774e-05,3.2,3.667
1.5390625,3.7590304271000245e-05,4.149536596932938e-05,4.051544411993593e-05,2.8317610949874137e-05,3.2,3.667
1.54296875,3.416789064774551e-05,3.124275079880982e-05,4.1012717894255e-05,2.5377845401693774e-05,3.2,3.667
1.546875,3.61277343465324e-05,2.489519732661938e-05,4.149536596932938e-05,2.197005747768371e-05,3.2,3.667
1.55078125,3.61277343465324e-05,2.489519732661938e-05,3.8072952346074645e-05,1.806499577935456e-05,3.2,3.667
1.5546875,3.61277343465324e-05,2.928290710002291e-05,4.051544411993593e-05,2.0990135628290246e-05,3.2,3.667
1.55859375,3.368524257267111e-05,3.7590304271000245e-05,7.615827317921724e-05,2.245270555275809e-05,3.2,3.667
1.5625,2.880025902494853e-05,4.686299759212636e-05,6.932807163195242e-05,1.1717442307164134e-05,3.2,3.667
1.56640625,1.0240246683451615e-05,4.736027136644543e-05,4.4917779592584136e-05,1.0240246683451615e-05,3.2,3.667
1.5703125,1.2200090382238528e-05,3.1725398873884204e-05,5.32105510643168e-05,2.7337689100480687e-05,3.2,3.667
1.57421875,5.7612886536965004e-05,5.076805929045549e-05,5.126533306477456e-05,2.147278370336464e-05,3.2,3.667
1.578125,6.590565800869766e-05,9.423563744563975e-05,5.419047291371025e-05,1.708507392996111e-05,3.2,3.667
1.58203125,4.4420505818265065e-05,2.489519732661938e-05,9.274950533302842e-06,4.4917779592584136e-05,3.2,3.667
1.5859375,4.980276314030672e-05,-5.420058418860148e-05,-5.809102018768594e-05,5.565304283817809e-05,3.2,3.667
1.58984375,4.5400427667658515e-05,-5.225536618905925e-05,-5.809102018768594e-05,5.126533306477456e-05,3.2,3.667
1.59375,3.124275079880982e-05,-8.007344615243759e-05,-7.420854075532155e-05,5.663296468757154e-05,3.2,3.667
1.59765625,3.124275079880982e-05,-0.00011425370528725105,-0.00012352639860837718,5.9558104536507226e-05,3.2,3.667
1.6015625,4.5400427667658515e-05,-0.00016161171944151977,-0.00016649670298924234,6.688557985809112e-05,3.2,3.667
1.60546875,5.663296468757154e-05,-0.00020165688397344924,-0.0001870019333302815,6.151794823529415e-05,3.2,3.667
1.609375,4.736027136644543e-05,-0.00022704709786221098,-0.0002172771307667658,5.711561276264593e-05,3.2,3.667
1.61328125,1.562250400549327e-05,-0.0002900253588097962,-0.00027831017371480885,9.325571559624628e-05,3.2,3.667
1.6171875,4.389966985580251e-06,-0.0003500931056076905,-0.00032274304802014186,0.0001425735734493019,3.2,3.667
1.62109375,4.638034951705198e-05,-0.00037742853749599445,-0.0003666932742504005,0.00015819382024261848,3.2,3.667
1.625,6.249787008468759e-05,-0.00040233610330968176,-0.00039989361153582053,0.00016015366394140536,3.2,3.667
1.62890625,5.2727902989242406e-05,-0.00043797893236896307,-0.0004335912225955596,0.0001806588942824445,3.2,3.667
1.6328125,5.224525491416803e-05,-0.0004428639159166857,-0.00043846158044403747,0.00018944893952849623,3.2,3.667
1.63671875,5.076805929045549e-05,-0.00042333860742503995,-0.00038427336474250397,0.0001855438778301671,3.2,3.667
1.640625,5.3707824838635856e-05,-0.00040820100870679783,-0.0003681558441748683,0.00017529126265964753,3.2,3.667
1.64453125,4.3937857743190686e-05,-0.00037402074957198437,-0.0003564406590798809,0.00016111896009155416,3.2,3.667
1.6484375,1.7567722005035504e-05,-0.0003344582331151293,-0.00033153309326619355,0.00016209888194094758,3.2,3.667
1.65234375,4.8726150606546385e-06,-0.00030760544930189974,-0.0003173754163973449,0.00016600394363927673,3.2,3.667
1.65625,6.335184985122481e-06,-0.00031297308092469666,-0.0003081027230762188,0.00017479398888532846,3.2,3.667
1.66015625,-1.1230279807736301e-05,-0.000288080140810254,-0.00028758286703593495,0.00017040627911192493,3.2,3.667
1.6640625,-3.22327839230945e-05,-0.0002368024392584115,-0.00023045488578622106,0.0001596563901670863,3.2,3.667
1.66796875,-3.077021399862666e-05,-0.00023193208140993355,-0.0002172771307667658,0.00014599598707255664,3.2,3.667
1.671875,-4.298267286793314e-05,-0.00019286683872739754,-0.0001894444251041428,0.00012938119273060199,3.2,3.667
1.67578125,-4.933022634012357e-05,-0.00013035660015564202,-0.0001596665014419775,0.00012743597473105974,3.2,3.667
1.6796875,-3.3695353847562344e-05,-9.471377109636069e-05,-0.00010644358189059278,0.0001147408677866789,3.2,3.667
1.68359375,-3.1252862073701044e-05,-9.521104487067976e-05,-7.616838445410846e-05,0.00010839331431448846,3.2,3.667
1.6875,-4.2002751018539684e-05,-9.227127932249939e-05,-0.00010496638626688025,0.00010789604054016939,3.2,3.667
1.69140625,-4.737038264133666e-05,-5.7125724037537166e-05,-7.470581452964062e-05,0.00010008591714351112,3.2,3.667
1.6953125,-4.394796901808191e-05,-4.492789086747537e-05,-5.12754443396658e-05,9.325571559624628e-05,3.2,3.667
1.69921875,-5.12754443396658e-05,-2.5402582375829685e-05,-4.248539909361407e-05,8.592824027466241e-05,3.2,3.667
1.703125,-5.5677779812313995e-05,1.610515208056766e-05,3.892693211261182e-06,7.763546880292974e-05,3.2,3.667
1.70703125,-5.9070942037079395e-05,3.61277343465324e-05,3.514781249713895e-05,6.298051815976199e-05,3.2,3.667
1.7109375,-5.809102018768594e-05,5.3707824838635856e-05,3.955014796978716e-05,4.980276314030672e-05,3.2,3.667
1.71484375,-3.809768932021055e-05,7.17705634058137e-05,3.8072952346074645e-05,6.0538026385900675e-05,3.2,3.667
1.71875,-2.051759882810709e-05,7.90980387273976e-05,4.4917779592584136e-05,5.663296468757154e-05,3.2,3.667
1.72265625,-2.296009060196839e-05,9.0813223822385e-05,5.126533306477456e-05,4.1012717894255e-05,3.2,3.667
1.7265625,-3.5157923772030186e-05,0.0001069307443900206,6.200059631036852e-05,4.3937857743190686e-05,3.2,3.667
1.73046875,-3.321270577248796e-05,0.00011033853231403068,7.22532114808881e-05,3.7107656195925866e-05,3.2,3.667
1.734375,-2.1980168752574932e-05,0.00011229837601281758,8.250582665140766e-05,2.6855041025406294e-05,3.2,3.667
1.73828125,-1.611526335545889e-05,0.00012353091303273062,9.912062099336234e-05,1.806499577935456e-05,3.2,3.667
1.7421875,-1.8557755129320183e-05,0.00012693870095674067,0.00010008591714351112,1.2682738457312907e-05,3.2,3.667
1.74609375,-2.3442738677042775e-05,0.0001313410364293889,9.0813223822385e-05,4.8726150606546385e-06,3.2,3.667
1.75,-1.7577833279926727e-05,0.00013915115982604718,9.569820737010758e-05,-4.400078260471481e-06,3.2,3.667
1.75390625,-7.822491883726229e-06,0.00013964843360036625,0.00010106583899290458,-7.3252181094071595e-06,3.2,3.667
1.7578125,-1.8075107054245797e-05,0.00014111100352483407,0.00011376094593728543,-2.4548602609292513e-06,3.2,3.667
1.76171875,-2.3442738677042775e-05,0.000140613729750515,0.00012255099118333717,-9.776646372167264e-07,3.2,3.667
1.765625,-1.3190123506523206e-05,0.0001372059418265049,0.00011864592948500802,-1.1230279807736301e-05,3.2,3.667
1.76953125,-3.917430185397095e-06,0.00013572874620279243,0.00011522351586175326,-1.0264983657587521e-05,3.2,3.667
1.7734375,1.0737520457770684e-05,0.0001425735734493019,0.00012889854465552759,-1.2210201657129751e-05,3.2,3.667
1.77734375,5.3698888349737e-06,0.00014842385314717328,0.00016015366394140536,-1.9055028903639254e-05,3.2,3.667
1.78125,-1.0747631732661909e-05,0.00014696128322270544,0.00016356145186541545,-2.4905308601510617e-05,3.2,3.667
1.78515625,9.675533623254964e-07,0.00014305622152437628,0.00011278102408789198,-3.4192627621881414e-05,3.2,3.667
1.7890625,2.4412549251545002e-05,0.00014111100352483407,9.764342536964982e-05,-2.6367878525978456e-05,3.2,3.667
1.79296875,1.8547643854428954e-05,0.0001381712379766537,0.00011229837601281758,-2.2462816827649318e-05,3.2,3.667
1.796875,9.274950533302842e-06,0.00014305622152437628,9.423563744563975e-05,-2.7347800375371913e-05,3.2,3.667
1.80078125,1.0737520457770684e-05,0.0001376885899015793,8.592824027466241e-05,-2.1497520677500546e-05,3.2,3.667
1.8046875,1.562250400549327e-05,0.00013426617627832456,8.300310042572673e-05,-1.1727553582055363e-05,3.2,3.667
1.80859375,2.928290710002291e-05,0.00013378352820325018,6.98107197070268e-05,-8.802413733119685e-06,3.2,3.667
1.8125,3.6610382421606796e-05,0.00012791862280613414,6.688557985809112e-05,-1.8075107054245797e-05,3.2,3.667
1.81640625,2.7820337175555066e-05,0.00012597340480659193,7.811811687800414e-05,-2.1980168752574932e-05,3.2,3.667
1.8203125,1.708507392996111e-05,0.00012303363925841154,9.179314567177845e-05,-1.6612537129777955e-05,3.2,3.667
1.82421875,1.9527565703822404e-05,0.00011816328140993363,7.17705634058137e-05,-1.56326152803845e-05,3.2,3.667
1.828125,2.978018087434198e-05,0.00010595082254062716,4.638034951705198e-05,-3.565519754634926e-05,3.2,3.667
1.83203125,2.343262740215154e-05,9.325571559624628e-05,4.3937857743190686e-05,-3.6137845621423636e-05,3.2,3.667
1.8359375,1.6587800155642044e-05,8.788808397344931e-05,4.4420505818265065e-05,-9.767709883268459e-06,3.2,3.667
1.83984375,2.5875119176012844e-05,7.22532114808881e-05,2.7820337175555066e-05,-4.950165621423394e-07,3.2,3.667
1.84375,3.514781249713895e-05,6.738285363241019e-05,5.3698888349737e-06,3.410045136186795e-06,3.2,3.667
1.84765625,4.149536596932938e-05,6.298051815976199e-05,-8.802413733119685e-06,1.562250400549327e-05,3.2,3.667
1.8515625,4.1012717894255e-05,5.32105510643168e-05,-2.2462816827649318e-05,1.4642582156099819e-05,3.2,3.667
1.85546875,4.5897701441977586e-05,4.736027136644543e-05,-3.760041554589148e-05,1.2200090382238528e-05,3.2,3.667
1.859375,4.638034951705198e-05,2.245270555275809e-05,-4.737038264133666e-05,2.197005747768371e-05,3.2,3.667
1.86328125,4.784291944151982e-05,-1.1230279807736301e-05,-8.201866415197983e-05,2.147278370336464e-05,3.2,3.667
1.8671875,6.444308808422983e-05,-5.32352880384527e-05,-0.000124988968532845,2.4412549251545002e-05,3.2,3.667
1.87109375,8.202317857633326e-05,-8.201866415197983e-05,-0.00014989653434653233,3.563046057221334e-05,3.2,3.667
1.875,8.739081019913024e-05,-0.00012841138215609975,-0.00018357951970702675,5.076805929045549e-05,3.2,3.667
1.87890625,7.860076495307854e-05,-0.00015331894796978708,-0.00017919180993362322,5.51703947631037e-05,3.2,3.667
1.8828125,0.0001069307443900206,-0.0001601491495170519,-0.00020019431404898143,5.468774668802932e-05,3.2,3.667
1.88671875,0.00013476345005264363,-0.00022558452793774314,-0.00028465772718699926,7.421305517967499e-05,3.2,3.667
1.890625,0.00013572874620279243,-0.00026171000507209884,-0.0002915025544335087,7.958068680247197e-05,3.2,3.667
1.89453125,0.00014794120507209888,-0.00026171000507209884,-0.0002929651243579766,6.738285363241019e-05,3.2,3.667
1.8984375,0.00015380611046921492,-0.0002534172336003662,-0.0003276280315678645,6.396044000915543e-05,3.2,3.667
1.90234375,0.00016307880379034105,-0.00022801239401235978,-0.0002954076161318379,4.83255675165942e-05,3.2,3.667
1.90625,0.00019189143130235754,-0.00023387729940947582,-0.0002836778053376058,3.0760102723735426e-05,3.2,3.667
1.91015625,0.00020262669454795148,-0.0002343599474845502,-0.0003022378176791027,-1.1727553582055363e-05,3.2,3.667
1.9140625,0.00020068147654840924,-0.0002011596101991302,-0.00027831017371480885,-2.588523045090407e-05,3.2,3.667
1.91796875,0.00019091150945296407,-0.00018553936340581363,-0.00025828759144884406,1.8547643854428954e-05,3.2,3.667
1.921875,0.00019433392307621883,-0.00018553936340581363,-0.00025145738990157925,3.0262828949416358e-05,3.2,3.667
1.92578125,0.00022020678504005496,-0.00018261422355687795,-0.0002504774680521858,1.2200090382238528e-05,3.2,3.667
1.9296875,0.00022216662873884182,-0.00014891661249713889,-0.00022118219246509494,-8.305139958800616e-06,3.2,3.667
1.93359375,0.00020751167809567408,-9.471377109636069e-05,-0.00016551678113984887,-3.2715431998168894e-05,3.2,3.667
1.9375,0.00020995416986953534,-7.128340090638588e-05,-0.00014793669064774544,-4.737038264133666e-05,3.2,3.667
1.94140625,0.00020849159994506755,-5.7125724037537166e-05,-0.00012596889038223846,-5.7125724037537166e-05,3.2,3.667
1.9453125,0.00020018420277409017,-4.2002751018539684e-05,-7.76309543785763e-05,-7.713368060425723e-05,3.2,3.667
1.94921875,0.0001923740793774319,-2.588523045090407e-05,-8.055609422751199e-05,-9.325120117189286e-05,3.2,3.667
1.953125,0.00018650917398031584,4.3455209668116294e-05,-4.590781271686882e-05,-0.00011181121351338975,3.2,3.667
1.95703125,0.00018504660405584803,7.469570325474939e-05,9.675533623254964e-07,-0.000124988968532845,3.2,3.667
1.9609375,0.00017675383258411537,8.788808397344931e-05,-6.359921959258386e-06,-0.00013329636570382235,3.2,3.667
1.96484375,0.00017381406703593502,0.00015136361869535364,6.200059631036852e-05,-0.00013377901377889675,3.2,3.667
1.96875,0.00010448825261615931,9.81406991439689e-05,-0.00018505671533073923,-0.00014305170710002284,3.2,3.667
1.97265625,2.5875119176012844e-05,2.343262740215154e-05,-0.0005200144794323644,-0.00015526416596932933,3.2,3.667
1.9765625,5.1747981139848956e-05,7.22532114808881e-05,-0.0004706966215793087,-0.00015331894796978708,3.2,3.667
1.98046875,9.227579374685285e-05,9.520093359578854e-05,-0.0004184536238773174,-0.00014599147264820323,3.2,3.667
1.984375,0.00011766600763561456,0.00011522351586175326,-0.0003881784264408331,-0.00014647412072327763,3.2,3.667
1.98828125,0.00012255099118333717,0.00015869109401693752,-0.00033984049043717096,-0.00015624408781872277,3.2,3.667
1.9921875,0.00010839331431448846,0.00017479398888532846,-0.00028417507911192487,-0.00014843396442206451,3.2,3.667
1.99609375,0.00011912857756008242,0.00018944893952849623,-0.00022264476238956278,-0.00013914664540169372,3.2,3.667
2.0,0.00012451083488212406,0.000209471521794461,-0.0001630742893659876,-0.00012987395208056762,3.2,3.667
2.00390625,0.00011572078963607233,0.0002441344290043488,-0.0001269488122316319,-0.00013279909192950328,3.2,3.667
2.0078125,0.00011131845416342415,0.00022655433851224535,-0.00012596889038223846,-0.0001274314603067063,3.2,3.667
2.01171875,0.00011278102408789198,0.00022997675213550013,-8.642099962462802e-05,-0.00011913868883497365,3.2,3.667
2.015625,0.00012108842125886932,0.00027635484444037535,-3.321270577248796e-05,-0.00011571627521171891,3.2,3.667
2.01953125,0.00011816328140993363,0.0002656195811947814,1.610515208056766e-05,-0.0001015585983428702,3.2,3.667
2.0234375,0.00010937323616388192,0.000253904396099794,3.0262828949416358e-05,-9.569369294575414e-05,3.2,3.667
2.02734375,0.00010937323616388192,0.0002568295359487297,2.489519732661938e-05,-0.0001015585983428702,3.2,3.667
2.03125,0.0001069307443900206,0.000253407122325475,4.9305489365987664e-05,-0.00010350381634241241,3.2,3.667
2.03515625,0.00010350833076676588,0.00026463965934538796,8.348574850080111e-05,-9.374847494621193e-05,3.2,3.667
2.0390625,9.912062099336234e-05,0.0002685447210437171,0.00010448825261615931,-7.567111067978939e-05,3.2,3.667
2.04296875,8.983330197299155e-05,0.00024559699892881667,0.00010106583899290458,-6.591576928358889e-05,3.2,3.667
2.046875,7.17705634058137e-05,0.0002329018919844358,0.0001069307443900206,-6.297600373540854e-05,3.2,3.667
2.05078125,5.7612886536965004e-05,0.00023680695368276497,0.00012206834310826277,-5.079279626459142e-05,3.2,3.667
2.0546875,6.249787008468759e-05,0.00022313192488899062,0.0001308583883543145,-4.248539909361407e-05,3.2,3.667
2.05859375,5.51703947631037e-05,0.00019970155469901577,0.00015184626677042804,-3.711776747081709e-05,3.2,3.667
2.0625,4.1012717894255e-05,0.0001972590629251545,0.00016796378733806362,-2.979029214923321e-05,3.2,3.667
2.06640625,2.880025902494853e-05,0.00018798636960402838,0.00015771117216754408,-2.5402582375829685e-05,3.2,3.667
2.0703125,2.4412549251545002e-05,0.00017381406703593502,0.00013426617627832456,-2.1497520677500546e-05,3.2,3.667
2.07421875,2.489519732661938e-05,0.00016209888194094758,0.00013524609812771803,-1.56326152803845e-05,3.2,3.667
2.078125,2.5875119176012844e-05,0.00014892112692149232,0.00016503864748912793,-5.862648184939317e-06,3.2,3.667
2.08203125,1.6587800155642044e-05,0.00016307880379034105,0.0001757739107347219,2.9273970611124084e-06,3.2,3.667
2.0859375,-4.400078260471481e-06,0.0001503836968459602,0.00017333141896086062,9.757598608377222e-06,3.2,3.667
2.08984375,-7.3252181094071595e-06,0.0001147408677866789,0.00015819382024261848,9.274950533302842e-06,3.2,3.667
2.09375,-6.842570034332773e-06,0.00012693870095674067,0.00016454137371480886,2.9273970611124084e-06,3.2,3.667
2.09765625,-5.38000010986493e-06,0.00012791862280613414,0.00019285672745250628,1.562250400549327e-05,3.2,3.667
2.1015625,4.389966985580251e-06,0.00011718335956054019,0.00019189143130235754,3.1725398873884204e-05,3.2,3.667
2.10546875,-6.842570034332773e-06,0.00010789604054016939,0.00018310138605630581,2.6855041025406294e-05,3.2,3.667
2.109375,-1.8557755129320183e-05,0.00011181572793774322,0.00020849159994506755,2.6855041025406294e-05,3.2,3.667
2.11328125,-1.1230279807736301e-05,0.00011718335956054019,0.00021337658349279012,2.7337689100480687e-05,3.2,3.667
2.1171875,-1.9575864866101822e-06,9.129587189745938e-05,0.00017529126265964753,3.1725398873884204e-05,3.2,3.667
2.12109375,-1.9575864866101822e-06,8.88533801235981e-05,0.00016600394363927673,4.149536596932938e-05,3.2,3.667
2.125,5.3698888349737e-06,0.00010302568269169148,0.00018456395598077363,3.222267264820327e-05,3.2,3.667
2.12890625,1.4642582156099819e-05,0.00011131845416342415,0.00019823898477454795,2.147278370336464e-05,3.2,3.667
2.1328125,2.928290710002291e-05,0.0001264560528816663,0.00021728164519111925,8.777676758983772e-06,3.2,3.667
2.13671875,3.7590304271000245e-05,0.00011083580608834975,0.0001952992192263676,5.3698888349737e-06,3.2,3.667
2.140625,2.7820337175555066e-05,0.00010789604054016939,0.0001923740793774319,1.4648271366445655e-06,3.2,3.667
2.14453125,3.7107656195925866e-05,0.00011718335956054019,0.0002065317562462806,-3.917430185397095e-06,3.2,3.667
2.1484375,5.1747981139848956e-05,0.00011668608578622112,0.00020068147654840924,9.675533623254964e-07,3.2,3.667
2.15234375,5.51703947631037e-05,0.00013670866805218587,0.00020751167809567408,-1.4749384115357955e-06,3.2,3.667
2.15625,4.83255675165942e-05,0.00012987846650492106,0.00019433392307621883,2.4301232867933393e-06,3.2,3.667
2.16015625,2.7337689100480687e-05,0.00010546817446555278,0.00019335400122682536,4.389966985580251e-06,3.2,3.667
2.1640625,2.293535362783248e-05,0.00010399097884184024,0.00021434187964293892,7.31510683451593e-06,3.2,3.667
2.16796875,3.7107656195925866e-05,0.00010008591714351112,0.00021191401356832228,1.708507392996111e-05,3.2,3.667
2.171875,4.003279604486154e-05,9.471828552071414e-05,0.0001923740793774319,1.7567722005035504e-05,3.2,3.667
2.17578125,3.8072952346074645e-05,9.423563744563975e-05,0.00018748909582970931,8.777676758983772e-06,3.2,3.667
2.1796875,3.466516442206456e-05,9.227579374685285e-05,0.0001762565588097963,8.777676758983772e-06,3.2,3.667
2.18359375,3.8072952346074645e-05,9.129587189745938e-05,0.00017333141896086062,1.903029192950335e-05,3.2,3.667
2.1875,4.83255675165942e-05,8.935065389791717e-05,0.00017675383258411537,2.6357767251087223e-05,3.2,3.667
2.19140625,4.149536596932938e-05,8.544559219958801e-05,0.00016990900533760586,3.320259449759672e-05,3.2,3.667
2.1953125,2.245270555275809e-05,7.079064155642026e-05,0.00017333141896086062,3.6610382421606796e-05,3.2,3.667
2.19921875,2.0990135628290246e-05,6.0538026385900675e-05,0.0001694263572625315,3.955014796978716e-05,3.2,3.667
2.203125,3.0262828949416358e-05,5.9075456461432847e-05,0.00015869109401693752,4.4917779592584136e-05,3.2,3.667
2.20703125,2.6357767251087223e-05,5.468774668802932e-05,0.00016552129556420233,4.5400427667658515e-05,3.2,3.667
2.2109375,2.7820337175555066e-05,6.542300993362327e-05,0.00015477140661936372,3.7107656195925866e-05,3.2,3.667
2.21484375,2.5377845401693774e-05,7.030799348134586e-05,0.0001503836968459602,3.270532072327767e-05,3.2,3.667
2.21875,1.51252302311742e-05,5.663296468757154e-05,0.00014842385314717328,3.368524257267111e-05,3.2,3.667
2.22265625,3.410045136186795e-06,4.686299759212636e-05,0.0001308583883543145,3.270532072327767e-05,3.2,3.667
2.2265625,-3.420156411078025e-06,3.514781249713895e-05,0.00013036111457999543,3.514781249713895e-05,3.2,3.667
2.23046875,2.9273970611124084e-06,4.4420505818265065e-05,0.00012059114748455025,3.368524257267111e-05,3.2,3.667
2.234375,-4.950165621423394e-07,4.736027136644543e-05,0.00010302568269169148,1.9527565703822404e-05,3.2,3.667
2.23828125,6.335184985122481e-06,3.124275079880982e-05,0.00011083580608834975,2.0990135628290246e-05,3.2,3.667
2.2421875,1.610515208056766e-05,2.978018087434198e-05,0.00011229837601281758,2.928290710002291e-05,3.2,3.667
2.24609375,1.6587800155642044e-05,3.270532072327767e-05,8.398302227512018e-05,4.051544411993593e-05,3.2,3.667
2.25,1.51252302311742e-05,3.222267264820327e-05,4.9305489365987664e-05,4.784291944151982e-05,3.2,3.667
2.25390625,1.2200090382238528e-05,3.222267264820327e-05,3.7590304271000245e-05,4.003279604486154e-05,3.2,3.667
2.2578125,9.757598608377222e-06,2.6855041025406294e-05,4.83255675165942e-05,4.295793589379722e-05,3.2,3.667
2.26171875,4.389966985580251e-06,2.6357767251087223e-05,6.0538026385900675e-05,4.5400427667658515e-05,3.2,3.667
2.265625,6.335184985122481e-06,3.368524257267111e-05,6.151794823529415e-05,3.222267264820327e-05,3.2,3.667
2.26953125,6.335184985122481e-06,2.197005747768371e-05,5.809553461203938e-05,2.7820337175555066e-05,3.2,3.667
2.2734375,1.947475211718952e-06,8.777676758983772e-06,6.494036185854887e-05,3.466516442206456e-05,3.2,3.667
2.27734375,2.391527547722593e-05,1.4159934081025426e-05,7.275048525520716e-05,3.0262828949416358e-05,3.2,3.667
2.28125,4.2475287818722844e-05,8.295028683909378e-06,7.713819502861067e-05,3.6610382421606796e-05,3.2,3.667
2.28515625,4.295793589379722e-05,-6.359921959258386e-06,7.665554695353629e-05,4.5897701441977586e-05,3.2,3.667
2.2890625,4.2475287818722844e-05,-1.2210201657129751e-05,4.5897701441977586e-05,4.4917779592584136e-05,3.2,3.667
2.29296875,5.224525491416803e-05,-1.7577833279926727e-05,3.955014796978716e-05,4.9305489365987664e-05,3.2,3.667
2.296875,6.249787008468759e-05,-4.2002751018539684e-05,2.343262740215154e-05,3.8570226120393695e-05,3.2,3.667
2.30078125,6.590565800869766e-05,-5.420058418860148e-05,-1.3672771581597594e-05,1.51252302311742e-05,3.2,3.667
2.3046875,8.250582665140766e-05,-5.9070942037079395e-05,-5.862648184939317e-06,1.9527565703822404e-05,3.2,3.667
2.30859375,0.00010595082254062716,-7.76309543785763e-05,-4.054018109407184e-05,3.466516442206456e-05,3.2,3.667
2.3125,0.00012791862280613414,-0.00011229386158846415,-8.592372585030896e-05,2.5377845401693774e-05,3.2,3.667
2.31640625,0.00014207629967498287,-0.0001650341330647745,-8.690364769970242e-05,3.1725398873884204e-05,3.2,3.667
2.3203125,0.00016063631201647976,-0.00017382417831082625,-8.007344615243759e-05,3.0760102723735426e-05,3.2,3.667
2.32421875,0.00017235149711146717,-0.0001894444251041428,-8.007344615243759e-05,1.8547643854428954e-05,3.2,3.667
2.328125,0.00016552129556420233,-0.00022558452793774314,-0.000108388799890135,2.7820337175555066e-05,3.2,3.667
2.33203125,0.0001923740793774319,-0.0002690374803936827,-0.00016942184283817802,4.4917779592584136e-05,3.2,3.667
2.3359375,0.0002060491081712062,-0.00030272046575417706,-0.00020750716367132061,5.7612886536965004e-05,3.2,3.667
2.33984375,0.00019627914107576104,-0.000282712509187457,-0.00017430682638590065,5.8592808386358454e-05,3.2,3.667
2.34375,0.00019970155469901577,-0.00025487980352483403,-0.00012400904668345155,5.2727902989242406e-05,3.2,3.667
2.34765625,0.00018895166575417718,-0.0002734251901670863,-0.00012792873408102538,5.3707824838635856e-05,3.2,3.667
2.3515625,0.0001806588942824445,-0.00027001740224307614,-0.00012400904668345155,6.0538026385900675e-05,3.2,3.667
2.35546875,0.00018456395598077363,-0.00023045488578622106,-0.00010496638626688025,5.224525491416803e-05,3.2,3.667
2.359375,0.00016796378733806362,-0.0002153172870679789,-8.25159379262989e-05,4.638034951705198e-05,3.2,3.667
2.36328125,0.00015526868039368277,-0.0002060445937468528,-5.858829396200501e-05,4.4420505818265065e-05,3.2,3.667
2.3671875,0.0001425735734493019,-0.00020896973359578848,-8.055609422751199e-05,3.7590304271000245e-05,3.2,3.667
2.37109375,0.00012889854465552759,-0.00016357156314030668,-5.0295522490272346e-05,2.7820337175555066e-05,3.2,3.667
2.375,0.00011816328140993363,-0.00010546366004119933,-1.2368487067952571e-08,2.8317610949874137e-05,3.2,3.667
2.37890625,0.00010985588423895629,-0.00011523362713664451,3.514781249713895e-05,2.6357767251087223e-05,3.2,3.667
2.3828125,9.960326906843672e-05,-0.00011229386158846415,4.295793589379722e-05,2.0010213778896796e-05,3.2,3.667
2.38671875,7.17705634058137e-05,-8.153601607690543e-05,4.83255675165942e-05,3.124275079880982e-05,3.2,3.667
2.390625,5.0285411215381113e-05,-3.8580337395284935e-05,9.373836367132068e-05,3.6610382421606796e-05,3.2,3.667
2.39453125,5.565304283817809e-05,-2.051759882810709e-05,0.00010789604054016939,2.0010213778896796e-05,3.2,3.667
2.3984375,4.003279604486154e-05,-1.709518520485234e-05,0.00010839331431448846,1.610515208056766e-05,3.2,3.667
2.40234375,6.335184985122481e-06,1.1220168532845065e-05,0.00014647863514763104,1.9527565703822404e-05,3.2,3.667
2.40625,-1.1230279807736301e-05,3.1725398873884204e-05,0.0001694263572625315,1.806499577935456e-05,3.2,3.667
2.41015625,-1.1230279807736301e-05,2.391527547722593e-05,0.00015526868039368277,1.51252302311742e-05,3.2,3.667
2.4140625,-1.2210201657129751e-05,3.8570226120393695e-05,0.00017333141896086062,1.947475211718952e-06,3.2,3.667
2.41796875,-1.4170045355916663e-05,7.079064155642026e-05,0.00019872163284962235,-1.4749384115357955e-06,3.2,3.667
2.421875,-2.3940012451361846e-05,7.421305517967499e-05,0.00021678437141680018,2.4301232867933393e-06,3.2,3.667
2.42578125,-4.054018109407184e-05,7.713819502861067e-05,0.00019383664930189975,3.892693211261182e-06,3.2,3.667
2.4296875,-3.711776747081709e-05,8.007796057679104e-05,0.00018408130790569923,2.4301232867933393e-06,3.2,3.667
2.43359375,-3.3695353847562344e-05,9.03305757473106e-05,0.00020164677269855804,6.832458759441543e-06,3.2,3.667
2.4375,-3.5157923772030186e-05,0.00010058319091783019,0.00019627914107576104,1.1717442307164134e-05,3.2,3.667
2.44140625,-4.248539909361407e-05,0.00011131845416342415,0.00021239666164339665,2.4301232867933393e-06,3.2,3.667
2.4453125,-4.6887734566262276e-05,0.000124013561107805,0.00022118670688944838,3.410045136186795e-06,3.2,3.667
2.44921875,-4.3465320943007527e-05,0.00012353091303273062,0.00020702903002059968,4.389966985580251e-06,3.2,3.667
2.453125,-4.590781271686882e-05,0.00012499348295719846,0.00020897424802014192,-9.776646372167264e-07,3.2,3.667
2.45703125,-5.079279626459142e-05,0.00011620343771114673,0.00021287930971847105,3.410045136186795e-06,3.2,3.667
2.4609375,-6.591576928358889e-05,0.00010350833076676588,0.00020262669454795148,1.0240246683451615e-05,3.2,3.667
2.46484375,-7.07861271320668e-05,0.00010448825261615931,0.0001899315876035706,1.1220168532845065e-05,3.2,3.667
2.46875,-5.7125724037537166e-05,0.0001069307443900206,0.00018358403413138019,7.31510683451593e-06,3.2,3.667
2.47265625,-5.420058418860148e-05,9.862334721904327e-05,0.00017723648065918975,1.1220168532845065e-05,3.2,3.667
2.4765625,-6.297600373540854e-05,9.373836367132068e-05,0.00017773375443350882,1.4642582156099819e-05,3.2,3.667
2.48046875,-5.809102018768594e-05,0.00012206834310826277,0.00018358403413138019,9.757598608377222e-06,3.2,3.667
2.484375,-6.688106543373768e-05,0.00010399097884184024,0.00017333141896086062,1.2200090382238528e-05,3.2,3.667
2.48828125,-7.76309543785763e-05,7.079064155642026e-05,0.00015330883669489588,1.6587800155642044e-05,3.2,3.667
2.4921875,-6.835826105745019e-05,9.03305757473106e-05,0.00014207629967498287,1.4159934081025426e-05,3.2,3.667
2.49609375,-6.786098728313112e-05,9.373836367132068e-05,0.00016015366394140536,7.812380608834999e-06,3.2,3.667
2.5,-6.297600373540854e-05,8.398302227512018e-05,0.00016356145186541545,4.389966985580251e-06,3.2,3.667
2.50390625,-4.7853030716411054e-05,9.618085544518197e-05,0.00013524609812771803,8.777676758983772e-06,3.2,3.667
2.5078125,-5.0295522490272346e-05,9.471828552071414e-05,0.00011816328140993363,1.8547643854428954e-05,3.2,3.667
2.51171875,-5.469785796292055e-05,8.348574850080111e-05,0.00011181572793774322,2.391527547722593e-05,3.2,3.667
2.515625,-5.6160427887388394e-05,7.665554695353629e-05,0.0001264560528816663,2.5377845401693774e-05,3.2,3.667
2.51953125,-5.3717936113527095e-05,7.567562510414284e-05,0.00013378352820325018,2.8317610949874137e-05,3.2,3.667
2.5234375,-2.930764407415882e-05,8.494831842526894e-05,0.00011327829786221105,2.197005747768371e-05,3.2,3.667
2.52734375,-2.4905308601510617e-05,7.519297702906846e-05,8.83707320485237e-05,1.2200090382238528e-05,3.2,3.667
2.53125,-2.5402582375829685e-05,7.275048525520716e-05,7.615827317921724e-05,1.0737520457770684e-05,3.2,3.667
2.53515625,-2.979029214923321e-05,6.98107197070268e-05,7.713819502861067e-05,1.6587800155642044e-05,3.2,3.667
2.5390625,-3.906298547035932e-05,7.421305517967499e-05,8.494831842526894e-05,2.0990135628290246e-05,3.2,3.667
2.54296875,-4.2002751018539684e-05,8.300310042572673e-05,8.592824027466241e-05,1.806499577935456e-05,3.2,3.667
2.546875,-3.906298547035932e-05,6.396044000915543e-05,6.444308808422983e-05,1.708507392996111e-05,3.2,3.667
2.55078125,-3.565519754634926e-05,5.51703947631037e-05,5.8592808386358454e-05,2.7337689100480687e-05,3.2,3.667
2.5546875,-2.6865152300297524e-05,5.32105510643168e-05,5.419047291371025e-05,3.1725398873884204e-05,3.2,3.667
2.55859375,-1.465269343099105e-05,4.5897701441977586e-05,5.711561276264593e-05,3.1725398873884204e-05,3.2,3.667
2.5625,-2.051759882810709e-05,2.928290710002291e-05,6.932807163195242e-05,2.880025902494853e-05,3.2,3.667
2.56640625,-2.588523045090407e-05,3.124275079880982e-05,5.663296468757154e-05,1.9527565703822404e-05,3.2,3.667
2.5703125,-2.4905308601510617e-05,3.416789064774551e-05,2.245270555275809e-05,1.562250400549327e-05,3.2,3.667
2.57421875,-2.3940012451361846e-05,2.7820337175555066e-05,1.806499577935456e-05,1.7567722005035504e-05,3.2,3.667
2.578125,-1.1230279807736301e-05,3.7107656195925866e-05,4.980276314030672e-05,1.1220168532845065e-05,3.2,3.667
2.58203125,-1.514996720531011e-05,3.7107656195925866e-05,7.90980387273976e-05,5.3698888349737e-06,3.2,3.667
2.5859375,-2.7845074149690977e-05,3.124275079880982e-05,8.690816212405587e-05,1.708507392996111e-05,3.2,3.667
2.58984375,-1.4170045355916663e-05,3.1725398873884204e-05,6.98107197070268e-05,2.880025902494853e-05,3.2,3.667
2.59375,-6.359921959258386e-06,3.905287419546809e-05,5.468774668802932e-05,3.320259449759672e-05,3.2,3.667
2.59765625,-5.862648184939317e-06,4.3937857743190686e-05,7.079064155642026e-05,3.8570226120393695e-05,3.2,3.667
2.6015625,-1.9575864866101822e-06,6.103530016021975e-05,7.373040710460063e-05,3.6610382421606796e-05,3.2,3.667
2.60546875,-2.4548602609292513e-06,6.688557985809112e-05,6.884542355687803e-05,4.051544411993593e-05,3.2,3.667
2.609375,4.849052872511095e-07,4.9305489365987664e-05,6.688557985809112e-05,3.7107656195925866e-05,3.2,3.667
2.61328125,9.757598608377222e-06,4.051544411993593e-05,6.103530016021975e-05,2.880025902494853e-05,3.2,3.667
2.6171875,1.3180012231631976e-05,4.295793589379722e-05,7.22532114808881e-05,1.7567722005035504e-05,3.2,3.667
2.62109375,1.9527565703822404e-05,2.391527547722593e-05,6.151794823529415e-05,1.4159934081025426e-05,3.2,3.667
2.625,2.6357767251087223e-05,4.8726150606546385e-06,3.6610382421606796e-05,2.147278370336464e-05,3.2,3.667
2.62890625,6.0055378310826296e-05,1.3180012231631976e-05,1.806499577935456e-05,1.2682738457312907e-05,3.2,3.667
2.6328125,6.640293178301672e-05,5.852536910048087e-06,5.852536910048087e-06,3.222267264820327e-05,3.2,3.667
2.63671875,4.9305489365987664e-05,-4.298267286793314e-05,-9.285061808194071e-06,3.7590304271000245e-05,3.2,3.667
2.640625,7.12879153307393e-05,-9.374847494621193e-05,-2.051759882810709e-05,1.6587800155642044e-05,3.2,3.667
2.64453125,8.88533801235981e-05,-0.00010790615181506062,-5.469785796292055e-05,1.1220168532845065e-05,3.2,3.667
2.6484375,0.00010789604054016939,-0.00012987395208056762,-0.00011425370528725105,1.6587800155642044e-05,3.2,3.667
2.65234375,0.00012987846650492106,-0.00018407679348134582,-0.0001772319662348363,3.7107656195925866e-05,3.2,3.667
2.65625,0.00015184626677042804,-0.00018602201148088803,-0.00017528674823529407,4.051544411993593e-05,3.2,3.667
2.66015625,0.00015819382024261848,-0.00017821188808422975,-0.0001801717317830167,2.928290710002291e-05,3.2,3.667
2.6640625,0.00013426617627832456,-0.00020506467189745933,-0.0002055619456717784,3.466516442206456e-05,3.2,3.667
2.66796875,0.00012791862280613414,-0.00021483463899290452,-0.00019530933050125883,3.563046057221334e-05,3.2,3.667
2.671875,0.00013232095827878234,-0.00021141222536964977,-0.00017772924000915538,3.7590304271000245e-05,3.2,3.667
2.67578125,0.00013182368450446327,-0.00020019431404898143,-0.00015478151789425493,3.270532072327767e-05,3.2,3.667
2.6796875,0.00012841589658045321,-0.00018505671533073923,-0.0001679592729137102,3.563046057221334e-05,3.2,3.667
2.68359375,0.00011083580608834975,-0.00016942184283817802,-0.00015428424411993586,3.466516442206456e-05,3.2,3.667
2.6875,9.960326906843672e-05,-0.00015380159604486148,-0.00014256905902494847,2.5377845401693774e-05,3.2,3.667
2.69140625,0.00010008591714351112,-0.00013818134925154492,-0.00015037918242160673,2.880025902494853e-05,3.2,3.667
2.6953125,8.690816212405587e-05,-0.0001274314603067063,-0.00012987395208056762,3.416789064774551e-05,3.2,3.667
2.69921875,6.834814978255896e-05,-0.00013231644385442888,-0.00010448373819180588,2.7820337175555066e-05,3.2,3.667
2.703125,5.711561276264593e-05,-9.471377109636069e-05,-6.591576928358889e-05,1.2200090382238528e-05,3.2,3.667
2.70703125,5.615031661249716e-05,-4.6887734566262276e-05,-4.492789086747537e-05,8.295028683909378e-06,3.2,3.667
2.7109375,6.103530016021975e-05,-2.8810370299839752e-05,-5.12754443396658e-05,-4.400078260471481e-06,3.2,3.667
2.71484375,5.51703947631037e-05,-6.359921959258386e-06,-2.979029214923321e-05,-1.0264983657587521e-05,3.2,3.667
2.71875,5.419047291371025e-05,1.4159934081025426e-05,-1.0264983657587521e-05,4.849052872511095e-07,3.2,3.667
2.72265625,4.051544411993593e-05,3.270532072327767e-05,-9.285061808194071e-06,-2.9375083360036384e-06,3.2,3.667
2.7265625,1.4642582156099819e-05,6.249787008468759e-05,3.8072952346074645e-05,-7.3252181094071595e-06,3.2,3.667
2.73046875,-2.9375083360036384e-06,7.615827317921724e-05,5.0285411215381113e-05,-1.4749384115357955e-06,3.2,3.667
2.734375,-1.1727553582055363e-05,7.373040710460063e-05,2.6357767251087223e-05,-1.2368487067952571e-08,3.2,3.667
2.73828125,-1.0747631732661909e-05,9.325571559624628e-05,5.419047291371025e-05,-6.842570034332773e-06,3.2,3.667
2.7421875,-1.0264983657587521e-05,0.00010985588423895629,0.00010058319091783019,-7.822491883726229e-06,3.2,3.667
2.74609375,-1.514996720531011e-05,0.00011864592948500802,0.00010789604054016939,-8.802413733119685e-06,3.2,3.667
2.75,-2.4905308601510617e-05,0.00012938119273060199,0.00010595082254062716,-9.767709883268459e-06,3.2,3.667
2.75390625,-2.4905308601510617e-05,0.00014451879144884415,0.0001362260199771115,2.4301232867933393e-06,3.2,3.667
2.7578125,-2.2462816827649318e-05,0.00015869109401693752,0.00013866851175097278,1.0240246683451615e-05,3.2,3.667
2.76171875,-3.321270577248796e-05,0.00016454137371480886,0.00013572874620279243,5.3698888349737e-06,3.2,3.667
2.765625,-4.590781271686882e-05,0.00016356145186541545,0.00014355349529869535,4.8726150606546385e-06,3.2,3.667
2.76953125,-4.981287441519796e-05,0.00016990900533760586,0.00014159365159990847,3.892693211261182e-06,3.2,3.667
2.7734375,-5.175809241474019e-05,0.00018408130790569923,0.0001376885899015793,-1.9575864866101822e-06,3.2,3.667
2.77734375,-6.297600373540854e-05,0.00019042886137788967,0.00012889854465552759,-1.4749384115357955e-06,3.2,3.667
2.78125,-5.9070942037079395e-05,0.00018504660405584803,0.00014403614337376975,-1.2368487067952571e-08,3.2,3.667
2.78515625,-4.444524279240098e-05,0.00017431134081025406,0.00015184626677042804,3.410045136186795e-06,3.2,3.667
2.7890625,-4.298267286793314e-05,0.0001689437091874571,0.00014111100352483407,5.852536910048087e-06,3.2,3.667
2.79296875,-5.225536618905925e-05,0.00018212146420691234,0.0001474585569970245,5.852536910048087e-06,3.2,3.667
2.796875,-7.03034790569924e-05,0.00017967897243305106,0.00016454137371480886,9.274950533302842e-06,3.2,3.667
2.80078125,-6.737833920805672e-05,0.00016600394363927673,0.00018310138605630581,9.274950533302842e-06,3.2,3.667
2.8046875,-4.933022634012357e-05,0.0001689437091874571,0.0001786990505836576,1.2682738457312907e-05,3.2,3.667
2.80859375,-4.8832952565804504e-05,0.00017381406703593502,0.0001616162338658732,1.51252302311742e-05,3.2,3.667
2.8125,-4.492789086747537e-05,0.0001762565588097963,0.00016454137371480886,9.757598608377222e-06,3.2,3.667
2.81640625,-4.590781271686882e-05,0.00017723648065918975,0.00017333141896086062,1.1717442307164134e-05,3.2,3.667
2.8203125,-4.737038264133666e-05,0.00018504660405584803,0.00016600394363927673,2.0507487553215867e-05,3.2,3.667
2.82421875,-5.12754443396658e-05,0.00017040627911192493,0.00015184626677042804,1.9527565703822404e-05,3.2,3.667
2.828125,-5.809102018768594e-05,0.00016454137371480886,0.0001372059418265049,1.7567722005035504e-05,3.2,3.667
2.83203125,-6.297600373540854e-05,0.00017967897243305106,0.00014451879144884415,1.8547643854428954e-05,3.2,3.667
2.8359375,-5.956821581139846e-05,0.00016844643541313802,0.0001591737420920119,1.708507392996111e-05,3.2,3.667
2.83984375,-4.004290731975278e-05,0.00016063631201647976,0.00014403614337376975,1.610515208056766e-05,3.2,3.667
2.84375,-3.0287565923552273e-05,0.00016796378733806362,0.00013915115982604718,1.51252302311742e-05,3.2,3.667
2.84765625,-3.4675275696955793e-05,0.00016111896009155416,0.00015526868039368277,1.4159934081025426e-05,3.2,3.667
2.8515625,-4.444524279240098e-05,0.00014501606522316322,0.00015380611046921492,1.0240246683451615e-05,3.2,3.667
2.85546875,-5.760837211261155e-05,0.00013476345005264363,0.00014599598707255664,1.562250400549327e-05,3.2,3.667
2.859375,-3.565519754634926e-05,0.00013964843360036625,0.00013670866805218587,2.343262740215154e-05,3.2,3.667
2.86328125,-1.465269343099105e-05,0.00014159365159990847,0.000124013561107805,2.0507487553215867e-05,3.2,3.667
2.8671875,-1.3672771581597594e-05,0.0001215710693339437,0.00011083580608834975,2.293535362783248e-05,3.2,3.667
2.87109375,-1.270747543144882e-05,0.00010839331431448846,9.764342536964982e-05,2.0010213778896796e-05,3.2,3.667
2.875,-1.9575864866101822e-06,0.0001308583883543145,0.00010448825261615931,1.7567722005035504e-05,3.2,3.667
2.87890625,5.852536910048087e-06,0.00013280360635385674,0.00011816328140993363,2.0507487553215867e-05,3.2,3.667
2.8828125,-5.38000010986493e-06,0.00011131845416342415,0.00012451083488212406,1.9527565703822404e-05,3.2,3.667
2.88671875,-2.4548602609292513e-06,0.00011816328140993363,0.00011424359401235983,2.0010213778896796e-05,3.2,3.667
2.890625,-2.4548602609292513e-06,0.00012010849940947587,0.00011229837601281758,2.293535362783248e-05,3.2,3.667
2.89453125,-3.420156411078025e-06,0.0001069307443900206,0.00011278102408789198,1.8547643854428954e-05,3.2,3.667
2.8984375,1.0240246683451615e-05,0.00010399097884184024,0.00010302568269169148,1.4642582156099819e-05,3.2,3.667
2.90234375,5.3698888349737e-06,0.00010985588423895629,0.00010106583899290458,1.8547643854428954e-05,3.2,3.667
2.90625,-4.882726335545868e-06,0.00010204576084229802,9.277306752117192e-05,1.806499577935456e-05,3.2,3.667
2.91015625,-3.917430185397095e-06,9.764342536964982e-05,8.056060865186543e-05,1.2200090382238528e-05,3.2,3.667
2.9140625,8.295028683909378e-06,0.00010252840891737241,9.277306752117192e-05,1.4642582156099819e-05,3.2,3.667
2.91796875,1.1717442307164134e-05,0.00010058319091783019,0.00010302568269169148,2.489519732661938e-05,3.2,3.667
2.921875,7.31510683451593e-06,9.81406991439689e-05,9.81406991439689e-05,2.6357767251087223e-05,3.2,3.667
2.92578125,1.4648271366445655e-06,8.348574850080111e-05,9.81406991439689e-05,2.245270555275809e-05,3.2,3.667
2.9296875,-6.359921959258386e-06,7.079064155642026e-05,8.592824027466241e-05,1.610515208056766e-05,3.2,3.667
2.93359375,5.852536910048087e-06,7.567562510414284e-05,7.860076495307854e-05,1.6587800155642044e-05,3.2,3.667
2.9375,1.806499577935456e-05,8.983330197299155e-05,8.983330197299155e-05,2.293535362783248e-05,3.2,3.667
2.94140625,1.1220168532845065e-05,9.912062099336234e-05,7.811811687800414e-05,2.4412549251545002e-05,3.2,3.667
2.9453125,5.3698888349737e-06,9.03305757473106e-05,7.12879153307393e-05,1.903029192950335e-05,3.2,3.667
2.94921875,8.777676758983772e-06,7.90980387273976e-05,7.17705634058137e-05,2.0010213778896796e-05,3.2,3.667
2.953125,1.0240246683451615e-05,8.056060865186543e-05,5.809553461203938e-05,1.8547643854428954e-05,3.2,3.667
2.95703125,2.4301232867933393e-06,8.983330197299155e-05,6.834814978255896e-05,1.0737520457770684e-05,3.2,3.667
2.9609375,4.849052872511095e-07,8.88533801235981e-05,8.739081019913024e-05,1.51252302311742e-05,3.2,3.667
2.96484375,-2.9375083360036384e-06,9.227579374685285e-05,8.056060865186543e-05,1.903029192950335e-05,3.2,3.667
2.96875,-6.359921959258386e-06,9.277306752117192e-05,7.567562510414284e-05,1.6587800155642044e-05,3.2,3.667
2.97265625,-8.305139958800616e-06,8.15405305012589e-05,7.615827317921724e-05,1.8547643854428954e-05,3.2,3.667
2.9765625,-1.0264983657587521e-05,8.690816212405587e-05,8.446567035019458e-05,2.147278370336464e-05,3.2,3.667
2.98046875,-1.2368487067952571e-08,8.83707320485237e-05,8.494831842526894e-05,1.6587800155642044e-05,3.2,3.667
2.984375,-4.882726335545868e-06,8.642551404898148e-05,6.98107197070268e-05,2.0010213778896796e-05,3.2,3.667
2.98828125,-1.2210201657129751e-05,8.056060865186543e-05,5.224525491416803e-05,2.6855041025406294e-05,3.2,3.667
2.9921875,1.0240246683451615e-05,7.615827317921724e-05,3.7107656195925866e-05,2.880025902494853e-05,3.2,3.667
2.99609375,1.8547643854428954e-05,7.323313333028156e-05,3.61277343465324e-05,2.8317610949874137e-05,3.2,3.667
3.0,9.274950533302842e-06,6.444308808422983e-05,4.051544411993593e-05,1.8547643854428954e-05,3.2,3.667
3.00390625,-4.950165621423394e-07,6.834814978255896e-05,5.1747981139848956e-05,1.610515208056766e-05,3.2,3.667
3.0078125,-1.1230279807736301e-05,6.932807163195242e-05,6.834814978255896e-05,2.293535362783248e-05,3.2,3.667
3.01171875,-1.1727553582055363e-05,7.17705634058137e-05,6.200059631036852e-05,2.5875119176012844e-05,3.2,3.667
3.015625,-5.862648184939317e-06,8.056060865186543e-05,5.809553461203938e-05,2.197005747768371e-05,3.2,3.667
3.01953125,-6.359921959258386e-06,7.615827317921724e-05,5.7612886536965004e-05,1.8547643854428954e-05,3.2,3.667
3.0234375,-2.296009060196839e-05,6.396044000915543e-05,6.298051815976199e-05,1.610515208056766e-05,3.2,3.667
3.02734375,-2.296009060196839e-05,5.1747981139848956e-05,6.98107197070268e-05,1.0737520457770684e-05,3.2,3.667
3.03125,-1.2210201657129751e-05,6.396044000915543e-05,6.640293178301672e-05,1.2200090382238528e-05,3.2,3.667
3.03515625,-1.6612537129777955e-05,7.22532114808881e-05,6.103530016021975e-05,1.610515208056766e-05,3.2,3.667
3.0390625,-1.3672771581597594e-05,7.860076495307854e-05,3.563046057221334e-05,1.610515208056766e-05,3.2,3.667
3.04296875,-6.359921959258386e-06,7.12879153307393e-05,3.124275079880982e-05,1.9527565703822404e-05,3.2,3.667
3.046875,-1.4749384115357955e-06,4.686299759212636e-05,4.980276314030672e-05,2.0507487553215867e-05,3.2,3.667
3.05078125,-1.4170045355916663e-05,4.149536596932938e-05,4.638034951705198e-05,1.8547643854428954e-05,3.2,3.667
3.0546875,-2.6865152300297524e-05,4.882284129091327e-05,4.784291944151982e-05,1.4642582156099819e-05,3.2,3.667
3.05859375,-1.953767697871364e-05,6.200059631036852e-05,4.149536596932938e-05,1.1717442307164134e-05,3.2,3.667
3.0625,-1.270747543144882e-05,6.98107197070268e-05,2.6855041025406294e-05,1.9527565703822404e-05,3.2,3.667
3.06640625,-2.2462816827649318e-05,5.711561276264593e-05,2.4412549251545002e-05,2.245270555275809e-05,3.2,3.667
3.0703125,-1.8075107054245797e-05,4.83255675165942e-05,1.7567722005035504e-05,2.0010213778896796e-05,3.2,3.667
3.07421875,-5.38000010986493e-06,5.3707824838635856e-05,2.293535362783248e-05,2.7820337175555066e-05,3.2,3.667
3.078125,-1.8075107054245797e-05,4.980276314030672e-05,3.8072952346074645e-05,2.5875119176012844e-05,3.2,3.667
3.08203125,-1.465269343099105e-05,4.4420505818265065e-05,5.419047291371025e-05,2.197005747768371e-05,3.2,3.667
3.0859375,1.2682738457312907e-05,4.4917779592584136e-05,6.0538026385900675e-05,2.0990135628290246e-05,3.2,3.667
3.08984375,1.806499577935456e-05,4.736027136644543e-05,5.809553461203938e-05,1.3662660306706357e-05,3.2,3.667
3.09375,1.4159934081025426e-05,3.905287419546809e-05,5.126533306477456e-05,1.2682738457312907e-05,3.2,3.667
3.09765625,1.0240246683451615e-05,4.051544411993593e-05,4.882284129091327e-05,1.4159934081025426e-05,3.2,3.667
3.1015625,7.812380608834999e-06,5.2727902989242406e-05,5.32105510643168e-05,1.708507392996111e-05,3.2,3.667
3.10546875,9.675533623254964e-07,2.5377845401693774e-05,4.3455209668116294e-05,2.293535362783248e-05,3.2,3.667
3.109375,-1.4749384115357955e-06,1.0737520457770684e-05,3.368524257267111e-05,1.7567722005035504e-05,3.2,3.667
3.11328125,-3.917430185397095e-06,2.928290710002291e-05,2.7820337175555066e-05,8.777676758983772e-06,3.2,3.667
3.1171875,-6.359921959258386e-06,3.8570226120393695e-05,3.466516442206456e-05,1.0737520457770684e-05,3.2,3.667
3.12109375,5.3698888349737e-06,3.905287419546809e-05,3.8570226120393695e-05,1.7567722005035504e-05,3.2,3.667
3.125,1.0737520457770684e-05,4.197801404440378e-05,4.1012717894255e-05,1.806499577935456e-05,3.2,3.667
3.12890625,2.5377845401693774e-05,5.9075456461432847e-05,4.5400427667658515e-05,1.562250400549327e-05,3.2,3.667
3.1328125,2.880025902494853e-05,6.151794823529415e-05,3.416789064774551e-05,9.274950533302842e-06,3.2,3.667
3.13671875,7.812380608834999e-06,5.51703947631037e-05,5.0285411215381113e-05,6.832458759441543e-06,3.2,3.667
3.140625,3.410045136186795e-06,6.103530016021975e-05,5.565304283817809e-05,1.610515208056766e-05,3.2,3.667
3.14453125,6.335184985122481e-06,5.615031661249716e-05,2.5875119176012844e-05,1.9527565703822404e-05,3.2,3.667
3.1484375,6.832458759441543e-06,4.4420505818265065e-05,3.0262828949416358e-05,2.6357767251087223e-05,3.2,3.667
3.15234375,5.852536910048087e-06,3.8072952346074645e-05,4.5400427667658515e-05,2.6357767251087223e-05,3.2,3.667
3.15625,1.1717442307164134e-05,5.565304283817809e-05,4.5897701441977586e-05,2.0990135628290246e-05,3.2,3.667
3.16015625,1.1717442307164134e-05,6.103530016021975e-05,5.565304283817809e-05,2.391527547722593e-05,3.2,3.667
3.1640625,-9.776646372167264e-07,3.7107656195925866e-05,6.396044000915543e-05,2.7820337175555066e-05,3.2,3.667
3.16796875,6.335184985122481e-06,4.295793589379722e-05,5.1747981139848956e-05,2.928290710002291e-05,3.2,3.667
3.171875,-1.9575864866101822e-06,4.686299759212636e-05,3.7590304271000245e-05,2.7820337175555066e-05,3.2,3.667
3.17578125,-6.359921959258386e-06,3.7590304271000245e-05,4.5897701441977586e-05,2.197005747768371e-05,3.2,3.667
3.1796875,1.3662660306706357e-05,4.3455209668116294e-05,5.615031661249716e-05,2.0990135628290246e-05,3.2,3.667
3.18359375,1.4642582156099819e-05,4.5897701441977586e-05,3.955014796978716e-05,2.197005747768371e-05,3.2,3.667
3.1875,9.757598608377222e-06,3.7107656195925866e-05,2.391527547722593e-05,2.147278370336464e-05,3.2,3.667
3.19140625,6.335184985122481e-06,3.124275079880982e-05,3.563046057221334e-05,2.7337689100480687e-05,3.2,3.667
3.1953125,1.4648271366445655e-06,3.8072952346074645e-05,4.1012717894255e-05,3.563046057221334e-05,3.2,3.667
3.19921875,3.410045136186795e-06,4.2475287818722844e-05,3.905287419546809e-05,3.368524257267111e-05,3.2,3.667
3.203125,1.8547643854428954e-05,2.489519732661938e-05,4.197801404440378e-05,2.6855041025406294e-05,3.2,3.667
3.20703125,2.0010213778896796e-05,-4.950165621423394e-07,2.293535362783248e-05,2.6855041025406294e-05,3.2,3.667
3.2109375,2.5875119176012844e-05,-4.950165621423394e-07,9.274950533302842e-06,2.391527547722593e-05,3.2,3.667
3.21484375,4.2475287818722844e-05,1.903029192950335e-05,-3.420156411078025e-06,1.806499577935456e-05,3.2,3.667
3.21875,5.076805929045549e-05,2.4412549251545002e-05,-2.6367878525978456e-05,8.777676758983772e-06,3.2,3.667
3.22265625,5.9075456461432847e-05,-1.8075107054245797e-05,-4.737038264133666e-05,1.1717442307164134e-05,3.2,3.667
3.2265625,5.565304283817809e-05,-3.956025924467839e-05,-4.639046079194321e-05,1.562250400549327e-05,3.2,3.667
3.23046875,7.030799348134586e-05,-1.9055028903639254e-05,-4.1022829169146234e-05,-1.9575864866101822e-06,3.2,3.667
3.234375,8.739081019913024e-05,-6.359921959258386e-06,-5.175809241474019e-05,-2.4548602609292513e-06,3.2,3.667
3.23828125,9.862334721904327e-05,-1.4749384115357955e-06,-4.835030449073012e-05,-8.802413733119685e-06,3.2,3.667
3.2421875,0.00010595082254062716,-2.7347800375371913e-05,-5.225536618905925e-05,-1.6612537129777955e-05,3.2,3.667
3.24609375,9.520093359578854e-05,-1.2210201657129751e-05,-3.3695353847562344e-05,-1.8557755129320183e-05,3.2,3.667
3.25,0.00011424359401235983,1.4642582156099819e-05,-3.4192627621881414e-05,-2.979029214923321e-05,3.2,3.667
3.25390625,0.00011620343771114673,6.335184985122481e-06,-3.1750135848020115e-05,-3.077021399862666e-05,3.2,3.667
3.2578125,0.00010595082254062716,2.343262740215154e-05,-8.802413733119685e-06,-3.5157923772030186e-05,3.2,3.667
3.26171875,0.00011376094593728543,2.880025902494853e-05,-1.1727553582055363e-05,-3.1252862073701044e-05,3.2,3.667
3.265625,0.00012547613103227286,3.955014796978716e-05,-5.862648184939317e-06,-3.663511939574271e-05,3.2,3.667
3.26953125,0.00013915115982604718,4.784291944151982e-05,9.675533623254964e-07,-3.906298547035932e-05,3.2,3.667
3.2734375,0.00014305622152437628,5.711561276264593e-05,9.274950533302842e-06,-4.5410538942549755e-05,3.2,3.667
3.27734375,0.00013182368450446327,7.030799348134586e-05,1.7567722005035504e-05,-4.7853030716411054e-05,3.2,3.667
3.28125,0.00013182368450446327,7.860076495307854e-05,2.489519732661938e-05,-4.5410538942549755e-05,3.2,3.667
3.28515625,0.00014647863514763104,9.0813223822385e-05,3.270532072327767e-05,-5.079279626459142e-05,3.2,3.667
3.2890625,0.00014403614337376975,8.88533801235981e-05,2.880025902494853e-05,-4.590781271686882e-05,3.2,3.667
3.29296875,0.0001362260199771115,9.569820737010758e-05,2.7820337175555066e-05,-5.12754443396658e-05,3.2,3.667
3.296875,0.00013182368450446327,0.00010839331431448846,3.905287419546809e-05,-4.2002751018539684e-05,3.2,3.667
3.30078125,0.00012206834310826277,0.00010154848706797895,5.1747981139848956e-05,-3.956025924467839e-05,3.2,3.667
3.3046875,0.00011376094593728543,9.912062099336234e-05,4.295793589379722e-05,-4.1022829169146234e-05,3.2,3.667
3.30859375,0.00011181572793774322,0.00010204576084229802,3.514781249713895e-05,-2.8810370299839752e-05,3.2,3.667
3.3125,0.00010887596238956285,0.00010154848706797895,3.1725398873884204e-05,-2.588523045090407e-05,3.2,3.667
3.31640625,0.00010154848706797895,0.00010546817446555278,5.51703947631037e-05,-2.588523045090407e-05,3.2,3.667
3.3203125,9.520093359578854e-05,9.667812921950104e-05,5.565304283817809e-05,-2.8810370299839752e-05,3.2,3.667
3.32421875,7.811811687800414e-05,9.03305757473106e-05,3.7107656195925866e-05,-2.3940012451361846e-05,3.2,3.667
3.328125,6.834814978255896e-05,8.446567035019458e-05,4.149536596932938e-05,-1.3190123506523206e-05,3.2,3.667
3.33203125,7.567562510414284e-05,8.104325672693983e-05,4.638034951705198e-05,-9.285061808194071e-06,3.2,3.667
3.3359375,7.665554695353629e-05,7.519297702906846e-05,5.076805929045549e-05,-1.2210201657129751e-05,3.2,3.667
3.33984375,5.9075456461432847e-05,6.834814978255896e-05,4.4917779592584136e-05,-1.465269343099105e-05,3.2,3.667
3.34375,4.5400427667658515e-05,6.688557985809112e-05,2.489519732661938e-05,-1.270747543144882e-05,3.2,3.667
3.34765625,4.4420505818265065e-05,6.298051815976199e-05,1.1717442307164134e-05,-8.305139958800616e-06,3.2,3.667
3.3515625,4.736027136644543e-05,6.542300993362327e-05,2.197005747768371e-05,-1.1230279807736301e-05,3.2,3.667
3.35546875,5.565304283817809e-05,6.884542355687803e-05,4.3455209668116294e-05,-1.1230279807736301e-05,3.2,3.667
3.359375,4.882284129091327e-05,7.373040710460063e-05,4.736027136644543e-05,-7.3252181094071595e-06,3.2,3.667
3.36328125,2.7337689100480687e-05,7.713819502861067e-05,3.8072952346074645e-05,-2.9375083360036384e-06,3.2,3.667
3.3671875,3.7107656195925866e-05,7.421305517967499e-05,3.222267264820327e-05,1.0240246683451615e-05,3.2,3.667
3.37109375,4.3455209668116294e-05,6.396044000915543e-05,2.4412549251545002e-05,1.610515208056766e-05,3.2,3.667
3.375,3.124275079880982e-05,6.786550170748456e-05,4.149536596932938e-05,1.2682738457312907e-05,3.2,3.667
3.37890625,3.368524257267111e-05,6.688557985809112e-05,4.3937857743190686e-05,3.892693211261182e-06,3.2,3.667
3.3828125,4.4917779592584136e-05,5.224525491416803e-05,3.0760102723735426e-05,3.892693211261182e-06,3.2,3.667
3.38671875,3.8570226120393695e-05,4.83255675165942e-05,2.489519732661938e-05,7.31510683451593e-06,3.2,3.667
3.390625,2.6357767251087223e-05,4.5400427667658515e-05,2.6357767251087223e-05,6.335184985122481e-06,3.2,3.667
3.39453125,2.978018087434198e-05,4.686299759212636e-05,3.320259449759672e-05,1.0240246683451615e-05,3.2,3.667
3.3984375,3.270532072327767e-05,5.2727902989242406e-05,2.489519732661938e-05,7.31510683451593e-06,3.2,3.667
3.40234375,2.5875119176012844e-05,4.83255675165942e-05,1.6587800155642044e-05,7.31510683451593e-06,3.2,3.667
3.40625,2.0990135628290246e-05,4.2475287818722844e-05,8.295028683909378e-06,1.0240246683451615e-05,3.2,3.667
3.41015625,2.4412549251545002e-05,3.563046057221334e-05,2.4301232867933393e-06,7.812380608834999e-06,3.2,3.667
3.4140625,2.6357767251087223e-05,3.7590304271000245e-05,4.389966985580251e-06,8.777676758983772e-06,3.2,3.667
3.41796875,3.0760102723735426e-05,4.4917779592584136e-05,4.8726150606546385e-06,9.757598608377222e-06,3.2,3.667
3.421875,3.0760102723735426e-05,3.8570226120393695e-05,1.3180012231631976e-05,1.0737520457770684e-05,3.2,3.667
3.42578125,2.4412549251545002e-05,3.61277343465324e-05,2.147278370336464e-05,1.51252302311742e-05,3.2,3.667
3.4296875,2.245270555275809e-05,3.416789064774551e-05,1.7567722005035504e-05,1.7567722005035504e-05,3.2,3.667
3.43359375,2.147278370336464e-05,3.7107656195925866e-05,2.0010213778896796e-05,1.806499577935456e-05,3.2,3.667
3.4375,3.270532072327767e-05,4.5400427667658515e-05,2.880025902494853e-05,2.197005747768371e-05,3.2,3.667
3.44140625,3.0262828949416358e-05,3.8072952346074645e-05,2.293535362783248e-05,2.293535362783248e-05,3.2,3.667
3.4453125,2.197005747768371e-05,3.514781249713895e-05,1.806499577935456e-05,2.4412549251545002e-05,3.2,3.667
3.44921875,2.7820337175555066e-05,3.1725398873884204e-05,2.6357767251087223e-05,2.245270555275809e-05,3.2,3.667
3.453125,2.7820337175555066e-05,3.270532072327767e-05,8.777676758983772e-06,1.4642582156099819e-05,3.2,3.667
3.45703125,2.880025902494853e-05,4.197801404440378e-05,-1.3190123506523206e-05,1.2682738457312907e-05,3.2,3.667
3.4609375,3.563046057221334e-05,3.6610382421606796e-05,-1.465269343099105e-05,1.1717442307164134e-05,3.2,3.667
3.46484375,2.5377845401693774e-05,2.293535362783248e-05,-1.465269343099105e-05,1.2682738457312907e-05,3.2,3.667
3.46875,2.0990135628290246e-05,1.806499577935456e-05,3.410045136186795e-06,1.903029192950335e-05,3.2,3.667
3.47265625,2.880025902494853e-05,1.7567722005035504e-05,1.6587800155642044e-05,2.0990135628290246e-05,3.2,3.667
3.4765625,3.320259449759672e-05,1.562250400549327e-05,3.1725398873884204e-05,1.8547643854428954e-05,3.2,3.667
3.48046875,3.270532072327767e-05,2.7820337175555066e-05,5.9075456461432847e-05,1.903029192950335e-05,3.2,3.667
3.484375,2.7820337175555066e-05,2.880025902494853e-05,9.274950533302842e-06,2.245270555275809e-05,3.2,3.667
3.48828125,3.0760102723735426e-05,1.2200090382238528e-05,-2.6367878525978456e-05,2.343262740215154e-05,3.2,3.667
3.4921875,3.270532072327767e-05,1.0240246683451615e-05,-3.917430185397095e-06,2.489519732661938e-05,3.2,3.667
3.49609375,3.466516442206456e-05,2.0507487553215867e-05,4.389966985580251e-06,1.3662660306706357e-05,3.2,3.667
3.5,4.3455209668116294e-05,3.0262828949416358e-05,6.832458759441543e-06,-6.842570034332773e-06,3.2,3.667
3.50390625,4.4917779592584136e-05,2.7820337175555066e-05,1.806499577935456e-05,2.197005747768371e-05,3.2,3.667
3.5078125,3.466516442206456e-05,-1.465269343099105e-05,4.849052872511095e-07,5.126533306477456e-05,3.2,3.667
3.51171875,3.8570226120393695e-05,-4.8832952565804504e-05,-6.10307857358663e-05,3.0760102723735426e-05,3.2,3.667
3.515625,5.468774668802932e-05,-5.518050603799494e-05,-8.886349139848933e-05,2.0990135628290246e-05,3.2,3.667
3.51953125,6.542300993362327e-05,-7.322861890592809e-05,-9.325120117189286e-05,3.124275079880982e-05,3.2,3.667
3.5234375,7.615827317921724e-05,-0.00010546366004119933,-9.521104487067976e-05,5.9558104536507226e-05,3.2,3.667
3.52734375,6.590565800869766e-05,-0.0001518417523460746,-0.00011962133691004802,7.90980387273976e-05,3.2,3.667
3.53125,5.615031661249716e-05,-0.00016601405491416794,-0.0001352415837033646,7.030799348134586e-05,3.2,3.667
3.53515625,6.884542355687803e-05,-0.00020409937574731056,-0.00015770665774319064,7.713819502861067e-05,3.2,3.667
3.5390625,8.348574850080111e-05,-0.00024853225005264356,-0.00019236956495307847,9.129587189745938e-05,3.2,3.667
3.54296875,8.690816212405587e-05,-0.00025780494337376966,-0.00020800443744563968,9.0813223822385e-05,3.2,3.667
3.546875,7.90980387273976e-05,-0.0002646351449210346,-0.0002455924845044632,8.348574850080111e-05,3.2,3.667
3.55078125,7.17705634058137e-05,-0.000282215235413138,-0.0002534172336003662,7.17705634058137e-05,3.2,3.667
3.5546875,6.249787008468759e-05,-0.00028954271073472184,-0.00022558452793774314,7.763546880292974e-05,3.2,3.667
3.55859375,4.295793589379722e-05,-0.0002763649557152666,-0.00020019431404898143,0.0001069307443900206,3.2,3.667
3.5625,2.5377845401693774e-05,-0.0002592675132982375,-0.00015331894796978708,0.00011718335956054019,3.2,3.667
3.56640625,7.812380608834999e-06,-0.00025634237344930187,-0.0001596665014419775,9.471828552071414e-05,3.2,3.667
3.5703125,-5.862648184939317e-06,-0.0002363197911833371,-0.00014843396442206451,9.03305757473106e-05,3.2,3.667
3.57421875,-1.2210201657129751e-05,-0.0002202022706157015,-0.00015722400966811624,0.00012353091303273062,3.2,3.667
3.578125,-2.979029214923321e-05,-0.00021483463899290452,-0.0001909069950286106,0.00014892112692149232,3.2,3.667
3.58203125,-5.956821581139846e-05,-0.00019823447035019452,-0.00013279909192950328,0.00014842385314717328,3.2,3.667
3.5859375,-6.835826105745019e-05,-0.000193846760576791,-9.471377109636069e-05,0.000140613729750515,3.2,3.667
3.58984375,-6.982083098191803e-05,-0.00018407679348134582,-7.811360245365068e-05,0.00015771117216754408,3.2,3.667
3.59375,-8.105336800183105e-05,-0.00015868657959258408,-5.518050603799494e-05,0.0001474585569970245,3.2,3.667
3.59765625,-9.227127932249939e-05,-0.00013133652200503543,-1.4170045355916663e-05,0.00013378352820325018,3.2,3.667
3.6015625,-0.00010888607366445407,-0.0001181587669855802,2.489519732661938e-05,0.00013232095827878234,3.2,3.667
3.60546875,-0.00012352639860837718,-9.130598317235061e-05,5.1747981139848956e-05,0.00012499348295719846,3.2,3.667
3.609375,-0.00011913868883497365,-6.884090913252456e-05,5.224525491416803e-05,0.00014501606522316322,3.2,3.667
3.61328125,-0.00012987395208056762,-4.298267286793314e-05,7.275048525520716e-05,0.00015869109401693752,3.2,3.667
3.6171875,-0.00014549419887388416,3.892693211261182e-06,0.00011181572793774322,0.00016600394363927673,3.2,3.667
3.62109375,-0.00014501155079880976,2.4412549251545002e-05,0.00015428875854428932,0.0001694263572625315,3.2,3.667
3.625,-0.00014549419887388416,4.83255675165942e-05,0.00018163881613183794,0.00015184626677042804,3.2,3.667
3.62890625,-0.0001606317975921263,7.90980387273976e-05,0.00020018420277409017,0.00014207629967498287,3.2,3.667
3.6328125,-0.0001767493181597619,8.494831842526894e-05,0.00021434187964293892,0.000157213898393225,3.2,3.667
3.63671875,-0.00016697935106431674,9.569820737010758e-05,0.00022703698658731975,0.00016796378733806362,3.2,3.667
3.640625,-0.00016649670298924234,0.00011327829786221105,0.00024511435085374227,0.00016600394363927673,3.2,3.667
3.64453125,-0.0001674766248386358,0.00013524609812771803,0.0002568295359487297,0.00016503864748912793,3.2,3.667
3.6484375,-0.00014939926057221329,0.00015380611046921492,0.0002617145194964523,0.00016259615571526665,3.2,3.667
3.65234375,-0.00014305170710002284,0.00016796378733806362,0.0002783146881391623,0.000157213898393225,3.2,3.667
3.65625,-0.00014793669064774544,0.0001855438778301671,0.000303704902027924,0.00015869109401693752,3.2,3.667
3.66015625,-0.00014697139449759667,0.00017919632435797666,0.0002934522868574044,0.00015771117216754408,3.2,3.667
3.6640625,-0.00013377901377889675,0.00019970155469901577,0.0003066300418768597,0.00014940377499656672,3.2,3.667
3.66796875,-0.00013231644385442888,0.00021728164519111925,0.0003325175295399405,0.00014794120507209888,3.2,3.667
3.671875,-0.00013914664540169372,0.00019139415752803847,0.0003085898855756466,0.0001425735734493019,3.2,3.667
3.67578125,-0.00013573885747768366,0.00019872163284962235,0.00030565012002746624,0.00014501606522316322,3.2,3.667
3.6796875,-0.00013035660015564202,0.00021385923156786452,0.0003388650830121309,0.00015380611046921492,3.2,3.667
3.68359375,-0.00012450632045777062,0.00021239666164339665,0.00035692782157930876,0.00015428875854428932,3.2,3.667
3.6875,-0.00011571627521171891,0.0002490194125520714,0.00035400268173037307,0.0001503836968459602,3.2,3.667
3.69140625,-0.00010546366004119933,0.0002636597374959945,0.00034277014471046003,0.00014159365159990847,3.2,3.667
3.6953125,-0.00010936872173952847,0.00020116412462348364,0.00035692782157930876,0.0001401310816754406,3.2,3.667
3.69921875,-0.00010936872173952847,0.00020751167809567408,0.00037548783392080565,0.0001372059418265049,3.2,3.667
3.703125,-0.00010009602841840234,0.00022997675213550013,0.0003706028503730831,0.00012987846650492106,3.2,3.667
3.70703125,-9.569369294575414e-05,0.00022460912051270316,0.0003398303791622797,0.00012547613103227286,3.2,3.667
3.7109375,-8.886349139848933e-05,0.00022557441666285193,0.0003071273156511788,0.00012206834310826277,3.2,3.667
3.71484375,-8.788356954909587e-05,0.00023388181383382926,0.00034277014471046003,0.00011668608578622112,3.2,3.667
3.71875,-7.76309543785763e-05,0.00023680695368276497,0.0003862230971663996,0.00010595082254062716,3.2,3.667
3.72265625,-6.786098728313112e-05,0.00022703698658731975,0.0003007797621789883,9.0813223822385e-05,3.2,3.667
3.7265625,-5.469785796292055e-05,0.00020360661639734495,0.0002348617356832227,8.250582665140766e-05,3.2,3.667
3.73046875,-4.8832952565804504e-05,0.0001860265259052415,0.00024511435085374227,8.544559219958801e-05,3.2,3.667
3.734375,-5.5677779812313995e-05,0.00017675383258411537,0.00024999933440146484,8.348574850080111e-05,3.2,3.667
3.73828125,-4.981287441519796e-05,0.00016111896009155416,0.00025096463055161364,8.202317857633326e-05,3.2,3.667
3.7421875,-3.6137845621423636e-05,0.00016209888194094758,0.0002495020606271458,8.300310042572673e-05,3.2,3.667
3.74609375,-2.930764407415882e-05,0.00016307880379034105,0.0002114167397940032,7.958068680247197e-05,3.2,3.667
3.75,-2.1000246903181482e-05,0.00014647863514763104,0.00017529126265964753,7.567562510414284e-05,3.2,3.667
3.75390625,-1.3672771581597594e-05,0.00013524609812771803,0.0001665012174135958,7.665554695353629e-05,3.2,3.667
3.7578125,3.410045136186795e-06,0.00014501606522316322,0.0001694263572625315,8.056060865186543e-05,3.2,3.667
3.76171875,1.6587800155642044e-05,0.00015282618861982148,0.0001708889271869993,8.202317857633326e-05,3.2,3.667
3.765625,2.245270555275809e-05,0.0001376885899015793,0.00014794120507209888,7.763546880292974e-05,3.2,3.667
3.76953125,1.903029192950335e-05,0.00013036111457999543,0.00013426617627832456,7.90980387273976e-05,3.2,3.667
3.7734375,2.0990135628290246e-05,0.00011572078963607233,0.00013036111457999543,7.567562510414284e-05,3.2,3.667
3.77734375,2.928290710002291e-05,0.00011083580608834975,0.00013426617627832456,7.030799348134586e-05,3.2,3.667
3.78125,2.978018087434198e-05,0.00011424359401235983,0.00013280360635385674,7.079064155642026e-05,3.2,3.667
3.78515625,3.61277343465324e-05,0.00010350833076676588,0.00010448825261615931,6.298051815976199e-05,3.2,3.667
3.7890625,3.905287419546809e-05,0.00010008591714351112,8.300310042572673e-05,6.396044000915543e-05,3.2,3.667
3.79296875,3.955014796978716e-05,9.227579374685285e-05,7.763546880292974e-05,6.688557985809112e-05,3.2,3.667
3.796875,4.5400427667658515e-05,9.471828552071414e-05,8.935065389791717e-05,6.151794823529415e-05,3.2,3.667
3.80078125,4.83255675165942e-05,9.0813223822385e-05,8.544559219958801e-05,6.298051815976199e-05,3.2,3.667
3.8046875,5.0285411215381113e-05,8.690816212405587e-05,7.22532114808881e-05,6.103530016021975e-05,3.2,3.667
3.80859375,4.197801404440378e-05,7.811811687800414e-05,7.90980387273976e-05,5.32105510643168e-05,3.2,3.667
3.8125,3.61277343465324e-05,7.275048525520716e-05,7.665554695353629e-05,4.882284129091327e-05,3.2,3.667
3.81640625,3.6610382421606796e-05,7.567562510414284e-05,6.0538026385900675e-05,4.736027136644543e-05,3.2,3.667
3.8203125,3.8570226120393695e-05,6.444308808422983e-05,6.0055378310826296e-05,5.1747981139848956e-05,3.2,3.667
3.82421875,5.126533306477456e-05,6.346316623483636e-05,7.275048525520716e-05,5.076805929045549e-05,3.2,3.667
3.828125,4.295793589379722e-05,7.22532114808881e-05,5.711561276264593e-05,4.5897701441977586e-05,3.2,3.667
3.83203125,3.8072952346074645e-05,5.711561276264593e-05,3.563046057221334e-05,4.882284129091327e-05,3.2,3.667
3.8359375,5.2727902989242406e-05,5.9075456461432847e-05,4.003279604486154e-05,4.882284129091327e-05,3.2,3.667
3.83984375,5.809553461203938e-05,7.22532114808881e-05,3.222267264820327e-05,3.8570226120393695e-05,3.2,3.667
3.84375,5.3707824838635856e-05,6.444308808422983e-05,4.882284129091327e-05,3.7590304271000245e-05,3.2,3.667
3.84765625,4.784291944151982e-05,4.9305489365987664e-05,3.7107656195925866e-05,4.051544411993593e-05,3.2,3.667
3.8515625,5.1747981139848956e-05,4.2475287818722844e-05,1.0737520457770684e-05,3.8072952346074645e-05,3.2,3.667
3.85546875,5.1747981139848956e-05,5.0285411215381113e-05,2.5377845401693774e-05,3.320259449759672e-05,3.2,3.667
3.859375,4.5400427667658515e-05,5.2727902989242406e-05,4.4917779592584136e-05,3.514781249713895e-05,3.2,3.667
3.86328125,4.5400427667658515e-05,5.32105510643168e-05,5.419047291371025e-05,4.3455209668116294e-05,3.2,3.667
3.8671875,4.5897701441977586e-05,4.686299759212636e-05,4.197801404440378e-05,4.5400427667658515e-05,3.2,3.667
3.87109375,5.076805929045549e-05,3.8570226120393695e-05,2.6357767251087223e-05,4.5897701441977586e-05,3.2,3.667
3.875,5.8592808386358454e-05,4.3455209668116294e-05,7.812380608834999e-06,4.295793589379722e-05,3.2,3.667
3.87890625,5.419047291371025e-05,4.5897701441977586e-05,-1.2368487067952571e-08,4.149536596932938e-05,3.2,3.667
3.8828125,4.686299759212636e-05,3.6610382421606796e-05,2.5377845401693774e-05,5.126533306477456e-05,3.2,3.667
3.88671875,4.686299759212636e-05,4.1012717894255e-05,-9.285061808194071e-06,5.224525491416803e-05,3.2,3.667
3.890625,5.32105510643168e-05,4.1012717894255e-05,-1.7577833279926727e-05,4.83255675165942e-05,3.2,3.667
3.89453125,5.3707824838635856e-05,3.514781249713895e-05,1.3662660306706357e-05,4.638034951705198e-05,3.2,3.667
3.8984375,5.565304283817809e-05,3.955014796978716e-05,1.1717442307164134e-05,4.83255675165942e-05,3.2,3.667
3.90234375,5.32105510643168e-05,3.7107656195925866e-05,1.4159934081025426e-05,4.4420505818265065e-05,3.2,3.667
3.90625,5.468774668802932e-05,3.61277343465324e-05,8.777676758983772e-06,4.4420505818265065e-05,3.2,3.667
3.91015625,5.076805929045549e-05,2.5377845401693774e-05,-7.822491883726229e-06,4.83255675165942e-05,3.2,3.667
3.9140625,4.2475287818722844e-05,2.0507487553215867e-05,-9.285061808194071e-06,4.980276314030672e-05,3.2,3.667
3.91796875,5.1747981139848956e-05,2.5875119176012844e-05,-7.822491883726229e-06,5.1747981139848956e-05,3.2,3.667
3.921875,5.1747981139848956e-05,2.8317610949874137e-05,9.675533623254964e-07,5.1747981139848956e-05,3.2,3.667
3.92578125,4.4420505818265065e-05,1.903029192950335e-05,-3.917430185397095e-06,5.224525491416803e-05,3.2,3.667
3.9296875,4.5897701441977586e-05,1.0737520457770684e-05,-2.3442738677042775e-05,5.468774668802932e-05,3.2,3.667
3.93359375,4.5897701441977586e-05,1.610515208056766e-05,-2.1000246903181482e-05,5.468774668802932e-05,3.2,3.667
3.9375,5.565304283817809e-05,2.880025902494853e-05,-1.514996720531011e-05,4.882284129091327e-05,3.2,3.667
3.94140625,5.8592808386358454e-05,3.0760102723735426e-05,4.8726150606546385e-06,4.638034951705198e-05,3.2,3.667
3.9453125,5.9075456461432847e-05,2.147278370336464e-05,1.2200090382238528e-05,5.076805929045549e-05,3.2,3.667
3.94921875,6.542300993362327e-05,1.562250400549327e-05,-2.5402582375829685e-05,5.3707824838635856e-05,3.2,3.667
3.953125,6.249787008468759e-05,1.2682738457312907e-05,-2.930764407415882e-05,5.076805929045549e-05,3.2,3.667
3.95703125,5.32105510643168e-05,1.4159934081025426e-05,-1.4749384115357955e-06,5.224525491416803e-05,3.2,3.667
3.9609375,4.980276314030672e-05,1.1717442307164134e-05,2.9273970611124084e-06,5.8592808386358454e-05,3.2,3.667
3.96484375,5.224525491416803e-05,1.806499577935456e-05,1.1717442307164134e-05,6.103530016021975e-05,3.2,3.667
3.96875,5.7612886536965004e-05,2.489519732661938e-05,-1.2368487067952571e-08,5.419047291371025e-05,3.2,3.667
3.97265625,5.615031661249716e-05,1.0240246683451615e-05,-1.2368487067952571e-08,5.0285411215381113e-05,3.2,3.667
3.9765625,5.468774668802932e-05,2.9273970611124084e-06,6.832458759441543e-06,5.1747981139848956e-05,3.2,3.667
3.98046875,6.249787008468759e-05,2.0990135628290246e-05,2.9273970611124084e-06,5.0285411215381113e-05,3.2,3.667
3.984375,6.444308808422983e-05,2.0990135628290246e-05,1.903029192950335e-05,5.076805929045549e-05,3.2,3.667
3.98828125,5.51703947631037e-05,4.389966985580251e-06,-1.9575864866101822e-06,3.7107656195925866e-05,3.2,3.667
3.9921875,5.076805929045549e-05,3.0760102723735426e-05,-3.917430185397095e-06,2.5875119176012844e-05,3.2,3.667
3.99609375,5.126533306477456e-05,6.494036185854887e-05,2.880025902494853e-05,3.7590304271000245e-05,3.2,3.667
4.0,5.224525491416803e-05,3.416789064774551e-05,2.6855041025406294e-05,6.151794823529415e-05,3.2,3.667
4.00390625,5.0285411215381113e-05,-2.4548602609292513e-06,4.389966985580251e-06,6.786550170748456e-05,3.2,3.667
4.0078125,4.003279604486154e-05,4.051544411993593e-05,2.7337689100480687e-05,5.9558104536507226e-05,3.2,3.667
4.01171875,3.0262828949416358e-05,6.444308808422983e-05,5.224525491416803e-05,6.884542355687803e-05,3.2,3.667
4.015625,2.8317610949874137e-05,4.5400427667658515e-05,5.9075456461432847e-05,7.030799348134586e-05,3.2,3.667
4.01953125,1.9527565703822404e-05,7.567562510414284e-05,0.00010839331431448846,7.030799348134586e-05,3.2,3.667
4.0234375,2.7337689100480687e-05,8.88533801235981e-05,0.00010937323616388192,7.275048525520716e-05,3.2,3.667
4.02734375,2.880025902494853e-05,8.544559219958801e-05,9.716077729457544e-05,6.738285363241019e-05,3.2,3.667
4.03125,2.197005747768371e-05,9.81406991439689e-05,0.0001147408677866789,6.542300993362327e-05,3.2,3.667
4.03515625,2.978018087434198e-05,9.227579374685285e-05,9.03305757473106e-05,5.8592808386358454e-05,3.2,3.667
4.0390625,3.1725398873884204e-05,8.83707320485237e-05,6.542300993362327e-05,5.809553461203938e-05,3.2,3.667
4.04296875,3.514781249713895e-05,8.494831842526894e-05,6.786550170748456e-05,5.51703947631037e-05,3.2,3.667
4.046875,4.003279604486154e-05,6.884542355687803e-05,7.567562510414284e-05,5.419047291371025e-05,3.2,3.667
4.05078125,3.955014796978716e-05,7.17705634058137e-05,8.739081019913024e-05,5.7612886536965004e-05,3.2,3.667
4.0546875,3.270532072327767e-05,6.738285363241019e-05,7.17705634058137e-05,5.663296468757154e-05,3.2,3.667
4.05859375,3.8570226120393695e-05,5.0285411215381113e-05,5.468774668802932e-05,5.565304283817809e-05,3.2,3.667
4.0625,4.5400427667658515e-05,4.638034951705198e-05,5.8592808386358454e-05,5.419047291371025e-05,3.2,3.667
4.06640625,4.295793589379722e-05,4.1012717894255e-05,5.2727902989242406e-05,5.419047291371025e-05,3.2,3.667
4.0703125,4.980276314030672e-05,4.149536596932938e-05,5.51703947631037e-05,5.419047291371025e-05,3.2,3.667
4.07421875,5.565304283817809e-05,4.5400427667658515e-05,5.9558104536507226e-05,4.638034951705198e-05,3.2,3.667
4.078125,6.542300993362327e-05,4.5400427667658515e-05,7.079064155642026e-05,4.149536596932938e-05,3.2,3.667
4.08203125,6.786550170748456e-05,5.224525491416803e-05,6.346316623483636e-05,3.7107656195925866e-05,3.2,3.667
4.0859375,6.298051815976199e-05,5.126533306477456e-05,5.126533306477456e-05,3.8072952346074645e-05,3.2,3.667
4.08984375,6.444308808422983e-05,4.784291944151982e-05,4.9305489365987664e-05,4.295793589379722e-05,3.2,3.667
4.09375,6.738285363241019e-05,4.638034951705198e-05,3.955014796978716e-05,4.197801404440378e-05,3.2,3.667
4.09765625,6.98107197070268e-05,4.638034951705198e-05,4.3937857743190686e-05,3.8072952346074645e-05,3.2,3.667
4.1015625,7.323313333028156e-05,4.197801404440378e-05,4.686299759212636e-05,3.0760102723735426e-05,3.2,3.667
4.10546875,6.786550170748456e-05,4.003279604486154e-05,4.051544411993593e-05,3.222267264820327e-05,3.2,3.667
4.109375,5.809553461203938e-05,3.222267264820327e-05,4.3455209668116294e-05,3.270532072327767e-05,3.2,3.667
4.11328125,6.542300993362327e-05,2.245270555275809e-05,3.8570226120393695e-05,3.0262828949416358e-05,3.2,3.667
4.1171875,7.665554695353629e-05,3.416789064774551e-05,4.197801404440378e-05,3.466516442206456e-05,3.2,3.667
4.12109375,6.688557985809112e-05,4.295793589379722e-05,5.32105510643168e-05,3.8072952346074645e-05,3.2,3.667
4.125,6.298051815976199e-05,4.197801404440378e-05,5.7612886536965004e-05,4.149536596932938e-05,3.2,3.667
4.12890625,6.0055378310826296e-05,2.978018087434198e-05,5.9075456461432847e-05,4.2475287818722844e-05,3.2,3.667
4.1328125,6.0538026385900675e-05,2.4412549251545002e-05,3.563046057221334e-05,3.563046057221334e-05,3.2,3.667
4.13671875,6.884542355687803e-05,4.003279604486154e-05,4.4917779592584136e-05,2.880025902494853e-05,3.2,3.667
4.140625,6.298051815976199e-05,4.4420505818265065e-05,6.884542355687803e-05,3.905287419546809e-05,3.2,3.667
4.14453125,4.83255675165942e-05,1.903029192950335e-05,6.0538026385900675e-05,5.3707824838635856e-05,3.2,3.667
4.1484375,4.4420505818265065e-05,1.4159934081025426e-05,3.61277343465324e-05,5.1747981139848956e-05,3.2,3.667
4.15234375,4.5897701441977586e-05,4.638034951705198e-05,3.7107656195925866e-05,5.468774668802932e-05,3.2,3.667
4.15625,3.6610382421606796e-05,5.663296468757154e-05,5.565304283817809e-05,5.8592808386358454e-05,3.2,3.667
4.16015625,2.293535362783248e-05,5.9558104536507226e-05,6.932807163195242e-05,5.8592808386358454e-05,3.2,3.667
4.1640625,2.0990135628290246e-05,3.955014796978716e-05,6.103530016021975e-05,5.7612886536965004e-05,3.2,3.667
4.16796875,2.978018087434198e-05,2.7337689100480687e-05,4.638034951705198e-05,5.663296468757154e-05,3.2,3.667
4.171875,4.051544411993593e-05,4.197801404440378e-05,3.0760102723735426e-05,5.565304283817809e-05,3.2,3.667
4.17578125,3.563046057221334e-05,3.1725398873884204e-05,2.978018087434198e-05,6.0055378310826296e-05,3.2,3.667
4.1796875,2.391527547722593e-05,3.124275079880982e-05,5.468774668802932e-05,6.103530016021975e-05,3.2,3.667
4.18359375,1.9527565703822404e-05,3.6610382421606796e-05,5.32105510643168e-05,5.51703947631037e-05,3.2,3.667
4.1875,2.0010213778896796e-05,3.7590304271000245e-05,5.565304283817809e-05,5.663296468757154e-05,3.2,3.667
4.19140625,3.368524257267111e-05,4.5400427667658515e-05,4.784291944151982e-05,5.468774668802932e-05,3.2,3.667
4.1953125,4.2475287818722844e-05,5.51703947631037e-05,4.686299759212636e-05,5.0285411215381113e-05,3.2,3.667
4.19921875,4.980276314030672e-05,4.051544411993593e-05,5.615031661249716e-05,5.126533306477456e-05,3.2,3.667
4.203125,4.4420505818265065e-05,3.7590304271000245e-05,4.2475287818722844e-05,4.4917779592584136e-05,3.2,3.667
4.20703125,3.368524257267111e-05,4.736027136644543e-05,4.4917779592584136e-05,4.686299759212636e-05,3.2,3.667
4.2109375,3.6610382421606796e-05,4.686299759212636e-05,6.346316623483636e-05,5.7612886536965004e-05,3.2,3.667
4.21484375,4.197801404440378e-05,6.590565800869766e-05,3.905287419546809e-05,4.784291944151982e-05,3.2,3.667
4.21875,4.3937857743190686e-05,6.494036185854887e-05,6.832458759441543e-06,5.076805929045549e-05,3.2,3.667
4.22265625,4.295793589379722e-05,4.882284129091327e-05,9.274950533302842e-06,5.076805929045549e-05,3.2,3.667
4.2265625,4.051544411993593e-05,4.4420505818265065e-05,1.708507392996111e-05,3.905287419546809e-05,3.2,3.667
4.23046875,2.880025902494853e-05,4.003279604486154e-05,4.149536596932938e-05,5.419047291371025e-05,3.2,3.667
4.234375,3.222267264820327e-05,3.8072952346074645e-05,2.391527547722593e-05,5.51703947631037e-05,3.2,3.667
