timestamp,TP9,AF7,AF8,TP10,Valence,Arousal
0.0,-2.7345206967269417e-05,-6.738350141451134e-05,-5.078564761730374e-05,-2.539288994277868e-05,5.9286,6.9286
0.00390625,-2.3440572918287955e-05,-5.957423331654842e-05,-3.271565832913711e-05,-2.5879389654383172e-05,5.9286,6.9286
0.0078125,-2.1001756182192734e-05,-5.8108416003662175e-05,-3.4667975353627845e-05,-2.9790341881437414e-05,5.9286,6.9286
0.01171875,-2.0022438580910984e-05,-5.8108416003662175e-05,-6.25058679423209e-05,-2.7838024856946688e-05,5.9286,6.9286
0.015625,-2.0508938292515466e-05,-5.566959926756696e-05,-5.566959926756696e-05,-2.7345206967269417e-05,5.9286,6.9286
0.01953125,-1.7090803955138496e-05,-5.225146493018999e-05,-3.7113110267795846e-05,-2.3927072629892436e-05,5.9286,6.9286
0.0234375,-2.3440572918287955e-05,-5.712909840238041e-05,-3.7113110267795846e-05,-2.295407320668346e-05,5.9286,6.9286
0.02734375,-2.7345206967269417e-05,-6.347886736552988e-05,-3.271565832913711e-05,-1.904312097962922e-05,5.9286,6.9286
0.03125,-2.3440572918287955e-05,-5.6642598690775934e-05,-2.295407320668346e-05,-1.5138486930647758e-05,5.9286,6.9286
0.03515625,-2.6372207544060443e-05,-4.980633001602198e-05,-2.5879389654383172e-05,-1.904312097962922e-05,5.9286,6.9286
0.0390625,-2.7838024856946688e-05,-6.25058679423209e-05,-3.271565832913711e-05,-2.2461255317006192e-05,5.9286,6.9286
0.04296875,-2.8811024280155654e-05,-6.641050199130236e-05,-2.3440572918287955e-05,-2.2461255317006192e-05,5.9286,6.9286
0.046875,-3.1742658905928146e-05,-5.46902816662852e-05,-3.1742658905928146e-05,-2.6858707255664925e-05,5.9286,6.9286
0.05078125,-3.418147564202336e-05,-4.93198303044175e-05,-4.638819567864501e-05,-3.7599609979400334e-05,5.9286,6.9286
0.0546875,-2.9790341881437414e-05,-7.861722202792401e-05,-3.9065427292286575e-05,-3.9065427292286575e-05,5.9286,6.9286
0.05859375,-3.7599609979400334e-05,-7.421977008926528e-05,-3.271565832913711e-05,-2.8811024280155654e-05,5.9286,6.9286
0.0625,-5.029282972762647e-05,-3.955192700389106e-05,-3.5160793243305116e-05,-2.5879389654383172e-05,5.9286,6.9286
0.06640625,-4.443587865415428e-05,-4.834051270313574e-05,-3.7113110267795846e-05,-2.6858707255664925e-05,5.9286,6.9286
0.0703125,-3.6133792666514086e-05,-5.225146493018999e-05,-4.2483561629663545e-05,-2.295407320668346e-05,5.9286,6.9286
0.07421875,-3.4667975353627845e-05,-4.93198303044175e-05,-2.4419890519569704e-05,-1.855662126802474e-05,5.9286,6.9286
0.078125,-3.6133792666514086e-05,-5.420378195468071e-05,-2.3927072629892436e-05,-1.8070121556420245e-05,5.9286,6.9286
0.08203125,-3.5160793243305116e-05,-5.273796464179447e-05,-3.955192700389106e-05,-2.0022438580910984e-05,5.9286,6.9286
0.0859375,-3.5160793243305116e-05,-4.883333059281301e-05,-2.7838024856946688e-05,-1.953593886930649e-05,5.9286,6.9286
0.08984375,-3.5160793243305116e-05,-5.322446435339896e-05,-2.1488255893797215e-05,-2.1001756182192734e-05,5.9286,6.9286
0.09375,-3.3694975930418875e-05,-5.46902816662852e-05,-2.3927072629892436e-05,-1.904312097962922e-05,5.9286,6.9286
0.09765625,-3.5160793243305116e-05,-4.1997061918059064e-05,-2.295407320668346e-05,-1.4651987219043277e-05,5.9286,6.9286
0.1015625,-3.662661055619136e-05,-3.7113110267795846e-05,-2.4419890519569704e-05,-1.8070121556420245e-05,5.9286,6.9286
0.10546875,-3.8578927580682087e-05,-4.101774431677731e-05,-3.320847621881439e-05,-2.197475560540171e-05,5.9286,6.9286
0.109375,-3.6133792666514086e-05,-3.6133792666514086e-05,-3.5160793243305116e-05,-2.2461255317006192e-05,5.9286,6.9286
0.11328125,-2.539288994277868e-05,-3.6133792666514086e-05,-5.420378195468071e-05,-2.6858707255664925e-05,5.9286,6.9286
0.1171875,-3.418147564202336e-05,-3.56472929549096e-05,-6.689700170290685e-05,-3.271565832913711e-05,5.9286,6.9286
0.12109375,-3.4667975353627845e-05,-2.4419890519569704e-05,-2.5879389654383172e-05,-2.832452456855117e-05,5.9286,6.9286
0.125,-3.56472929549096e-05,-3.2229158617532634e-05,-1.0254535280384544e-05,-3.320847621881439e-05,5.9286,6.9286
0.12890625,-3.662661055619136e-05,-5.225146493018999e-05,-2.539288994277868e-05,-3.6133792666514086e-05,5.9286,6.9286
0.1328125,-2.7345206967269417e-05,-4.785401299153125e-05,-2.295407320668346e-05,-2.6372207544060443e-05,5.9286,6.9286
0.13671875,-3.5160793243305116e-05,-4.93198303044175e-05,-1.562498664225225e-05,-2.539288994277868e-05,5.9286,6.9286
0.140625,-3.8578927580682087e-05,-5.322446435339896e-05,-3.4667975353627845e-05,-3.320847621881439e-05,5.9286,6.9286
0.14453125,-3.662661055619136e-05,-4.980633001602198e-05,-4.834051270313574e-05,-3.320847621881439e-05,5.9286,6.9286
0.1484375,-3.5160793243305116e-05,-3.6133792666514086e-05,-4.443587865415428e-05,-2.3440572918287955e-05,5.9286,6.9286
0.15234375,-3.02768415930419e-05,-4.93198303044175e-05,-2.6858707255664925e-05,-2.3927072629892436e-05,5.9286,6.9286
0.15625,-2.9790341881437414e-05,-7.421977008926528e-05,-1.0747353170061813e-05,-2.2461255317006192e-05,5.9286,6.9286
0.16015625,-2.9790341881437414e-05,-3.8578927580682087e-05,-3.5160793243305116e-05,-2.295407320668346e-05,5.9286,6.9286
0.1640625,-3.2229158617532634e-05,-2.8811024280155654e-05,-3.1742658905928146e-05,-2.0508938292515466e-05,5.9286,6.9286
0.16796875,-3.3694975930418875e-05,-3.7113110267795846e-05,-1.3186169906157032e-05,-2.1001756182192734e-05,5.9286,6.9286
0.171875,-3.271565832913711e-05,-3.124984101625087e-05,-2.3440572918287955e-05,-2.832452456855117e-05,5.9286,6.9286
0.17578125,-3.5160793243305116e-05,-3.2229158617532634e-05,-2.5879389654383172e-05,-2.6372207544060443e-05,5.9286,6.9286
0.1796875,-3.9065427292286575e-05,-4.346287923094531e-05,-7.815718544289324e-06,-2.832452456855117e-05,5.9286,6.9286
0.18359375,-3.955192700389106e-05,-3.7113110267795846e-05,-2.539288994277868e-05,-2.9790341881437414e-05,5.9286,6.9286
0.1875,-3.808610969100482e-05,-5.6642598690775934e-05,-4.443587865415428e-05,-2.9790341881437414e-05,5.9286,6.9286
0.19140625,-3.4667975353627845e-05,-6.152655034103915e-05,-2.6372207544060443e-05,-2.7345206967269417e-05,5.9286,6.9286
0.1953125,-3.076334130464639e-05,-2.3440572918287955e-05,-2.6858707255664925e-05,-2.2461255317006192e-05,5.9286,6.9286
0.19921875,-3.124984101625087e-05,-3.271565832913711e-05,-3.320847621881439e-05,-2.539288994277868e-05,5.9286,6.9286
0.203125,-3.076334130464639e-05,-3.5160793243305116e-05,-2.832452456855117e-05,-3.1742658905928146e-05,5.9286,6.9286
0.20703125,-3.076334130464639e-05,-2.7838024856946688e-05,-2.7345206967269417e-05,-3.02768415930419e-05,5.9286,6.9286
0.2109375,-3.418147564202336e-05,-3.7599609979400334e-05,-1.904312097962922e-05,-3.02768415930419e-05,5.9286,6.9286
0.21484375,-2.9790341881437414e-05,-3.124984101625087e-05,-2.8811024280155654e-05,-2.9790341881437414e-05,5.9286,6.9286
0.21875,-2.832452456855117e-05,-1.8070121556420245e-05,-3.124984101625087e-05,-2.9297523991760142e-05,5.9286,6.9286
0.22265625,-3.1742658905928146e-05,-2.1001756182192734e-05,-2.197475560540171e-05,-3.124984101625087e-05,5.9286,6.9286
0.2265625,-3.1742658905928146e-05,-3.6133792666514086e-05,-3.418147564202336e-05,-3.1742658905928146e-05,5.9286,6.9286
0.23046875,-2.9297523991760142e-05,-3.808610969100482e-05,-3.808610969100482e-05,-3.271565832913711e-05,5.9286,6.9286
0.234375,-2.8811024280155654e-05,-3.1742658905928146e-05,-3.418147564202336e-05,-2.7838024856946688e-05,5.9286,6.9286
0.23828125,-2.8811024280155654e-05,-2.6372207544060443e-05,-3.3694975930418875e-05,-2.3927072629892436e-05,5.9286,6.9286
0.2421875,-3.320847621881439e-05,-1.8070121556420245e-05,-1.6604304243534e-05,-2.5879389654383172e-05,5.9286,6.9286
0.24609375,-4.053124460517282e-05,-2.832452456855117e-05,-2.3927072629892436e-05,-3.124984101625087e-05,5.9286,6.9286
0.25,-4.394937894254979e-05,-2.832452456855117e-05,-4.688101356832228e-05,-3.56472929549096e-05,5.9286,6.9286
0.25390625,-3.955192700389106e-05,-2.7838024856946688e-05,-3.1742658905928146e-05,-2.832452456855117e-05,5.9286,6.9286
0.2578125,-3.320847621881439e-05,-3.56472929549096e-05,-2.539288994277868e-05,-2.2461255317006192e-05,5.9286,6.9286
0.26171875,-2.9790341881437414e-05,-3.271565832913711e-05,-2.9790341881437414e-05,-2.4419890519569704e-05,5.9286,6.9286
0.265625,-3.076334130464639e-05,-2.7345206967269417e-05,-3.02768415930419e-05,-2.6372207544060443e-05,5.9286,6.9286
0.26953125,-2.9790341881437414e-05,-3.320847621881439e-05,-1.8070121556420245e-05,-2.4419890519569704e-05,5.9286,6.9286
0.2734375,-3.02768415930419e-05,-3.4667975353627845e-05,-1.1720352593270788e-05,-2.832452456855117e-05,5.9286,6.9286
0.27734375,-3.662661055619136e-05,-4.0044744893568334e-05,-3.418147564202336e-05,-2.9297523991760142e-05,5.9286,6.9286
0.28125,-3.7113110267795846e-05,-4.5415196255436034e-05,-4.1997061918059064e-05,-2.539288994277868e-05,5.9286,6.9286
0.28515625,-3.7599609979400334e-05,-3.320847621881439e-05,-3.9065427292286575e-05,-2.9297523991760142e-05,5.9286,6.9286
0.2890625,-4.150424402838179e-05,-3.5160793243305116e-05,-3.8578927580682087e-05,-3.7599609979400334e-05,5.9286,6.9286
0.29296875,-3.662661055619136e-05,-3.9065427292286575e-05,-3.6133792666514086e-05,-2.7838024856946688e-05,5.9286,6.9286
0.296875,-2.9790341881437414e-05,-3.3694975930418875e-05,-4.0044744893568334e-05,-1.4651987219043277e-05,5.9286,6.9286
0.30078125,-3.124984101625087e-05,-1.855662126802474e-05,-3.418147564202336e-05,-1.6117804531929523e-05,5.9286,6.9286
0.3046875,-4.053124460517282e-05,-2.1001756182192734e-05,-3.6133792666514086e-05,-2.4419890519569704e-05,5.9286,6.9286
0.30859375,-4.1997061918059064e-05,-3.1742658905928146e-05,-3.271565832913711e-05,-2.49063902311742e-05,5.9286,6.9286
0.3125,-4.053124460517282e-05,-3.4667975353627845e-05,-2.5879389654383172e-05,-1.904312097962922e-05,5.9286,6.9286
0.31640625,-4.1997061918059064e-05,-4.688101356832228e-05,-3.7113110267795846e-05,-2.1488255893797215e-05,5.9286,6.9286
0.3203125,-4.0044744893568334e-05,-4.1997061918059064e-05,-3.271565832913711e-05,-3.076334130464639e-05,5.9286,6.9286
0.32421875,-3.6133792666514086e-05,-2.6858707255664925e-05,-3.271565832913711e-05,-2.6372207544060443e-05,5.9286,6.9286
0.328125,-2.6858707255664925e-05,-2.4419890519569704e-05,-2.7838024856946688e-05,-2.49063902311742e-05,5.9286,6.9286
0.33203125,-2.7838024856946688e-05,-2.9297523991760142e-05,-2.0022438580910984e-05,-2.6372207544060443e-05,5.9286,6.9286
0.3359375,-4.101774431677731e-05,-3.4667975353627845e-05,-1.1720352593270788e-05,-2.0508938292515466e-05,5.9286,6.9286
0.33984375,-3.9065427292286575e-05,-2.1488255893797215e-05,-1.8070121556420245e-05,-2.3440572918287955e-05,5.9286,6.9286
0.34375,-3.320847621881439e-05,-2.4419890519569704e-05,-3.418147564202336e-05,-2.0508938292515466e-05,5.9286,6.9286
0.34765625,-3.3694975930418875e-05,-3.7113110267795846e-05,-1.3672669617761514e-05,-1.6604304243534e-05,5.9286,6.9286
0.3515625,-3.808610969100482e-05,-5.273796464179447e-05,-1.4165487507438783e-05,-2.4419890519569704e-05,5.9286,6.9286
0.35546875,-3.7599609979400334e-05,-4.980633001602198e-05,-4.785401299153125e-05,-2.3927072629892436e-05,5.9286,6.9286
0.359375,-3.662661055619136e-05,-3.56472929549096e-05,-4.980633001602198e-05,-2.0022438580910984e-05,5.9286,6.9286
0.36328125,-3.4667975353627845e-05,-3.3694975930418875e-05,-2.9297523991760142e-05,-2.1001756182192734e-05,5.9286,6.9286
0.3671875,-3.56472929549096e-05,-2.539288994277868e-05,-2.7345206967269417e-05,-1.8070121556420245e-05,5.9286,6.9286
0.37109375,-3.8578927580682087e-05,-2.7345206967269417e-05,-3.1742658905928146e-05,-1.7090803955138496e-05,5.9286,6.9286
0.375,-3.418147564202336e-05,-2.7345206967269417e-05,-3.8578927580682087e-05,-1.855662126802474e-05,5.9286,6.9286
0.37890625,-3.124984101625087e-05,-1.7583621844815767e-05,-2.9297523991760142e-05,-1.562498664225225e-05,5.9286,6.9286
0.3828125,-3.3694975930418875e-05,-2.4419890519569704e-05,-2.1488255893797215e-05,-1.7583621844815767e-05,5.9286,6.9286
0.38671875,-3.3694975930418875e-05,-2.6372207544060443e-05,-3.662661055619136e-05,-2.6858707255664925e-05,5.9286,6.9286
0.390625,-3.6133792666514086e-05,-1.6117804531929523e-05,-3.56472929549096e-05,-2.5879389654383172e-05,5.9286,6.9286
0.39453125,-3.6133792666514086e-05,-2.0508938292515466e-05,-3.6133792666514086e-05,-1.7583621844815767e-05,5.9286,6.9286
0.3984375,-3.4667975353627845e-05,-3.3694975930418875e-05,-4.688101356832228e-05,-2.295407320668346e-05,5.9286,6.9286
0.40234375,-3.3694975930418875e-05,-4.394937894254979e-05,-3.1742658905928146e-05,-3.5160793243305116e-05,5.9286,6.9286
0.40625,-2.6858707255664925e-05,-3.4667975353627845e-05,-1.8070121556420245e-05,-3.418147564202336e-05,5.9286,6.9286
0.41015625,-2.6372207544060443e-05,-3.271565832913711e-05,-3.076334130464639e-05,-2.9297523991760142e-05,5.9286,6.9286
0.4140625,-3.124984101625087e-05,-3.4667975353627845e-05,-4.1997061918059064e-05,-2.7345206967269417e-05,5.9286,6.9286
0.41796875,-3.7113110267795846e-05,-3.662661055619136e-05,-4.150424402838179e-05,-2.4419890519569704e-05,5.9286,6.9286
0.421875,-3.4667975353627845e-05,-3.7113110267795846e-05,-3.56472929549096e-05,-2.1001756182192734e-05,5.9286,6.9286
0.42578125,-3.9065427292286575e-05,-3.56472929549096e-05,-3.7113110267795846e-05,-1.6117804531929523e-05,5.9286,6.9286
0.4296875,-4.93198303044175e-05,-4.2483561629663545e-05,-4.150424402838179e-05,-1.7583621844815767e-05,5.9286,6.9286
0.43359375,-4.394937894254979e-05,-5.762191629205769e-05,-4.394937894254979e-05,-3.1742658905928146e-05,5.9286,6.9286
0.4375,-4.2483561629663545e-05,-6.104005062943466e-05,-4.590169596704052e-05,-3.7599609979400334e-05,5.9286,6.9286
0.44140625,-5.127214732890822e-05,-4.93198303044175e-05,-4.150424402838179e-05,-2.3927072629892436e-05,5.9286,6.9286
0.4453125,-5.175864704051271e-05,-4.688101356832228e-05,-4.150424402838179e-05,-1.562498664225225e-05,5.9286,6.9286
0.44921875,-4.1997061918059064e-05,-5.6156098979171446e-05,-4.785401299153125e-05,-1.953593886930649e-05,5.9286,6.9286
0.453125,-3.124984101625087e-05,-7.080163575188831e-05,-5.078564761730374e-05,-2.49063902311742e-05,5.9286,6.9286
0.45703125,-2.9790341881437414e-05,-5.9087733604943935e-05,-4.590169596704052e-05,-2.5879389654383172e-05,5.9286,6.9286
0.4609375,-3.271565832913711e-05,-3.418147564202336e-05,-4.053124460517282e-05,-2.9790341881437414e-05,5.9286,6.9286
0.46484375,-3.271565832913711e-05,-3.02768415930419e-05,-4.492237836575876e-05,-3.1742658905928146e-05,5.9286,6.9286
0.46875,-2.6858707255664925e-05,-3.124984101625087e-05,-3.320847621881439e-05,-2.6858707255664925e-05,5.9286,6.9286
0.47265625,-3.2229158617532634e-05,-3.271565832913711e-05,-2.0508938292515466e-05,-2.7345206967269417e-05,5.9286,6.9286
0.4765625,-3.662661055619136e-05,-4.2483561629663545e-05,-2.1001756182192734e-05,-2.832452456855117e-05,5.9286,6.9286
0.48046875,-3.076334130464639e-05,-3.9065427292286575e-05,-2.5879389654383172e-05,-3.124984101625087e-05,5.9286,6.9286
0.484375,-2.832452456855117e-05,-3.3694975930418875e-05,-3.2229158617532634e-05,-3.124984101625087e-05,5.9286,6.9286
0.48828125,-3.1742658905928146e-05,-3.124984101625087e-05,-2.7345206967269417e-05,-2.9790341881437414e-05,5.9286,6.9286
0.4921875,-3.955192700389106e-05,-2.9297523991760142e-05,-2.832452456855117e-05,-3.1742658905928146e-05,5.9286,6.9286
0.49609375,-4.297006134126803e-05,-4.053124460517282e-05,-2.2461255317006192e-05,-3.662661055619136e-05,5.9286,6.9286
0.5,-4.150424402838179e-05,-5.46902816662852e-05,-3.320847621881439e-05,-3.955192700389106e-05,5.9286,6.9286
0.50390625,-3.320847621881439e-05,-5.225146493018999e-05,-4.394937894254979e-05,-3.8578927580682087e-05,5.9286,6.9286
0.5078125,-3.1742658905928146e-05,-5.029282972762647e-05,-4.785401299153125e-05,-3.320847621881439e-05,5.9286,6.9286
0.51171875,-3.418147564202336e-05,-5.127214732890822e-05,-5.225146493018999e-05,-4.101774431677731e-05,5.9286,6.9286
0.515625,-4.1997061918059064e-05,-4.053124460517282e-05,-3.4667975353627845e-05,-4.346287923094531e-05,5.9286,6.9286
0.51953125,-3.9065427292286575e-05,-3.955192700389106e-05,-2.832452456855117e-05,-3.808610969100482e-05,5.9286,6.9286
0.5234375,-2.2461255317006192e-05,-4.2483561629663545e-05,-2.7345206967269417e-05,-3.1742658905928146e-05,5.9286,6.9286
0.52734375,-1.855662126802474e-05,-3.56472929549096e-05,-2.832452456855117e-05,-2.9790341881437414e-05,5.9286,6.9286
0.53125,-2.6372207544060443e-05,-4.638819567864501e-05,-3.1742658905928146e-05,-3.418147564202336e-05,5.9286,6.9286
0.53515625,-3.1742658905928146e-05,-5.029282972762647e-05,-3.662661055619136e-05,-3.124984101625087e-05,5.9286,6.9286
0.5390625,-3.3694975930418875e-05,-4.492237836575876e-05,-2.9297523991760142e-05,-2.49063902311742e-05,5.9286,6.9286
0.54296875,-3.7113110267795846e-05,-4.346287923094531e-05,-2.6372207544060443e-05,-2.49063902311742e-05,5.9286,6.9286
0.546875,-3.955192700389106e-05,-5.225146493018999e-05,-4.394937894254979e-05,-2.7838024856946688e-05,5.9286,6.9286
0.55078125,-3.5160793243305116e-05,-5.420378195468071e-05,-3.271565832913711e-05,-2.6858707255664925e-05,5.9286,6.9286
0.5546875,-3.662661055619136e-05,-3.271565832913711e-05,-2.3927072629892436e-05,-3.271565832913711e-05,5.9286,6.9286
0.55859375,-4.150424402838179e-05,-4.0044744893568334e-05,-2.9297523991760142e-05,-4.053124460517282e-05,5.9286,6.9286
0.5625,-3.5160793243305116e-05,-5.712909840238041e-05,-1.855662126802474e-05,-3.56472929549096e-05,5.9286,6.9286
0.56640625,-3.3694975930418875e-05,-5.517678137788969e-05,-1.855662126802474e-05,-3.02768415930419e-05,5.9286,6.9286
0.5703125,-3.56472929549096e-05,-5.8108416003662175e-05,-3.02768415930419e-05,-2.7838024856946688e-05,5.9286,6.9286
0.57421875,-3.02768415930419e-05,-5.029282972762647e-05,-3.4667975353627845e-05,-2.9297523991760142e-05,5.9286,6.9286
0.578125,-2.4419890519569704e-05,-3.418147564202336e-05,-3.662661055619136e-05,-3.124984101625087e-05,5.9286,6.9286
0.58203125,-2.4419890519569704e-05,-2.9790341881437414e-05,-3.808610969100482e-05,-3.02768415930419e-05,5.9286,6.9286
0.5859375,-3.271565832913711e-05,-4.2483561629663545e-05,-4.101774431677731e-05,-2.9297523991760142e-05,5.9286,6.9286
0.58984375,-3.320847621881439e-05,-4.394937894254979e-05,-3.9065427292286575e-05,-2.8811024280155654e-05,5.9286,6.9286
0.59375,-2.9297523991760142e-05,-3.271565832913711e-05,-3.8578927580682087e-05,-2.7345206967269417e-05,5.9286,6.9286
0.59765625,-3.02768415930419e-05,-3.418147564202336e-05,-3.9065427292286575e-05,-3.3694975930418875e-05,5.9286,6.9286
0.6015625,-3.320847621881439e-05,-4.053124460517282e-05,-2.9790341881437414e-05,-4.150424402838179e-05,5.9286,6.9286
0.60546875,-4.150424402838179e-05,-4.2483561629663545e-05,-2.7345206967269417e-05,-3.271565832913711e-05,5.9286,6.9286
0.609375,-4.1997061918059064e-05,-3.7113110267795846e-05,-3.3694975930418875e-05,-2.9297523991760142e-05,5.9286,6.9286
0.61328125,-3.320847621881439e-05,-4.394937894254979e-05,-3.6133792666514086e-05,-3.9065427292286575e-05,5.9286,6.9286
0.6171875,-4.101774431677731e-05,-4.150424402838179e-05,-3.6133792666514086e-05,-3.56472929549096e-05,5.9286,6.9286
0.62109375,-3.9065427292286575e-05,-2.1001756182192734e-05,-3.02768415930419e-05,-2.6858707255664925e-05,5.9286,6.9286
0.625,-2.4419890519569704e-05,-2.0022438580910984e-05,-2.1488255893797215e-05,-2.9297523991760142e-05,5.9286,6.9286
0.62890625,-2.6372207544060443e-05,-2.49063902311742e-05,-1.4165487507438783e-05,-2.832452456855117e-05,5.9286,6.9286
0.6328125,-2.832452456855117e-05,-3.4667975353627845e-05,-9.281535857175569e-06,-1.953593886930649e-05,5.9286,6.9286
0.63671875,-2.7838024856946688e-05,-3.4667975353627845e-05,-2.3927072629892436e-05,-1.7583621844815767e-05,5.9286,6.9286
0.640625,-2.8811024280155654e-05,-3.418147564202336e-05,-3.8578927580682087e-05,-2.4419890519569704e-05,5.9286,6.9286
0.64453125,-2.9790341881437414e-05,-4.834051270313574e-05,-2.1488255893797215e-05,-2.295407320668346e-05,5.9286,6.9286
0.6484375,-3.1742658905928146e-05,-4.736751327992677e-05,-1.3186169906157032e-05,-2.1001756182192734e-05,5.9286,6.9286
0.65234375,-3.124984101625087e-05,-4.492237836575876e-05,-3.076334130464639e-05,-3.271565832913711e-05,5.9286,6.9286
0.65625,-2.9790341881437414e-05,-4.590169596704052e-05,-3.02768415930419e-05,-3.271565832913711e-05,5.9286,6.9286
0.66015625,-2.6858707255664925e-05,-3.7113110267795846e-05,-2.9297523991760142e-05,-2.6858707255664925e-05,5.9286,6.9286
0.6640625,-2.7838024856946688e-05,-3.2229158617532634e-05,-3.02768415930419e-05,-2.539288994277868e-05,5.9286,6.9286
0.66796875,-3.5160793243305116e-05,-4.834051270313574e-05,-3.5160793243305116e-05,-2.8811024280155654e-05,5.9286,6.9286
0.671875,-3.7599609979400334e-05,-5.6642598690775934e-05,-3.5160793243305116e-05,-3.320847621881439e-05,5.9286,6.9286
0.67578125,-3.4667975353627845e-05,-4.394937894254979e-05,-3.124984101625087e-05,-3.124984101625087e-05,5.9286,6.9286
0.6796875,-3.271565832913711e-05,-4.346287923094531e-05,-3.9065427292286575e-05,-3.4667975353627845e-05,5.9286,6.9286
0.68359375,-3.418147564202336e-05,-3.662661055619136e-05,-4.394937894254979e-05,-3.9065427292286575e-05,5.9286,6.9286
0.6875,-3.320847621881439e-05,-2.4419890519569704e-05,-4.150424402838179e-05,-3.02768415930419e-05,5.9286,6.9286
0.69140625,-2.9297523991760142e-05,-2.49063902311742e-05,-3.6133792666514086e-05,-2.2461255317006192e-05,5.9286,6.9286
0.6953125,-2.9297523991760142e-05,-3.808610969100482e-05,-2.9297523991760142e-05,-2.197475560540171e-05,5.9286,6.9286
0.69921875,-3.1742658905928146e-05,-3.7599609979400334e-05,-2.832452456855117e-05,-2.2461255317006192e-05,5.9286,6.9286
0.703125,-3.3694975930418875e-05,-3.4667975353627845e-05,-3.076334130464639e-05,-2.197475560540171e-05,5.9286,6.9286
0.70703125,-2.6372207544060443e-05,-4.5415196255436034e-05,-4.883333059281301e-05,-2.295407320668346e-05,5.9286,6.9286
0.7109375,-2.6372207544060443e-05,-5.175864704051271e-05,-4.834051270313574e-05,-2.1001756182192734e-05,5.9286,6.9286
0.71484375,-2.9790341881437414e-05,-3.418147564202336e-05,-3.662661055619136e-05,-2.3927072629892436e-05,5.9286,6.9286
0.71875,-2.1001756182192734e-05,-2.3927072629892436e-05,-2.9790341881437414e-05,-2.7838024856946688e-05,5.9286,6.9286
0.72265625,-1.953593886930649e-05,-1.8070121556420245e-05,-2.5879389654383172e-05,-2.5879389654383172e-05,5.9286,6.9286
0.7265625,-1.953593886930649e-05,-1.2699670194552552e-05,-3.5160793243305116e-05,-2.49063902311742e-05,5.9286,6.9286
0.73046875,-1.4651987219043277e-05,-1.6604304243534e-05,-2.8811024280155654e-05,-1.6117804531929523e-05,5.9286,6.9286
0.734375,-8.30221825589382e-06,-1.562498664225225e-05,-1.562498664225225e-05,-9.281535857175569e-06,5.9286,6.9286
0.73828125,-1.3672669617761514e-05,-1.3186169906157032e-05,-5.3769018081941195e-06,-8.30221825589382e-06,5.9286,6.9286
0.7421875,-2.0508938292515466e-05,-2.832452456855117e-05,-2.6858707255664925e-05,-1.8070121556420245e-05,5.9286,6.9286
0.74609375,-1.6604304243534e-05,-6.689700170290685e-05,-5.957423331654842e-05,-2.539288994277868e-05,5.9286,6.9286
0.75,-1.6604304243534e-05,-8.2035356365301e-05,-7.129445364156558e-05,-9.768035568780064e-06,5.9286,6.9286
0.75390625,-6.349901231403081e-06,-8.642649012588694e-05,-9.325644062256808e-05,-3.911084495307875e-06,5.9286,6.9286
0.7578125,1.4645404504463243e-05,-8.887162504005493e-05,-0.00011913569800869764,-5.8634015197986e-06,5.9286,6.9286
0.76171875,2.685212454108489e-05,-0.00012206733263447013,-0.00012645846639505607,-2.445267182421631e-06,5.9286,6.9286
0.765625,2.7338624252689385e-05,-0.00016698957873197525,-0.00014746009030899517,3.4180020691233465e-06,5.9286,6.9286
0.76953125,3.7106527553215814e-05,-0.00016796257815518425,-0.0001665030790203708,6.343318516823046e-06,5.9286,6.9286
0.7734375,5.126556461432818e-05,-0.0001904237012039368,-0.0001904237012039368,2.925184179446077e-06,5.9286,6.9286
0.77734375,6.249928522774087e-05,-0.00021581645887846186,-0.0002153299591668574,9.76145285420003e-06,5.9286,6.9286
0.78125,6.493810196383609e-05,-0.0002231392272648203,-0.00022655736160219727,1.4645404504463243e-05,5.9286,6.9286
0.78515625,6.249928522774087e-05,-0.00023485944758983748,-0.000225091544289311,1.5624722105744992e-05,5.9286,6.9286
0.7890625,6.445160225223159e-05,-0.00022167340995193406,-0.0002280231789150835,1.4645404504463243e-05,5.9286,6.9286
0.79296875,6.493810196383609e-05,-0.00021679577647974364,-0.00022948899622796977,9.274953142595535e-06,5.9286,6.9286
0.796875,6.395878436255432e-05,-0.0002065413734676127,-0.00022655736160219727,7.32263611810481e-06,5.9286,6.9286
0.80078125,5.5663016552986926e-05,-0.0002016574218173495,-0.00021386414185397114,-4.397584206912356e-06,5.9286,6.9286
0.8046875,4.394279622796975e-05,-0.00020067810421606772,-0.00019433465343099106,-1.4651987219043277e-05,5.9286,6.9286
0.80859375,4.2963478626688015e-05,-0.00017333934769512473,-0.00018310093281757837,-1.1720352593270788e-05,5.9286,6.9286
0.8125,2.4899807516594164e-05,-0.0001694283954680705,-0.00017089421278095672,-1.3672669617761514e-05,5.9286,6.9286
0.81640625,1.074077045548178e-05,-0.000136712869407187,-0.00015136472435797665,-2.5879389654383172e-05,5.9286,6.9286
0.8203125,8.295635541313786e-06,-9.520875764705883e-05,-0.0001064424782604715,-2.49063902311742e-05,5.9286,6.9286
0.82421875,-1.9587674708171362e-06,-0.00010009270929732204,-8.105603876401923e-05,-2.6372207544060443e-05,5.9286,6.9286
0.828125,-2.197475560540171e-05,-9.131044177615016e-05,-7.32467706660563e-05,-1.953593886930649e-05,5.9286,6.9286
0.83203125,-3.3694975930418875e-05,-4.590169596704052e-05,-5.957423331654842e-05,-2.6372207544060443e-05,5.9286,6.9286
0.8359375,-3.418147564202336e-05,-2.539288994277868e-05,-4.785401299153125e-05,-3.7113110267795846e-05,5.9286,6.9286
0.83984375,-3.56472929549096e-05,-4.053124460517282e-05,-3.418147564202336e-05,-3.662661055619136e-05,5.9286,6.9286
0.84375,-4.297006134126803e-05,-5.3769018081941195e-06,-1.5138486930647758e-05,-4.101774431677731e-05,5.9286,6.9286
0.84765625,-5.9087733604943935e-05,3.17360761913481e-05,-2.1488255893797215e-05,-3.5160793243305116e-05,5.9286,6.9286
0.8515625,-5.957423331654842e-05,7.32263611810481e-06,-9.768035568780064e-06,-4.785401299153125e-05,5.9286,6.9286
0.85546875,-6.884931872739759e-05,8.788453430991055e-06,1.757703913023573e-05,-4.883333059281301e-05,5.9286,6.9286
0.859375,-7.519908769054704e-05,4.00381621789883e-05,2.441330780498967e-05,-3.7599609979400334e-05,5.9286,6.9286
0.86328125,-6.982863632867933e-05,4.5895113252460504e-05,5.0779064902723715e-05,-4.053124460517282e-05,5.9286,6.9286
0.8671875,-7.178095335317007e-05,3.320189350423435e-05,4.882674787823299e-05,-4.443587865415428e-05,5.9286,6.9286
0.87109375,-7.226745306477456e-05,3.954534428931103e-05,4.150397949187453e-05,-4.736751327992677e-05,5.9286,6.9286
0.875,-7.275395277637903e-05,4.736093056534673e-05,3.564071024032958e-05,-4.736751327992677e-05,5.9286,6.9286
0.87890625,-7.715140471503776e-05,4.00381621789883e-05,4.2963478626688015e-05,-4.736751327992677e-05,5.9286,6.9286
0.8828125,-7.178095335317007e-05,4.1990479203479025e-05,6.054065002517737e-05,-4.443587865415428e-05,5.9286,6.9286
0.88671875,-6.982863632867933e-05,5.175206432593268e-05,4.394279622796975e-05,-4.297006134126803e-05,5.9286,6.9286
0.890625,-6.933581843900206e-05,5.4683698951705166e-05,3.466771081712059e-05,-4.590169596704052e-05,5.9286,6.9286
0.89453125,-6.884931872739759e-05,4.540861354085601e-05,3.564071024032958e-05,-4.5415196255436034e-05,5.9286,6.9286
0.8984375,-7.373327037766079e-05,8.295635541313786e-06,3.17360761913481e-05,-4.101774431677731e-05,5.9286,6.9286
0.90234375,-7.129445364156558e-05,3.612720995193405e-05,4.247697891508352e-05,-3.662661055619136e-05,5.9286,6.9286
0.90625,-7.031513604028381e-05,6.542460167544058e-05,5.4683698951705166e-05,-3.7113110267795846e-05,5.9286,6.9286
0.91015625,-7.275395277637903e-05,4.150397949187453e-05,4.2963478626688015e-05,-3.808610969100482e-05,5.9286,6.9286
0.9140625,-6.738350141451134e-05,3.9058844577706536e-05,3.4174892927443325e-05,-3.9065427292286575e-05,5.9286,6.9286
0.91796875,-6.445818496681164e-05,4.101116160219726e-05,5.126556461432818e-05,-3.8578927580682087e-05,5.9286,6.9286
0.921875,-6.884931872739759e-05,4.2963478626688015e-05,5.321788163881893e-05,-3.5160793243305116e-05,5.9286,6.9286
0.92578125,-6.591768410162509e-05,3.9058844577706536e-05,4.5895113252460504e-05,-3.7599609979400334e-05,5.9286,6.9286
0.9296875,-6.152655034103915e-05,2.5386307228198645e-05,3.5154210528725084e-05,-3.662661055619136e-05,5.9286,6.9286
0.93359375,-6.836281901579309e-05,3.17360761913481e-05,2.8317941853971134e-05,-3.124984101625087e-05,5.9286,6.9286
0.9375,-6.933581843900206e-05,3.0270258878461873e-05,1.9529356154726458e-05,-3.4667975353627845e-05,5.9286,6.9286
0.94140625,-6.201305005264363e-05,3.466771081712059e-05,2.6365624829480408e-05,-4.053124460517282e-05,5.9286,6.9286
0.9453125,-6.104005062943466e-05,5.3710699528496203e-05,4.00381621789883e-05,-3.4667975353627845e-05,5.9286,6.9286
0.94921875,-6.201305005264363e-05,3.5154210528725084e-05,3.9058844577706536e-05,-3.320847621881439e-05,5.9286,6.9286
0.953125,-6.347886736552988e-05,2.7831442142366652e-05,4.491579565117874e-05,-3.7113110267795846e-05,5.9286,6.9286
0.95703125,-6.347886736552988e-05,2.7831442142366652e-05,3.7106527553215814e-05,-3.418147564202336e-05,5.9286,6.9286
0.9609375,-5.957423331654842e-05,2.0015855866330953e-05,4.00381621789883e-05,-3.076334130464639e-05,5.9286,6.9286
0.96484375,-5.859491571526666e-05,3.612720995193405e-05,5.224488221560995e-05,-3.320847621881439e-05,5.9286,6.9286
0.96875,-6.00607330281529e-05,2.587280693980314e-05,4.6874430853742236e-05,-3.5160793243305116e-05,5.9286,6.9286
0.97265625,-5.225146493018999e-05,-1.3672669617761514e-05,3.808584515449757e-05,-3.5160793243305116e-05,5.9286,6.9286
0.9765625,-4.883333059281301e-05,1.757703913023573e-05,2.441330780498967e-05,-3.3694975930418875e-05,5.9286,6.9286
0.98046875,-5.029282972762647e-05,2.929094127718011e-05,1.074077045548178e-05,-3.808610969100482e-05,5.9286,6.9286
0.984375,-5.127214732890822e-05,1.2693087479972519e-05,2.4899807516594164e-05,-4.394937894254979e-05,5.9286,6.9286
0.98828125,-4.785401299153125e-05,2.050235557793543e-05,2.294749049210344e-05,-4.101774431677731e-05,5.9286,6.9286
0.9921875,-4.492237836575876e-05,2.294749049210344e-05,3.4180020691233465e-06,-3.808610969100482e-05,5.9286,6.9286
0.99609375,-4.93198303044175e-05,7.32263611810481e-06,-4.929501579308919e-07,-3.320847621881439e-05,5.9286,6.9286
1.0,-4.443587865415428e-05,1.074077045548178e-05,2.4899807516594164e-05,-2.832452456855117e-05,5.9286,6.9286
1.00390625,-4.053124460517282e-05,2.1481673179217197e-05,3.662002784161132e-05,-2.9297523991760142e-05,5.9286,6.9286
1.0078125,-4.5415196255436034e-05,3.4180020691233465e-06,1.5624722105744992e-05,-2.7838024856946688e-05,5.9286,6.9286
1.01171875,-4.590169596704052e-05,-1.1720352593270788e-05,-5.3769018081941195e-06,-3.2229158617532634e-05,5.9286,6.9286
1.015625,-4.346287923094531e-05,-8.795036145571089e-06,-9.281535857175569e-06,-3.5160793243305116e-05,5.9286,6.9286
1.01953125,-4.101774431677731e-05,-1.3226825362266935e-10,-7.3292188326848445e-06,-3.2229158617532634e-05,5.9286,6.9286
1.0234375,-4.492237836575876e-05,3.904501780727841e-06,3.904501780727841e-06,-2.9790341881437414e-05,5.9286,6.9286
1.02734375,-4.492237836575876e-05,3.904501780727841e-06,1.5131904216067723e-05,-2.49063902311742e-05,5.9286,6.9286
1.03125,-4.5415196255436034e-05,-1.2699670194552552e-05,8.295635541313786e-06,-2.0508938292515466e-05,5.9286,6.9286
1.03515625,-4.590169596704052e-05,-2.1488255893797215e-05,1.024795256580451e-05,-2.0022438580910984e-05,5.9286,6.9286
1.0390625,-3.8578927580682087e-05,-3.320847621881439e-05,1.952184756237102e-06,-2.295407320668346e-05,5.9286,6.9286
1.04296875,-4.346287923094531e-05,-2.6858707255664925e-05,-1.5138486930647758e-05,-2.49063902311742e-05,5.9286,6.9286
1.046875,-4.1997061918059064e-05,-1.953593886930649e-05,-4.8840839185168365e-06,-3.02768415930419e-05,5.9286,6.9286
1.05078125,-4.0044744893568334e-05,-3.5160793243305116e-05,-8.30221825589382e-06,-3.1742658905928146e-05,5.9286,6.9286
1.0546875,-4.346287923094531e-05,-3.5160793243305116e-05,-1.6604304243534e-05,-2.6372207544060443e-05,5.9286,6.9286
1.05859375,-4.1997061918059064e-05,-2.8811024280155654e-05,-3.124984101625087e-05,-3.02768415930419e-05,5.9286,6.9286
1.0625,-3.955192700389106e-05,-2.6858707255664925e-05,-3.808610969100482e-05,-2.9790341881437414e-05,5.9286,6.9286
1.06640625,-4.0044744893568334e-05,-2.7345206967269417e-05,-1.3186169906157032e-05,-2.49063902311742e-05,5.9286,6.9286
1.0703125,-4.0044744893568334e-05,-8.795036145571089e-06,-2.9317668940261115e-06,-2.2461255317006192e-05,5.9286,6.9286
1.07421875,-4.053124460517282e-05,-1.562498664225225e-05,-1.220685230487527e-05,-2.1488255893797215e-05,5.9286,6.9286
1.078125,-4.590169596704052e-05,-3.9065427292286575e-05,-9.281535857175569e-06,-2.6372207544060443e-05,5.9286,6.9286
1.08203125,-4.492237836575876e-05,-3.124984101625087e-05,-2.9317668940261115e-06,-2.7345206967269417e-05,5.9286,6.9286
1.0859375,-3.7599609979400334e-05,-2.295407320668346e-05,-3.4667975353627845e-05,-2.9297523991760142e-05,5.9286,6.9286
1.08984375,-3.5160793243305116e-05,-2.8811024280155654e-05,-3.56472929549096e-05,-3.271565832913711e-05,5.9286,6.9286
1.09375,-4.2483561629663545e-05,-3.3694975930418875e-05,-1.7583621844815767e-05,-3.418147564202336e-05,5.9286,6.9286
1.09765625,-4.053124460517282e-05,-3.56472929549096e-05,-4.785401299153125e-05,-3.124984101625087e-05,5.9286,6.9286
1.1015625,-3.4667975353627845e-05,-3.02768415930419e-05,-3.7599609979400334e-05,-3.4667975353627845e-05,5.9286,6.9286
1.10546875,-3.955192700389106e-05,-3.124984101625087e-05,-1.5138486930647758e-05,-3.5160793243305116e-05,5.9286,6.9286
1.109375,-4.394937894254979e-05,-2.295407320668346e-05,-1.4165487507438783e-05,-3.124984101625087e-05,5.9286,6.9286
1.11328125,-4.0044744893568334e-05,-2.7345206967269417e-05,-1.220685230487527e-05,-3.4667975353627845e-05,5.9286,6.9286
1.1171875,-3.9065427292286575e-05,-3.124984101625087e-05,-2.6858707255664925e-05,-3.1742658905928146e-05,5.9286,6.9286
1.12109375,-3.8578927580682087e-05,-2.4419890519569704e-05,-2.1001756182192734e-05,-2.295407320668346e-05,5.9286,6.9286
1.125,-3.662661055619136e-05,-2.6858707255664925e-05,-2.197475560540171e-05,-2.1488255893797215e-05,5.9286,6.9286
1.12890625,-3.418147564202336e-05,-2.5879389654383172e-05,-2.295407320668346e-05,-2.1001756182192734e-05,5.9286,6.9286
1.1328125,-3.4667975353627845e-05,-1.904312097962922e-05,-2.3440572918287955e-05,-2.1001756182192734e-05,5.9286,6.9286
1.13671875,-3.2229158617532634e-05,-2.7345206967269417e-05,-2.7345206967269417e-05,-2.3927072629892436e-05,5.9286,6.9286
1.140625,-2.9297523991760142e-05,-4.883333059281301e-05,-2.539288994277868e-05,-2.197475560540171e-05,5.9286,6.9286
1.14453125,-2.8811024280155654e-05,-2.49063902311742e-05,-1.3186169906157032e-05,-1.7583621844815767e-05,5.9286,6.9286
1.1484375,-2.8811024280155654e-05,-3.4182666056305917e-06,-1.5138486930647758e-05,-2.0022438580910984e-05,5.9286,6.9286
1.15234375,-2.9297523991760142e-05,-3.271565832913711e-05,-3.4667975353627845e-05,-2.2461255317006192e-05,5.9286,6.9286
1.15625,-3.1742658905928146e-05,-3.6133792666514086e-05,4.863674433508577e-07,-1.6117804531929523e-05,5.9286,6.9286
1.16015625,-3.418147564202336e-05,-3.56472929549096e-05,1.3179587191576999e-05,-1.562498664225225e-05,5.9286,6.9286
1.1640625,-3.4667975353627845e-05,-3.5160793243305116e-05,-2.7345206967269417e-05,-1.855662126802474e-05,5.9286,6.9286
1.16796875,-2.6858707255664925e-05,-1.0747353170061813e-05,-3.8578927580682087e-05,-1.6117804531929523e-05,5.9286,6.9286
1.171875,-2.8811024280155654e-05,-3.56472929549096e-05,-2.832452456855117e-05,-1.7090803955138496e-05,5.9286,6.9286
1.17578125,-3.56472929549096e-05,-4.883333059281301e-05,-1.6604304243534e-05,-1.7583621844815767e-05,5.9286,6.9286
1.1796875,-2.7838024856946688e-05,-3.56472929549096e-05,-2.2461255317006192e-05,-1.855662126802474e-05,5.9286,6.9286
1.18359375,-2.6372207544060443e-05,-1.3226825362266935e-10,-1.4651987219043277e-05,-1.7090803955138496e-05,5.9286,6.9286
1.1875,-3.076334130464639e-05,1.5131904216067723e-05,-9.794498695353865e-07,-1.5138486930647758e-05,5.9286,6.9286
1.19140625,-3.2229158617532634e-05,-1.2699670194552552e-05,-6.349901231403081e-06,-2.1001756182192734e-05,5.9286,6.9286
1.1953125,-2.6372207544060443e-05,-2.1488255893797215e-05,-8.795036145571089e-06,-2.7345206967269417e-05,5.9286,6.9286
1.19921875,-2.2461255317006192e-05,-2.295407320668346e-05,-1.2699670194552552e-05,-2.5879389654383172e-05,5.9286,6.9286
1.203125,-2.7345206967269417e-05,-2.6372207544060443e-05,-1.3672669617761514e-05,-2.539288994277868e-05,5.9286,6.9286
1.20703125,-3.2229158617532634e-05,-2.197475560540171e-05,-1.1720352593270788e-05,-1.4651987219043277e-05,5.9286,6.9286
1.2109375,-2.6372207544060443e-05,-1.0254535280384544e-05,-2.0022438580910984e-05,-1.562498664225225e-05,5.9286,6.9286
1.21484375,-2.7345206967269417e-05,-2.3440572918287955e-05,-4.053124460517282e-05,-2.295407320668346e-05,5.9286,6.9286
1.21875,-3.2229158617532634e-05,-3.3694975930418875e-05,-4.101774431677731e-05,-2.539288994277868e-05,5.9286,6.9286
1.22265625,-2.6372207544060443e-05,-2.6858707255664925e-05,-2.2461255317006192e-05,-2.197475560540171e-05,5.9286,6.9286
1.2265625,-2.832452456855117e-05,-1.6604304243534e-05,-1.6117804531929523e-05,-1.904312097962922e-05,5.9286,6.9286
1.23046875,-2.6858707255664925e-05,-2.5879389654383172e-05,-2.1001756182192734e-05,-2.8811024280155654e-05,5.9286,6.9286
1.234375,-2.6858707255664925e-05,-5.322446435339896e-05,-3.6133792666514086e-05,-2.8811024280155654e-05,5.9286,6.9286
1.23828125,-3.662661055619136e-05,-3.3694975930418875e-05,-3.076334130464639e-05,-2.9297523991760142e-05,5.9286,6.9286
1.2421875,-4.297006134126803e-05,-3.56472929549096e-05,-2.295407320668346e-05,-2.5879389654383172e-05,5.9286,6.9286
1.24609375,-4.150424402838179e-05,-5.46902816662852e-05,-2.5879389654383172e-05,-2.1488255893797215e-05,5.9286,6.9286
1.25,-3.662661055619136e-05,-3.3694975930418875e-05,-2.539288994277868e-05,-2.0508938292515466e-05,5.9286,6.9286
1.25390625,-3.418147564202336e-05,-1.4651987219043277e-05,-3.271565832913711e-05,-1.7090803955138496e-05,5.9286,6.9286
1.2578125,-3.2229158617532634e-05,-2.7838024856946688e-05,-2.295407320668346e-05,-1.6604304243534e-05,5.9286,6.9286
1.26171875,-2.9790341881437414e-05,-4.980633001602198e-05,-1.855662126802474e-05,-1.562498664225225e-05,5.9286,6.9286
1.265625,-3.6133792666514086e-05,-4.0044744893568334e-05,-2.7838024856946688e-05,-1.953593886930649e-05,5.9286,6.9286
1.26953125,-4.053124460517282e-05,-3.5160793243305116e-05,-3.5160793243305116e-05,-2.3440572918287955e-05,5.9286,6.9286
1.2734375,-3.320847621881439e-05,-3.418147564202336e-05,-4.980633001602198e-05,-1.855662126802474e-05,5.9286,6.9286
1.27734375,-3.3694975930418875e-05,-3.2229158617532634e-05,-3.9065427292286575e-05,-1.7090803955138496e-05,5.9286,6.9286
1.28125,-3.5160793243305116e-05,-4.101774431677731e-05,-3.076334130464639e-05,-2.2461255317006192e-05,5.9286,6.9286
1.28515625,-3.7599609979400334e-05,-3.955192700389106e-05,-3.124984101625087e-05,-1.904312097962922e-05,5.9286,6.9286
1.2890625,-3.6133792666514086e-05,-2.539288994277868e-05,-1.4651987219043277e-05,-1.7090803955138496e-05,5.9286,6.9286
1.29296875,-3.271565832913711e-05,-3.418147564202336e-05,-2.1001756182192734e-05,-2.197475560540171e-05,5.9286,6.9286
1.296875,-3.955192700389106e-05,-3.7113110267795846e-05,-3.271565832913711e-05,-2.0022438580910984e-05,5.9286,6.9286
1.30078125,-4.150424402838179e-05,-2.9790341881437414e-05,-2.1001756182192734e-05,-1.5138486930647758e-05,5.9286,6.9286
1.3046875,-3.8578927580682087e-05,-2.9297523991760142e-05,-3.662661055619136e-05,-1.7583621844815767e-05,5.9286,6.9286
1.30859375,-3.124984101625087e-05,-3.2229158617532634e-05,-5.078564761730374e-05,-2.1488255893797215e-05,5.9286,6.9286
1.3125,-2.7838024856946688e-05,-2.539288994277868e-05,-4.346287923094531e-05,-2.0508938292515466e-05,5.9286,6.9286
1.31640625,-3.4667975353627845e-05,-2.1001756182192734e-05,-3.3694975930418875e-05,-2.0022438580910984e-05,5.9286,6.9286
1.3203125,-4.0044744893568334e-05,-1.6604304243534e-05,-3.076334130464639e-05,-2.0508938292515466e-05,5.9286,6.9286
1.32421875,-4.297006134126803e-05,-1.6604304243534e-05,-2.1488255893797215e-05,-1.855662126802474e-05,5.9286,6.9286
1.328125,-4.394937894254979e-05,-2.9790341881437414e-05,-1.953593886930649e-05,-1.953593886930649e-05,5.9286,6.9286
1.33203125,-3.7113110267795846e-05,-3.7113110267795846e-05,-4.297006134126803e-05,-2.1001756182192734e-05,5.9286,6.9286
1.3359375,-3.02768415930419e-05,-2.8811024280155654e-05,-4.394937894254979e-05,-2.49063902311742e-05,5.9286,6.9286
1.33984375,-3.662661055619136e-05,-2.7838024856946688e-05,-2.49063902311742e-05,-2.832452456855117e-05,5.9286,6.9286
1.34375,-3.5160793243305116e-05,-1.562498664225225e-05,-3.56472929549096e-05,-1.8070121556420245e-05,5.9286,6.9286
1.34765625,-2.832452456855117e-05,-9.281535857175569e-06,-5.3710964065003446e-05,-1.2699670194552552e-05,5.9286,6.9286
1.3515625,-3.02768415930419e-05,-2.1001756182192734e-05,-4.443587865415428e-05,-1.7583621844815767e-05,5.9286,6.9286
1.35546875,-3.124984101625087e-05,-2.4419890519569704e-05,-2.4419890519569704e-05,-1.4651987219043277e-05,5.9286,6.9286
1.359375,-3.1742658905928146e-05,-4.2483561629663545e-05,-1.6117804531929523e-05,-1.220685230487527e-05,5.9286,6.9286
1.36328125,-2.6858707255664925e-05,-3.955192700389106e-05,-2.197475560540171e-05,-1.1233852881666308e-05,5.9286,6.9286
1.3671875,-2.4419890519569704e-05,-3.02768415930419e-05,-2.9297523991760142e-05,-1.1233852881666308e-05,5.9286,6.9286
1.37109375,-3.320847621881439e-05,-4.883333059281301e-05,-4.297006134126803e-05,-1.8070121556420245e-05,5.9286,6.9286
1.375,-3.418147564202336e-05,-4.394937894254979e-05,-3.1742658905928146e-05,-1.6117804531929523e-05,5.9286,6.9286
1.37890625,-2.3927072629892436e-05,-1.7583621844815767e-05,-4.8840839185168365e-06,-1.4651987219043277e-05,5.9286,6.9286
1.3828125,-2.5879389654383172e-05,-1.3672669617761514e-05,-1.3186169906157032e-05,-1.8070121556420245e-05,5.9286,6.9286
1.38671875,-3.418147564202336e-05,-2.6858707255664925e-05,-2.7345206967269417e-05,-1.220685230487527e-05,5.9286,6.9286
1.390625,-3.5160793243305116e-05,-3.5160793243305116e-05,-2.197475560540171e-05,-8.30221825589382e-06,5.9286,6.9286
1.39453125,-3.6133792666514086e-05,-3.3694975930418875e-05,-2.1001756182192734e-05,-1.4651987219043277e-05,5.9286,6.9286
1.3984375,-3.7113110267795846e-05,-3.2229158617532634e-05,-3.124984101625087e-05,-2.3927072629892436e-05,5.9286,6.9286
1.40234375,-3.3694975930418875e-05,-3.662661055619136e-05,-3.320847621881439e-05,-2.539288994277868e-05,5.9286,6.9286
1.40625,-3.3694975930418875e-05,-3.7113110267795846e-05,-2.832452456855117e-05,-1.953593886930649e-05,5.9286,6.9286
1.41015625,-3.662661055619136e-05,-4.101774431677731e-05,-3.1742658905928146e-05,-1.7583621844815767e-05,5.9286,6.9286
1.4140625,-3.662661055619136e-05,-3.3694975930418875e-05,-2.832452456855117e-05,-2.1001756182192734e-05,5.9286,6.9286
1.41796875,-3.662661055619136e-05,-1.953593886930649e-05,-3.2229158617532634e-05,-1.6604304243534e-05,5.9286,6.9286
1.421875,-3.808610969100482e-05,-3.076334130464639e-05,-3.418147564202336e-05,-8.30221825589382e-06,5.9286,6.9286
1.42578125,-4.0044744893568334e-05,-4.101774431677731e-05,-3.320847621881439e-05,-1.8070121556420245e-05,5.9286,6.9286
1.4296875,-4.2483561629663545e-05,-3.662661055619136e-05,-3.3694975930418875e-05,-2.2461255317006192e-05,5.9286,6.9286
1.43359375,-4.150424402838179e-05,-3.3694975930418875e-05,-4.1997061918059064e-05,-2.295407320668346e-05,5.9286,6.9286
1.4375,-3.7599609979400334e-05,-2.0508938292515466e-05,-3.7113110267795846e-05,-2.7345206967269417e-05,5.9286,6.9286
1.44140625,-3.662661055619136e-05,-3.911084495307875e-06,-2.9790341881437414e-05,-2.5879389654383172e-05,5.9286,6.9286
1.4453125,-4.0044744893568334e-05,-1.7583621844815767e-05,-3.56472929549096e-05,-2.3927072629892436e-05,5.9286,6.9286
1.44921875,-4.150424402838179e-05,-4.2483561629663545e-05,-3.955192700389106e-05,-2.2461255317006192e-05,5.9286,6.9286
1.453125,-4.101774431677731e-05,-5.322446435339896e-05,-3.662661055619136e-05,-2.0508938292515466e-05,5.9286,6.9286
1.45703125,-4.150424402838179e-05,-4.590169596704052e-05,-3.662661055619136e-05,-1.8070121556420245e-05,5.9286,6.9286
1.4609375,-3.7113110267795846e-05,-3.1742658905928146e-05,-4.883333059281301e-05,-2.3927072629892436e-05,5.9286,6.9286
1.46484375,-4.1997061918059064e-05,-2.197475560540171e-05,-4.785401299153125e-05,-2.9297523991760142e-05,5.9286,6.9286
1.46875,-4.101774431677731e-05,-1.220685230487527e-05,-3.320847621881439e-05,-2.4419890519569704e-05,5.9286,6.9286
1.47265625,-3.6133792666514086e-05,-1.3226825362266935e-10,-3.1742658905928146e-05,-2.0022438580910984e-05,5.9286,6.9286
1.4765625,-3.5160793243305116e-05,-2.197475560540171e-05,-3.8578927580682087e-05,-2.3927072629892436e-05,5.9286,6.9286
1.48046875,-3.5160793243305116e-05,-4.394937894254979e-05,-4.785401299153125e-05,-2.3927072629892436e-05,5.9286,6.9286
1.484375,-3.662661055619136e-05,-4.0044744893568334e-05,-4.394937894254979e-05,-1.8070121556420245e-05,5.9286,6.9286
1.48828125,-3.7113110267795846e-05,-4.638819567864501e-05,-3.9065427292286575e-05,-2.1488255893797215e-05,5.9286,6.9286
1.4921875,-3.8578927580682087e-05,-4.590169596704052e-05,-4.688101356832228e-05,-2.6372207544060443e-05,5.9286,6.9286
1.49609375,-3.662661055619136e-05,-2.49063902311742e-05,-5.225146493018999e-05,-2.3927072629892436e-05,5.9286,6.9286
1.5,-3.3694975930418875e-05,-2.4419890519569704e-05,-4.101774431677731e-05,-1.562498664225225e-05,5.9286,6.9286
1.50390625,-3.02768415930419e-05,-3.02768415930419e-05,-2.197475560540171e-05,-9.768035568780064e-06,5.9286,6.9286
1.5078125,-3.124984101625087e-05,-3.4667975353627845e-05,-1.7090803955138496e-05,-9.281535857175569e-06,5.9286,6.9286
1.51171875,-3.418147564202336e-05,-3.8578927580682087e-05,-2.0022438580910984e-05,-3.911084495307875e-06,5.9286,6.9286
1.515625,-3.56472929549096e-05,-4.2483561629663545e-05,-3.076334130464639e-05,-6.349901231403081e-06,5.9286,6.9286
1.51953125,-3.3694975930418875e-05,-2.6858707255664925e-05,-2.295407320668346e-05,-3.911084495307875e-06,5.9286,6.9286
1.5234375,-4.053124460517282e-05,-1.220685230487527e-05,-2.1488255893797215e-05,-7.3292188326848445e-06,5.9286,6.9286
1.52734375,-4.0044744893568334e-05,-1.8070121556420245e-05,-2.2461255317006192e-05,-1.3672669617761514e-05,5.9286,6.9286
1.53125,-3.662661055619136e-05,-2.7345206967269417e-05,-1.220685230487527e-05,-7.3292188326848445e-06,5.9286,6.9286
1.53515625,-4.394937894254979e-05,-3.02768415930419e-05,-1.6604304243534e-05,-1.1720352593270788e-05,5.9286,6.9286
1.5390625,-4.150424402838179e-05,-1.904312097962922e-05,-1.7090803955138496e-05,-1.1233852881666308e-05,5.9286,6.9286
1.54296875,-3.418147564202336e-05,-2.5879389654383172e-05,-2.49063902311742e-05,-5.3769018081941195e-06,5.9286,6.9286
1.546875,-2.9790341881437414e-05,-3.2229158617532634e-05,-3.02768415930419e-05,9.728671549553525e-07,5.9286,6.9286
1.55078125,-3.076334130464639e-05,-3.955192700389106e-05,-3.1742658905928146e-05,-4.397584206912356e-06,5.9286,6.9286
1.5546875,-2.9790341881437414e-05,-4.2483561629663545e-05,-2.5879389654383172e-05,-9.768035568780064e-06,5.9286,6.9286
1.55859375,-2.4419890519569704e-05,-2.8811024280155654e-05,-1.953593886930649e-05,-6.349901231403081e-06,5.9286,6.9286
1.5625,-2.539288994277868e-05,-1.855662126802474e-05,-2.49063902311742e-05,-1.0747353170061813e-05,5.9286,6.9286
1.56640625,-2.7345206967269417e-05,-1.7090803955138496e-05,-3.320847621881439e-05,-1.3672669617761514e-05,5.9286,6.9286
1.5703125,-3.320847621881439e-05,-2.5879389654383172e-05,-3.4667975353627845e-05,-1.2699670194552552e-05,5.9286,6.9286
1.57421875,-3.9065427292286575e-05,-3.418147564202336e-05,-2.6858707255664925e-05,-1.7090803955138496e-05,5.9286,6.9286
1.578125,-3.6133792666514086e-05,-3.808610969100482e-05,-2.0508938292515466e-05,-2.3927072629892436e-05,5.9286,6.9286
1.58203125,-3.02768415930419e-05,-3.662661055619136e-05,-2.9297523991760142e-05,-2.0508938292515466e-05,5.9286,6.9286
1.5859375,-3.2229158617532634e-05,-3.56472929549096e-05,-3.9065427292286575e-05,-1.4651987219043277e-05,5.9286,6.9286
1.58984375,-3.271565832913711e-05,-2.1001756182192734e-05,-3.56472929549096e-05,-1.2699670194552552e-05,5.9286,6.9286
1.59375,-2.7838024856946688e-05,8.788453430991055e-06,-1.3672669617761514e-05,-1.4165487507438783e-05,5.9286,6.9286
1.59765625,-3.124984101625087e-05,-1.0747353170061813e-05,-5.8634015197986e-06,-1.3186169906157032e-05,5.9286,6.9286
1.6015625,-2.8811024280155654e-05,-3.5160793243305116e-05,-1.3226825362266935e-10,-1.0747353170061813e-05,5.9286,6.9286
1.60546875,-2.0508938292515466e-05,-3.7113110267795846e-05,-5.8634015197986e-06,-1.2699670194552552e-05,5.9286,6.9286
1.609375,-2.6858707255664925e-05,-4.5415196255436034e-05,-4.1997061918059064e-05,-1.4651987219043277e-05,5.9286,6.9286
1.61328125,-2.6858707255664925e-05,-1.953593886930649e-05,-4.883333059281301e-05,-1.6117804531929523e-05,5.9286,6.9286
1.6171875,-2.6858707255664925e-05,-2.5879389654383172e-05,-3.1742658905928146e-05,-1.3672669617761514e-05,5.9286,6.9286
1.62109375,-3.124984101625087e-05,-3.4667975353627845e-05,-1.0747353170061813e-05,-1.2699670194552552e-05,5.9286,6.9286
1.625,-2.9790341881437414e-05,-1.0747353170061813e-05,-1.4165487507438783e-05,-1.4651987219043277e-05,5.9286,6.9286
1.62890625,-3.1742658905928146e-05,-3.3694975930418875e-05,-2.6372207544060443e-05,-1.953593886930649e-05,5.9286,6.9286
1.6328125,-3.7113110267795846e-05,-3.808610969100482e-05,-3.2229158617532634e-05,-2.3440572918287955e-05,5.9286,6.9286
1.63671875,-3.8578927580682087e-05,-1.1233852881666308e-05,-3.02768415930419e-05,-1.7583621844815767e-05,5.9286,6.9286
1.640625,-2.9297523991760142e-05,-1.1233852881666308e-05,-1.7090803955138496e-05,-2.0022438580910984e-05,5.9286,6.9286
1.64453125,-2.539288994277868e-05,-2.1488255893797215e-05,-1.7583621844815767e-05,-2.1488255893797215e-05,5.9286,6.9286
1.6484375,-2.7838024856946688e-05,-1.7583621844815767e-05,-3.4667975353627845e-05,-1.6604304243534e-05,5.9286,6.9286
1.65234375,-2.6858707255664925e-05,-1.4165487507438783e-05,-3.8578927580682087e-05,-1.7090803955138496e-05,5.9286,6.9286
1.65625,-1.8070121556420245e-05,-1.0747353170061813e-05,-2.9790341881437414e-05,-1.855662126802474e-05,5.9286,6.9286
1.66015625,-2.1488255893797215e-05,-2.197475560540171e-05,-3.56472929549096e-05,-2.49063902311742e-05,5.9286,6.9286
1.6640625,-2.3927072629892436e-05,-1.6604304243534e-05,-2.539288994277868e-05,-2.539288994277868e-05,5.9286,6.9286
1.66796875,-2.0022438580910984e-05,-6.836400943007575e-06,-2.445267182421631e-06,-2.0508938292515466e-05,5.9286,6.9286
1.671875,-2.197475560540171e-05,-3.1742658905928146e-05,-1.220685230487527e-05,-1.953593886930649e-05,5.9286,6.9286
1.67578125,-2.295407320668346e-05,-2.9790341881437414e-05,-1.4651987219043277e-05,-1.562498664225225e-05,5.9286,6.9286
1.6796875,-3.124984101625087e-05,-2.0508938292515466e-05,-2.49063902311742e-05,-2.0022438580910984e-05,5.9286,6.9286
1.68359375,-3.320847621881439e-05,-2.0508938292515466e-05,-3.076334130464639e-05,-2.2461255317006192e-05,5.9286,6.9286
1.6875,-2.8811024280155654e-05,-2.0022438580910984e-05,-2.49063902311742e-05,-1.904312097962922e-05,5.9286,6.9286
1.69140625,-2.5879389654383172e-05,-2.539288994277868e-05,-3.56472929549096e-05,-1.7090803955138496e-05,5.9286,6.9286
1.6953125,-2.4419890519569704e-05,-2.49063902311742e-05,-2.6372207544060443e-05,-1.904312097962922e-05,5.9286,6.9286
1.69921875,-2.49063902311742e-05,-2.5879389654383172e-05,-2.1001756182192734e-05,-2.295407320668346e-05,5.9286,6.9286
1.703125,-2.8811024280155654e-05,-3.808610969100482e-05,-3.076334130464639e-05,-2.197475560540171e-05,5.9286,6.9286
1.70703125,-2.7345206967269417e-05,-4.346287923094531e-05,-3.320847621881439e-05,-2.2461255317006192e-05,5.9286,6.9286
1.7109375,-2.1001756182192734e-05,-1.855662126802474e-05,-2.7838024856946688e-05,-1.855662126802474e-05,5.9286,6.9286
1.71484375,-2.3927072629892436e-05,-1.5138486930647758e-05,-1.904312097962922e-05,-2.0022438580910984e-05,5.9286,6.9286
1.71875,-2.6858707255664925e-05,-2.9790341881437414e-05,-3.076334130464639e-05,-2.2461255317006192e-05,5.9286,6.9286
1.72265625,-2.49063902311742e-05,-3.8578927580682087e-05,-3.7113110267795846e-05,-1.4651987219043277e-05,5.9286,6.9286
1.7265625,-3.320847621881439e-05,-4.5415196255436034e-05,-3.808610969100482e-05,-1.6117804531929523e-05,5.9286,6.9286
1.73046875,-3.955192700389106e-05,-3.808610969100482e-05,-2.6858707255664925e-05,-1.6604304243534e-05,5.9286,6.9286
1.734375,-3.808610969100482e-05,-3.271565832913711e-05,-1.6117804531929523e-05,-1.855662126802474e-05,5.9286,6.9286
1.73828125,-4.101774431677731e-05,-3.8578927580682087e-05,-2.832452456855117e-05,-2.3927072629892436e-05,5.9286,6.9286
1.7421875,-3.808610969100482e-05,-2.8811024280155654e-05,-3.56472929549096e-05,-2.197475560540171e-05,5.9286,6.9286
1.74609375,-2.7345206967269417e-05,-2.2461255317006192e-05,-2.9790341881437414e-05,-2.49063902311742e-05,5.9286,6.9286
1.75,-2.295407320668346e-05,-3.56472929549096e-05,-3.320847621881439e-05,-2.1001756182192734e-05,5.9286,6.9286
1.75390625,-2.1488255893797215e-05,-4.053124460517282e-05,-3.1742658905928146e-05,-1.3672669617761514e-05,5.9286,6.9286
1.7578125,-2.3440572918287955e-05,-3.418147564202336e-05,-2.1488255893797215e-05,-1.5138486930647758e-05,5.9286,6.9286
1.76171875,-2.6858707255664925e-05,-3.955192700389106e-05,-2.7345206967269417e-05,-2.3927072629892436e-05,5.9286,6.9286
1.765625,-2.295407320668346e-05,-3.7599609979400334e-05,-1.3672669617761514e-05,-2.6858707255664925e-05,5.9286,6.9286
1.76953125,-2.295407320668346e-05,-2.9297523991760142e-05,-9.794498695353865e-07,-2.539288994277868e-05,5.9286,6.9286
1.7734375,-2.5879389654383172e-05,-3.320847621881439e-05,-1.2699670194552552e-05,-2.6372207544060443e-05,5.9286,6.9286
1.77734375,-2.6372207544060443e-05,-2.49063902311742e-05,-2.197475560540171e-05,-2.7345206967269417e-05,5.9286,6.9286
1.78125,-2.49063902311742e-05,-1.855662126802474e-05,-2.1488255893797215e-05,-3.320847621881439e-05,5.9286,6.9286
1.78515625,-2.1001756182192734e-05,-1.562498664225225e-05,-1.3672669617761514e-05,-3.1742658905928146e-05,5.9286,6.9286
1.7890625,-2.197475560540171e-05,-2.3927072629892436e-05,-3.02768415930419e-05,-3.1742658905928146e-05,5.9286,6.9286
1.79296875,-2.9790341881437414e-05,-4.297006134126803e-05,-4.785401299153125e-05,-2.8811024280155654e-05,5.9286,6.9286
1.796875,-3.7113110267795846e-05,-4.2483561629663545e-05,-3.9065427292286575e-05,-2.6858707255664925e-05,5.9286,6.9286
1.80078125,-3.5160793243305116e-05,-4.2483561629663545e-05,-3.271565832913711e-05,-2.539288994277868e-05,5.9286,6.9286
1.8046875,-3.7599609979400334e-05,-4.638819567864501e-05,-3.7599609979400334e-05,-2.6858707255664925e-05,5.9286,6.9286
1.80859375,-3.955192700389106e-05,-4.688101356832228e-05,-4.101774431677731e-05,-3.56472929549096e-05,5.9286,6.9286
1.8125,-3.271565832913711e-05,-4.688101356832228e-05,-4.101774431677731e-05,-3.1742658905928146e-05,5.9286,6.9286
1.81640625,-2.832452456855117e-05,-3.1742658905928146e-05,-2.9297523991760142e-05,-2.8811024280155654e-05,5.9286,6.9286
1.8203125,-2.8811024280155654e-05,-3.6133792666514086e-05,-2.6858707255664925e-05,-3.9065427292286575e-05,5.9286,6.9286
1.82421875,-2.9790341881437414e-05,-4.688101356832228e-05,-4.053124460517282e-05,-4.0044744893568334e-05,5.9286,6.9286
1.828125,-2.7838024856946688e-05,-3.6133792666514086e-05,-3.6133792666514086e-05,-2.9790341881437414e-05,5.9286,6.9286
1.83203125,-3.7113110267795846e-05,-2.9297523991760142e-05,-1.1720352593270788e-05,-1.8070121556420245e-05,5.9286,6.9286
1.8359375,-4.297006134126803e-05,-4.053124460517282e-05,-2.1488255893797215e-05,-2.5879389654383172e-05,5.9286,6.9286
1.83984375,-3.955192700389106e-05,-5.322446435339896e-05,-4.2483561629663545e-05,-3.320847621881439e-05,5.9286,6.9286
1.84375,-3.8578927580682087e-05,-4.883333059281301e-05,-3.418147564202336e-05,-2.5879389654383172e-05,5.9286,6.9286
1.84765625,-3.02768415930419e-05,-4.443587865415428e-05,-3.6133792666514086e-05,-2.49063902311742e-05,5.9286,6.9286
1.8515625,-3.02768415930419e-05,-4.688101356832228e-05,-4.5415196255436034e-05,-2.5879389654383172e-05,5.9286,6.9286
1.85546875,-3.02768415930419e-05,-4.883333059281301e-05,-4.443587865415428e-05,-2.197475560540171e-05,5.9286,6.9286
1.859375,-2.1001756182192734e-05,-4.443587865415428e-05,-4.0044744893568334e-05,-2.539288994277868e-05,5.9286,6.9286
1.86328125,-2.0022438580910984e-05,-4.2483561629663545e-05,-4.688101356832228e-05,-2.9790341881437414e-05,5.9286,6.9286
1.8671875,-2.8811024280155654e-05,-4.638819567864501e-05,-4.883333059281301e-05,-3.02768415930419e-05,5.9286,6.9286
1.87109375,-3.320847621881439e-05,-4.101774431677731e-05,-3.662661055619136e-05,-2.7838024856946688e-05,5.9286,6.9286
1.875,-2.5879389654383172e-05,-4.0044744893568334e-05,-2.49063902311742e-05,-2.49063902311742e-05,5.9286,6.9286
1.87890625,-3.320847621881439e-05,-4.688101356832228e-05,-1.904312097962922e-05,-2.832452456855117e-05,5.9286,6.9286
1.8828125,-3.662661055619136e-05,-4.492237836575876e-05,-3.5160793243305116e-05,-3.3694975930418875e-05,5.9286,6.9286
1.88671875,-3.1742658905928146e-05,-4.5415196255436034e-05,-4.0044744893568334e-05,-3.4667975353627845e-05,5.9286,6.9286
1.890625,-2.7838024856946688e-05,-5.127214732890822e-05,-3.076334130464639e-05,-2.8811024280155654e-05,5.9286,6.9286
1.89453125,-2.9297523991760142e-05,-4.394937894254979e-05,-3.7113110267795846e-05,-3.418147564202336e-05,5.9286,6.9286
1.8984375,-3.662661055619136e-05,-4.785401299153125e-05,-5.273796464179447e-05,-4.492237836575876e-05,5.9286,6.9286
1.90234375,-3.5160793243305116e-05,-4.394937894254979e-05,-5.078564761730374e-05,-3.8578927580682087e-05,5.9286,6.9286
1.90625,-3.271565832913711e-05,-3.8578927580682087e-05,-2.7345206967269417e-05,-3.124984101625087e-05,5.9286,6.9286
1.91015625,-3.320847621881439e-05,-4.883333059281301e-05,-2.832452456855117e-05,-3.6133792666514086e-05,5.9286,6.9286
1.9140625,-3.418147564202336e-05,-4.443587865415428e-05,-5.225146493018999e-05,-3.7599609979400334e-05,5.9286,6.9286
1.91796875,-3.271565832913711e-05,-2.9790341881437414e-05,-2.8811024280155654e-05,-3.418147564202336e-05,5.9286,6.9286
1.921875,-3.418147564202336e-05,-2.6858707255664925e-05,-1.0254535280384544e-05,-3.320847621881439e-05,5.9286,6.9286
1.92578125,-3.5160793243305116e-05,-2.49063902311742e-05,-2.3440572918287955e-05,-3.4667975353627845e-05,5.9286,6.9286
1.9296875,-3.02768415930419e-05,-3.02768415930419e-05,-3.9065427292286575e-05,-3.56472929549096e-05,5.9286,6.9286
1.93359375,-3.02768415930419e-05,-3.2229158617532634e-05,-4.1997061918059064e-05,-3.4667975353627845e-05,5.9286,6.9286
1.9375,-3.5160793243305116e-05,-2.3927072629892436e-05,-4.2483561629663545e-05,-3.7599609979400334e-05,5.9286,6.9286
1.94140625,-3.2229158617532634e-05,-2.295407320668346e-05,-3.9065427292286575e-05,-3.8578927580682087e-05,5.9286,6.9286
1.9453125,-3.1742658905928146e-05,-3.6133792666514086e-05,-3.271565832913711e-05,-3.3694975930418875e-05,5.9286,6.9286
1.94921875,-2.7838024856946688e-05,-3.8578927580682087e-05,-2.7838024856946688e-05,-2.832452456855117e-05,5.9286,6.9286
1.953125,-2.539288994277868e-05,-3.124984101625087e-05,-2.7838024856946688e-05,-3.2229158617532634e-05,5.9286,6.9286
1.95703125,-2.8811024280155654e-05,-2.8811024280155654e-05,-4.297006134126803e-05,-3.7599609979400334e-05,5.9286,6.9286
1.9609375,-2.7838024856946688e-05,-2.5879389654383172e-05,-3.6133792666514086e-05,-3.271565832913711e-05,5.9286,6.9286
1.96484375,-3.2229158617532634e-05,-3.124984101625087e-05,-2.4419890519569704e-05,-3.418147564202336e-05,5.9286,6.9286
1.96875,-2.4419890519569704e-05,-2.9297523991760142e-05,-2.2461255317006192e-05,-3.7113110267795846e-05,5.9286,6.9286
1.97265625,-2.6858707255664925e-05,-2.0022438580910984e-05,-3.3694975930418875e-05,-4.150424402838179e-05,5.9286,6.9286
1.9765625,-3.3694975930418875e-05,-1.953593886930649e-05,-3.1742658905928146e-05,-4.0044744893568334e-05,5.9286,6.9286
1.98046875,-2.832452456855117e-05,-2.6372207544060443e-05,-2.539288994277868e-05,-3.808610969100482e-05,5.9286,6.9286
1.984375,-2.7838024856946688e-05,-3.271565832913711e-05,-2.8811024280155654e-05,-3.9065427292286575e-05,5.9286,6.9286
1.98828125,-3.076334130464639e-05,-3.3694975930418875e-05,-3.320847621881439e-05,-3.955192700389106e-05,5.9286,6.9286
1.9921875,-3.7599609979400334e-05,-3.9065427292286575e-05,-3.808610969100482e-05,-4.5415196255436034e-05,5.9286,6.9286
1.99609375,-4.053124460517282e-05,-3.808610969100482e-05,-2.49063902311742e-05,-4.688101356832228e-05,5.9286,6.9286
2.0,-3.9065427292286575e-05,-3.662661055619136e-05,-2.3927072629892436e-05,-4.980633001602198e-05,5.9286,6.9286
2.00390625,-3.808610969100482e-05,-4.053124460517282e-05,-2.9297523991760142e-05,-4.688101356832228e-05,5.9286,6.9286
2.0078125,-3.3694975930418875e-05,-3.320847621881439e-05,-3.418147564202336e-05,-4.590169596704052e-05,5.9286,6.9286
2.01171875,-3.271565832913711e-05,-2.197475560540171e-05,-3.271565832913711e-05,-4.297006134126803e-05,5.9286,6.9286
2.015625,-3.8578927580682087e-05,-2.7345206967269417e-05,-3.418147564202336e-05,-4.101774431677731e-05,5.9286,6.9286
2.01953125,-3.1742658905928146e-05,-3.1742658905928146e-05,-3.662661055619136e-05,-3.955192700389106e-05,5.9286,6.9286
2.0234375,-2.6858707255664925e-05,-2.4419890519569704e-05,-2.3440572918287955e-05,-3.124984101625087e-05,5.9286,6.9286
2.02734375,-3.808610969100482e-05,-3.076334130464639e-05,-2.7345206967269417e-05,-3.5160793243305116e-05,5.9286,6.9286
2.03125,-3.56472929549096e-05,-4.2483561629663545e-05,-2.9790341881437414e-05,-4.053124460517282e-05,5.9286,6.9286
2.03515625,-3.662661055619136e-05,-4.638819567864501e-05,-2.7838024856946688e-05,-4.394937894254979e-05,5.9286,6.9286
2.0390625,-3.4667975353627845e-05,-3.418147564202336e-05,-3.076334130464639e-05,-4.346287923094531e-05,5.9286,6.9286
2.04296875,-2.7838024856946688e-05,-3.320847621881439e-05,-3.271565832913711e-05,-4.053124460517282e-05,5.9286,6.9286
2.046875,-3.1742658905928146e-05,-4.443587865415428e-05,-3.662661055619136e-05,-4.443587865415428e-05,5.9286,6.9286
2.05078125,-2.7345206967269417e-05,-4.150424402838179e-05,-3.6133792666514086e-05,-4.883333059281301e-05,5.9286,6.9286
2.0546875,-1.855662126802474e-05,-4.2483561629663545e-05,-3.320847621881439e-05,-4.5415196255436034e-05,5.9286,6.9286
2.05859375,-2.1001756182192734e-05,-4.394937894254979e-05,-3.9065427292286575e-05,-3.8578927580682087e-05,5.9286,6.9286
2.0625,-3.02768415930419e-05,-4.394937894254979e-05,-3.4667975353627845e-05,-3.5160793243305116e-05,5.9286,6.9286
2.06640625,-3.3694975930418875e-05,-4.590169596704052e-05,-3.4667975353627845e-05,-3.271565832913711e-05,5.9286,6.9286
2.0703125,-3.320847621881439e-05,-4.785401299153125e-05,-4.297006134126803e-05,-3.418147564202336e-05,5.9286,6.9286
2.07421875,-3.56472929549096e-05,-4.053124460517282e-05,-4.150424402838179e-05,-2.9297523991760142e-05,5.9286,6.9286
2.078125,-4.150424402838179e-05,-3.02768415930419e-05,-3.662661055619136e-05,-2.0508938292515466e-05,5.9286,6.9286
2.08203125,-3.7113110267795846e-05,-3.320847621881439e-05,-3.076334130464639e-05,-1.953593886930649e-05,5.9286,6.9286
2.0859375,-3.808610969100482e-05,-3.808610969100482e-05,-2.9297523991760142e-05,-2.7838024856946688e-05,5.9286,6.9286
2.08984375,-4.443587865415428e-05,-5.078564761730374e-05,-3.8578927580682087e-05,-3.418147564202336e-05,5.9286,6.9286
2.09375,-3.7599609979400334e-05,-5.566959926756696e-05,-3.7113110267795846e-05,-2.9790341881437414e-05,5.9286,6.9286
2.09765625,-3.5160793243305116e-05,-4.394937894254979e-05,-3.1742658905928146e-05,-2.832452456855117e-05,5.9286,6.9286
2.1015625,-3.662661055619136e-05,-3.5160793243305116e-05,-3.2229158617532634e-05,-2.9297523991760142e-05,5.9286,6.9286
2.10546875,-4.297006134126803e-05,-3.808610969100482e-05,-3.1742658905928146e-05,-2.49063902311742e-05,5.9286,6.9286
2.109375,-4.346287923094531e-05,-4.053124460517282e-05,-4.101774431677731e-05,-2.5879389654383172e-05,5.9286,6.9286
2.11328125,-3.9065427292286575e-05,-3.955192700389106e-05,-3.955192700389106e-05,-3.02768415930419e-05,5.9286,6.9286
2.1171875,-3.9065427292286575e-05,-4.0044744893568334e-05,-3.4667975353627845e-05,-3.1742658905928146e-05,5.9286,6.9286
2.12109375,-3.808610969100482e-05,-3.6133792666514086e-05,-4.297006134126803e-05,-3.320847621881439e-05,5.9286,6.9286
2.125,-3.56472929549096e-05,-3.8578927580682087e-05,-4.1997061918059064e-05,-3.1742658905928146e-05,5.9286,6.9286
2.12890625,-2.49063902311742e-05,-3.56472929549096e-05,-3.02768415930419e-05,-2.3440572918287955e-05,5.9286,6.9286
2.1328125,-2.1001756182192734e-05,-3.076334130464639e-05,-1.855662126802474e-05,-1.953593886930649e-05,5.9286,6.9286
2.13671875,-1.904312097962922e-05,-2.6858707255664925e-05,-1.7583621844815767e-05,-1.855662126802474e-05,5.9286,6.9286
2.140625,-2.2461255317006192e-05,-2.49063902311742e-05,-2.6858707255664925e-05,-1.953593886930649e-05,5.9286,6.9286
2.14453125,-3.320847621881439e-05,-3.320847621881439e-05,-2.7838024856946688e-05,-2.3927072629892436e-05,5.9286,6.9286
2.1484375,-3.4667975353627845e-05,-3.1742658905928146e-05,-1.904312097962922e-05,-2.7345206967269417e-05,5.9286,6.9286
2.15234375,-2.7345206967269417e-05,-3.02768415930419e-05,-2.197475560540171e-05,-2.4419890519569704e-05,5.9286,6.9286
2.15625,-2.539288994277868e-05,-3.271565832913711e-05,-2.0508938292515466e-05,-2.49063902311742e-05,5.9286,6.9286
2.16015625,-2.7345206967269417e-05,-2.539288994277868e-05,-1.855662126802474e-05,-3.271565832913711e-05,5.9286,6.9286
2.1640625,-2.9790341881437414e-05,-3.076334130464639e-05,-2.539288994277868e-05,-3.3694975930418875e-05,5.9286,6.9286
2.16796875,-2.832452456855117e-05,-3.2229158617532634e-05,-2.5879389654383172e-05,-2.7838024856946688e-05,5.9286,6.9286
2.171875,-2.6858707255664925e-05,-3.1742658905928146e-05,-3.320847621881439e-05,-2.539288994277868e-05,5.9286,6.9286
2.17578125,-3.2229158617532634e-05,-3.271565832913711e-05,-3.4667975353627845e-05,-2.6858707255664925e-05,5.9286,6.9286
2.1796875,-3.7599609979400334e-05,-2.9297523991760142e-05,-3.076334130464639e-05,-2.4419890519569704e-05,5.9286,6.9286
2.18359375,-3.4667975353627845e-05,-2.539288994277868e-05,-3.320847621881439e-05,-2.7838024856946688e-05,5.9286,6.9286
2.1875,-3.124984101625087e-05,-2.1488255893797215e-05,-3.56472929549096e-05,-2.6858707255664925e-05,5.9286,6.9286
2.19140625,-3.418147564202336e-05,-2.8811024280155654e-05,-3.2229158617532634e-05,-2.5879389654383172e-05,5.9286,6.9286
2.1953125,-2.832452456855117e-05,-3.4667975353627845e-05,-3.1742658905928146e-05,-2.9297523991760142e-05,5.9286,6.9286
2.19921875,-2.4419890519569704e-05,-2.9790341881437414e-05,-2.7838024856946688e-05,-2.5879389654383172e-05,5.9286,6.9286
2.203125,-3.076334130464639e-05,-2.539288994277868e-05,-2.0508938292515466e-05,-2.9297523991760142e-05,5.9286,6.9286
2.20703125,-3.02768415930419e-05,-3.076334130464639e-05,-1.6604304243534e-05,-3.7113110267795846e-05,5.9286,6.9286
2.2109375,-3.4667975353627845e-05,-4.1997061918059064e-05,-1.562498664225225e-05,-3.3694975930418875e-05,5.9286,6.9286
2.21484375,-3.4667975353627845e-05,-3.1742658905928146e-05,-1.4165487507438783e-05,-2.3440572918287955e-05,5.9286,6.9286
2.21875,-2.8811024280155654e-05,-2.6372207544060443e-05,-1.3186169906157032e-05,-2.2461255317006192e-05,5.9286,6.9286
2.22265625,-3.2229158617532634e-05,-4.150424402838179e-05,-1.904312097962922e-05,-2.832452456855117e-05,5.9286,6.9286
2.2265625,-3.7599609979400334e-05,-4.883333059281301e-05,-2.2461255317006192e-05,-2.8811024280155654e-05,5.9286,6.9286
2.23046875,-3.955192700389106e-05,-5.3710964065003446e-05,-3.02768415930419e-05,-2.8811024280155654e-05,5.9286,6.9286
2.234375,-3.1742658905928146e-05,-4.150424402838179e-05,-2.3440572918287955e-05,-2.6858707255664925e-05,5.9286,6.9286
2.23828125,-3.02768415930419e-05,-2.197475560540171e-05,-2.295407320668346e-05,-3.02768415930419e-05,5.9286,6.9286
2.2421875,-3.7599609979400334e-05,-2.9297523991760142e-05,-4.638819567864501e-05,-3.5160793243305116e-05,5.9286,6.9286
2.24609375,-3.56472929549096e-05,-3.076334130464639e-05,-4.053124460517282e-05,-2.7838024856946688e-05,5.9286,6.9286
2.25,-3.1742658905928146e-05,-3.418147564202336e-05,-3.9065427292286575e-05,-3.124984101625087e-05,5.9286,6.9286
2.25390625,-2.5879389654383172e-05,-3.56472929549096e-05,-3.955192700389106e-05,-3.808610969100482e-05,5.9286,6.9286
2.2578125,-2.7838024856946688e-05,-3.2229158617532634e-05,-4.101774431677731e-05,-3.5160793243305116e-05,5.9286,6.9286
2.26171875,-4.101774431677731e-05,-4.883333059281301e-05,-4.883333059281301e-05,-3.076334130464639e-05,5.9286,6.9286
2.265625,-4.0044744893568334e-05,-4.443587865415428e-05,-4.638819567864501e-05,-3.418147564202336e-05,5.9286,6.9286
2.26953125,-2.3927072629892436e-05,-2.5879389654383172e-05,-3.6133792666514086e-05,-3.320847621881439e-05,5.9286,6.9286
2.2734375,-2.9297523991760142e-05,-3.271565832913711e-05,-3.4667975353627845e-05,-3.662661055619136e-05,5.9286,6.9286
2.27734375,-3.808610969100482e-05,-4.150424402838179e-05,-4.590169596704052e-05,-4.2483561629663545e-05,5.9286,6.9286
2.28125,-2.7838024856946688e-05,-3.02768415930419e-05,-2.7345206967269417e-05,-3.076334130464639e-05,5.9286,6.9286
2.28515625,-2.9297523991760142e-05,-3.1742658905928146e-05,-1.7090803955138496e-05,-2.539288994277868e-05,5.9286,6.9286
2.2890625,-3.076334130464639e-05,-3.7599609979400334e-05,-2.9790341881437414e-05,-2.8811024280155654e-05,5.9286,6.9286
2.29296875,-3.02768415930419e-05,-2.5879389654383172e-05,-3.418147564202336e-05,-2.9790341881437414e-05,5.9286,6.9286
2.296875,-3.1742658905928146e-05,-2.539288994277868e-05,-4.346287923094531e-05,-3.1742658905928146e-05,5.9286,6.9286
2.30078125,-3.2229158617532634e-05,-3.5160793243305116e-05,-4.150424402838179e-05,-2.49063902311742e-05,5.9286,6.9286
2.3046875,-4.1997061918059064e-05,-3.8578927580682087e-05,-2.6372207544060443e-05,-2.1001756182192734e-05,5.9286,6.9286
2.30859375,-4.053124460517282e-05,-3.8578927580682087e-05,-1.1720352593270788e-05,-2.197475560540171e-05,5.9286,6.9286
2.3125,-3.418147564202336e-05,-4.2483561629663545e-05,-9.768035568780064e-06,-2.7345206967269417e-05,5.9286,6.9286
2.31640625,-3.7113110267795846e-05,-4.5415196255436034e-05,-2.3440572918287955e-05,-3.56472929549096e-05,5.9286,6.9286
2.3203125,-3.6133792666514086e-05,-3.3694975930418875e-05,-2.0022438580910984e-05,-2.9790341881437414e-05,5.9286,6.9286
2.32421875,-3.662661055619136e-05,-3.7599609979400334e-05,-1.1233852881666308e-05,-2.832452456855117e-05,5.9286,6.9286
2.328125,-3.56472929549096e-05,-4.93198303044175e-05,-1.0747353170061813e-05,-2.9297523991760142e-05,5.9286,6.9286
2.33203125,-3.418147564202336e-05,-4.5415196255436034e-05,-2.9790341881437414e-05,-2.832452456855117e-05,5.9286,6.9286
2.3359375,-3.2229158617532634e-05,-4.053124460517282e-05,-3.808610969100482e-05,-2.8811024280155654e-05,5.9286,6.9286
2.33984375,-2.8811024280155654e-05,-3.5160793243305116e-05,-2.4419890519569704e-05,-2.197475560540171e-05,5.9286,6.9286
2.34375,-2.9297523991760142e-05,-3.1742658905928146e-05,-2.5879389654383172e-05,-2.197475560540171e-05,5.9286,6.9286
2.34765625,-3.6133792666514086e-05,-2.832452456855117e-05,-3.808610969100482e-05,-2.7838024856946688e-05,5.9286,6.9286
2.3515625,-4.1997061918059064e-05,-2.7345206967269417e-05,-3.7113110267795846e-05,-2.539288994277868e-05,5.9286,6.9286
2.35546875,-4.394937894254979e-05,-3.662661055619136e-05,-2.7345206967269417e-05,-2.7345206967269417e-05,5.9286,6.9286
2.359375,-3.808610969100482e-05,-3.955192700389106e-05,-2.3927072629892436e-05,-2.832452456855117e-05,5.9286,6.9286
2.36328125,-3.56472929549096e-05,-3.3694975930418875e-05,-2.7345206967269417e-05,-2.3440572918287955e-05,5.9286,6.9286
2.3671875,-3.5160793243305116e-05,-3.9065427292286575e-05,-4.150424402838179e-05,-2.1488255893797215e-05,5.9286,6.9286
2.37109375,-3.8578927580682087e-05,-4.5415196255436034e-05,-3.8578927580682087e-05,-2.1488255893797215e-05,5.9286,6.9286
2.375,-4.2483561629663545e-05,-4.297006134126803e-05,-2.1488255893797215e-05,-2.539288994277868e-05,5.9286,6.9286
2.37890625,-4.101774431677731e-05,-3.808610969100482e-05,-2.49063902311742e-05,-3.418147564202336e-05,5.9286,6.9286
2.3828125,-4.101774431677731e-05,-3.5160793243305116e-05,-2.832452456855117e-05,-3.320847621881439e-05,5.9286,6.9286
2.38671875,-3.5160793243305116e-05,-3.5160793243305116e-05,-3.02768415930419e-05,-2.3927072629892436e-05,5.9286,6.9286
2.390625,-3.955192700389106e-05,-3.076334130464639e-05,-3.8578927580682087e-05,-2.1001756182192734e-05,5.9286,6.9286
2.39453125,-4.1997061918059064e-05,-3.3694975930418875e-05,-3.955192700389106e-05,-2.7345206967269417e-05,5.9286,6.9286
2.3984375,-4.0044744893568334e-05,-3.8578927580682087e-05,-4.1997061918059064e-05,-2.7345206967269417e-05,5.9286,6.9286
2.40234375,-4.297006134126803e-05,-4.2483561629663545e-05,-3.6133792666514086e-05,-2.49063902311742e-05,5.9286,6.9286
2.40625,-3.8578927580682087e-05,-5.127214732890822e-05,-4.346287923094531e-05,-2.7838024856946688e-05,5.9286,6.9286
2.41015625,-3.662661055619136e-05,-5.712909840238041e-05,-5.078564761730374e-05,-2.832452456855117e-05,5.9286,6.9286
2.4140625,-3.808610969100482e-05,-5.273796464179447e-05,-3.9065427292286575e-05,-2.295407320668346e-05,5.9286,6.9286
2.41796875,-3.6133792666514086e-05,-4.101774431677731e-05,-2.7838024856946688e-05,-2.6858707255664925e-05,5.9286,6.9286
2.421875,-3.662661055619136e-05,-3.271565832913711e-05,-3.1742658905928146e-05,-2.7345206967269417e-05,5.9286,6.9286
2.42578125,-3.271565832913711e-05,-2.9297523991760142e-05,-2.539288994277868e-05,-2.7345206967269417e-05,5.9286,6.9286
2.4296875,-3.5160793243305116e-05,-3.2229158617532634e-05,-1.6117804531929523e-05,-3.3694975930418875e-05,5.9286,6.9286
2.43359375,-4.443587865415428e-05,-3.320847621881439e-05,-2.3927072629892436e-05,-3.02768415930419e-05,5.9286,6.9286
2.4375,-4.0044744893568334e-05,-3.3694975930418875e-05,-2.3927072629892436e-05,-2.3927072629892436e-05,5.9286,6.9286
2.44140625,-3.7113110267795846e-05,-3.320847621881439e-05,-3.4667975353627845e-05,-3.076334130464639e-05,5.9286,6.9286
2.4453125,-3.662661055619136e-05,-3.955192700389106e-05,-3.8578927580682087e-05,-3.6133792666514086e-05,5.9286,6.9286
2.44921875,-2.9297523991760142e-05,-3.6133792666514086e-05,-2.4419890519569704e-05,-2.9790341881437414e-05,5.9286,6.9286
2.453125,-2.9790341881437414e-05,-2.6858707255664925e-05,-2.0022438580910984e-05,-2.7345206967269417e-05,5.9286,6.9286
2.45703125,-3.662661055619136e-05,-2.9297523991760142e-05,-1.0254535280384544e-05,-3.124984101625087e-05,5.9286,6.9286
2.4609375,-4.101774431677731e-05,-3.076334130464639e-05,-2.445267182421631e-06,-3.320847621881439e-05,5.9286,6.9286
2.46484375,-4.492237836575876e-05,-3.808610969100482e-05,-2.1488255893797215e-05,-4.1997061918059064e-05,5.9286,6.9286
2.46875,-4.834051270313574e-05,-4.2483561629663545e-05,-4.443587865415428e-05,-4.2483561629663545e-05,5.9286,6.9286
2.47265625,-4.394937894254979e-05,-3.8578927580682087e-05,-2.9790341881437414e-05,-2.9790341881437414e-05,5.9286,6.9286
2.4765625,-3.7599609979400334e-05,-3.320847621881439e-05,-2.0508938292515466e-05,-2.3440572918287955e-05,5.9286,6.9286
2.48046875,-3.56472929549096e-05,-2.6372207544060443e-05,-2.539288994277868e-05,-2.3927072629892436e-05,5.9286,6.9286
2.484375,-3.955192700389106e-05,-2.539288994277868e-05,-1.7583621844815767e-05,-2.3927072629892436e-05,5.9286,6.9286
2.48828125,-3.7113110267795846e-05,-2.7345206967269417e-05,-7.815718544289324e-06,-1.2699670194552552e-05,5.9286,6.9286
2.4921875,-3.320847621881439e-05,-3.2229158617532634e-05,-6.836400943007575e-06,-7.815718544289324e-06,5.9286,6.9286
2.49609375,-3.4667975353627845e-05,-3.56472929549096e-05,-9.768035568780064e-06,-1.6117804531929523e-05,5.9286,6.9286
2.5,-3.808610969100482e-05,-2.295407320668346e-05,-1.1233852881666308e-05,-1.904312097962922e-05,5.9286,6.9286
2.50390625,-4.2483561629663545e-05,-1.953593886930649e-05,-8.795036145571089e-06,-8.795036145571089e-06,5.9286,6.9286
2.5078125,-4.101774431677731e-05,-2.295407320668346e-05,-1.8070121556420245e-05,-1.220685230487527e-05,5.9286,6.9286
2.51171875,-3.56472929549096e-05,-3.1742658905928146e-05,-3.320847621881439e-05,-1.953593886930649e-05,5.9286,6.9286
2.515625,-3.8578927580682087e-05,-4.1997061918059064e-05,-3.3694975930418875e-05,-2.3927072629892436e-05,5.9286,6.9286
2.51953125,-3.8578927580682087e-05,-3.955192700389106e-05,-2.1001756182192734e-05,-2.4419890519569704e-05,5.9286,6.9286
2.5234375,-3.418147564202336e-05,-4.053124460517282e-05,-2.1001756182192734e-05,-1.8070121556420245e-05,5.9286,6.9286
2.52734375,-3.5160793243305116e-05,-3.3694975930418875e-05,-2.3440572918287955e-05,-1.562498664225225e-05,5.9286,6.9286
2.53125,-3.8578927580682087e-05,-3.7599609979400334e-05,-1.3186169906157032e-05,-1.855662126802474e-05,5.9286,6.9286
2.53515625,-4.053124460517282e-05,-3.955192700389106e-05,-1.3186169906157032e-05,-2.2461255317006192e-05,5.9286,6.9286
2.5390625,-3.7113110267795846e-05,-2.9790341881437414e-05,-2.3440572918287955e-05,-2.6372207544060443e-05,5.9286,6.9286
2.54296875,-3.7599609979400334e-05,-3.418147564202336e-05,-2.832452456855117e-05,-2.8811024280155654e-05,5.9286,6.9286
2.546875,-3.808610969100482e-05,-3.3694975930418875e-05,-3.02768415930419e-05,-2.5879389654383172e-05,5.9286,6.9286
2.55078125,-3.955192700389106e-05,-3.418147564202336e-05,-3.3694975930418875e-05,-2.539288994277868e-05,5.9286,6.9286
2.5546875,-4.150424402838179e-05,-3.9065427292286575e-05,-3.076334130464639e-05,-3.418147564202336e-05,5.9286,6.9286
2.55859375,-4.0044744893568334e-05,-3.3694975930418875e-05,-3.271565832913711e-05,-3.418147564202336e-05,5.9286,6.9286
2.5625,-3.3694975930418875e-05,-3.1742658905928146e-05,-2.9297523991760142e-05,-2.2461255317006192e-05,5.9286,6.9286
2.56640625,-3.418147564202336e-05,-3.5160793243305116e-05,-2.197475560540171e-05,-2.6372207544060443e-05,5.9286,6.9286
2.5703125,-3.955192700389106e-05,-4.93198303044175e-05,-2.6858707255664925e-05,-3.271565832913711e-05,5.9286,6.9286
2.57421875,-4.834051270313574e-05,-5.175864704051271e-05,-3.1742658905928146e-05,-2.7345206967269417e-05,5.9286,6.9286
2.578125,-5.127214732890822e-05,-4.394937894254979e-05,-3.2229158617532634e-05,-2.8811024280155654e-05,5.9286,6.9286
2.58203125,-4.0044744893568334e-05,-4.053124460517282e-05,-3.4667975353627845e-05,-3.3694975930418875e-05,5.9286,6.9286
2.5859375,-2.9790341881437414e-05,-3.5160793243305116e-05,-2.9790341881437414e-05,-3.2229158617532634e-05,5.9286,6.9286
2.58984375,-2.295407320668346e-05,-4.150424402838179e-05,-3.02768415930419e-05,-3.320847621881439e-05,5.9286,6.9286
2.59375,-2.4419890519569704e-05,-4.1997061918059064e-05,-3.4667975353627845e-05,-3.2229158617532634e-05,5.9286,6.9286
2.59765625,-2.49063902311742e-05,-2.8811024280155654e-05,-3.076334130464639e-05,-3.1742658905928146e-05,5.9286,6.9286
2.6015625,-2.2461255317006192e-05,-2.5879389654383172e-05,-2.4419890519569704e-05,-3.4667975353627845e-05,5.9286,6.9286
2.60546875,-2.4419890519569704e-05,-3.7599609979400334e-05,-2.49063902311742e-05,-2.539288994277868e-05,5.9286,6.9286
2.609375,-3.271565832913711e-05,-4.443587865415428e-05,-2.3440572918287955e-05,-1.6604304243534e-05,5.9286,6.9286
2.61328125,-4.053124460517282e-05,-4.297006134126803e-05,-2.2461255317006192e-05,-2.1488255893797215e-05,5.9286,6.9286
2.6171875,-4.0044744893568334e-05,-4.053124460517282e-05,-1.3672669617761514e-05,-2.49063902311742e-05,5.9286,6.9286
2.62109375,-3.4667975353627845e-05,-2.5879389654383172e-05,-1.220685230487527e-05,-2.3927072629892436e-05,5.9286,6.9286
2.625,-3.6133792666514086e-05,-2.832452456855117e-05,-2.6372207544060443e-05,-2.7838024856946688e-05,5.9286,6.9286
2.62890625,-4.2483561629663545e-05,-4.053124460517282e-05,-4.101774431677731e-05,-3.4667975353627845e-05,5.9286,6.9286
2.6328125,-4.1997061918059064e-05,-3.3694975930418875e-05,-4.297006134126803e-05,-3.2229158617532634e-05,5.9286,6.9286
2.63671875,-4.053124460517282e-05,-2.5879389654383172e-05,-3.5160793243305116e-05,-2.49063902311742e-05,5.9286,6.9286
2.640625,-3.271565832913711e-05,-2.3927072629892436e-05,-2.1001756182192734e-05,-2.4419890519569704e-05,5.9286,6.9286
2.64453125,-3.320847621881439e-05,-2.7838024856946688e-05,-2.6858707255664925e-05,-3.56472929549096e-05,5.9286,6.9286
2.6484375,-3.808610969100482e-05,-3.1742658905928146e-05,-3.955192700389106e-05,-4.590169596704052e-05,5.9286,6.9286
2.65234375,-3.7599609979400334e-05,-3.3694975930418875e-05,-4.053124460517282e-05,-4.297006134126803e-05,5.9286,6.9286
2.65625,-4.053124460517282e-05,-4.0044744893568334e-05,-2.2461255317006192e-05,-3.5160793243305116e-05,5.9286,6.9286
2.66015625,-4.5415196255436034e-05,-3.7599609979400334e-05,-1.1233852881666308e-05,-3.2229158617532634e-05,5.9286,6.9286
2.6640625,-4.590169596704052e-05,-2.0508938292515466e-05,-1.4651987219043277e-05,-3.2229158617532634e-05,5.9286,6.9286
2.66796875,-3.808610969100482e-05,-2.3927072629892436e-05,-1.1720352593270788e-05,-2.295407320668346e-05,5.9286,6.9286
2.671875,-3.5160793243305116e-05,-2.5879389654383172e-05,-1.3672669617761514e-05,-2.1001756182192734e-05,5.9286,6.9286
2.67578125,-3.56472929549096e-05,-2.7838024856946688e-05,-1.3186169906157032e-05,-2.9790341881437414e-05,5.9286,6.9286
2.6796875,-3.6133792666514086e-05,-3.3694975930418875e-05,-2.295407320668346e-05,-2.7838024856946688e-05,5.9286,6.9286
2.68359375,-4.101774431677731e-05,-3.7113110267795846e-05,-2.295407320668346e-05,-3.02768415930419e-05,5.9286,6.9286
2.6875,-3.56472929549096e-05,-3.6133792666514086e-05,-3.2229158617532634e-05,-2.9297523991760142e-05,5.9286,6.9286
2.69140625,-3.2229158617532634e-05,-3.5160793243305116e-05,-4.5415196255436034e-05,-1.953593886930649e-05,5.9286,6.9286
2.6953125,-3.1742658905928146e-05,-3.955192700389106e-05,-3.955192700389106e-05,-2.3440572918287955e-05,5.9286,6.9286
2.69921875,-2.8811024280155654e-05,-3.5160793243305116e-05,-3.2229158617532634e-05,-2.5879389654383172e-05,5.9286,6.9286
2.703125,-3.56472929549096e-05,-3.418147564202336e-05,-2.7345206967269417e-05,-2.1001756182192734e-05,5.9286,6.9286
2.70703125,-4.053124460517282e-05,-4.150424402838179e-05,-4.394937894254979e-05,-2.2461255317006192e-05,5.9286,6.9286
2.7109375,-3.4667975353627845e-05,-3.4667975353627845e-05,-5.273796464179447e-05,-2.6372207544060443e-05,5.9286,6.9286
2.71484375,-3.4667975353627845e-05,-3.662661055619136e-05,-4.150424402838179e-05,-2.539288994277868e-05,5.9286,6.9286
2.71875,-3.7113110267795846e-05,-3.076334130464639e-05,-3.418147564202336e-05,-2.6858707255664925e-05,5.9286,6.9286
2.72265625,-4.297006134126803e-05,-2.7345206967269417e-05,-3.3694975930418875e-05,-2.9790341881437414e-05,5.9286,6.9286
2.7265625,-4.638819567864501e-05,-3.4667975353627845e-05,-4.492237836575876e-05,-2.9297523991760142e-05,5.9286,6.9286
2.73046875,-3.9065427292286575e-05,-3.5160793243305116e-05,-3.8578927580682087e-05,-2.7838024856946688e-05,5.9286,6.9286
2.734375,-3.5160793243305116e-05,-3.076334130464639e-05,-2.1488255893797215e-05,-2.6858707255664925e-05,5.9286,6.9286
2.73828125,-3.3694975930418875e-05,-2.6858707255664925e-05,-3.1742658905928146e-05,-2.7345206967269417e-05,5.9286,6.9286
2.7421875,-3.56472929549096e-05,-3.271565832913711e-05,-4.1997061918059064e-05,-3.1742658905928146e-05,5.9286,6.9286
2.74609375,-3.8578927580682087e-05,-4.5415196255436034e-05,-2.9790341881437414e-05,-3.02768415930419e-05,5.9286,6.9286
2.75,-3.662661055619136e-05,-5.8108416003662175e-05,-3.56472929549096e-05,-3.1742658905928146e-05,5.9286,6.9286
2.75390625,-3.418147564202336e-05,-3.4667975353627845e-05,-4.053124460517282e-05,-4.0044744893568334e-05,5.9286,6.9286
2.7578125,-3.7599609979400334e-05,-2.7838024856946688e-05,-2.9297523991760142e-05,-3.1742658905928146e-05,5.9286,6.9286
2.76171875,-4.394937894254979e-05,-5.029282972762647e-05,-3.418147564202336e-05,-3.124984101625087e-05,5.9286,6.9286
2.765625,-4.394937894254979e-05,-5.9087733604943935e-05,-3.3694975930418875e-05,-3.6133792666514086e-05,5.9286,6.9286
2.76953125,-4.053124460517282e-05,-5.127214732890822e-05,-3.7599609979400334e-05,-3.5160793243305116e-05,5.9286,6.9286
2.7734375,-3.7599609979400334e-05,-4.492237836575876e-05,-4.394937894254979e-05,-4.2483561629663545e-05,5.9286,6.9286
2.77734375,-4.2483561629663545e-05,-4.1997061918059064e-05,-4.834051270313574e-05,-4.5415196255436034e-05,5.9286,6.9286
2.78125,-4.492237836575876e-05,-4.443587865415428e-05,-5.175864704051271e-05,-3.418147564202336e-05,5.9286,6.9286
2.78515625,-4.150424402838179e-05,-4.688101356832228e-05,-4.394937894254979e-05,-2.8811024280155654e-05,5.9286,6.9286
2.7890625,-3.955192700389106e-05,-4.834051270313574e-05,-3.6133792666514086e-05,-2.4419890519569704e-05,5.9286,6.9286
2.79296875,-3.662661055619136e-05,-4.2483561629663545e-05,-2.8811024280155654e-05,-2.8811024280155654e-05,5.9286,6.9286
2.796875,-3.7599609979400334e-05,-3.320847621881439e-05,-3.7113110267795846e-05,-3.076334130464639e-05,5.9286,6.9286
2.80078125,-3.7599609979400334e-05,-4.101774431677731e-05,-4.150424402838179e-05,-3.02768415930419e-05,5.9286,6.9286
2.8046875,-4.590169596704052e-05,-4.590169596704052e-05,-4.785401299153125e-05,-1.904312097962922e-05,5.9286,6.9286
2.80859375,-5.957423331654842e-05,-4.93198303044175e-05,-4.834051270313574e-05,-1.855662126802474e-05,5.9286,6.9286
2.8125,-5.078564761730374e-05,-5.225146493018999e-05,-4.590169596704052e-05,-3.955192700389106e-05,5.9286,6.9286
2.81640625,-3.56472929549096e-05,-5.078564761730374e-05,-2.832452456855117e-05,-2.8811024280155654e-05,5.9286,6.9286
2.8203125,-3.7599609979400334e-05,-5.566959926756696e-05,-2.49063902311742e-05,-1.7583621844815767e-05,5.9286,6.9286
2.82421875,-3.955192700389106e-05,-6.884931872739759e-05,-5.322446435339896e-05,-2.7345206967269417e-05,5.9286,6.9286
2.828125,-4.101774431677731e-05,-6.25058679423209e-05,-3.955192700389106e-05,-3.7113110267795846e-05,5.9286,6.9286
2.83203125,-3.8578927580682087e-05,-5.175864704051271e-05,-3.7599609979400334e-05,-3.8578927580682087e-05,5.9286,6.9286
2.8359375,-3.4667975353627845e-05,-5.762191629205769e-05,-3.8578927580682087e-05,-2.8811024280155654e-05,5.9286,6.9286
2.83984375,-3.4667975353627845e-05,-6.25058679423209e-05,-3.9065427292286575e-05,-2.2461255317006192e-05,5.9286,6.9286
2.84375,-2.9790341881437414e-05,-5.225146493018999e-05,-3.808610969100482e-05,-2.6858707255664925e-05,5.9286,6.9286
2.84765625,-2.8811024280155654e-05,-4.053124460517282e-05,-1.220685230487527e-05,-1.855662126802474e-05,5.9286,6.9286
2.8515625,-2.8811024280155654e-05,-4.0044744893568334e-05,-1.562498664225225e-05,-1.7090803955138496e-05,5.9286,6.9286
2.85546875,-3.418147564202336e-05,-4.492237836575876e-05,-2.8811024280155654e-05,-2.7838024856946688e-05,5.9286,6.9286
2.859375,-3.4667975353627845e-05,-4.492237836575876e-05,-3.076334130464639e-05,-3.2229158617532634e-05,5.9286,6.9286
2.86328125,-3.56472929549096e-05,-4.492237836575876e-05,-3.124984101625087e-05,-3.56472929549096e-05,5.9286,6.9286
2.8671875,-3.7113110267795846e-05,-4.492237836575876e-05,-3.418147564202336e-05,-2.3927072629892436e-05,5.9286,6.9286
2.87109375,-3.320847621881439e-05,-4.883333059281301e-05,-4.150424402838179e-05,-1.6604304243534e-05,5.9286,6.9286
2.875,-3.2229158617532634e-05,-4.736751327992677e-05,-4.688101356832228e-05,-2.7838024856946688e-05,5.9286,6.9286
2.87890625,-2.8811024280155654e-05,-3.271565832913711e-05,-2.5879389654383172e-05,-2.3440572918287955e-05,5.9286,6.9286
2.8828125,-2.197475560540171e-05,-3.271565832913711e-05,-2.1488255893797215e-05,-2.197475560540171e-05,5.9286,6.9286
2.88671875,-2.539288994277868e-05,-4.1997061918059064e-05,-4.0044744893568334e-05,-1.6117804531929523e-05,5.9286,6.9286
2.890625,-2.4419890519569704e-05,-3.8578927580682087e-05,-2.8811024280155654e-05,-1.3186169906157032e-05,5.9286,6.9286
2.89453125,-2.4419890519569704e-05,-3.56472929549096e-05,-1.1233852881666308e-05,-1.6604304243534e-05,5.9286,6.9286
2.8984375,-3.2229158617532634e-05,-4.101774431677731e-05,-1.562498664225225e-05,-2.295407320668346e-05,5.9286,6.9286
2.90234375,-2.7838024856946688e-05,-3.9065427292286575e-05,-2.295407320668346e-05,-3.076334130464639e-05,5.9286,6.9286
2.90625,-3.02768415930419e-05,-4.053124460517282e-05,-2.7345206967269417e-05,-1.6604304243534e-05,5.9286,6.9286
2.91015625,-2.8811024280155654e-05,-4.101774431677731e-05,-4.101774431677731e-05,-2.2461255317006192e-05,5.9286,6.9286
2.9140625,-2.3927072629892436e-05,-4.346287923094531e-05,-4.0044744893568334e-05,-3.662661055619136e-05,5.9286,6.9286
2.91796875,-2.9297523991760142e-05,-3.662661055619136e-05,-3.418147564202336e-05,-3.3694975930418875e-05,5.9286,6.9286
2.921875,-3.271565832913711e-05,-2.9790341881437414e-05,-2.49063902311742e-05,-2.6372207544060443e-05,5.9286,6.9286
2.92578125,-3.02768415930419e-05,-4.297006134126803e-05,-2.5879389654383172e-05,-2.49063902311742e-05,5.9286,6.9286
2.9296875,-3.02768415930419e-05,-3.9065427292286575e-05,-2.49063902311742e-05,-2.8811024280155654e-05,5.9286,6.9286
2.93359375,-3.02768415930419e-05,-3.955192700389106e-05,-2.1488255893797215e-05,-3.3694975930418875e-05,5.9286,6.9286
2.9375,-2.1488255893797215e-05,-3.076334130464639e-05,-2.49063902311742e-05,-2.3927072629892436e-05,5.9286,6.9286
2.94140625,-2.0508938292515466e-05,-2.0508938292515466e-05,-2.445267182421631e-06,-1.4651987219043277e-05,5.9286,6.9286
2.9453125,-2.6858707255664925e-05,-2.6858707255664925e-05,2.438684467841597e-06,-2.0508938292515466e-05,5.9286,6.9286
2.94921875,-3.955192700389106e-05,-3.2229158617532634e-05,-2.1488255893797215e-05,-3.124984101625087e-05,5.9286,6.9286
2.953125,-4.101774431677731e-05,-2.9790341881437414e-05,-2.7345206967269417e-05,-3.4667975353627845e-05,5.9286,6.9286
2.95703125,-2.6372207544060443e-05,-3.3694975930418875e-05,-2.5879389654383172e-05,-3.662661055619136e-05,5.9286,6.9286
2.9609375,-2.197475560540171e-05,-3.124984101625087e-05,-2.2461255317006192e-05,-3.1742658905928146e-05,5.9286,6.9286
2.96484375,-2.49063902311742e-05,-2.7838024856946688e-05,-2.832452456855117e-05,-2.6372207544060443e-05,5.9286,6.9286
2.96875,-2.539288994277868e-05,-4.1997061918059064e-05,-3.320847621881439e-05,-2.4419890519569704e-05,5.9286,6.9286
2.97265625,-2.4419890519569704e-05,-3.9065427292286575e-05,-2.9297523991760142e-05,-2.0508938292515466e-05,5.9286,6.9286
2.9765625,-2.49063902311742e-05,-1.953593886930649e-05,-2.832452456855117e-05,-2.6372207544060443e-05,5.9286,6.9286
2.98046875,-2.539288994277868e-05,-2.4419890519569704e-05,-2.6372207544060443e-05,-2.539288994277868e-05,5.9286,6.9286
2.984375,-3.1742658905928146e-05,-3.6133792666514086e-05,-2.3440572918287955e-05,-2.3440572918287955e-05,5.9286,6.9286
2.98828125,-3.320847621881439e-05,-2.1001756182192734e-05,-2.295407320668346e-05,-2.7345206967269417e-05,5.9286,6.9286
2.9921875,-3.320847621881439e-05,-1.953593886930649e-05,-3.7113110267795846e-05,-2.4419890519569704e-05,5.9286,6.9286
2.99609375,-3.2229158617532634e-05,-2.9790341881437414e-05,-3.076334130464639e-05,-2.6858707255664925e-05,5.9286,6.9286
3.0,-2.3927072629892436e-05,-1.6117804531929523e-05,-1.0747353170061813e-05,-3.320847621881439e-05,5.9286,6.9286
3.00390625,-2.539288994277868e-05,-2.295407320668346e-05,-1.6117804531929523e-05,-3.662661055619136e-05,5.9286,6.9286
3.0078125,-3.320847621881439e-05,-3.418147564202336e-05,-3.2229158617532634e-05,-3.271565832913711e-05,5.9286,6.9286
3.01171875,-2.49063902311742e-05,-3.076334130464639e-05,-3.9065427292286575e-05,-3.955192700389106e-05,5.9286,6.9286
3.015625,-1.953593886930649e-05,-3.4667975353627845e-05,-3.271565832913711e-05,-4.0044744893568334e-05,5.9286,6.9286
3.01953125,-2.3440572918287955e-05,-2.2461255317006192e-05,-1.3186169906157032e-05,-2.6858707255664925e-05,5.9286,6.9286
3.0234375,-2.2461255317006192e-05,-1.1233852881666308e-05,-1.3186169906157032e-05,-2.2461255317006192e-05,5.9286,6.9286
3.02734375,-2.7345206967269417e-05,-2.1488255893797215e-05,-2.0022438580910984e-05,-2.7345206967269417e-05,5.9286,6.9286
3.03125,-2.539288994277868e-05,-4.053124460517282e-05,-1.3186169906157032e-05,-2.4419890519569704e-05,5.9286,6.9286
3.03515625,-1.904312097962922e-05,-4.638819567864501e-05,-1.4651987219043277e-05,-2.3440572918287955e-05,5.9286,6.9286
3.0390625,-3.56472929549096e-05,-3.4667975353627845e-05,-2.6372207544060443e-05,-3.3694975930418875e-05,5.9286,6.9286
3.04296875,-4.0044744893568334e-05,-3.4667975353627845e-05,-2.3927072629892436e-05,-4.443587865415428e-05,5.9286,6.9286
3.046875,-3.56472929549096e-05,-3.9065427292286575e-05,-2.3440572918287955e-05,-4.394937894254979e-05,5.9286,6.9286
3.05078125,-4.1997061918059064e-05,-4.053124460517282e-05,-1.7090803955138496e-05,-2.9790341881437414e-05,5.9286,6.9286
3.0546875,-4.053124460517282e-05,-4.443587865415428e-05,-2.832452456855117e-05,-2.3927072629892436e-05,5.9286,6.9286
3.05859375,-3.808610969100482e-05,-3.271565832913711e-05,-2.9297523991760142e-05,-2.832452456855117e-05,5.9286,6.9286
3.0625,-2.9297523991760142e-05,-2.6372207544060443e-05,-2.7345206967269417e-05,-2.539288994277868e-05,5.9286,6.9286
3.06640625,-2.9297523991760142e-05,-3.3694975930418875e-05,-4.1997061918059064e-05,-2.5879389654383172e-05,5.9286,6.9286
3.0703125,-3.955192700389106e-05,-3.076334130464639e-05,-2.539288994277868e-05,-3.2229158617532634e-05,5.9286,6.9286
3.07421875,-3.8578927580682087e-05,-2.832452456855117e-05,-2.5879389654383172e-05,-3.271565832913711e-05,5.9286,6.9286
3.078125,-3.5160793243305116e-05,-2.6858707255664925e-05,-3.1742658905928146e-05,-3.124984101625087e-05,5.9286,6.9286
3.08203125,-3.076334130464639e-05,-2.9790341881437414e-05,-2.1488255893797215e-05,-2.9297523991760142e-05,5.9286,6.9286
3.0859375,-2.7345206967269417e-05,-3.4667975353627845e-05,-1.3186169906157032e-05,-3.7599609979400334e-05,5.9286,6.9286
3.08984375,-3.124984101625087e-05,-3.124984101625087e-05,-1.6604304243534e-05,-4.736751327992677e-05,5.9286,6.9286
3.09375,-3.56472929549096e-05,-2.3440572918287955e-05,-2.7838024856946688e-05,-4.492237836575876e-05,5.9286,6.9286
3.09765625,-3.9065427292286575e-05,-2.49063902311742e-05,-3.6133792666514086e-05,-3.8578927580682087e-05,5.9286,6.9286
3.1015625,-3.3694975930418875e-05,-3.124984101625087e-05,-4.053124460517282e-05,-2.0508938292515466e-05,5.9286,6.9286
3.10546875,-1.8070121556420245e-05,-2.9790341881437414e-05,-3.3694975930418875e-05,-1.953593886930649e-05,5.9286,6.9286
3.109375,-1.7090803955138496e-05,-3.320847621881439e-05,-2.197475560540171e-05,-3.2229158617532634e-05,5.9286,6.9286
3.11328125,-2.0508938292515466e-05,-3.808610969100482e-05,-1.5138486930647758e-05,-3.3694975930418875e-05,5.9286,6.9286
3.1171875,-2.539288994277868e-05,-2.8811024280155654e-05,-1.7090803955138496e-05,-3.9065427292286575e-05,5.9286,6.9286
3.12109375,-3.56472929549096e-05,-2.8811024280155654e-05,-2.3927072629892436e-05,-3.2229158617532634e-05,5.9286,6.9286
3.125,-3.076334130464639e-05,-3.124984101625087e-05,-1.904312097962922e-05,-1.6604304243534e-05,5.9286,6.9286
3.12890625,-2.4419890519569704e-05,-2.6858707255664925e-05,-2.9297523991760142e-05,-1.3672669617761514e-05,5.9286,6.9286
3.1328125,-2.197475560540171e-05,-3.4667975353627845e-05,-3.808610969100482e-05,-2.2461255317006192e-05,5.9286,6.9286
3.13671875,-1.562498664225225e-05,-4.443587865415428e-05,-2.4419890519569704e-05,-3.076334130464639e-05,5.9286,6.9286
3.140625,-2.197475560540171e-05,-4.5415196255436034e-05,-2.3440572918287955e-05,-3.320847621881439e-05,5.9286,6.9286
3.14453125,-2.7345206967269417e-05,-3.955192700389106e-05,-2.6858707255664925e-05,-3.4667975353627845e-05,5.9286,6.9286
3.1484375,-3.124984101625087e-05,-4.1997061918059064e-05,-2.3927072629892436e-05,-4.053124460517282e-05,5.9286,6.9286
3.15234375,-3.2229158617532634e-05,-4.150424402838179e-05,-2.539288994277868e-05,-3.1742658905928146e-05,5.9286,6.9286
3.15625,-2.539288994277868e-05,-3.076334130464639e-05,-1.6604304243534e-05,-2.0022438580910984e-05,5.9286,6.9286
3.16015625,-3.1742658905928146e-05,-2.832452456855117e-05,-9.281535857175569e-06,-2.539288994277868e-05,5.9286,6.9286
3.1640625,-3.9065427292286575e-05,-2.295407320668346e-05,1.459366866559833e-06,-3.076334130464639e-05,5.9286,6.9286
3.16796875,-3.6133792666514086e-05,-2.7838024856946688e-05,-6.836400943007575e-06,-3.02768415930419e-05,5.9286,6.9286
3.171875,-3.2229158617532634e-05,-4.93198303044175e-05,-2.1488255893797215e-05,-2.49063902311742e-05,5.9286,6.9286
3.17578125,-2.5879389654383172e-05,-4.1997061918059064e-05,-1.6604304243534e-05,-2.832452456855117e-05,5.9286,6.9286
3.1796875,-2.6858707255664925e-05,-3.418147564202336e-05,-2.197475560540171e-05,-3.7599609979400334e-05,5.9286,6.9286
3.18359375,-2.9297523991760142e-05,-2.9297523991760142e-05,-2.7838024856946688e-05,-3.4667975353627845e-05,5.9286,6.9286
3.1875,-2.539288994277868e-05,-2.1488255893797215e-05,-2.7345206967269417e-05,-1.220685230487527e-05,5.9286,6.9286
3.19140625,-3.124984101625087e-05,-2.5879389654383172e-05,-2.1488255893797215e-05,-4.397584206912356e-06,5.9286,6.9286
3.1953125,-3.418147564202336e-05,-2.8811024280155654e-05,-2.9297523991760142e-05,-2.5879389654383172e-05,5.9286,6.9286
3.19921875,-2.7345206967269417e-05,-2.539288994277868e-05,-3.124984101625087e-05,-2.8811024280155654e-05,5.9286,6.9286
3.203125,-2.5879389654383172e-05,-1.7583621844815767e-05,-2.5879389654383172e-05,-2.0508938292515466e-05,5.9286,6.9286
3.20703125,-3.2229158617532634e-05,-3.076334130464639e-05,-2.9790341881437414e-05,-2.1001756182192734e-05,5.9286,6.9286
3.2109375,-3.5160793243305116e-05,-3.56472929549096e-05,-3.02768415930419e-05,-2.9790341881437414e-05,5.9286,6.9286
3.21484375,-3.5160793243305116e-05,-2.49063902311742e-05,-3.5160793243305116e-05,-2.9790341881437414e-05,5.9286,6.9286
3.21875,-3.8578927580682087e-05,-2.5879389654383172e-05,-3.955192700389106e-05,-3.6133792666514086e-05,5.9286,6.9286
3.22265625,-3.7113110267795846e-05,-2.0508938292515466e-05,-3.320847621881439e-05,-3.662661055619136e-05,5.9286,6.9286
3.2265625,-4.5415196255436034e-05,-2.8811024280155654e-05,-3.3694975930418875e-05,-3.662661055619136e-05,5.9286,6.9286
3.23046875,-3.955192700389106e-05,-4.053124460517282e-05,-3.418147564202336e-05,-3.7113110267795846e-05,5.9286,6.9286
3.234375,-2.539288994277868e-05,-2.9297523991760142e-05,-2.6858707255664925e-05,-3.1742658905928146e-05,5.9286,6.9286
3.23828125,-3.4667975353627845e-05,-3.2229158617532634e-05,-3.271565832913711e-05,-3.56472929549096e-05,5.9286,6.9286
3.2421875,-3.56472929549096e-05,-3.320847621881439e-05,-3.271565832913711e-05,-3.56472929549096e-05,5.9286,6.9286
3.24609375,-2.3927072629892436e-05,-2.832452456855117e-05,-2.3927072629892436e-05,-3.02768415930419e-05,5.9286,6.9286
3.25,-2.7345206967269417e-05,-3.3694975930418875e-05,-3.8578927580682087e-05,-3.271565832913711e-05,5.9286,6.9286
3.25390625,-3.7599609979400334e-05,-3.1742658905928146e-05,-3.9065427292286575e-05,-4.0044744893568334e-05,5.9286,6.9286
3.2578125,-3.320847621881439e-05,-3.418147564202336e-05,-1.3186169906157032e-05,-3.124984101625087e-05,5.9286,6.9286
3.26171875,-2.7345206967269417e-05,-3.3694975930418875e-05,-2.49063902311742e-05,-2.7838024856946688e-05,5.9286,6.9286
3.265625,-2.832452456855117e-05,-2.9790341881437414e-05,-3.8578927580682087e-05,-3.418147564202336e-05,5.9286,6.9286
3.26953125,-3.662661055619136e-05,-3.808610969100482e-05,-3.124984101625087e-05,-3.02768415930419e-05,5.9286,6.9286
3.2734375,-3.7599609979400334e-05,-3.955192700389106e-05,-2.539288994277868e-05,-3.320847621881439e-05,5.9286,6.9286
3.27734375,-3.271565832913711e-05,-3.124984101625087e-05,-3.418147564202336e-05,-3.2229158617532634e-05,5.9286,6.9286
3.28125,-3.5160793243305116e-05,-3.4667975353627845e-05,-3.8578927580682087e-05,-3.662661055619136e-05,5.9286,6.9286
3.28515625,-3.5160793243305116e-05,-3.7599609979400334e-05,-3.418147564202336e-05,-4.1997061918059064e-05,5.9286,6.9286
3.2890625,-3.7599609979400334e-05,-2.539288994277868e-05,-3.124984101625087e-05,-3.3694975930418875e-05,5.9286,6.9286
3.29296875,-4.346287923094531e-05,-2.8811024280155654e-05,-3.5160793243305116e-05,-2.9297523991760142e-05,5.9286,6.9286
3.296875,-4.150424402838179e-05,-2.9297523991760142e-05,-3.3694975930418875e-05,-2.832452456855117e-05,5.9286,6.9286
3.30078125,-3.9065427292286575e-05,-2.7345206967269417e-05,-2.832452456855117e-05,-2.8811024280155654e-05,5.9286,6.9286
3.3046875,-3.9065427292286575e-05,-3.124984101625087e-05,-3.2229158617532634e-05,-3.56472929549096e-05,5.9286,6.9286
3.30859375,-4.150424402838179e-05,-3.5160793243305116e-05,-2.5879389654383172e-05,-3.56472929549096e-05,5.9286,6.9286
3.3125,-3.955192700389106e-05,-3.418147564202336e-05,-2.1488255893797215e-05,-4.053124460517282e-05,5.9286,6.9286
3.31640625,-3.9065427292286575e-05,-4.297006134126803e-05,-2.6372207544060443e-05,-4.834051270313574e-05,5.9286,6.9286
3.3203125,-3.7113110267795846e-05,-4.346287923094531e-05,-2.0508938292515466e-05,-4.5415196255436034e-05,5.9286,6.9286
3.32421875,-3.5160793243305116e-05,-3.8578927580682087e-05,-3.124984101625087e-05,-3.7113110267795846e-05,5.9286,6.9286
3.328125,-3.9065427292286575e-05,-3.4667975353627845e-05,-4.101774431677731e-05,-3.955192700389106e-05,5.9286,6.9286
3.33203125,-4.053124460517282e-05,-3.1742658905928146e-05,-3.7599609979400334e-05,-4.053124460517282e-05,5.9286,6.9286
3.3359375,-3.7599609979400334e-05,-2.49063902311742e-05,-3.5160793243305116e-05,-3.124984101625087e-05,5.9286,6.9286
3.33984375,-4.101774431677731e-05,-2.0508938292515466e-05,-3.1742658905928146e-05,-2.6372207544060443e-05,5.9286,6.9286
3.34375,-4.394937894254979e-05,-3.418147564202336e-05,-3.662661055619136e-05,-3.3694975930418875e-05,5.9286,6.9286
3.34765625,-3.662661055619136e-05,-4.150424402838179e-05,-3.56472929549096e-05,-3.7599609979400334e-05,5.9286,6.9286
3.3515625,-3.418147564202336e-05,-4.101774431677731e-05,-3.5160793243305116e-05,-3.418147564202336e-05,5.9286,6.9286
3.35546875,-3.9065427292286575e-05,-4.101774431677731e-05,-3.955192700389106e-05,-3.320847621881439e-05,5.9286,6.9286
3.359375,-3.808610969100482e-05,-4.1997061918059064e-05,-2.8811024280155654e-05,-2.9790341881437414e-05,5.9286,6.9286
3.36328125,-2.9790341881437414e-05,-3.7113110267795846e-05,-1.1233852881666308e-05,-2.6372207544060443e-05,5.9286,6.9286
3.3671875,-2.9297523991760142e-05,-3.124984101625087e-05,-2.8811024280155654e-05,-3.56472929549096e-05,5.9286,6.9286
3.37109375,-4.638819567864501e-05,-3.8578927580682087e-05,-5.127214732890822e-05,-3.955192700389106e-05,5.9286,6.9286
3.375,-4.93198303044175e-05,-4.736751327992677e-05,-3.9065427292286575e-05,-3.955192700389106e-05,5.9286,6.9286
3.37890625,-3.1742658905928146e-05,-3.6133792666514086e-05,-2.539288994277868e-05,-3.955192700389106e-05,5.9286,6.9286
3.3828125,-3.418147564202336e-05,-3.808610969100482e-05,-1.8070121556420245e-05,-3.076334130464639e-05,5.9286,6.9286
3.38671875,-3.124984101625087e-05,-3.6133792666514086e-05,-2.0022438580910984e-05,-2.7345206967269417e-05,5.9286,6.9286
3.390625,-2.4419890519569704e-05,-3.56472929549096e-05,-2.8811024280155654e-05,-2.0022438580910984e-05,5.9286,6.9286
3.39453125,-2.1001756182192734e-05,-5.3710964065003446e-05,-2.539288994277868e-05,-2.1488255893797215e-05,5.9286,6.9286
3.3984375,-2.2461255317006192e-05,-4.638819567864501e-05,-2.6858707255664925e-05,-2.6858707255664925e-05,5.9286,6.9286
3.40234375,-3.02768415930419e-05,-4.1997061918059064e-05,-3.56472929549096e-05,-3.124984101625087e-05,5.9286,6.9286
3.40625,-2.9790341881437414e-05,-4.443587865415428e-05,-2.7345206967269417e-05,-3.418147564202336e-05,5.9286,6.9286
3.41015625,-2.9297523991760142e-05,-4.150424402838179e-05,-3.56472929549096e-05,-3.418147564202336e-05,5.9286,6.9286
3.4140625,-3.4667975353627845e-05,-4.2483561629663545e-05,-4.883333059281301e-05,-4.346287923094531e-05,5.9286,6.9286
3.41796875,-3.271565832913711e-05,-4.346287923094531e-05,-3.3694975930418875e-05,-3.5160793243305116e-05,5.9286,6.9286
3.421875,-2.8811024280155654e-05,-3.8578927580682087e-05,-2.49063902311742e-05,-2.9297523991760142e-05,5.9286,6.9286
3.42578125,-3.4667975353627845e-05,-4.492237836575876e-05,-2.7345206967269417e-05,-4.0044744893568334e-05,5.9286,6.9286
3.4296875,-4.101774431677731e-05,-5.712909840238041e-05,-3.3694975930418875e-05,-4.150424402838179e-05,5.9286,6.9286
3.43359375,-3.8578927580682087e-05,-4.736751327992677e-05,-2.5879389654383172e-05,-4.638819567864501e-05,5.9286,6.9286
3.4375,-3.4667975353627845e-05,-2.8811024280155654e-05,-2.5879389654383172e-05,-3.6133792666514086e-05,5.9286,6.9286
3.44140625,-3.8578927580682087e-05,-3.1742658905928146e-05,-3.808610969100482e-05,-3.418147564202336e-05,5.9286,6.9286
3.4453125,-3.9065427292286575e-05,-4.0044744893568334e-05,-4.492237836575876e-05,-3.8578927580682087e-05,5.9286,6.9286
3.44921875,-3.271565832913711e-05,-3.7599609979400334e-05,-3.124984101625087e-05,-3.4667975353627845e-05,5.9286,6.9286
3.453125,-3.662661055619136e-05,-4.101774431677731e-05,-2.7345206967269417e-05,-3.076334130464639e-05,5.9286,6.9286
3.45703125,-3.7599609979400334e-05,-3.955192700389106e-05,-4.590169596704052e-05,-2.832452456855117e-05,5.9286,6.9286
3.4609375,-3.124984101625087e-05,-2.8811024280155654e-05,-4.492237836575876e-05,-3.5160793243305116e-05,5.9286,6.9286
3.46484375,-3.02768415930419e-05,-2.5879389654383172e-05,-2.832452456855117e-05,-3.418147564202336e-05,5.9286,6.9286
3.46875,-2.832452456855117e-05,-3.6133792666514086e-05,-3.2229158617532634e-05,-3.124984101625087e-05,5.9286,6.9286
3.47265625,-2.3440572918287955e-05,-3.662661055619136e-05,-3.808610969100482e-05,-3.662661055619136e-05,5.9286,6.9286
3.4765625,-2.832452456855117e-05,-3.02768415930419e-05,-2.9790341881437414e-05,-3.3694975930418875e-05,5.9286,6.9286
3.48046875,-3.5160793243305116e-05,-2.8811024280155654e-05,-2.6372207544060443e-05,-3.418147564202336e-05,5.9286,6.9286
3.484375,-3.6133792666514086e-05,-3.2229158617532634e-05,-3.076334130464639e-05,-3.56472929549096e-05,5.9286,6.9286
3.48828125,-3.6133792666514086e-05,-4.101774431677731e-05,-3.5160793243305116e-05,-3.56472929549096e-05,5.9286,6.9286
3.4921875,-3.3694975930418875e-05,-3.076334130464639e-05,-4.688101356832228e-05,-3.56472929549096e-05,5.9286,6.9286
3.49609375,-3.4667975353627845e-05,-2.0022438580910984e-05,-2.6858707255664925e-05,-2.295407320668346e-05,5.9286,6.9286
3.5,-3.662661055619136e-05,-2.8811024280155654e-05,-1.220685230487527e-05,-1.2699670194552552e-05,5.9286,6.9286
3.50390625,-3.955192700389106e-05,-3.320847621881439e-05,-2.539288994277868e-05,-2.3927072629892436e-05,5.9286,6.9286
3.5078125,-4.0044744893568334e-05,-4.1997061918059064e-05,-1.953593886930649e-05,-2.6372207544060443e-05,5.9286,6.9286
3.51171875,-2.6372207544060443e-05,-4.346287923094531e-05,-2.2461255317006192e-05,-1.4651987219043277e-05,5.9286,6.9286
3.515625,-1.904312097962922e-05,-3.2229158617532634e-05,-2.1488255893797215e-05,-1.7090803955138496e-05,5.9286,6.9286
3.51953125,-2.6858707255664925e-05,-3.418147564202336e-05,-3.124984101625087e-05,-3.320847621881439e-05,5.9286,6.9286
3.5234375,-3.320847621881439e-05,-4.0044744893568334e-05,-3.320847621881439e-05,-2.4419890519569704e-05,5.9286,6.9286
3.52734375,-3.4667975353627845e-05,-3.4667975353627845e-05,-2.3927072629892436e-05,-2.0508938292515466e-05,5.9286,6.9286
3.53125,-3.320847621881439e-05,-3.56472929549096e-05,-1.7583621844815767e-05,-2.6372207544060443e-05,5.9286,6.9286
3.53515625,-3.6133792666514086e-05,-3.56472929549096e-05,-1.3672669617761514e-05,-2.0508938292515466e-05,5.9286,6.9286
3.5390625,-3.808610969100482e-05,-2.9790341881437414e-05,-2.9790341881437414e-05,-2.4419890519569704e-05,5.9286,6.9286
3.54296875,-4.150424402838179e-05,-2.0022438580910984e-05,-2.0508938292515466e-05,-3.3694975930418875e-05,5.9286,6.9286
3.546875,-3.6133792666514086e-05,-2.3440572918287955e-05,-1.6117804531929523e-05,-3.808610969100482e-05,5.9286,6.9286
3.55078125,-2.49063902311742e-05,-3.6133792666514086e-05,-3.7599609979400334e-05,-3.955192700389106e-05,5.9286,6.9286
3.5546875,-2.9297523991760142e-05,-3.955192700389106e-05,-4.346287923094531e-05,-4.053124460517282e-05,5.9286,6.9286
3.55859375,-3.4667975353627845e-05,-4.053124460517282e-05,-2.8811024280155654e-05,-4.101774431677731e-05,5.9286,6.9286
3.5625,-3.7113110267795846e-05,-4.1997061918059064e-05,-2.6372207544060443e-05,-4.394937894254979e-05,5.9286,6.9286
3.56640625,-3.124984101625087e-05,-3.271565832913711e-05,-3.3694975930418875e-05,-4.0044744893568334e-05,5.9286,6.9286
3.5703125,-2.7345206967269417e-05,-2.832452456855117e-05,-2.9297523991760142e-05,-3.56472929549096e-05,5.9286,6.9286
3.57421875,-2.3927072629892436e-05,-2.1488255893797215e-05,-3.124984101625087e-05,-3.3694975930418875e-05,5.9286,6.9286
3.578125,-3.124984101625087e-05,-2.49063902311742e-05,-3.320847621881439e-05,-3.271565832913711e-05,5.9286,6.9286
3.58203125,-4.2483561629663545e-05,-3.2229158617532634e-05,-2.7838024856946688e-05,-3.5160793243305116e-05,5.9286,6.9286
3.5859375,-4.1997061918059064e-05,-3.808610969100482e-05,-1.8070121556420245e-05,-3.5160793243305116e-05,5.9286,6.9286
3.58984375,-4.1997061918059064e-05,-4.053124460517282e-05,-1.7583621844815767e-05,-3.320847621881439e-05,5.9286,6.9286
3.59375,-3.7113110267795846e-05,-3.955192700389106e-05,-3.5160793243305116e-05,-3.320847621881439e-05,5.9286,6.9286
3.59765625,-2.9790341881437414e-05,-3.3694975930418875e-05,-4.0044744893568334e-05,-3.955192700389106e-05,5.9286,6.9286
3.6015625,-3.4667975353627845e-05,-2.832452456855117e-05,-3.7599609979400334e-05,-3.9065427292286575e-05,5.9286,6.9286
3.60546875,-4.346287923094531e-05,-3.4667975353627845e-05,-3.9065427292286575e-05,-3.955192700389106e-05,5.9286,6.9286
3.609375,-3.955192700389106e-05,-4.346287923094531e-05,-4.053124460517282e-05,-4.443587865415428e-05,5.9286,6.9286
3.61328125,-3.4667975353627845e-05,-4.053124460517282e-05,-3.4667975353627845e-05,-3.271565832913711e-05,5.9286,6.9286
3.6171875,-3.5160793243305116e-05,-3.5160793243305116e-05,-4.101774431677731e-05,-3.1742658905928146e-05,5.9286,6.9286
3.62109375,-4.0044744893568334e-05,-4.150424402838179e-05,-4.736751327992677e-05,-3.7599609979400334e-05,5.9286,6.9286
3.625,-3.4667975353627845e-05,-3.320847621881439e-05,-2.5879389654383172e-05,-3.7113110267795846e-05,5.9286,6.9286
3.62890625,-3.418147564202336e-05,-2.4419890519569704e-05,-1.562498664225225e-05,-3.662661055619136e-05,5.9286,6.9286
3.6328125,-3.1742658905928146e-05,-2.2461255317006192e-05,-2.3927072629892436e-05,-3.271565832913711e-05,5.9286,6.9286
3.63671875,-3.4667975353627845e-05,-2.2461255317006192e-05,-3.56472929549096e-05,-4.0044744893568334e-05,5.9286,6.9286
3.640625,-3.7113110267795846e-05,-2.832452456855117e-05,-3.662661055619136e-05,-4.980633001602198e-05,5.9286,6.9286
3.64453125,-2.832452456855117e-05,-2.4419890519569704e-05,-2.8811024280155654e-05,-3.418147564202336e-05,5.9286,6.9286
3.6484375,-3.6133792666514086e-05,-3.320847621881439e-05,-3.4667975353627845e-05,-2.5879389654383172e-05,5.9286,6.9286
3.65234375,-3.8578927580682087e-05,-3.955192700389106e-05,-5.3710964065003446e-05,-4.0044744893568334e-05,5.9286,6.9286
3.65625,-3.4667975353627845e-05,-3.8578927580682087e-05,-4.590169596704052e-05,-4.346287923094531e-05,5.9286,6.9286
3.66015625,-3.9065427292286575e-05,-4.150424402838179e-05,-3.7113110267795846e-05,-3.6133792666514086e-05,5.9286,6.9286
3.6640625,-4.0044744893568334e-05,-3.7113110267795846e-05,-3.7599609979400334e-05,-4.053124460517282e-05,5.9286,6.9286
3.66796875,-4.2483561629663545e-05,-4.053124460517282e-05,-2.7838024856946688e-05,-3.56472929549096e-05,5.9286,6.9286
3.671875,-4.101774431677731e-05,-4.101774431677731e-05,-3.271565832913711e-05,-2.5879389654383172e-05,5.9286,6.9286
3.67578125,-3.02768415930419e-05,-3.418147564202336e-05,-2.6372207544060443e-05,-2.8811024280155654e-05,5.9286,6.9286
3.6796875,-3.418147564202336e-05,-2.9790341881437414e-05,-2.5879389654383172e-05,-4.101774431677731e-05,5.9286,6.9286
3.68359375,-4.101774431677731e-05,-2.7345206967269417e-05,-2.9297523991760142e-05,-4.736751327992677e-05,5.9286,6.9286
3.6875,-3.4667975353627845e-05,-2.197475560540171e-05,-1.220685230487527e-05,-3.955192700389106e-05,5.9286,6.9286
3.69140625,-2.6858707255664925e-05,-2.7345206967269417e-05,-1.953593886930649e-05,-3.7113110267795846e-05,5.9286,6.9286
3.6953125,-3.1742658905928146e-05,-3.955192700389106e-05,-3.2229158617532634e-05,-3.56472929549096e-05,5.9286,6.9286
3.69921875,-3.2229158617532634e-05,-3.4667975353627845e-05,-5.225146493018999e-05,-3.7113110267795846e-05,5.9286,6.9286
3.703125,-2.6858707255664925e-05,-2.1488255893797215e-05,-4.980633001602198e-05,-4.443587865415428e-05,5.9286,6.9286
3.70703125,-2.9790341881437414e-05,-1.904312097962922e-05,-3.02768415930419e-05,-4.785401299153125e-05,5.9286,6.9286
3.7109375,-3.076334130464639e-05,-3.7113110267795846e-05,-3.3694975930418875e-05,-5.029282972762647e-05,5.9286,6.9286
3.71484375,-3.7113110267795846e-05,-3.6133792666514086e-05,-2.6372207544060443e-05,-4.150424402838179e-05,5.9286,6.9286
3.71875,-3.7599609979400334e-05,-1.855662126802474e-05,-2.4419890519569704e-05,-3.5160793243305116e-05,5.9286,6.9286
3.72265625,-3.1742658905928146e-05,-3.320847621881439e-05,-2.9297523991760142e-05,-2.9297523991760142e-05,5.9286,6.9286
3.7265625,-2.7345206967269417e-05,-3.124984101625087e-05,-2.295407320668346e-05,-3.6133792666514086e-05,5.9286,6.9286
3.73046875,-3.076334130464639e-05,-2.3927072629892436e-05,-2.9790341881437414e-05,-4.150424402838179e-05,5.9286,6.9286
3.734375,-3.124984101625087e-05,-2.9790341881437414e-05,-3.076334130464639e-05,-3.56472929549096e-05,5.9286,6.9286
3.73828125,-2.9297523991760142e-05,-2.9790341881437414e-05,-2.7345206967269417e-05,-3.271565832913711e-05,5.9286,6.9286
3.7421875,-3.124984101625087e-05,-2.832452456855117e-05,-3.56472929549096e-05,-3.7113110267795846e-05,5.9286,6.9286
3.74609375,-3.02768415930419e-05,-3.124984101625087e-05,-3.02768415930419e-05,-3.56472929549096e-05,5.9286,6.9286
3.75,-2.5879389654383172e-05,-3.56472929549096e-05,-2.6858707255664925e-05,-2.6858707255664925e-05,5.9286,6.9286
3.75390625,-3.1742658905928146e-05,-3.2229158617532634e-05,-2.49063902311742e-05,-3.418147564202336e-05,5.9286,6.9286
3.7578125,-3.955192700389106e-05,-3.320847621881439e-05,-2.7345206967269417e-05,-4.0044744893568334e-05,5.9286,6.9286
3.76171875,-2.7838024856946688e-05,-3.271565832913711e-05,-3.02768415930419e-05,-3.320847621881439e-05,5.9286,6.9286
3.765625,-2.197475560540171e-05,-2.2461255317006192e-05,-2.7838024856946688e-05,-3.662661055619136e-05,5.9286,6.9286
3.76953125,-2.49063902311742e-05,-1.953593886930649e-05,-3.3694975930418875e-05,-4.101774431677731e-05,5.9286,6.9286
3.7734375,-2.5879389654383172e-05,-2.832452456855117e-05,-4.0044744893568334e-05,-2.8811024280155654e-05,5.9286,6.9286
3.77734375,-3.271565832913711e-05,-3.320847621881439e-05,-2.6858707255664925e-05,-2.6372207544060443e-05,5.9286,6.9286
3.78125,-3.418147564202336e-05,-2.9790341881437414e-05,-1.5138486930647758e-05,-2.9790341881437414e-05,5.9286,6.9286
3.78515625,-3.1742658905928146e-05,-4.101774431677731e-05,-3.320847621881439e-05,-2.9790341881437414e-05,5.9286,6.9286
3.7890625,-3.4667975353627845e-05,-4.1997061918059064e-05,-3.6133792666514086e-05,-2.8811024280155654e-05,5.9286,6.9286
3.79296875,-3.2229158617532634e-05,-2.4419890519569704e-05,-2.5879389654383172e-05,-2.3927072629892436e-05,5.9286,6.9286
3.796875,-3.4667975353627845e-05,-2.295407320668346e-05,-2.9790341881437414e-05,-2.1488255893797215e-05,5.9286,6.9286
3.80078125,-3.2229158617532634e-05,-1.953593886930649e-05,-1.855662126802474e-05,-2.5879389654383172e-05,5.9286,6.9286
3.8046875,-3.02768415930419e-05,-3.02768415930419e-05,-2.197475560540171e-05,-3.124984101625087e-05,5.9286,6.9286
3.80859375,-3.955192700389106e-05,-4.394937894254979e-05,-4.053124460517282e-05,-3.4667975353627845e-05,5.9286,6.9286
3.8125,-3.7113110267795846e-05,-3.4667975353627845e-05,-4.1997061918059064e-05,-3.6133792666514086e-05,5.9286,6.9286
3.81640625,-3.1742658905928146e-05,-2.539288994277868e-05,-3.3694975930418875e-05,-2.7838024856946688e-05,5.9286,6.9286
3.8203125,-3.02768415930419e-05,-2.1001756182192734e-05,-3.3694975930418875e-05,-2.8811024280155654e-05,5.9286,6.9286
3.82421875,-2.9790341881437414e-05,-2.295407320668346e-05,-1.6604304243534e-05,-3.124984101625087e-05,5.9286,6.9286
3.828125,-3.662661055619136e-05,-2.8811024280155654e-05,-1.1720352593270788e-05,-2.832452456855117e-05,5.9286,6.9286
3.83203125,-3.56472929549096e-05,-2.4419890519569704e-05,-3.271565832913711e-05,-3.1742658905928146e-05,5.9286,6.9286
3.8359375,-2.8811024280155654e-05,-2.7838024856946688e-05,-4.053124460517282e-05,-3.02768415930419e-05,5.9286,6.9286
3.83984375,-3.076334130464639e-05,-4.394937894254979e-05,-3.271565832913711e-05,-2.8811024280155654e-05,5.9286,6.9286
3.84375,-3.124984101625087e-05,-3.4667975353627845e-05,-2.9297523991760142e-05,-3.2229158617532634e-05,5.9286,6.9286
3.84765625,-2.4419890519569704e-05,-1.855662126802474e-05,-3.02768415930419e-05,-3.124984101625087e-05,5.9286,6.9286
3.8515625,-2.832452456855117e-05,-2.295407320668346e-05,-2.539288994277868e-05,-3.02768415930419e-05,5.9286,6.9286
3.85546875,-3.271565832913711e-05,-1.8070121556420245e-05,-3.8578927580682087e-05,-2.7345206967269417e-05,5.9286,6.9286
3.859375,-3.4667975353627845e-05,-1.0254535280384544e-05,-4.443587865415428e-05,-2.3927072629892436e-05,5.9286,6.9286
3.86328125,-3.6133792666514086e-05,-1.904312097962922e-05,-3.7599609979400334e-05,-1.904312097962922e-05,5.9286,6.9286
3.8671875,-2.7345206967269417e-05,-2.197475560540171e-05,-3.320847621881439e-05,-2.1001756182192734e-05,5.9286,6.9286
3.87109375,-1.904312097962922e-05,-2.832452456855117e-05,-2.6372207544060443e-05,-2.5879389654383172e-05,5.9286,6.9286
3.875,-2.49063902311742e-05,-3.7113110267795846e-05,-3.320847621881439e-05,-2.7345206967269417e-05,5.9286,6.9286
3.87890625,-2.2461255317006192e-05,-3.02768415930419e-05,-4.150424402838179e-05,-2.7345206967269417e-05,5.9286,6.9286
3.8828125,-1.855662126802474e-05,-2.295407320668346e-05,-3.4667975353627845e-05,-2.8811024280155654e-05,5.9286,6.9286
3.88671875,-3.418147564202336e-05,-2.8811024280155654e-05,-3.808610969100482e-05,-2.8811024280155654e-05,5.9286,6.9286
3.890625,-3.3694975930418875e-05,-3.4667975353627845e-05,-4.443587865415428e-05,-2.295407320668346e-05,5.9286,6.9286
3.89453125,-2.5879389654383172e-05,-3.3694975930418875e-05,-3.6133792666514086e-05,-3.320847621881439e-05,5.9286,6.9286
3.8984375,-2.9790341881437414e-05,-3.4667975353627845e-05,-2.1001756182192734e-05,-4.150424402838179e-05,5.9286,6.9286
3.90234375,-3.4667975353627845e-05,-3.418147564202336e-05,-1.3672669617761514e-05,-4.2483561629663545e-05,5.9286,6.9286
3.90625,-4.297006134126803e-05,-3.808610969100482e-05,-2.6858707255664925e-05,-4.101774431677731e-05,5.9286,6.9286
3.91015625,-3.808610969100482e-05,-3.9065427292286575e-05,-4.101774431677731e-05,-3.7113110267795846e-05,5.9286,6.9286
3.9140625,-2.7345206967269417e-05,-4.93198303044175e-05,-3.2229158617532634e-05,-3.2229158617532634e-05,5.9286,6.9286
3.91796875,-3.02768415930419e-05,-6.152655034103915e-05,-3.56472929549096e-05,-3.662661055619136e-05,5.9286,6.9286
3.921875,-3.662661055619136e-05,-5.712909840238041e-05,-4.980633001602198e-05,-4.150424402838179e-05,5.9286,6.9286
3.92578125,-4.101774431677731e-05,-4.688101356832228e-05,-5.127214732890822e-05,-4.0044744893568334e-05,5.9286,6.9286
3.9296875,-3.6133792666514086e-05,-4.5415196255436034e-05,-5.517678137788969e-05,-3.808610969100482e-05,5.9286,6.9286
3.93359375,-3.076334130464639e-05,-4.053124460517282e-05,-4.883333059281301e-05,-2.9790341881437414e-05,5.9286,6.9286
3.9375,-2.7838024856946688e-05,-2.9297523991760142e-05,-3.8578927580682087e-05,-2.6372207544060443e-05,5.9286,6.9286
3.94140625,-3.1742658905928146e-05,-3.320847621881439e-05,-4.1997061918059064e-05,-3.076334130464639e-05,5.9286,6.9286
3.9453125,-3.808610969100482e-05,-4.980633001602198e-05,-5.322446435339896e-05,-3.8578927580682087e-05,5.9286,6.9286
3.94921875,-3.6133792666514086e-05,-4.883333059281301e-05,-4.980633001602198e-05,-4.590169596704052e-05,5.9286,6.9286
3.953125,-3.56472929549096e-05,-3.7599609979400334e-05,-4.346287923094531e-05,-5.322446435339896e-05,5.9286,6.9286
3.95703125,-3.1742658905928146e-05,-3.7599609979400334e-05,-3.7113110267795846e-05,-5.029282972762647e-05,5.9286,6.9286
3.9609375,-2.6372207544060443e-05,-3.6133792666514086e-05,-2.197475560540171e-05,-4.101774431677731e-05,5.9286,6.9286
3.96484375,-3.1742658905928146e-05,-4.2483561629663545e-05,-2.8811024280155654e-05,-3.8578927580682087e-05,5.9286,6.9286
3.96875,-3.124984101625087e-05,-4.834051270313574e-05,-5.420378195468071e-05,-3.6133792666514086e-05,5.9286,6.9286
3.97265625,-2.295407320668346e-05,-4.150424402838179e-05,-5.175864704051271e-05,-3.9065427292286575e-05,5.9286,6.9286
3.9765625,-2.832452456855117e-05,-4.053124460517282e-05,-2.9790341881437414e-05,-3.6133792666514086e-05,5.9286,6.9286
