timestamp,TP9,AF7,AF8,TP10,Valence,Arousal
0.0,4.3432793270771316e-05,3.513617821316851e-05,7.32279363973449e-05,1.951189584191651e-05,7.1429,4.8571
0.00390625,3.904224880598151e-05,3.123010762035551e-05,6.686921682764933e-05,2.7808510899519317e-05,7.1429,4.8571
0.0078125,4.001119654993513e-05,4.3432793270771316e-05,8.249349919890133e-05,2.9776686004425094e-05,7.1429,4.8571
0.01171875,3.904224880598151e-05,3.0745633748378704e-05,7.713400699015791e-05,3.02611598764019e-05,7.1429,4.8571
0.015625,4.19793716548409e-05,3.855777493400471e-05,4.3432793270771316e-05,2.4386914178683122e-05,7.1429,4.8571
0.01953125,4.93070389684901e-05,4.443202063172348e-05,2.587061541161209e-05,1.8542948097962897e-05,7.1429,4.8571
0.0234375,4.882256509651329e-05,2.6839563155565704e-05,2.196454481879909e-05,1.7574000354009283e-05,7.1429,4.8571
0.02734375,4.0525950038910486e-05,3.02611598764019e-05,2.6839563155565704e-05,2.4386914178683122e-05,7.1429,4.8571
0.03125,3.319828272526129e-05,2.490166766765848e-05,3.80733010620279e-05,2.63550892835889e-05,7.1429,4.8571
0.03515625,3.2713808853284484e-05,1.6090299121080312e-05,3.6619879446097485e-05,3.123010762035551e-05,7.1429,4.8571
0.0390625,3.610512595712213e-05,1.415240363317309e-05,7.3394898084992515e-06,2.587061541161209e-05,7.1429,4.8571
0.04296875,3.855777493400471e-05,1.3667929761196283e-05,4.962963668268632e-07,1.6090299121080312e-05,7.1429,4.8571
0.046875,3.41672304692149e-05,1.1699754656290508e-05,1.2184228528267315e-05,2.24490186907759e-05,7.1429,4.8571
0.05078125,3.855777493400471e-05,2.2933492562752703e-05,7.793684063477507e-06,2.6839563155565704e-05,7.1429,4.8571
0.0546875,4.93070389684901e-05,4.0525950038910486e-05,4.962963668268632e-07,2.341796643472951e-05,7.1429,4.8571
0.05859375,4.733886386358432e-05,2.2933492562752703e-05,-1.219086315556575e-05,2.7808510899519317e-05,7.1429,4.8571
0.0625,4.391726714274813e-05,5.886068192568833e-06,-1.4159038260471529e-05,3.319828272526129e-05,7.1429,4.8571
0.06640625,3.9526722677958316e-05,-2.4408264820325253e-06,-1.3159810899519364e-05,4.391726714274813e-05,7.1429,4.8571
0.0703125,3.758882719005109e-05,4.402366959639863e-06,-2.6361723910887334e-05,4.58854422476539e-05,7.1429,4.8571
0.07421875,4.54009683756771e-05,1.4636877505149896e-05,-3.0267794503700335e-05,3.562065208514532e-05,7.1429,4.8571
0.078125,4.19793716548409e-05,1.9799975997558325e-06,-3.3174637735561176e-05,4.443202063172348e-05,7.1429,4.8571
0.08203125,3.46517043411917e-05,6.3705420645456395e-06,-5.712581478141453e-05,4.54009683756771e-05,7.1429,4.8571
0.0859375,3.3682756597238095e-05,2.4644714717326384e-06,-3.368939122453653e-05,4.2463845526817706e-05,7.1429,4.8571
0.08984375,4.101042391088729e-05,1.0730806912336894e-05,-5.347669713893363e-06,3.6619879446097485e-05,7.1429,4.8571
0.09375,3.80733010620279e-05,5.371314703593476e-06,-4.9798147467765335e-05,3.1714581492332315e-05,7.1429,4.8571
0.09765625,3.513617821316851e-05,6.855015936522445e-06,-4.9313673595788536e-05,3.758882719005109e-05,7.1429,4.8571
0.1015625,3.80733010620279e-05,1.4652441107804755e-06,-4.001783117723357e-05,3.855777493400471e-05,7.1429,4.8571
0.10546875,3.2199055364309126e-05,-1.4415991210803618e-06,-5.661106129243918e-05,3.319828272526129e-05,7.1429,4.8571
0.109375,3.3682756597238095e-05,2.196454481879909e-05,-5.222051682764937e-05,2.587061541161209e-05,7.1429,4.8571
0.11328125,3.319828272526129e-05,2.8292984771496126e-05,-2.7330671654840948e-05,1.951189584191651e-05,7.1429,4.8571
0.1171875,3.46517043411917e-05,2.2933492562752703e-05,-4.5407603002975536e-05,1.9996369713893316e-05,7.1429,4.8571
0.12109375,3.855777493400471e-05,2.341796643472951e-05,-4.198600628213934e-05,2.048084358587012e-05,7.1429,4.8571
0.125,3.2713808853284484e-05,2.8292984771496126e-05,-2.487802267795837e-05,1.6574772993057124e-05,7.1429,4.8571
0.12890625,3.02611598764019e-05,2.196454481879909e-05,-2.9268567142748175e-05,1.415240363317309e-05,7.1429,4.8571
0.1328125,3.904224880598151e-05,1.0730806912336894e-05,-2.6361723910887334e-05,1.9027421969939702e-05,7.1429,4.8571
0.13671875,3.513617821316851e-05,5.371314703593476e-06,-3.1721216119630753e-05,3.46517043411917e-05,7.1429,4.8571
0.140625,3.3682756597238095e-05,2.880773826047148e-05,-1.4159038260471529e-05,2.8292984771496126e-05,7.1429,4.8571
0.14453125,4.001119654993513e-05,4.443202063172348e-05,1.4636877505149896e-05,2.9292212132448285e-05,7.1429,4.8571
0.1484375,3.758882719005109e-05,3.41672304692149e-05,9.761859168383284e-06,4.2463845526817706e-05,7.1429,4.8571
0.15234375,3.0745633748378704e-05,1.6574772993057124e-05,9.80770238803669e-07,4.685438999160752e-05,7.1429,4.8571
0.15625,3.6619879446097485e-05,1.3667929761196283e-05,-6.346897074845526e-06,4.443202063172348e-05,7.1429,4.8571
0.16015625,3.80733010620279e-05,2.048084358587012e-05,-7.800318690775946e-06,4.101042391088729e-05,7.1429,4.8571
0.1640625,3.513617821316851e-05,5.371314703593476e-06,-2.9253003540093317e-06,4.833809122453648e-05,7.1429,4.8571
0.16796875,3.562065208514532e-05,1.4636877505149896e-05,1.1699754656290508e-05,4.782333773556112e-05,7.1429,4.8571
0.171875,3.41672304692149e-05,2.5386141539635285e-05,3.41672304692149e-05,3.80733010620279e-05,7.1429,4.8571
0.17578125,4.149489778286409e-05,2.9776686004425094e-05,2.9292212132448285e-05,3.46517043411917e-05,7.1429,4.8571
0.1796875,4.3432793270771316e-05,1.6574772993057124e-05,9.277385296406477e-06,3.80733010620279e-05,7.1429,4.8571
0.18359375,3.80733010620279e-05,7.3394898084992515e-06,2.341796643472951e-05,4.491649450370029e-05,7.1429,4.8571
0.1875,3.80733010620279e-05,1.3667929761196283e-05,4.882256509651329e-05,4.001119654993513e-05,7.1429,4.8571
0.19140625,4.54009683756771e-05,2.490166766765848e-05,4.97915128404669e-05,3.562065208514532e-05,7.1429,4.8571
0.1953125,4.54009683756771e-05,3.0745633748378704e-05,3.9526722677958316e-05,3.513617821316851e-05,7.1429,4.8571
0.19921875,3.41672304692149e-05,1.951189584191651e-05,4.443202063172348e-05,2.9776686004425094e-05,7.1429,4.8571
0.203125,3.2199055364309126e-05,4.2463845526817706e-05,8.836774489662011e-05,3.46517043411917e-05,7.1429,4.8571
0.20703125,3.46517043411917e-05,5.418205730525671e-05,8.982116651255051e-05,5.2728635689326286e-05,7.1429,4.8571
0.2109375,3.319828272526129e-05,-4.3787219699397505e-06,2.7808510899519317e-05,4.0525950038910486e-05,7.1429,4.8571
0.21484375,3.904224880598151e-05,-2.4393548805981557e-05,-1.219086315556575e-05,3.123010762035551e-05,7.1429,4.8571
0.21875,4.3432793270771316e-05,-2.0003004341191755e-05,-1.5127986004425139e-05,2.9776686004425094e-05,7.1429,4.8571
0.22265625,3.2713808853284484e-05,-5.954818414129856e-05,-3.465833896849014e-05,2.2933492562752703e-05,7.1429,4.8571
0.2265625,2.4386914178683122e-05,-8.495278280308233e-05,-6.832927307087818e-05,1.6574772993057124e-05,7.1429,4.8571
0.23046875,2.490166766765848e-05,-6.248530699015795e-05,-6.736032532692456e-05,1.7574000354009283e-05,7.1429,4.8571
0.234375,2.3902440306706317e-05,-7.175086979171437e-05,-6.981297430380715e-05,1.951189584191651e-05,7.1429,4.8571
0.23828125,1.7574000354009283e-05,-0.00010545208351110097,-8.346908157015338e-05,6.855015936522445e-06,7.1429,4.8571
0.2421875,1.7574000354009283e-05,-0.00010448313576714736,-0.00010742025861600673,1.4652441107804755e-06,7.1429,4.8571
0.24609375,2.24490186907759e-05,-8.885885339589534e-05,-0.00010593655738307776,-5.8321435858701684e-06,7.1429,4.8571
0.25,2.7808510899519317e-05,-6.542242983901734e-05,-8.543725667505915e-05,-6.346897074845526e-06,7.1429,4.8571
0.25390625,2.24490186907759e-05,-7.762511548943315e-05,-0.00010106153904631116,-4.726513771267493e-07,7.1429,4.8571
0.2578125,1.6574772993057124e-05,-0.00011471764631265737,-0.00013279457766079197,-6.346897074845526e-06,7.1429,4.8571
0.26171875,2.587061541161209e-05,-9.228045011673154e-05,-0.00014257489395132374,-1.903405659723814e-05,7.1429,4.8571
0.265625,2.5386141539635285e-05,-4.879892010681318e-05,-0.00012204531362630658,-2.0003004341191755e-05,7.1429,4.8571
0.26953125,2.048084358587012e-05,-4.879892010681318e-05,-6.736032532692456e-05,-1.7550355364309173e-05,7.1429,4.8571
0.2734375,2.0995597074845476e-05,-2.8784093270771363e-05,-3.6111760584420566e-05,-1.364428477149617e-05,7.1429,4.8571
0.27734375,2.490166766765848e-05,-1.3159810899519364e-05,-3.8564409561303144e-05,-1.609693374837875e-05,7.1429,4.8571
0.28125,2.6839563155565704e-05,-2.097195208514537e-05,-4.686102461890595e-05,-4.8631958419165565e-06,7.1429,4.8571
0.28515625,1.805847422598609e-05,-1.5127986004425139e-05,-4.879892010681318e-05,-1.926072993057168e-06,7.1429,4.8571
0.2890625,1.9996369713893316e-05,2.196454481879909e-05,-2.0003004341191755e-05,-1.2675337027542557e-05,7.1429,4.8571
0.29296875,2.5386141539635285e-05,2.7808510899519317e-05,3.4334192156862512e-06,-6.346897074845526e-06,7.1429,4.8571
0.296875,2.341796643472951e-05,-6.8313709468223316e-06,4.8868408316166696e-06,-4.3787219699397505e-06,7.1429,4.8571
0.30078125,2.880773826047148e-05,6.3705420645456395e-06,4.8868408316166696e-06,-4.3787219699397505e-06,7.1429,4.8571
0.3046875,2.880773826047148e-05,2.880773826047148e-05,2.63550892835889e-05,1.1822494850056486e-08,7.1429,4.8571
0.30859375,2.880773826047148e-05,3.80733010620279e-05,3.904224880598151e-05,4.402366959639863e-06,7.1429,4.8571
0.3125,2.4386914178683122e-05,3.2713808853284484e-05,2.9292212132448285e-05,8.762631807431119e-06,7.1429,4.8571
0.31640625,2.490166766765848e-05,3.0745633748378704e-05,2.2933492562752703e-05,8.278157935454312e-06,7.1429,4.8571
0.3203125,3.41672304692149e-05,4.54009683756771e-05,1.7574000354009283e-05,1.3667929761196283e-05,7.1429,4.8571
0.32421875,3.41672304692149e-05,4.19793716548409e-05,2.490166766765848e-05,1.2668702400244121e-05,7.1429,4.8571
0.328125,3.319828272526129e-05,7.713400699015791e-05,4.001119654993513e-05,8.762631807431119e-06,7.1429,4.8571
0.33203125,3.0745633748378704e-05,7.958665596704049e-05,4.685438999160752e-05,6.3705420645456395e-06,7.1429,4.8571
0.3359375,2.7324037027542512e-05,5.2728635689326286e-05,4.0525950038910486e-05,3.4334192156862512e-06,7.1429,4.8571
0.33984375,2.341796643472951e-05,6.296314623483632e-05,3.855777493400471e-05,1.1215280784313701e-05,7.1429,4.8571
0.34375,2.0995597074845476e-05,4.491649450370029e-05,5.418205730525671e-05,1.2184228528267315e-05,7.1429,4.8571
0.34765625,2.5386141539635285e-05,4.833809122453648e-05,5.9057075642023326e-05,1.9799975997558325e-06,7.1429,4.8571
0.3515625,2.341796643472951e-05,6.396237359578848e-05,6.786844418860149e-05,9.277385296406477e-06,7.1429,4.8571
0.35546875,2.048084358587012e-05,5.5635478921187124e-05,5.808812789806971e-05,1.5121351377126703e-05,7.1429,4.8571
0.359375,2.0995597074845476e-05,4.97915128404669e-05,3.513617821316851e-05,1.3183455889219476e-05,7.1429,4.8571
0.36328125,2.2933492562752703e-05,5.172940832837412e-05,3.758882719005109e-05,1.2668702400244121e-05,7.1429,4.8571
0.3671875,2.341796643472951e-05,5.615023241016249e-05,5.2728635689326286e-05,1.1699754656290508e-05,7.1429,4.8571
0.37109375,2.196454481879909e-05,5.2728635689326286e-05,6.344762010681312e-05,1.6090299121080312e-05,7.1429,4.8571
0.375,2.3902440306706317e-05,3.7104353318074283e-05,4.443202063172348e-05,1.6090299121080312e-05,7.1429,4.8571
0.37890625,2.6839563155565704e-05,2.587061541161209e-05,1.805847422598609e-05,7.793684063477507e-06,7.1429,4.8571
0.3828125,2.490166766765848e-05,2.196454481879909e-05,1.7574000354009283e-05,2.2933492562752703e-05,7.1429,4.8571
0.38671875,2.048084358587012e-05,2.9292212132448285e-05,1.708952648203248e-05,3.513617821316851e-05,7.1429,4.8571
0.390625,2.1480070946822288e-05,2.63550892835889e-05,2.196454481879909e-05,2.7808510899519317e-05,7.1429,4.8571
0.39453125,2.7808510899519317e-05,2.8292984771496126e-05,7.793684063477507e-06,2.048084358587012e-05,7.1429,4.8571
0.3984375,3.2199055364309126e-05,2.490166766765848e-05,-4.726513771267493e-07,2.4386914178683122e-05,7.1429,4.8571
0.40234375,2.8292984771496126e-05,5.886068192568833e-06,1.951189584191651e-05,3.46517043411917e-05,7.1429,4.8571
0.40625,2.0995597074845476e-05,2.490166766765848e-05,3.904224880598151e-05,4.101042391088729e-05,7.1429,4.8571
0.41015625,2.196454481879909e-05,4.3432793270771316e-05,2.3902440306706317e-05,4.391726714274813e-05,7.1429,4.8571
0.4140625,2.196454481879909e-05,4.3432793270771316e-05,5.371314703593476e-06,3.2713808853284484e-05,7.1429,4.8571
0.41796875,1.708952648203248e-05,8.00711298390173e-05,4.54009683756771e-05,2.7808510899519317e-05,7.1429,4.8571
0.421875,4.001119654993513e-05,9.030564038452733e-05,4.782333773556112e-05,2.6839563155565704e-05,7.1429,4.8571
0.42578125,5.8572601770046514e-05,2.6839563155565704e-05,-1.658140762035556e-05,2.63550892835889e-05,7.1429,4.8571
0.4296875,4.54009683756771e-05,1.6574772993057124e-05,-4.150153241016253e-05,2.24490186907759e-05,7.1429,4.8571
0.43359375,3.562065208514532e-05,6.590026908369572e-05,1.4652441107804755e-06,2.196454481879909e-05,7.1429,4.8571
0.4375,4.001119654993513e-05,8.494614817578391e-05,1.9996369713893316e-05,2.7324037027542512e-05,7.1429,4.8571
0.44140625,4.101042391088729e-05,8.982116651255051e-05,5.886068192568833e-06,2.490166766765848e-05,7.1429,4.8571
0.4453125,4.391726714274813e-05,0.00010105490441901272,2.63550892835889e-05,2.8292984771496126e-05,7.1429,4.8571
0.44921875,4.149489778286409e-05,8.88522187685969e-05,3.9526722677958316e-05,3.02611598764019e-05,7.1429,4.8571
0.453125,4.833809122453648e-05,0.00010592992275577932,3.6619879446097485e-05,2.24490186907759e-05,7.1429,4.8571
0.45703125,5.076046058442051e-05,0.00011619471291828791,3.0745633748378704e-05,2.5386141539635285e-05,7.1429,4.8571
0.4609375,4.636991611963071e-05,8.494614817578391e-05,9.277385296406477e-06,2.9776686004425094e-05,7.1429,4.8571
0.46484375,4.443202063172348e-05,9.082039387350268e-05,1.951189584191651e-05,2.7324037027542512e-05,7.1429,4.8571
0.46875,3.758882719005109e-05,9.811778157015332e-05,4.833809122453648e-05,2.587061541161209e-05,7.1429,4.8571
0.47265625,3.2713808853284484e-05,8.494614817578391e-05,2.2933492562752703e-05,3.02611598764019e-05,7.1429,4.8571
0.4765625,3.1714581492332315e-05,8.494614817578391e-05,-2.4393548805981557e-05,2.9776686004425094e-05,7.1429,4.8571
0.48046875,1.8542948097962897e-05,7.858742860608832e-05,-8.28479256275275e-06,1.8542948097962897e-05,7.1429,4.8571
0.484375,3.917893087663058e-06,8.00711298390173e-05,2.7808510899519317e-05,2.5386141539635285e-05,7.1429,4.8571
0.48828125,2.3902440306706317e-05,7.858742860608832e-05,4.3432793270771316e-05,2.490166766765848e-05,7.1429,4.8571
0.4921875,4.58854422476539e-05,7.17745147814145e-05,2.196454481879909e-05,1.951189584191651e-05,7.1429,4.8571
0.49609375,4.97915128404669e-05,7.761848086213471e-05,1.708952648203248e-05,1.951189584191651e-05,7.1429,4.8571
0.5,4.58854422476539e-05,4.782333773556112e-05,1.805847422598609e-05,2.0995597074845476e-05,7.1429,4.8571
0.50390625,4.101042391088729e-05,3.0745633748378704e-05,9.277385296406477e-06,2.5386141539635285e-05,7.1429,4.8571
0.5078125,4.001119654993513e-05,5.466653117723351e-05,1.7574000354009283e-05,2.6839563155565704e-05,7.1429,4.8571
0.51171875,3.610512595712213e-05,2.7324037027542512e-05,3.562065208514532e-05,2.7808510899519317e-05,7.1429,4.8571
0.515625,2.7808510899519317e-05,-6.346897074845526e-06,7.713400699015791e-05,3.319828272526129e-05,7.1429,4.8571
0.51953125,2.3902440306706317e-05,1.6574772993057124e-05,8.349272655985349e-05,4.2463845526817706e-05,7.1429,4.8571
0.5234375,2.5386141539635285e-05,4.93070389684901e-05,5.466653117723351e-05,4.101042391088729e-05,7.1429,4.8571
0.52734375,2.9776686004425094e-05,7.958665596704049e-05,6.88373919325551e-05,3.6619879446097485e-05,7.1429,4.8571
0.53125,2.9292212132448285e-05,7.568058537422749e-05,8.88522187685969e-05,4.2463845526817706e-05,7.1429,4.8571
0.53515625,2.341796643472951e-05,4.491649450370029e-05,7.61650592462043e-05,4.001119654993513e-05,7.1429,4.8571
0.5390625,2.4386914178683122e-05,4.97915128404669e-05,5.076046058442051e-05,3.1714581492332315e-05,7.1429,4.8571
0.54296875,2.9776686004425094e-05,4.93070389684901e-05,4.19793716548409e-05,3.1714581492332315e-05,7.1429,4.8571
0.546875,3.2713808853284484e-05,4.833809122453648e-05,5.466653117723351e-05,3.0745633748378704e-05,7.1429,4.8571
0.55078125,2.341796643472951e-05,6.590026908369572e-05,8.249349919890133e-05,2.63550892835889e-05,7.1429,4.8571
0.5546875,1.8542948097962897e-05,6.93218658045319e-05,0.0001000859566750591,2.490166766765848e-05,7.1429,4.8571
0.55859375,3.02611598764019e-05,7.516583188525213e-05,6.444684746776529e-05,2.0995597074845476e-05,7.1429,4.8571
0.5625,3.123010762035551e-05,6.83529180605783e-05,3.6619879446097485e-05,1.5121351377126703e-05,7.1429,4.8571
0.56640625,3.0745633748378704e-05,5.954154951400013e-05,4.2463845526817706e-05,1.1215280784313701e-05,7.1429,4.8571
0.5703125,2.9292212132448285e-05,6.980633967650871e-05,3.41672304692149e-05,1.415240363317309e-05,7.1429,4.8571
0.57421875,2.5386141539635285e-05,7.125976129243914e-05,4.19793716548409e-05,1.5121351377126703e-05,7.1429,4.8571
0.578125,2.8292984771496126e-05,6.444684746776529e-05,4.93070389684901e-05,1.2668702400244121e-05,7.1429,4.8571
0.58203125,2.341796643472951e-05,7.225898865339129e-05,4.001119654993513e-05,1.805847422598609e-05,7.1429,4.8571
0.5859375,1.5121351377126703e-05,8.05556037109941e-05,4.19793716548409e-05,1.6090299121080312e-05,7.1429,4.8571
0.58984375,2.3902440306706317e-05,6.88373919325551e-05,4.391726714274813e-05,1.4636877505149896e-05,7.1429,4.8571
0.59375,3.80733010620279e-05,6.786844418860149e-05,3.904224880598151e-05,1.6090299121080312e-05,7.1429,4.8571
0.59765625,3.904224880598151e-05,5.71191801541161e-05,1.951189584191651e-05,1.5605825249103507e-05,7.1429,4.8571
0.6015625,2.2933492562752703e-05,5.076046058442051e-05,-8.769266434729558e-06,1.6574772993057124e-05,7.1429,4.8571
0.60546875,2.196454481879909e-05,5.71191801541161e-05,-8.769266434729558e-06,1.5605825249103507e-05,7.1429,4.8571
0.609375,3.855777493400471e-05,6.247867236285951e-05,1.9996369713893316e-05,1.4636877505149896e-05,7.1429,4.8571
0.61328125,3.610512595712213e-05,5.954154951400013e-05,4.149489778286409e-05,1.3667929761196283e-05,7.1429,4.8571
0.6171875,2.7808510899519317e-05,4.101042391088729e-05,3.3682756597238095e-05,1.5121351377126703e-05,7.1429,4.8571
0.62109375,3.0745633748378704e-05,4.782333773556112e-05,1.4636877505149896e-05,1.9027421969939702e-05,7.1429,4.8571
0.625,3.46517043411917e-05,6.296314623483632e-05,5.886068192568833e-06,1.2184228528267315e-05,7.1429,4.8571
0.62890625,3.2713808853284484e-05,6.83529180605783e-05,1.2184228528267315e-05,5.371314703593476e-06,7.1429,4.8571
0.6328125,2.9776686004425094e-05,6.005630300297549e-05,3.2713808853284484e-05,1.2184228528267315e-05,7.1429,4.8571
0.63671875,2.6839563155565704e-05,5.32131095613031e-05,3.562065208514532e-05,1.415240363317309e-05,7.1429,4.8571
0.640625,2.6839563155565704e-05,5.7603654026092904e-05,1.6574772993057124e-05,8.762631807431119e-06,7.1429,4.8571
0.64453125,3.41672304692149e-05,4.19793716548409e-05,6.3705420645456395e-06,4.8868408316166696e-06,7.1429,4.8571
0.6484375,3.904224880598151e-05,4.001119654993513e-05,1.3183455889219476e-05,4.402366959639863e-06,7.1429,4.8571
0.65234375,3.610512595712213e-05,4.93070389684901e-05,2.63550892835889e-05,4.8868408316166696e-06,7.1429,4.8571
0.65625,3.2199055364309126e-05,4.636991611963071e-05,2.490166766765848e-05,-5.347669713893363e-06,7.1429,4.8571
0.66015625,2.6839563155565704e-05,3.904224880598151e-05,1.6090299121080312e-05,-1.0252967667658526e-05,7.1429,4.8571
0.6640625,2.1480070946822288e-05,3.1714581492332315e-05,7.793684063477507e-06,-5.8321435858701684e-06,7.1429,4.8571
0.66796875,2.196454481879909e-05,4.149489778286409e-05,1.5121351377126703e-05,-4.8631958419165565e-06,7.1429,4.8571
0.671875,2.9776686004425094e-05,4.733886386358432e-05,3.123010762035551e-05,-6.346897074845526e-06,7.1429,4.8571
0.67578125,3.123010762035551e-05,3.3682756597238095e-05,2.0995597074845476e-05,-8.28479256275275e-06,7.1429,4.8571
0.6796875,2.9776686004425094e-05,2.7324037027542512e-05,3.4334192156862512e-06,-7.800318690775946e-06,7.1429,4.8571
0.68359375,2.9776686004425094e-05,3.2199055364309126e-05,-1.4415991210803618e-06,-7.315844818799138e-06,7.1429,4.8571
0.6875,2.4386914178683122e-05,3.123010762035551e-05,1.1215280784313701e-05,-2.4408264820325253e-06,7.1429,4.8571
0.69140625,2.8292984771496126e-05,3.02611598764019e-05,2.880773826047148e-05,4.402366959639863e-06,7.1429,4.8571
0.6953125,3.02611598764019e-05,3.6619879446097485e-05,2.0995597074845476e-05,2.4644714717326384e-06,7.1429,4.8571
0.69921875,2.5386141539635285e-05,2.1480070946822288e-05,1.0730806912336894e-05,-4.726513771267493e-07,7.1429,4.8571
0.703125,2.587061541161209e-05,7.3394898084992515e-06,9.761859168383284e-06,1.1822494850056486e-08,7.1429,4.8571
0.70703125,2.3902440306706317e-05,1.2184228528267315e-05,1.0730806912336894e-05,-1.926072993057168e-06,7.1429,4.8571
0.7109375,2.24490186907759e-05,1.0730806912336894e-05,1.8542948097962897e-05,-3.4097742259861386e-06,7.1429,4.8571
0.71484375,2.7808510899519317e-05,7.793684063477507e-06,2.2933492562752703e-05,-2.4408264820325253e-06,7.1429,4.8571
0.71875,3.41672304692149e-05,4.8868408316166696e-06,1.805847422598609e-05,-5.347669713893363e-06,7.1429,4.8571
0.72265625,3.0745633748378704e-05,9.761859168383284e-06,6.3705420645456395e-06,-5.8321435858701684e-06,7.1429,4.8571
0.7265625,2.4386914178683122e-05,2.7324037027542512e-05,3.4334192156862512e-06,-5.347669713893363e-06,7.1429,4.8571
0.73046875,2.9292212132448285e-05,2.7808510899519317e-05,-1.926072993057168e-06,-5.347669713893363e-06,7.1429,4.8571
0.734375,2.880773826047148e-05,1.3667929761196283e-05,-4.8631958419165565e-06,2.4644714717326384e-06,7.1429,4.8571
0.73828125,2.341796643472951e-05,5.371314703593476e-06,-1.7065881492332364e-05,2.948945343709445e-06,7.1429,4.8571
0.7421875,2.587061541161209e-05,1.0246333040360089e-05,-2.536249654993517e-05,1.1822494850056486e-08,7.1429,4.8571
0.74609375,2.880773826047148e-05,1.3183455889219476e-05,-2.342460106202795e-05,-4.726513771267493e-07,7.1429,4.8571
0.75,2.490166766765848e-05,1.708952648203248e-05,-2.048747821316856e-05,-9.571252491035569e-07,7.1429,4.8571
0.75390625,2.1480070946822288e-05,2.3902440306706317e-05,-9.253740306706365e-06,1.4652441107804755e-06,7.1429,4.8571
0.7578125,2.4386914178683122e-05,1.5121351377126703e-05,-1.5612459876401946e-05,3.917893087663058e-06,7.1429,4.8571
0.76171875,2.490166766765848e-05,6.855015936522445e-06,-3.2205689991607565e-05,2.948945343709445e-06,7.1429,4.8571
0.765625,2.490166766765848e-05,1.7574000354009283e-05,-1.903405659723814e-05,3.4334192156862512e-06,7.1429,4.8571
0.76953125,2.7324037027542512e-05,2.587061541161209e-05,-5.8321435858701684e-06,4.8868408316166696e-06,7.1429,4.8571
0.7734375,2.7324037027542512e-05,2.048084358587012e-05,-4.3787219699397505e-06,6.3705420645456395e-06,7.1429,4.8571
0.77734375,2.1480070946822288e-05,9.277385296406477e-06,-5.8321435858701684e-06,9.277385296406477e-06,7.1429,4.8571
0.78125,1.9996369713893316e-05,8.278157935454312e-06,-1.5127986004425139e-05,1.0246333040360089e-05,7.1429,4.8571
0.78515625,2.5386141539635285e-05,2.1480070946822288e-05,-1.609693374837875e-05,7.793684063477507e-06,7.1429,4.8571
0.7890625,2.6839563155565704e-05,3.2713808853284484e-05,-4.3787219699397505e-06,4.402366959639863e-06,7.1429,4.8571
0.79296875,2.63550892835889e-05,4.2463845526817706e-05,1.0246333040360089e-05,5.886068192568833e-06,7.1429,4.8571
0.796875,2.9292212132448285e-05,3.855777493400471e-05,5.886068192568833e-06,1.0730806912336894e-05,7.1429,4.8571
0.80078125,2.9776686004425094e-05,2.9292212132448285e-05,-2.4408264820325253e-06,1.5605825249103507e-05,7.1429,4.8571
0.8046875,3.1714581492332315e-05,4.101042391088729e-05,6.855015936522445e-06,1.5121351377126703e-05,7.1429,4.8571
0.80859375,3.41672304692149e-05,5.1244934456397325e-05,2.4386914178683122e-05,8.762631807431119e-06,7.1429,4.8571
0.8125,3.41672304692149e-05,4.636991611963071e-05,3.46517043411917e-05,8.762631807431119e-06,7.1429,4.8571
0.81640625,3.610512595712213e-05,3.80733010620279e-05,2.9776686004425094e-05,9.277385296406477e-06,7.1429,4.8571
0.8203125,3.562065208514532e-05,3.123010762035551e-05,3.02611598764019e-05,7.793684063477507e-06,7.1429,4.8571
0.82421875,3.610512595712213e-05,4.001119654993513e-05,3.41672304692149e-05,9.277385296406477e-06,7.1429,4.8571
0.828125,3.758882719005109e-05,5.32131095613031e-05,3.758882719005109e-05,9.761859168383284e-06,7.1429,4.8571
0.83203125,3.610512595712213e-05,5.1244934456397325e-05,4.93070389684901e-05,1.2184228528267315e-05,7.1429,4.8571
0.8359375,3.562065208514532e-05,4.58854422476539e-05,5.32131095613031e-05,1.9027421969939702e-05,7.1429,4.8571
0.83984375,2.7324037027542512e-05,4.58854422476539e-05,4.294831939879452e-05,2.0995597074845476e-05,7.1429,4.8571
0.84375,2.490166766765848e-05,4.001119654993513e-05,4.19793716548409e-05,2.196454481879909e-05,7.1429,4.8571
0.84765625,3.904224880598151e-05,3.7104353318074283e-05,4.93070389684901e-05,2.3902440306706317e-05,7.1429,4.8571
0.8515625,3.904224880598151e-05,3.9526722677958316e-05,5.2728635689326286e-05,1.708952648203248e-05,7.1429,4.8571
0.85546875,2.63550892835889e-05,3.0745633748378704e-05,4.97915128404669e-05,1.1215280784313701e-05,7.1429,4.8571
0.859375,2.8292984771496126e-05,1.9996369713893316e-05,3.855777493400471e-05,3.917893087663058e-06,7.1429,4.8571
0.86328125,3.41672304692149e-05,1.0730806912336894e-05,3.2713808853284484e-05,-1.926072993057168e-06,7.1429,4.8571
0.8671875,2.9292212132448285e-05,1.0246333040360089e-05,4.2463845526817706e-05,5.886068192568833e-06,7.1429,4.8571
0.87109375,2.8292984771496126e-05,1.708952648203248e-05,5.466653117723351e-05,9.761859168383284e-06,7.1429,4.8571
0.875,2.0995597074845476e-05,1.9027421969939702e-05,5.224416181734948e-05,6.3705420645456395e-06,7.1429,4.8571
0.87890625,1.2668702400244121e-05,1.7574000354009283e-05,4.0525950038910486e-05,9.761859168383284e-06,7.1429,4.8571
0.8828125,1.805847422598609e-05,1.3183455889219476e-05,3.3682756597238095e-05,1.0730806912336894e-05,7.1429,4.8571
0.88671875,2.587061541161209e-05,1.1215280784313701e-05,3.758882719005109e-05,6.855015936522445e-06,7.1429,4.8571
0.890625,3.02611598764019e-05,2.63550892835889e-05,4.636991611963071e-05,5.886068192568833e-06,7.1429,4.8571
0.89453125,2.7324037027542512e-05,3.2713808853284484e-05,4.2463845526817706e-05,2.948945343709445e-06,7.1429,4.8571
0.8984375,2.1480070946822288e-05,1.6574772993057124e-05,3.123010762035551e-05,1.9799975997558325e-06,7.1429,4.8571
0.90234375,1.8542948097962897e-05,1.3667929761196283e-05,3.513617821316851e-05,2.4644714717326384e-06,7.1429,4.8571
0.90625,1.8542948097962897e-05,2.048084358587012e-05,4.101042391088729e-05,1.9799975997558325e-06,7.1429,4.8571
0.91015625,1.7574000354009283e-05,2.341796643472951e-05,3.9526722677958316e-05,2.948945343709445e-06,7.1429,4.8571
0.9140625,1.7574000354009283e-05,2.1480070946822288e-05,3.46517043411917e-05,1.4652441107804755e-06,7.1429,4.8571
0.91796875,2.0995597074845476e-05,2.341796643472951e-05,2.8292984771496126e-05,4.962963668268632e-07,7.1429,4.8571
0.921875,2.2933492562752703e-05,2.1480070946822288e-05,2.587061541161209e-05,1.9799975997558325e-06,7.1429,4.8571
0.92578125,2.3902440306706317e-05,2.587061541161209e-05,2.2933492562752703e-05,-4.726513771267493e-07,7.1429,4.8571
0.9296875,2.0995597074845476e-05,3.2199055364309126e-05,2.4386914178683122e-05,-2.9253003540093317e-06,7.1429,4.8571
0.93359375,1.6090299121080312e-05,2.7324037027542512e-05,3.46517043411917e-05,-3.894248097962944e-06,7.1429,4.8571
0.9375,1.9996369713893316e-05,2.5386141539635285e-05,2.9292212132448285e-05,-5.8321435858701684e-06,7.1429,4.8571
0.94140625,2.5386141539635285e-05,1.4636877505149896e-05,1.0246333040360089e-05,-6.346897074845526e-06,7.1429,4.8571
0.9453125,2.7324037027542512e-05,9.277385296406477e-06,1.0730806912336894e-05,-1.0737441539635333e-05,7.1429,4.8571
0.94921875,2.587061541161209e-05,2.048084358587012e-05,2.63550892835889e-05,-1.0737441539635333e-05,7.1429,4.8571
0.953125,2.7324037027542512e-05,-2.4408264820325253e-06,4.101042391088729e-05,-4.726513771267493e-07,7.1429,4.8571
0.95703125,3.7104353318074283e-05,-1.9518530469214946e-05,4.636991611963071e-05,2.4644714717326384e-06,7.1429,4.8571
0.9609375,3.319828272526129e-05,-8.769266434729558e-06,3.41672304692149e-05,5.886068192568833e-06,7.1429,4.8571
0.96484375,1.6574772993057124e-05,-1.926072993057168e-06,2.7808510899519317e-05,1.0246333040360089e-05,7.1429,4.8571
0.96875,1.3667929761196283e-05,4.402366959639863e-06,3.9526722677958316e-05,1.415240363317309e-05,7.1429,4.8571
0.97265625,3.46517043411917e-05,3.917893087663058e-06,4.149489778286409e-05,2.2933492562752703e-05,7.1429,4.8571
0.9765625,6.735369069962612e-05,1.2184228528267315e-05,4.636991611963071e-05,4.101042391088729e-05,7.1429,4.8571
0.98046875,8.05556037109941e-05,1.5605825249103507e-05,6.199419849088271e-05,6.10252507469291e-05,7.1429,4.8571
0.984375,6.686921682764933e-05,-2.4408264820325253e-06,3.758882719005109e-05,3.758882719005109e-05,7.1429,4.8571
0.98828125,5.418205730525671e-05,-1.122191541161214e-05,1.9996369713893316e-05,3.2713808853284484e-05,7.1429,4.8571
0.9921875,6.15097246189059e-05,-1.1706389283588947e-05,2.6839563155565704e-05,5.954154951400013e-05,7.1429,4.8571
0.99609375,7.907190247806514e-05,-2.0003004341191755e-05,1.5605825249103507e-05,7.810295473411152e-05,7.1429,4.8571
1.0,8.933669264057371e-05,-3.0267794503700335e-05,-2.2940127190051142e-05,8.933669264057371e-05,7.1429,4.8571
1.00390625,9.56954122102693e-05,-4.9313673595788536e-05,-5.612658742046237e-05,9.030564038452733e-05,7.1429,4.8571
1.0078125,0.00010057043054703591,-5.321974418860154e-05,-4.7345498490882756e-05,0.00011277311619745172,7.1429,4.8571
1.01171875,0.00011374206394140534,-6.687585145494777e-05,-5.515763967650876e-05,0.00012400685410391391,7.1429,4.8571
1.015625,0.00012988109980163268,-0.00012010741813839935,-0.00010399866189517054,0.00014011561034714274,7.1429,4.8571
1.01953125,0.00012597502920881967,-0.00017772952928664075,-0.00016062154568245978,0.00013669401362630655,7.1429,4.8571
1.0234375,0.0001220689586160067,-0.00018896326719310293,-0.00017233975746089878,0.00012936634631265735,7.1429,4.8571
1.02734375,0.0001288818724406805,-0.00018651061821622035,-0.00017869847703059436,0.00013572506588235294,7.1429,4.8571
1.03125,0.00014108455809109635,-0.00021921260457465479,-0.00020652544505226215,0.0001474432776607919,7.1429,4.8571
1.03515625,0.00015573989271839474,-0.00025927253786373695,-0.00021679023521477077,0.00016112966454413671,7.1429,4.8571
1.0390625,0.0001703952273456931,-0.00026414755620050357,-0.0002275092196322576,0.00014792775153276872,7.1429,4.8571
1.04296875,0.00016355203390402073,-0.0002612104333516442,-0.00024168008038757917,0.0001264595030807965,7.1429,4.8571
1.046875,0.00015916148943923093,-0.0002494922215732052,-0.00024364825549248495,0.0001113196945815213,7.1429,4.8571
1.05078125,0.00016552020900892651,-0.00023241451758602275,-0.00022947739473716335,0.00010886704560463872,7.1429,4.8571
1.0546875,0.0001630675600320439,-0.00023825848366674298,-0.00021727470908674756,0.0001074136239887083,7.1429,4.8571
1.05859375,0.00015722359395132368,-0.00023974218489967194,-0.00020507202343633175,0.0001000859566750591,7.1429,4.8571
1.0625,0.00014889669927672233,-0.0002275092196322576,-0.0002074943927962158,9.714883382619972e-05,7.1429,4.8571
1.06640625,0.0001308500475455863,-0.0002104315156450752,-0.00020652544505226215,9.521093833829249e-05,7.1429,4.8571
1.0703125,0.00011816288802319369,-0.00018747956596017396,-0.00017382345869382775,9.082039387350268e-05,7.1429,4.8571
1.07421875,0.00011522576517433429,-0.00016110601955443657,-0.00014596621105516136,8.44616743038071e-05,7.1429,4.8571
1.078125,9.714883382619972e-05,-0.00014841886003204397,-0.00013963777110246437,8.00711298390173e-05,7.1429,4.8571
1.08203125,7.761848086213471e-05,-0.00013573170050965134,-0.00012791955932402535,7.61650592462043e-05,7.1429,4.8571
1.0859375,5.9057075642023326e-05,-9.518729334859237e-05,-9.228045011673154e-05,6.493132133974209e-05,7.1429,4.8571
1.08984375,6.054077687495229e-05,-5.809476252536815e-05,-5.467316580453195e-05,5.5635478921187124e-05,7.1429,4.8571
1.09375,7.029081354848552e-05,-6.051713188525218e-05,-5.270499069962618e-05,4.782333773556112e-05,7.1429,4.8571
1.09765625,5.224416181734948e-05,-4.831444623483637e-05,-4.198600628213934e-05,3.7104353318074283e-05,7.1429,4.8571
1.1015625,4.001119654993513e-05,-1.658140762035556e-05,-5.347669713893363e-06,3.3682756597238095e-05,7.1429,4.8571
1.10546875,3.02611598764019e-05,-4.726513771267493e-07,9.761859168383284e-06,3.123010762035551e-05,7.1429,4.8571
1.109375,1.805847422598609e-05,1.7574000354009283e-05,2.5386141539635285e-05,2.4386914178683122e-05,7.1429,4.8571
1.11328125,1.5121351377126703e-05,3.904224880598151e-05,4.58854422476539e-05,1.5605825249103507e-05,7.1429,4.8571
1.1171875,1.0730806912336894e-05,4.3432793270771316e-05,3.80733010620279e-05,9.277385296406477e-06,7.1429,4.8571
1.12109375,-4.726513771267493e-07,4.733886386358432e-05,4.101042391088729e-05,6.855015936522445e-06,7.1429,4.8571
1.125,-6.346897074845526e-06,6.396237359578848e-05,5.5151005049210325e-05,-2.9253003540093317e-06,7.1429,4.8571
1.12890625,-3.894248097962944e-06,8.39772004318303e-05,7.958665596704049e-05,-1.364428477149617e-05,7.1429,4.8571
1.1328125,-3.894248097962944e-06,0.00010447650113984892,0.00010153937829098952,-1.9518530469214946e-05,7.1429,4.8571
1.13671875,-9.253740306706365e-06,0.00010644467624475468,0.00010447650113984892,-1.903405659723814e-05,7.1429,4.8571
1.140625,-1.364428477149617e-05,0.00010202385216296633,0.00011083522070954449,-2.097195208514537e-05,7.1429,4.8571
1.14453125,-1.609693374837875e-05,0.00010692915011673148,0.00012255343248798349,-2.2455653318074337e-05,7.1429,4.8571
1.1484375,-1.609693374837875e-05,0.00010886704560463872,0.00013620953975432973,-2.6361723910887334e-05,7.1429,4.8571
1.15234375,-1.5612459876401946e-05,0.00011374206394140534,0.00014450615481193254,-3.417386509651334e-05,7.1429,4.8571
1.15625,-2.1971179446097528e-05,0.00011667918679026472,0.00014011561034714274,-3.2205689991607565e-05,7.1429,4.8571
1.16015625,-2.4393548805981557e-05,0.00010153937829098952,0.00014353720706797892,-3.1721216119630753e-05,7.1429,4.8571
1.1640625,-3.2205689991607565e-05,9.863253505912868e-05,0.00014402168093995572,-3.2690163863584364e-05,7.1429,4.8571
1.16796875,-4.050230504921037e-05,0.00010644467624475468,0.0001474432776607919,-3.368939122453653e-05,7.1429,4.8571
1.171875,-2.829961939879456e-05,0.00010692915011673148,0.0001508648743816281,-3.9533357305256755e-05,7.1429,4.8571
1.17578125,-2.0003004341191755e-05,0.00010935151947661554,0.0001464743299168383,-4.440837564202337e-05,7.1429,4.8571
1.1796875,-2.342460106202795e-05,0.0001074136239887083,0.00014060008421911953,-4.5892076874952334e-05,7.1429,4.8571
1.18359375,-2.342460106202795e-05,0.00011083522070954449,0.0001332724169054703,-4.7345498490882756e-05,7.1429,4.8571
1.1875,-2.3909074934004752e-05,0.00011716366066224152,0.0001308500475455863,-4.150153241016253e-05,7.1429,4.8571
1.19140625,-2.2455653318074337e-05,0.00011374206394140534,0.00011425681743038069,-3.514281284046695e-05,7.1429,4.8571
1.1953125,-2.097195208514537e-05,0.0001103507468375677,9.472646446631568e-05,-3.2690163863584364e-05,7.1429,4.8571
1.19921875,-2.4393548805981557e-05,0.00011325759006942853,7.810295473411152e-05,-2.7330671654840948e-05,7.1429,4.8571
1.203125,-2.1971179446097528e-05,0.00011374206394140534,6.686921682764933e-05,-2.2455653318074337e-05,7.1429,4.8571
1.20703125,-1.8549582725261333e-05,0.00011522576517433429,7.125976129243914e-05,-2.0003004341191755e-05,7.1429,4.8571
1.2109375,-1.609693374837875e-05,0.00012155420512703134,6.735369069962612e-05,-1.9518530469214946e-05,7.1429,4.8571
1.21484375,-1.903405659723814e-05,0.0001191318357671473,6.005630300297549e-05,-1.7065881492332364e-05,7.1429,4.8571
1.21875,-1.903405659723814e-05,0.00010983599334859233,5.224416181734948e-05,-1.5127986004425139e-05,7.1429,4.8571
1.22265625,-1.2675337027542557e-05,0.0001074136239887083,3.319828272526129e-05,-1.2675337027542557e-05,7.1429,4.8571
1.2265625,-7.315844818799138e-06,0.00010935151947661554,3.3682756597238095e-05,-1.5612459876401946e-05,7.1429,4.8571
1.23046875,-2.9253003540093317e-06,0.00010789809786068511,4.0525950038910486e-05,-2.2455653318074337e-05,7.1429,4.8571
1.234375,-8.769266434729558e-06,0.00010692915011673148,3.9526722677958316e-05,-2.2455653318074337e-05,7.1429,4.8571
1.23828125,-1.0737441539635333e-05,0.00010447650113984892,2.3902440306706317e-05,-2.048747821316856e-05,7.1429,4.8571
1.2421875,-9.738214178683168e-06,9.421171097734033e-05,8.762631807431119e-06,-1.7065881492332364e-05,7.1429,4.8571
1.24609375,-1.1706389283588947e-05,9.275828936140991e-05,2.8292984771496126e-05,-1.4643512132448332e-05,7.1429,4.8571
1.25,-1.122191541161214e-05,9.372723710536352e-05,3.0745633748378704e-05,-1.658140762035556e-05,7.1429,4.8571
1.25390625,-1.5127986004425139e-05,7.761848086213471e-05,1.9027421969939702e-05,-1.7550355364309173e-05,7.1429,4.8571
1.2578125,-1.3159810899519364e-05,7.419688414129852e-05,1.1215280784313701e-05,-1.903405659723814e-05,7.1429,4.8571
1.26171875,-4.3787219699397505e-06,7.468135801327533e-05,6.3705420645456395e-06,-2.048747821316856e-05,7.1429,4.8571
1.265625,-6.346897074845526e-06,6.686921682764933e-05,8.762631807431119e-06,-1.8549582725261333e-05,7.1429,4.8571
1.26953125,-7.315844818799138e-06,6.88373919325551e-05,1.4636877505149896e-05,-2.097195208514537e-05,7.1429,4.8571
1.2734375,-3.894248097962944e-06,6.980633967650871e-05,2.3902440306706317e-05,-2.829961939879456e-05,7.1429,4.8571
1.27734375,-1.2675337027542557e-05,5.7603654026092904e-05,1.805847422598609e-05,-2.6361723910887334e-05,7.1429,4.8571
1.28125,-1.4643512132448332e-05,4.19793716548409e-05,2.948945343709445e-06,-2.2940127190051142e-05,7.1429,4.8571
1.28515625,-3.894248097962944e-06,4.294831939879452e-05,1.415240363317309e-05,-2.2940127190051142e-05,7.1429,4.8571
1.2890625,5.371314703593476e-06,5.9057075642023326e-05,3.6619879446097485e-05,-1.903405659723814e-05,7.1429,4.8571
1.29296875,9.277385296406477e-06,6.296314623483632e-05,3.758882719005109e-05,-1.7550355364309173e-05,7.1429,4.8571
1.296875,3.917893087663058e-06,5.8572601770046514e-05,2.2933492562752703e-05,-1.4159038260471529e-05,7.1429,4.8571
1.30078125,9.80770238803669e-07,5.615023241016249e-05,2.196454481879909e-05,-6.8313709468223316e-06,7.1429,4.8571
1.3046875,6.3705420645456395e-06,6.054077687495229e-05,2.341796643472951e-05,-5.8321435858701684e-06,7.1429,4.8571
1.30859375,1.1699754656290508e-05,7.029081354848552e-05,2.1480070946822288e-05,-6.346897074845526e-06,7.1429,4.8571
1.3125,1.708952648203248e-05,7.516583188525213e-05,3.2713808853284484e-05,-3.894248097962944e-06,7.1429,4.8571
1.31640625,1.805847422598609e-05,7.568058537422749e-05,3.123010762035551e-05,-3.4097742259861386e-06,7.1429,4.8571
1.3203125,1.3667929761196283e-05,6.83529180605783e-05,2.24490186907759e-05,-6.346897074845526e-06,7.1429,4.8571
1.32421875,1.3667929761196283e-05,7.077528742046232e-05,2.63550892835889e-05,-7.800318690775946e-06,7.1429,4.8571
1.328125,1.951189584191651e-05,7.61650592462043e-05,2.490166766765848e-05,-9.253740306706365e-06,7.1429,4.8571
1.33203125,2.4386914178683122e-05,6.83529180605783e-05,2.7324037027542512e-05,-1.0737441539635333e-05,7.1429,4.8571
1.3359375,2.7808510899519317e-05,5.615023241016249e-05,1.951189584191651e-05,-1.219086315556575e-05,7.1429,4.8571
1.33984375,2.7808510899519317e-05,5.027598671244371e-05,2.948945343709445e-06,-1.4643512132448332e-05,7.1429,4.8571
1.34375,2.3902440306706317e-05,5.172940832837412e-05,-1.926072993057168e-06,-1.8549582725261333e-05,7.1429,4.8571
1.34765625,2.196454481879909e-05,5.027598671244371e-05,6.855015936522445e-06,-1.7065881492332364e-05,7.1429,4.8571
1.3515625,1.951189584191651e-05,5.418205730525671e-05,1.4636877505149896e-05,-1.2675337027542557e-05,7.1429,4.8571
1.35546875,1.3667929761196283e-05,5.418205730525671e-05,8.278157935454312e-06,-7.800318690775946e-06,7.1429,4.8571
1.359375,1.415240363317309e-05,4.782333773556112e-05,-3.4097742259861386e-06,-5.347669713893363e-06,7.1429,4.8571
1.36328125,1.7574000354009283e-05,4.2463845526817706e-05,-2.9253003540093317e-06,-1.0737441539635333e-05,7.1429,4.8571
1.3671875,1.5121351377126703e-05,4.882256509651329e-05,1.2184228528267315e-05,-5.8321435858701684e-06,7.1429,4.8571
1.37109375,1.7574000354009283e-05,5.5151005049210325e-05,1.805847422598609e-05,-3.4097742259861386e-06,7.1429,4.8571
1.375,2.24490186907759e-05,5.32131095613031e-05,1.6574772993057124e-05,-4.8631958419165565e-06,7.1429,4.8571
1.37890625,1.805847422598609e-05,4.782333773556112e-05,1.5121351377126703e-05,9.80770238803669e-07,7.1429,4.8571
1.3828125,1.4636877505149896e-05,4.97915128404669e-05,1.1215280784313701e-05,5.886068192568833e-06,7.1429,4.8571
1.38671875,1.7574000354009283e-05,5.2728635689326286e-05,2.24490186907759e-05,2.4644714717326384e-06,7.1429,4.8571
1.390625,1.2184228528267315e-05,4.685438999160752e-05,3.0745633748378704e-05,3.4334192156862512e-06,7.1429,4.8571
1.39453125,1.4636877505149896e-05,5.076046058442051e-05,3.02611598764019e-05,8.278157935454312e-06,7.1429,4.8571
1.3984375,1.8542948097962897e-05,4.636991611963071e-05,2.4386914178683122e-05,9.761859168383284e-06,7.1429,4.8571
1.40234375,1.6090299121080312e-05,2.880773826047148e-05,1.9996369713893316e-05,9.277385296406477e-06,7.1429,4.8571
1.40625,1.3667929761196283e-05,3.3682756597238095e-05,2.7324037027542512e-05,5.371314703593476e-06,7.1429,4.8571
1.41015625,9.761859168383284e-06,4.685438999160752e-05,4.97915128404669e-05,6.855015936522445e-06,7.1429,4.8571
1.4140625,1.3667929761196283e-05,3.80733010620279e-05,4.93070389684901e-05,7.3394898084992515e-06,7.1429,4.8571
1.41796875,1.9027421969939702e-05,2.5386141539635285e-05,2.1480070946822288e-05,2.4644714717326384e-06,7.1429,4.8571
1.421875,2.0995597074845476e-05,3.41672304692149e-05,1.4636877505149896e-05,3.917893087663058e-06,7.1429,4.8571
1.42578125,1.9996369713893316e-05,4.54009683756771e-05,2.9292212132448285e-05,6.3705420645456395e-06,7.1429,4.8571
1.4296875,1.2184228528267315e-05,4.443202063172348e-05,4.782333773556112e-05,9.277385296406477e-06,7.1429,4.8571
1.43359375,1.0730806912336894e-05,4.19793716548409e-05,4.19793716548409e-05,1.0246333040360089e-05,7.1429,4.8571
1.4375,2.24490186907759e-05,3.9526722677958316e-05,2.8292984771496126e-05,1.2668702400244121e-05,7.1429,4.8571
1.44140625,2.4386914178683122e-05,3.562065208514532e-05,2.6839563155565704e-05,1.708952648203248e-05,7.1429,4.8571
1.4453125,2.880773826047148e-05,3.610512595712213e-05,2.3902440306706317e-05,1.4636877505149896e-05,7.1429,4.8571
1.44921875,3.2199055364309126e-05,4.2463845526817706e-05,3.7104353318074283e-05,1.3183455889219476e-05,7.1429,4.8571
1.453125,2.5386141539635285e-05,4.3432793270771316e-05,4.97915128404669e-05,2.048084358587012e-05,7.1429,4.8571
1.45703125,2.63550892835889e-05,3.80733010620279e-05,4.2463845526817706e-05,2.490166766765848e-05,7.1429,4.8571
1.4609375,2.7324037027542512e-05,4.19793716548409e-05,3.904224880598151e-05,2.3902440306706317e-05,7.1429,4.8571
1.46484375,2.3902440306706317e-05,4.101042391088729e-05,4.0525950038910486e-05,2.3902440306706317e-05,7.1429,4.8571
1.46875,2.7324037027542512e-05,3.46517043411917e-05,3.562065208514532e-05,1.805847422598609e-05,7.1429,4.8571
1.47265625,2.5386141539635285e-05,3.319828272526129e-05,3.1714581492332315e-05,1.415240363317309e-05,7.1429,4.8571
1.4765625,2.196454481879909e-05,2.0995597074845476e-05,3.0745633748378704e-05,1.9027421969939702e-05,7.1429,4.8571
1.48046875,2.1480070946822288e-05,1.5121351377126703e-05,2.196454481879909e-05,1.7574000354009283e-05,7.1429,4.8571
1.484375,2.341796643472951e-05,2.3902440306706317e-05,2.6839563155565704e-05,1.3183455889219476e-05,7.1429,4.8571
1.48828125,3.2713808853284484e-05,2.5386141539635285e-05,3.41672304692149e-05,1.5121351377126703e-05,7.1429,4.8571
1.4921875,3.0745633748378704e-05,3.2713808853284484e-05,3.562065208514532e-05,1.5121351377126703e-05,7.1429,4.8571
1.49609375,2.2933492562752703e-05,3.80733010620279e-05,4.54009683756771e-05,9.277385296406477e-06,7.1429,4.8571
1.5,2.4386914178683122e-05,2.9776686004425094e-05,3.562065208514532e-05,1.9799975997558325e-06,7.1429,4.8571
1.50390625,3.2199055364309126e-05,3.9526722677958316e-05,3.41672304692149e-05,-2.9253003540093317e-06,7.1429,4.8571
1.5078125,3.7104353318074283e-05,4.97915128404669e-05,4.636991611963071e-05,-3.4097742259861386e-06,7.1429,4.8571
1.51171875,3.0745633748378704e-05,4.882256509651329e-05,4.833809122453648e-05,-3.4097742259861386e-06,7.1429,4.8571
1.515625,2.9292212132448285e-05,4.391726714274813e-05,4.58854422476539e-05,-6.346897074845526e-06,7.1429,4.8571
1.51953125,3.319828272526129e-05,3.2199055364309126e-05,3.80733010620279e-05,-6.8313709468223316e-06,7.1429,4.8571
1.5234375,3.1714581492332315e-05,3.0745633748378704e-05,3.2713808853284484e-05,-5.347669713893363e-06,7.1429,4.8571
1.52734375,3.319828272526129e-05,3.758882719005109e-05,3.758882719005109e-05,-9.253740306706365e-06,7.1429,4.8571
1.53125,3.562065208514532e-05,4.391726714274813e-05,4.58854422476539e-05,-1.219086315556575e-05,7.1429,4.8571
1.53515625,3.41672304692149e-05,4.101042391088729e-05,4.0525950038910486e-05,-1.0252967667658526e-05,7.1429,4.8571
1.5390625,2.9776686004425094e-05,4.0525950038910486e-05,2.7808510899519317e-05,-2.4408264820325253e-06,7.1429,4.8571
1.54296875,3.1714581492332315e-05,4.636991611963071e-05,3.02611598764019e-05,1.1822494850056486e-08,7.1429,4.8571
1.546875,2.9776686004425094e-05,4.54009683756771e-05,3.7104353318074283e-05,-1.926072993057168e-06,7.1429,4.8571
1.55078125,2.7324037027542512e-05,4.294831939879452e-05,4.54009683756771e-05,-2.9253003540093317e-06,7.1429,4.8571
1.5546875,3.46517043411917e-05,3.904224880598151e-05,4.294831939879452e-05,-5.347669713893363e-06,7.1429,4.8571
1.55859375,3.7104353318074283e-05,3.904224880598151e-05,3.513617821316851e-05,-4.726513771267493e-07,7.1429,4.8571
1.5625,3.319828272526129e-05,3.562065208514532e-05,3.0745633748378704e-05,1.4652441107804755e-06,7.1429,4.8571
1.56640625,3.2199055364309126e-05,2.9776686004425094e-05,3.46517043411917e-05,-2.9253003540093317e-06,7.1429,4.8571
1.5703125,3.2199055364309126e-05,3.6619879446097485e-05,4.149489778286409e-05,-4.726513771267493e-07,7.1429,4.8571
1.57421875,2.7324037027542512e-05,3.123010762035551e-05,3.513617821316851e-05,2.948945343709445e-06,7.1429,4.8571
1.578125,2.4386914178683122e-05,1.8542948097962897e-05,3.02611598764019e-05,4.962963668268632e-07,7.1429,4.8571
1.58203125,2.7324037027542512e-05,2.587061541161209e-05,4.001119654993513e-05,3.4334192156862512e-06,7.1429,4.8571
1.5859375,2.7808510899519317e-05,3.610512595712213e-05,3.7104353318074283e-05,1.0730806912336894e-05,7.1429,4.8571
1.58984375,3.02611598764019e-05,4.3432793270771316e-05,3.513617821316851e-05,1.6090299121080312e-05,7.1429,4.8571
1.59375,2.7324037027542512e-05,3.513617821316851e-05,4.391726714274813e-05,1.8542948097962897e-05,7.1429,4.8571
1.59765625,2.24490186907759e-05,1.6574772993057124e-05,3.562065208514532e-05,2.0995597074845476e-05,7.1429,4.8571
1.6015625,2.880773826047148e-05,7.793684063477507e-06,2.4386914178683122e-05,2.2933492562752703e-05,7.1429,4.8571
1.60546875,2.9292212132448285e-05,1.7574000354009283e-05,2.5386141539635285e-05,2.3902440306706317e-05,7.1429,4.8571
1.609375,2.9292212132448285e-05,3.0745633748378704e-05,3.9526722677958316e-05,2.490166766765848e-05,7.1429,4.8571
1.61328125,3.1714581492332315e-05,3.41672304692149e-05,4.149489778286409e-05,2.9776686004425094e-05,7.1429,4.8571
1.6171875,2.9776686004425094e-05,2.7324037027542512e-05,4.636991611963071e-05,3.562065208514532e-05,7.1429,4.8571
1.62109375,3.2199055364309126e-05,2.1480070946822288e-05,3.80733010620279e-05,3.41672304692149e-05,7.1429,4.8571
1.625,3.2713808853284484e-05,2.7324037027542512e-05,2.587061541161209e-05,3.2713808853284484e-05,7.1429,4.8571
1.62890625,2.7808510899519317e-05,3.41672304692149e-05,4.294831939879452e-05,3.1714581492332315e-05,7.1429,4.8571
1.6328125,2.8292984771496126e-05,3.855777493400471e-05,5.076046058442051e-05,3.02611598764019e-05,7.1429,4.8571
1.63671875,2.880773826047148e-05,3.3682756597238095e-05,5.5151005049210325e-05,3.1714581492332315e-05,7.1429,4.8571
1.640625,2.63550892835889e-05,2.5386141539635285e-05,5.418205730525671e-05,2.880773826047148e-05,7.1429,4.8571
1.64453125,2.6839563155565704e-05,2.7324037027542512e-05,4.491649450370029e-05,2.8292984771496126e-05,7.1429,4.8571
1.6484375,2.6839563155565704e-05,3.9526722677958316e-05,5.466653117723351e-05,2.9776686004425094e-05,7.1429,4.8571
1.65234375,2.9292212132448285e-05,4.97915128404669e-05,6.638474295567252e-05,2.587061541161209e-05,7.1429,4.8571
1.65625,2.8292984771496126e-05,3.513617821316851e-05,6.005630300297549e-05,2.7324037027542512e-05,7.1429,4.8571
1.66015625,3.319828272526129e-05,2.880773826047148e-05,5.1244934456397325e-05,2.6839563155565704e-05,7.1429,4.8571
1.6640625,3.758882719005109e-05,3.6619879446097485e-05,5.808812789806971e-05,2.5386141539635285e-05,7.1429,4.8571
1.66796875,3.46517043411917e-05,4.0525950038910486e-05,6.15097246189059e-05,2.3902440306706317e-05,7.1429,4.8571
1.671875,3.319828272526129e-05,4.3432793270771316e-05,6.247867236285951e-05,2.1480070946822288e-05,7.1429,4.8571
1.67578125,3.513617821316851e-05,4.19793716548409e-05,5.808812789806971e-05,2.2933492562752703e-05,7.1429,4.8571
1.6796875,3.0745633748378704e-05,3.46517043411917e-05,4.882256509651329e-05,2.63550892835889e-05,7.1429,4.8571
1.68359375,2.9292212132448285e-05,3.0745633748378704e-05,4.294831939879452e-05,2.2933492562752703e-05,7.1429,4.8571
1.6875,3.562065208514532e-05,3.41672304692149e-05,4.882256509651329e-05,1.2668702400244121e-05,7.1429,4.8571
1.69140625,3.6619879446097485e-05,3.904224880598151e-05,5.808812789806971e-05,9.761859168383284e-06,7.1429,4.8571
1.6953125,3.513617821316851e-05,3.0745633748378704e-05,5.5151005049210325e-05,1.2184228528267315e-05,7.1429,4.8571
1.69921875,2.9292212132448285e-05,2.6839563155565704e-05,4.149489778286409e-05,9.761859168383284e-06,7.1429,4.8571
1.703125,2.490166766765848e-05,2.341796643472951e-05,4.101042391088729e-05,5.886068192568833e-06,7.1429,4.8571
1.70703125,2.7324037027542512e-05,2.341796643472951e-05,5.2728635689326286e-05,4.8868408316166696e-06,7.1429,4.8571
1.7109375,2.880773826047148e-05,2.5386141539635285e-05,6.396237359578848e-05,4.8868408316166696e-06,7.1429,4.8571
1.71484375,2.63550892835889e-05,2.490166766765848e-05,6.638474295567252e-05,3.4334192156862512e-06,7.1429,4.8571
1.71875,2.9292212132448285e-05,2.9292212132448285e-05,4.833809122453648e-05,2.948945343709445e-06,7.1429,4.8571
1.72265625,3.0745633748378704e-05,2.3902440306706317e-05,3.904224880598151e-05,4.8868408316166696e-06,7.1429,4.8571
1.7265625,2.9776686004425094e-05,2.341796643472951e-05,4.782333773556112e-05,7.793684063477507e-06,7.1429,4.8571
1.73046875,2.9776686004425094e-05,2.7324037027542512e-05,5.71191801541161e-05,1.2184228528267315e-05,7.1429,4.8571
1.734375,2.6839563155565704e-05,2.341796643472951e-05,5.418205730525671e-05,1.1215280784313701e-05,7.1429,4.8571
1.73828125,2.9292212132448285e-05,2.341796643472951e-05,5.418205730525671e-05,9.277385296406477e-06,7.1429,4.8571
1.7421875,2.9292212132448285e-05,1.805847422598609e-05,5.36975834332799e-05,1.2668702400244121e-05,7.1429,4.8571
1.74609375,1.951189584191651e-05,8.278157935454312e-06,4.833809122453648e-05,1.2184228528267315e-05,7.1429,4.8571
1.75,1.9027421969939702e-05,1.0730806912336894e-05,4.685438999160752e-05,1.0730806912336894e-05,7.1429,4.8571
1.75390625,2.490166766765848e-05,1.4636877505149896e-05,4.491649450370029e-05,8.278157935454312e-06,7.1429,4.8571
1.7578125,2.7808510899519317e-05,9.761859168383284e-06,3.80733010620279e-05,7.3394898084992515e-06,7.1429,4.8571
1.76171875,2.4386914178683122e-05,1.0246333040360089e-05,2.5386141539635285e-05,6.855015936522445e-06,7.1429,4.8571
1.765625,2.63550892835889e-05,1.415240363317309e-05,2.5386141539635285e-05,7.793684063477507e-06,7.1429,4.8571
1.76953125,3.123010762035551e-05,1.9027421969939702e-05,4.101042391088729e-05,1.2668702400244121e-05,7.1429,4.8571
1.7734375,3.513617821316851e-05,2.6839563155565704e-05,4.443202063172348e-05,1.3667929761196283e-05,7.1429,4.8571
1.77734375,3.319828272526129e-05,2.341796643472951e-05,2.63550892835889e-05,1.5121351377126703e-05,7.1429,4.8571
1.78125,3.46517043411917e-05,2.2933492562752703e-05,2.2933492562752703e-05,1.8542948097962897e-05,7.1429,4.8571
1.78515625,3.1714581492332315e-05,2.9776686004425094e-05,3.80733010620279e-05,1.951189584191651e-05,7.1429,4.8571
1.7890625,2.9776686004425094e-05,3.1714581492332315e-05,3.80733010620279e-05,1.7574000354009283e-05,7.1429,4.8571
1.79296875,2.4386914178683122e-05,3.02611598764019e-05,3.0745633748378704e-05,2.048084358587012e-05,7.1429,4.8571
1.796875,1.7574000354009283e-05,2.7324037027542512e-05,2.4386914178683122e-05,2.2933492562752703e-05,7.1429,4.8571
1.80078125,2.9776686004425094e-05,3.1714581492332315e-05,2.3902440306706317e-05,1.951189584191651e-05,7.1429,4.8571
1.8046875,3.80733010620279e-05,3.758882719005109e-05,3.0745633748378704e-05,1.9996369713893316e-05,7.1429,4.8571
1.80859375,3.758882719005109e-05,4.001119654993513e-05,2.9292212132448285e-05,2.048084358587012e-05,7.1429,4.8571
1.8125,3.7104353318074283e-05,4.685438999160752e-05,3.610512595712213e-05,1.4636877505149896e-05,7.1429,4.8571
1.81640625,3.46517043411917e-05,4.782333773556112e-05,4.101042391088729e-05,1.5121351377126703e-05,7.1429,4.8571
1.8203125,3.02611598764019e-05,4.19793716548409e-05,2.7808510899519317e-05,2.196454481879909e-05,7.1429,4.8571
1.82421875,3.0745633748378704e-05,3.9526722677958316e-05,2.6839563155565704e-05,2.2933492562752703e-05,7.1429,4.8571
1.828125,3.1714581492332315e-05,3.80733010620279e-05,3.123010762035551e-05,1.8542948097962897e-05,7.1429,4.8571
1.83203125,3.41672304692149e-05,3.123010762035551e-05,2.880773826047148e-05,1.5605825249103507e-05,7.1429,4.8571
1.8359375,3.758882719005109e-05,3.02611598764019e-05,2.341796643472951e-05,1.805847422598609e-05,7.1429,4.8571
1.83984375,3.319828272526129e-05,3.2713808853284484e-05,2.1480070946822288e-05,2.24490186907759e-05,7.1429,4.8571
1.84375,3.123010762035551e-05,2.9292212132448285e-05,2.2933492562752703e-05,2.24490186907759e-05,7.1429,4.8571
1.84765625,3.2713808853284484e-05,3.2713808853284484e-05,3.1714581492332315e-05,2.24490186907759e-05,7.1429,4.8571
1.8515625,3.319828272526129e-05,3.610512595712213e-05,3.3682756597238095e-05,1.9027421969939702e-05,7.1429,4.8571
1.85546875,3.610512595712213e-05,3.1714581492332315e-05,2.048084358587012e-05,1.708952648203248e-05,7.1429,4.8571
1.859375,3.562065208514532e-05,2.490166766765848e-05,1.3183455889219476e-05,1.7574000354009283e-05,7.1429,4.8571
1.86328125,3.123010762035551e-05,7.3394898084992515e-06,1.9799975997558325e-06,1.1215280784313701e-05,7.1429,4.8571
1.8671875,2.7808510899519317e-05,1.2184228528267315e-05,1.1215280784313701e-05,5.371314703593476e-06,7.1429,4.8571
1.87109375,2.9776686004425094e-05,2.5386141539635285e-05,2.6839563155565704e-05,5.371314703593476e-06,7.1429,4.8571
1.875,2.8292984771496126e-05,1.8542948097962897e-05,1.2184228528267315e-05,6.855015936522445e-06,7.1429,4.8571
1.87890625,1.805847422598609e-05,8.278157935454312e-06,-9.571252491035569e-07,6.3705420645456395e-06,7.1429,4.8571
1.8828125,1.9027421969939702e-05,5.371314703593476e-06,-8.28479256275275e-06,5.371314703593476e-06,7.1429,4.8571
1.88671875,2.3902440306706317e-05,8.278157935454312e-06,-3.894248097962944e-06,4.402366959639863e-06,7.1429,4.8571
1.890625,2.4386914178683122e-05,1.708952648203248e-05,1.0246333040360089e-05,6.855015936522445e-06,7.1429,4.8571
1.89453125,2.5386141539635285e-05,1.951189584191651e-05,5.371314703593476e-06,5.371314703593476e-06,7.1429,4.8571
1.8984375,2.5386141539635285e-05,1.0246333040360089e-05,-4.726513771267493e-07,9.80770238803669e-07,7.1429,4.8571
1.90234375,2.9292212132448285e-05,9.80770238803669e-07,-6.8313709468223316e-06,3.4334192156862512e-06,7.1429,4.8571
1.90625,2.24490186907759e-05,-1.926072993057168e-06,-6.8313709468223316e-06,6.855015936522445e-06,7.1429,4.8571
1.91015625,2.2933492562752703e-05,7.3394898084992515e-06,1.0730806912336894e-05,3.4334192156862512e-06,7.1429,4.8571
1.9140625,3.1714581492332315e-05,1.5605825249103507e-05,2.0995597074845476e-05,7.3394898084992515e-06,7.1429,4.8571
1.91796875,2.9776686004425094e-05,1.2184228528267315e-05,3.4334192156862512e-06,1.1699754656290508e-05,7.1429,4.8571
1.921875,2.880773826047148e-05,1.8542948097962897e-05,-6.346897074845526e-06,5.886068192568833e-06,7.1429,4.8571
1.92578125,2.880773826047148e-05,2.880773826047148e-05,-1.4415991210803618e-06,2.948945343709445e-06,7.1429,4.8571
1.9296875,2.63550892835889e-05,2.5386141539635285e-05,-1.926072993057168e-06,-9.571252491035569e-07,7.1429,4.8571
1.93359375,3.2713808853284484e-05,2.9776686004425094e-05,-1.4415991210803618e-06,-4.8631958419165565e-06,7.1429,4.8571
1.9375,3.41672304692149e-05,2.6839563155565704e-05,-9.738214178683168e-06,-4.3787219699397505e-06,7.1429,4.8571
1.94140625,2.9776686004425094e-05,1.951189584191651e-05,-1.7065881492332364e-05,-6.346897074845526e-06,7.1429,4.8571
1.9453125,2.8292984771496126e-05,2.196454481879909e-05,-2.3909074934004752e-05,-2.4408264820325253e-06,7.1429,4.8571
1.94921875,2.880773826047148e-05,1.8542948097962897e-05,-2.048747821316856e-05,1.4652441107804755e-06,7.1429,4.8571
1.953125,3.3682756597238095e-05,1.9996369713893316e-05,-7.315844818799138e-06,4.962963668268632e-07,7.1429,4.8571
1.95703125,3.904224880598151e-05,2.3902440306706317e-05,-6.8313709468223316e-06,4.962963668268632e-07,7.1429,4.8571
1.9609375,3.41672304692149e-05,1.4636877505149896e-05,-2.0003004341191755e-05,-1.926072993057168e-06,7.1429,4.8571
1.96484375,2.7324037027542512e-05,1.7574000354009283e-05,-2.0003004341191755e-05,-2.4408264820325253e-06,7.1429,4.8571
1.96875,2.7808510899519317e-05,3.2713808853284484e-05,-9.571252491035569e-07,-1.4415991210803618e-06,7.1429,4.8571
1.97265625,2.8292984771496126e-05,4.294831939879452e-05,8.278157935454312e-06,1.1822494850056486e-08,7.1429,4.8571
1.9765625,3.123010762035551e-05,3.1714581492332315e-05,2.948945343709445e-06,2.4644714717326384e-06,7.1429,4.8571
1.98046875,3.1714581492332315e-05,1.9996369713893316e-05,-3.4097742259861386e-06,5.371314703593476e-06,7.1429,4.8571
1.984375,2.587061541161209e-05,2.3902440306706317e-05,-7.315844818799138e-06,7.793684063477507e-06,7.1429,4.8571
1.98828125,2.5386141539635285e-05,2.63550892835889e-05,-3.4097742259861386e-06,7.793684063477507e-06,7.1429,4.8571
1.9921875,2.5386141539635285e-05,3.0745633748378704e-05,1.0246333040360089e-05,1.4652441107804755e-06,7.1429,4.8571
1.99609375,2.8292984771496126e-05,2.196454481879909e-05,1.3183455889219476e-05,1.9799975997558325e-06,7.1429,4.8571
2.0,3.41672304692149e-05,1.6574772993057124e-05,3.4334192156862512e-06,5.371314703593476e-06,7.1429,4.8571
2.00390625,2.9292212132448285e-05,1.951189584191651e-05,2.4644714717326384e-06,5.886068192568833e-06,7.1429,4.8571
2.0078125,2.587061541161209e-05,1.415240363317309e-05,1.1215280784313701e-05,7.793684063477507e-06,7.1429,4.8571
2.01171875,2.7324037027542512e-05,1.3667929761196283e-05,2.196454481879909e-05,1.0730806912336894e-05,7.1429,4.8571
2.015625,2.1480070946822288e-05,9.80770238803669e-07,1.4636877505149896e-05,1.2184228528267315e-05,7.1429,4.8571
2.01953125,2.1480070946822288e-05,-1.658140762035556e-05,-3.894248097962944e-06,1.0246333040360089e-05,7.1429,4.8571
2.0234375,2.048084358587012e-05,-1.4159038260471529e-05,1.4652441107804755e-06,9.761859168383284e-06,7.1429,4.8571
2.02734375,1.9996369713893316e-05,-1.4415991210803618e-06,4.8868408316166696e-06,9.761859168383284e-06,7.1429,4.8571
2.03125,2.8292984771496126e-05,3.4334192156862512e-06,4.8868408316166696e-06,1.3667929761196283e-05,7.1429,4.8571
2.03515625,2.341796643472951e-05,7.793684063477507e-06,1.2668702400244121e-05,1.708952648203248e-05,7.1429,4.8571
2.0390625,2.196454481879909e-05,3.2199055364309126e-05,2.2933492562752703e-05,1.6574772993057124e-05,7.1429,4.8571
2.04296875,3.904224880598151e-05,3.80733010620279e-05,2.0995597074845476e-05,6.855015936522445e-06,7.1429,4.8571
2.046875,4.733886386358432e-05,9.277385296406477e-06,-1.8065108853284528e-05,-2.4408264820325253e-06,7.1429,4.8571
2.05078125,4.443202063172348e-05,3.4334192156862512e-06,-2.4393548805981557e-05,1.1822494850056486e-08,7.1429,4.8571
2.0546875,3.758882719005109e-05,1.708952648203248e-05,4.962963668268632e-07,8.278157935454312e-06,7.1429,4.8571
2.05859375,3.904224880598151e-05,2.24490186907759e-05,4.8868408316166696e-06,8.762631807431119e-06,7.1429,4.8571
2.0625,4.54009683756771e-05,1.6090299121080312e-05,-9.253740306706365e-06,4.8868408316166696e-06,7.1429,4.8571
2.06640625,4.101042391088729e-05,2.1480070946822288e-05,-1.122191541161214e-05,3.4334192156862512e-06,7.1429,4.8571
2.0703125,3.319828272526129e-05,3.2713808853284484e-05,1.9027421969939702e-05,4.8868408316166696e-06,7.1429,4.8571
2.07421875,3.2713808853284484e-05,3.80733010620279e-05,2.490166766765848e-05,4.8868408316166696e-06,7.1429,4.8571
2.078125,4.001119654993513e-05,3.46517043411917e-05,8.278157935454312e-06,6.3705420645456395e-06,7.1429,4.8571
2.08203125,4.294831939879452e-05,3.0745633748378704e-05,5.886068192568833e-06,1.2668702400244121e-05,7.1429,4.8571
2.0859375,4.0525950038910486e-05,3.80733010620279e-05,1.2184228528267315e-05,1.3667929761196283e-05,7.1429,4.8571
2.08984375,4.19793716548409e-05,4.2463845526817706e-05,2.5386141539635285e-05,1.9027421969939702e-05,7.1429,4.8571
2.09375,4.101042391088729e-05,4.58854422476539e-05,3.123010762035551e-05,1.9996369713893316e-05,7.1429,4.8571
2.09765625,3.6619879446097485e-05,4.782333773556112e-05,2.490166766765848e-05,1.5121351377126703e-05,7.1429,4.8571
2.1015625,3.6619879446097485e-05,4.294831939879452e-05,2.2933492562752703e-05,1.5605825249103507e-05,7.1429,4.8571
2.10546875,3.758882719005109e-05,4.391726714274813e-05,2.341796643472951e-05,1.5121351377126703e-05,7.1429,4.8571
2.109375,3.41672304692149e-05,4.97915128404669e-05,2.8292984771496126e-05,1.1699754656290508e-05,7.1429,4.8571
2.11328125,3.46517043411917e-05,4.294831939879452e-05,3.123010762035551e-05,1.1215280784313701e-05,7.1429,4.8571
2.1171875,3.7104353318074283e-05,3.7104353318074283e-05,2.4386914178683122e-05,1.415240363317309e-05,7.1429,4.8571
2.12109375,3.904224880598151e-05,3.0745633748378704e-05,9.277385296406477e-06,9.277385296406477e-06,7.1429,4.8571
2.125,3.80733010620279e-05,2.8292984771496126e-05,4.402366959639863e-06,5.886068192568833e-06,7.1429,4.8571
2.12890625,3.319828272526129e-05,3.80733010620279e-05,1.4636877505149896e-05,6.855015936522445e-06,7.1429,4.8571
2.1328125,3.319828272526129e-05,3.513617821316851e-05,2.587061541161209e-05,6.3705420645456395e-06,7.1429,4.8571
2.13671875,3.6619879446097485e-05,2.63550892835889e-05,2.24490186907759e-05,1.0730806912336894e-05,7.1429,4.8571
2.140625,3.2713808853284484e-05,2.7808510899519317e-05,1.2184228528267315e-05,1.951189584191651e-05,7.1429,4.8571
2.14453125,3.7104353318074283e-05,3.2713808853284484e-05,1.4636877505149896e-05,2.63550892835889e-05,7.1429,4.8571
2.1484375,4.491649450370029e-05,4.2463845526817706e-05,3.0745633748378704e-05,2.8292984771496126e-05,7.1429,4.8571
2.15234375,4.149489778286409e-05,4.685438999160752e-05,4.19793716548409e-05,3.02611598764019e-05,7.1429,4.8571
2.15625,4.491649450370029e-05,4.391726714274813e-05,3.41672304692149e-05,2.880773826047148e-05,7.1429,4.8571
2.16015625,4.833809122453648e-05,4.685438999160752e-05,2.8292984771496126e-05,2.4386914178683122e-05,7.1429,4.8571
2.1640625,4.19793716548409e-05,3.80733010620279e-05,3.02611598764019e-05,2.2933492562752703e-05,7.1429,4.8571
2.16796875,4.0525950038910486e-05,3.610512595712213e-05,3.7104353318074283e-05,1.951189584191651e-05,7.1429,4.8571
2.171875,4.19793716548409e-05,4.0525950038910486e-05,4.97915128404669e-05,1.2668702400244121e-05,7.1429,4.8571
2.17578125,4.294831939879452e-05,3.3682756597238095e-05,5.224416181734948e-05,1.0730806912336894e-05,7.1429,4.8571
2.1796875,4.101042391088729e-05,2.5386141539635285e-05,4.2463845526817706e-05,1.415240363317309e-05,7.1429,4.8571
2.18359375,3.562065208514532e-05,2.0995597074845476e-05,3.41672304692149e-05,9.277385296406477e-06,7.1429,4.8571
2.1875,4.0525950038910486e-05,2.9292212132448285e-05,4.19793716548409e-05,2.4644714717326384e-06,7.1429,4.8571
2.19140625,4.19793716548409e-05,4.001119654993513e-05,5.663470628213929e-05,1.9799975997558325e-06,7.1429,4.8571
2.1953125,4.001119654993513e-05,3.562065208514532e-05,5.663470628213929e-05,1.9799975997558325e-06,7.1429,4.8571
2.19921875,4.101042391088729e-05,2.2933492562752703e-05,5.172940832837412e-05,1.9799975997558325e-06,7.1429,4.8571
2.203125,4.001119654993513e-05,1.9027421969939702e-05,4.733886386358432e-05,4.8868408316166696e-06,7.1429,4.8571
2.20703125,3.610512595712213e-05,2.7808510899519317e-05,5.224416181734948e-05,8.762631807431119e-06,7.1429,4.8571
2.2109375,3.562065208514532e-05,3.41672304692149e-05,6.054077687495229e-05,7.3394898084992515e-06,7.1429,4.8571
2.21484375,3.1714581492332315e-05,3.02611598764019e-05,5.8572601770046514e-05,5.886068192568833e-06,7.1429,4.8571
2.21875,3.2713808853284484e-05,2.5386141539635285e-05,5.1244934456397325e-05,1.0246333040360089e-05,7.1429,4.8571
2.22265625,3.7104353318074283e-05,2.490166766765848e-05,4.3432793270771316e-05,1.1215280784313701e-05,7.1429,4.8571
2.2265625,4.001119654993513e-05,3.2199055364309126e-05,4.93070389684901e-05,9.761859168383284e-06,7.1429,4.8571
2.23046875,4.0525950038910486e-05,3.02611598764019e-05,5.71191801541161e-05,7.793684063477507e-06,7.1429,4.8571
2.234375,3.2713808853284484e-05,1.6574772993057124e-05,5.5635478921187124e-05,7.793684063477507e-06,7.1429,4.8571
2.23828125,3.319828272526129e-05,-2.5877250038910532e-05,5.224416181734948e-05,1.2668702400244121e-05,7.1429,4.8571
2.2421875,3.41672304692149e-05,-7.617169387350274e-05,5.172940832837412e-05,1.5121351377126703e-05,7.1429,4.8571
2.24609375,2.9776686004425094e-05,-6.832927307087818e-05,7.125976129243914e-05,1.4636877505149896e-05,7.1429,4.8571
2.25,2.8292984771496126e-05,-6.393872860608837e-05,7.077528742046232e-05,2.1480070946822288e-05,7.1429,4.8571
2.25390625,2.880773826047148e-05,-8.982780113984895e-05,4.833809122453648e-05,2.63550892835889e-05,7.1429,4.8571
2.2578125,2.7324037027542512e-05,-7.762511548943315e-05,4.294831939879452e-05,2.4386914178683122e-05,7.1429,4.8571
2.26171875,2.9292212132448285e-05,-4.489284951400017e-05,3.80733010620279e-05,2.1480070946822288e-05,7.1429,4.8571
2.265625,2.880773826047148e-05,-2.342460106202795e-05,4.3432793270771316e-05,2.5386141539635285e-05,7.1429,4.8571
2.26953125,2.3902440306706317e-05,-1.1706389283588947e-05,5.8572601770046514e-05,2.7324037027542512e-05,7.1429,4.8571
2.2734375,2.4386914178683122e-05,-7.315844818799138e-06,6.005630300297549e-05,2.196454481879909e-05,7.1429,4.8571
2.27734375,2.880773826047148e-05,-7.315844818799138e-06,4.882256509651329e-05,1.951189584191651e-05,7.1429,4.8571
2.28125,2.7324037027542512e-05,1.1822494850056486e-08,3.9526722677958316e-05,1.951189584191651e-05,7.1429,4.8571
2.28515625,2.2933492562752703e-05,1.1215280784313701e-05,4.782333773556112e-05,1.2184228528267315e-05,7.1429,4.8571
2.2890625,2.0995597074845476e-05,1.7574000354009283e-05,5.615023241016249e-05,8.762631807431119e-06,7.1429,4.8571
2.29296875,2.2933492562752703e-05,2.2933492562752703e-05,6.686921682764933e-05,1.2668702400244121e-05,7.1429,4.8571
2.296875,2.587061541161209e-05,2.048084358587012e-05,6.15097246189059e-05,1.4636877505149896e-05,7.1429,4.8571
2.30078125,2.3902440306706317e-05,1.951189584191651e-05,4.58854422476539e-05,1.7574000354009283e-05,7.1429,4.8571
2.3046875,2.5386141539635285e-05,2.3902440306706317e-05,4.93070389684901e-05,1.805847422598609e-05,7.1429,4.8571
2.30859375,2.7808510899519317e-05,2.9292212132448285e-05,5.2728635689326286e-05,2.0995597074845476e-05,7.1429,4.8571
2.3125,2.880773826047148e-05,3.2199055364309126e-05,6.199419849088271e-05,2.4386914178683122e-05,7.1429,4.8571
2.31640625,3.123010762035551e-05,2.6839563155565704e-05,6.396237359578848e-05,2.5386141539635285e-05,7.1429,4.8571
2.3203125,2.880773826047148e-05,1.805847422598609e-05,3.855777493400471e-05,2.9776686004425094e-05,7.1429,4.8571
2.32421875,2.7808510899519317e-05,2.8292984771496126e-05,2.341796643472951e-05,3.0745633748378704e-05,7.1429,4.8571
2.328125,3.2713808853284484e-05,3.9526722677958316e-05,3.513617821316851e-05,2.5386141539635285e-05,7.1429,4.8571
2.33203125,2.7808510899519317e-05,3.319828272526129e-05,4.2463845526817706e-05,2.0995597074845476e-05,7.1429,4.8571
2.3359375,2.490166766765848e-05,2.9776686004425094e-05,3.513617821316851e-05,2.196454481879909e-05,7.1429,4.8571
2.33984375,2.880773826047148e-05,3.319828272526129e-05,1.951189584191651e-05,2.0995597074845476e-05,7.1429,4.8571
2.34375,2.587061541161209e-05,3.6619879446097485e-05,1.6090299121080312e-05,1.9027421969939702e-05,7.1429,4.8571
2.34765625,2.4386914178683122e-05,4.54009683756771e-05,2.5386141539635285e-05,1.8542948097962897e-05,7.1429,4.8571
2.3515625,2.9776686004425094e-05,5.224416181734948e-05,3.80733010620279e-05,1.6574772993057124e-05,7.1429,4.8571
2.35546875,3.1714581492332315e-05,5.466653117723351e-05,3.2713808853284484e-05,1.6090299121080312e-05,7.1429,4.8571
2.359375,2.880773826047148e-05,5.027598671244371e-05,1.7574000354009283e-05,1.708952648203248e-05,7.1429,4.8571
2.36328125,2.7808510899519317e-05,4.882256509651329e-05,1.6090299121080312e-05,1.805847422598609e-05,7.1429,4.8571
2.3671875,3.0745633748378704e-05,5.5151005049210325e-05,1.8542948097962897e-05,1.805847422598609e-05,7.1429,4.8571
2.37109375,3.1714581492332315e-05,5.172940832837412e-05,2.0995597074845476e-05,1.8542948097962897e-05,7.1429,4.8571
2.375,3.0745633748378704e-05,4.101042391088729e-05,1.7574000354009283e-05,2.1480070946822288e-05,7.1429,4.8571
2.37890625,3.319828272526129e-05,3.80733010620279e-05,8.278157935454312e-06,2.5386141539635285e-05,7.1429,4.8571
2.3828125,3.41672304692149e-05,4.294831939879452e-05,1.1822494850056486e-08,2.587061541161209e-05,7.1429,4.8571
2.38671875,3.123010762035551e-05,4.294831939879452e-05,7.793684063477507e-06,2.0995597074845476e-05,7.1429,4.8571
2.390625,3.0745633748378704e-05,4.149489778286409e-05,2.0995597074845476e-05,1.805847422598609e-05,7.1429,4.8571
2.39453125,3.2713808853284484e-05,4.149489778286409e-05,1.3667929761196283e-05,1.0730806912336894e-05,7.1429,4.8571
2.3984375,3.0745633748378704e-05,3.562065208514532e-05,3.4334192156862512e-06,7.3394898084992515e-06,7.1429,4.8571
2.40234375,3.123010762035551e-05,3.41672304692149e-05,-1.926072993057168e-06,3.917893087663058e-06,7.1429,4.8571
2.40625,3.319828272526129e-05,3.9526722677958316e-05,4.8868408316166696e-06,1.9799975997558325e-06,7.1429,4.8571
2.41015625,3.02611598764019e-05,3.80733010620279e-05,1.3667929761196283e-05,4.402366959639863e-06,7.1429,4.8571
2.4140625,2.7808510899519317e-05,3.758882719005109e-05,6.855015936522445e-06,1.1822494850056486e-08,7.1429,4.8571
2.41796875,2.7324037027542512e-05,3.610512595712213e-05,-9.571252491035569e-07,1.4652441107804755e-06,7.1429,4.8571
2.421875,2.587061541161209e-05,3.46517043411917e-05,-5.8321435858701684e-06,3.917893087663058e-06,7.1429,4.8571
2.42578125,3.2199055364309126e-05,4.101042391088729e-05,-4.3787219699397505e-06,7.3394898084992515e-06,7.1429,4.8571
2.4296875,3.513617821316851e-05,4.3432793270771316e-05,4.8868408316166696e-06,1.0730806912336894e-05,7.1429,4.8571
2.43359375,2.8292984771496126e-05,3.80733010620279e-05,6.855015936522445e-06,9.277385296406477e-06,7.1429,4.8571
2.4375,3.2199055364309126e-05,4.0525950038910486e-05,4.962963668268632e-07,8.762631807431119e-06,7.1429,4.8571
2.44140625,3.80733010620279e-05,4.294831939879452e-05,1.1822494850056486e-08,1.2184228528267315e-05,7.1429,4.8571
2.4453125,3.610512595712213e-05,4.001119654993513e-05,6.3705420645456395e-06,1.2668702400244121e-05,7.1429,4.8571
2.44921875,3.46517043411917e-05,4.782333773556112e-05,9.277385296406477e-06,7.3394898084992515e-06,7.1429,4.8571
2.453125,3.319828272526129e-05,4.782333773556112e-05,1.0730806912336894e-05,8.278157935454312e-06,7.1429,4.8571
2.45703125,3.319828272526129e-05,3.6619879446097485e-05,1.1699754656290508e-05,1.0730806912336894e-05,7.1429,4.8571
2.4609375,3.0745633748378704e-05,2.587061541161209e-05,4.402366959639863e-06,5.886068192568833e-06,7.1429,4.8571
2.46484375,2.9292212132448285e-05,2.8292984771496126e-05,9.80770238803669e-07,4.8868408316166696e-06,7.1429,4.8571
2.46875,3.319828272526129e-05,3.562065208514532e-05,3.917893087663058e-06,5.886068192568833e-06,7.1429,4.8571
2.47265625,3.02611598764019e-05,4.001119654993513e-05,1.2184228528267315e-05,8.278157935454312e-06,7.1429,4.8571
2.4765625,2.8292984771496126e-05,3.610512595712213e-05,9.277385296406477e-06,1.2184228528267315e-05,7.1429,4.8571
2.48046875,3.1714581492332315e-05,2.6839563155565704e-05,-6.8313709468223316e-06,1.2668702400244121e-05,7.1429,4.8571
2.484375,3.123010762035551e-05,3.02611598764019e-05,-9.571252491035569e-07,1.1699754656290508e-05,7.1429,4.8571
2.48828125,3.46517043411917e-05,4.101042391088729e-05,1.3667929761196283e-05,1.1215280784313701e-05,7.1429,4.8571
2.4921875,3.319828272526129e-05,4.294831939879452e-05,1.0730806912336894e-05,1.1215280784313701e-05,7.1429,4.8571
2.49609375,3.2199055364309126e-05,3.41672304692149e-05,1.0246333040360089e-05,1.2668702400244121e-05,7.1429,4.8571
2.5,3.80733010620279e-05,2.587061541161209e-05,1.7574000354009283e-05,1.951189584191651e-05,7.1429,4.8571
2.50390625,3.610512595712213e-05,3.02611598764019e-05,1.5605825249103507e-05,1.708952648203248e-05,7.1429,4.8571
2.5078125,3.319828272526129e-05,3.562065208514532e-05,1.5121351377126703e-05,1.1215280784313701e-05,7.1429,4.8571
2.51171875,3.319828272526129e-05,3.562065208514532e-05,2.24490186907759e-05,1.415240363317309e-05,7.1429,4.8571
2.515625,3.2199055364309126e-05,3.02611598764019e-05,2.9776686004425094e-05,1.415240363317309e-05,7.1429,4.8571
2.51953125,2.7324037027542512e-05,3.0745633748378704e-05,3.41672304692149e-05,1.6574772993057124e-05,7.1429,4.8571
2.5234375,2.7808510899519317e-05,4.0525950038910486e-05,3.123010762035551e-05,2.341796643472951e-05,7.1429,4.8571
2.52734375,3.6619879446097485e-05,2.7808510899519317e-05,1.0730806912336894e-05,1.5605825249103507e-05,7.1429,4.8571
2.53125,3.904224880598151e-05,1.1699754656290508e-05,-3.4097742259861386e-06,8.762631807431119e-06,7.1429,4.8571
2.53515625,2.880773826047148e-05,2.24490186907759e-05,8.762631807431119e-06,1.2668702400244121e-05,7.1429,4.8571
2.5390625,3.0745633748378704e-05,3.610512595712213e-05,2.0995597074845476e-05,1.3667929761196283e-05,7.1429,4.8571
2.54296875,4.0525950038910486e-05,2.4386914178683122e-05,3.4334192156862512e-06,9.277385296406477e-06,7.1429,4.8571
2.546875,3.562065208514532e-05,2.341796643472951e-05,-6.346897074845526e-06,5.371314703593476e-06,7.1429,4.8571
2.55078125,3.513617821316851e-05,4.101042391088729e-05,1.9996369713893316e-05,2.948945343709445e-06,7.1429,4.8571
2.5546875,4.101042391088729e-05,3.9526722677958316e-05,2.196454481879909e-05,3.917893087663058e-06,7.1429,4.8571
2.55859375,3.9526722677958316e-05,3.123010762035551e-05,9.80770238803669e-07,9.277385296406477e-06,7.1429,4.8571
2.5625,3.758882719005109e-05,3.319828272526129e-05,-4.726513771267493e-07,1.2668702400244121e-05,7.1429,4.8571
2.56640625,3.904224880598151e-05,3.562065208514532e-05,4.402366959639863e-06,1.415240363317309e-05,7.1429,4.8571
2.5703125,3.6619879446097485e-05,3.7104353318074283e-05,1.5121351377126703e-05,1.5605825249103507e-05,7.1429,4.8571
2.57421875,3.80733010620279e-05,3.6619879446097485e-05,1.708952648203248e-05,1.7574000354009283e-05,7.1429,4.8571
2.578125,3.855777493400471e-05,2.9776686004425094e-05,9.761859168383284e-06,1.708952648203248e-05,7.1429,4.8571
2.58203125,3.6619879446097485e-05,2.9292212132448285e-05,9.761859168383284e-06,1.708952648203248e-05,7.1429,4.8571
2.5859375,3.513617821316851e-05,3.2713808853284484e-05,1.6574772993057124e-05,1.9027421969939702e-05,7.1429,4.8571
2.58984375,3.610512595712213e-05,3.855777493400471e-05,2.3902440306706317e-05,1.8542948097962897e-05,7.1429,4.8571
2.59375,3.2713808853284484e-05,3.80733010620279e-05,2.587061541161209e-05,1.6574772993057124e-05,7.1429,4.8571
2.59765625,3.562065208514532e-05,3.9526722677958316e-05,2.048084358587012e-05,1.6574772993057124e-05,7.1429,4.8571
2.6015625,3.513617821316851e-05,3.80733010620279e-05,7.3394898084992515e-06,1.6574772993057124e-05,7.1429,4.8571
2.60546875,2.7324037027542512e-05,2.9776686004425094e-05,7.3394898084992515e-06,1.5605825249103507e-05,7.1429,4.8571
2.609375,3.123010762035551e-05,3.46517043411917e-05,2.490166766765848e-05,1.9027421969939702e-05,7.1429,4.8571
2.61328125,3.02611598764019e-05,2.8292984771496126e-05,2.587061541161209e-05,2.4386914178683122e-05,7.1429,4.8571
2.6171875,3.02611598764019e-05,1.9027421969939702e-05,8.278157935454312e-06,2.5386141539635285e-05,7.1429,4.8571
2.62109375,3.123010762035551e-05,1.9027421969939702e-05,1.9799975997558325e-06,2.7808510899519317e-05,7.1429,4.8571
2.625,2.63550892835889e-05,1.9996369713893316e-05,1.415240363317309e-05,2.6839563155565704e-05,7.1429,4.8571
2.62890625,2.7808510899519317e-05,2.587061541161209e-05,2.9292212132448285e-05,2.048084358587012e-05,7.1429,4.8571
2.6328125,3.2713808853284484e-05,3.46517043411917e-05,3.2199055364309126e-05,2.0995597074845476e-05,7.1429,4.8571
2.63671875,3.123010762035551e-05,2.9776686004425094e-05,1.9996369713893316e-05,2.490166766765848e-05,7.1429,4.8571
2.640625,3.46517043411917e-05,3.02611598764019e-05,1.6574772993057124e-05,2.4386914178683122e-05,7.1429,4.8571
2.64453125,3.758882719005109e-05,4.001119654993513e-05,2.24490186907759e-05,2.24490186907759e-05,7.1429,4.8571
2.6484375,3.41672304692149e-05,3.610512595712213e-05,3.02611598764019e-05,2.341796643472951e-05,7.1429,4.8571
2.65234375,3.2199055364309126e-05,2.9292212132448285e-05,3.123010762035551e-05,2.196454481879909e-05,7.1429,4.8571
2.65625,3.46517043411917e-05,3.2713808853284484e-05,2.490166766765848e-05,1.9027421969939702e-05,7.1429,4.8571
2.66015625,3.41672304692149e-05,2.7324037027542512e-05,2.048084358587012e-05,1.951189584191651e-05,7.1429,4.8571
2.6640625,3.123010762035551e-05,2.63550892835889e-05,2.0995597074845476e-05,2.24490186907759e-05,7.1429,4.8571
2.66796875,3.3682756597238095e-05,3.2713808853284484e-05,3.02611598764019e-05,1.951189584191651e-05,7.1429,4.8571
2.671875,3.319828272526129e-05,3.610512595712213e-05,3.6619879446097485e-05,1.6574772993057124e-05,7.1429,4.8571
2.67578125,3.2713808853284484e-05,3.7104353318074283e-05,3.0745633748378704e-05,2.0995597074845476e-05,7.1429,4.8571
2.6796875,4.101042391088729e-05,3.80733010620279e-05,1.1699754656290508e-05,1.708952648203248e-05,7.1429,4.8571
2.68359375,4.391726714274813e-05,3.6619879446097485e-05,5.371314703593476e-06,7.3394898084992515e-06,7.1429,4.8571
2.6875,3.9526722677958316e-05,4.0525950038910486e-05,2.9776686004425094e-05,5.886068192568833e-06,7.1429,4.8571
2.69140625,3.758882719005109e-05,4.19793716548409e-05,3.513617821316851e-05,4.402366959639863e-06,7.1429,4.8571
2.6953125,3.123010762035551e-05,2.7324037027542512e-05,1.805847422598609e-05,4.962963668268632e-07,7.1429,4.8571
2.69921875,2.9292212132448285e-05,2.490166766765848e-05,1.415240363317309e-05,2.4644714717326384e-06,7.1429,4.8571
2.703125,3.123010762035551e-05,3.2713808853284484e-05,1.0246333040360089e-05,3.917893087663058e-06,7.1429,4.8571
2.70703125,2.9776686004425094e-05,3.0745633748378704e-05,1.708952648203248e-05,4.8868408316166696e-06,7.1429,4.8571
2.7109375,2.8292984771496126e-05,3.41672304692149e-05,3.3682756597238095e-05,1.0246333040360089e-05,7.1429,4.8571
2.71484375,3.02611598764019e-05,3.610512595712213e-05,3.41672304692149e-05,1.1215280784313701e-05,7.1429,4.8571
2.71875,2.8292984771496126e-05,3.02611598764019e-05,2.4386914178683122e-05,9.761859168383284e-06,7.1429,4.8571
2.72265625,2.9292212132448285e-05,2.8292984771496126e-05,1.4636877505149896e-05,6.3705420645456395e-06,7.1429,4.8571
2.7265625,3.2713808853284484e-05,2.490166766765848e-05,2.2933492562752703e-05,8.762631807431119e-06,7.1429,4.8571
2.73046875,3.513617821316851e-05,2.4386914178683122e-05,3.3682756597238095e-05,1.2184228528267315e-05,7.1429,4.8571
2.734375,3.6619879446097485e-05,2.5386141539635285e-05,3.2199055364309126e-05,7.793684063477507e-06,7.1429,4.8571
2.73828125,2.9292212132448285e-05,1.6090299121080312e-05,2.490166766765848e-05,8.762631807431119e-06,7.1429,4.8571
2.7421875,2.2933492562752703e-05,1.2184228528267315e-05,1.7574000354009283e-05,1.3183455889219476e-05,7.1429,4.8571
2.74609375,2.880773826047148e-05,2.24490186907759e-05,2.490166766765848e-05,1.1215280784313701e-05,7.1429,4.8571
2.75,3.0745633748378704e-05,2.880773826047148e-05,2.7324037027542512e-05,1.3183455889219476e-05,7.1429,4.8571
2.75390625,2.490166766765848e-05,3.123010762035551e-05,2.6839563155565704e-05,2.1480070946822288e-05,7.1429,4.8571
2.7578125,2.7808510899519317e-05,2.9292212132448285e-05,2.3902440306706317e-05,2.24490186907759e-05,7.1429,4.8571
2.76171875,2.7324037027542512e-05,2.341796643472951e-05,1.9027421969939702e-05,2.0995597074845476e-05,7.1429,4.8571
2.765625,2.8292984771496126e-05,2.587061541161209e-05,2.490166766765848e-05,1.951189584191651e-05,7.1429,4.8571
2.76953125,3.41672304692149e-05,3.123010762035551e-05,3.1714581492332315e-05,1.415240363317309e-05,7.1429,4.8571
2.7734375,3.562065208514532e-05,3.123010762035551e-05,3.6619879446097485e-05,1.3183455889219476e-05,7.1429,4.8571
2.77734375,3.562065208514532e-05,2.6839563155565704e-05,3.2713808853284484e-05,1.6574772993057124e-05,7.1429,4.8571
2.78125,2.8292984771496126e-05,1.8542948097962897e-05,2.048084358587012e-05,1.805847422598609e-05,7.1429,4.8571
2.78515625,3.02611598764019e-05,2.490166766765848e-05,2.880773826047148e-05,1.8542948097962897e-05,7.1429,4.8571
2.7890625,3.6619879446097485e-05,3.610512595712213e-05,3.80733010620279e-05,1.9996369713893316e-05,7.1429,4.8571
2.79296875,3.513617821316851e-05,3.7104353318074283e-05,3.9526722677958316e-05,1.9996369713893316e-05,7.1429,4.8571
2.796875,3.41672304692149e-05,4.2463845526817706e-05,3.3682756597238095e-05,1.9027421969939702e-05,7.1429,4.8571
2.80078125,3.41672304692149e-05,4.685438999160752e-05,2.7324037027542512e-05,1.8542948097962897e-05,7.1429,4.8571
2.8046875,3.7104353318074283e-05,3.562065208514532e-05,2.3902440306706317e-05,1.951189584191651e-05,7.1429,4.8571
2.80859375,3.7104353318074283e-05,4.001119654993513e-05,2.880773826047148e-05,2.341796643472951e-05,7.1429,4.8571
2.8125,3.758882719005109e-05,4.685438999160752e-05,3.41672304692149e-05,2.341796643472951e-05,7.1429,4.8571
2.81640625,3.9526722677958316e-05,3.2713808853284484e-05,1.7574000354009283e-05,1.951189584191651e-05,7.1429,4.8571
2.8203125,3.562065208514532e-05,2.9292212132448285e-05,1.415240363317309e-05,2.196454481879909e-05,7.1429,4.8571
2.82421875,3.855777493400471e-05,3.319828272526129e-05,1.805847422598609e-05,2.3902440306706317e-05,7.1429,4.8571
2.828125,3.7104353318074283e-05,3.758882719005109e-05,2.24490186907759e-05,1.951189584191651e-05,7.1429,4.8571
2.83203125,2.8292984771496126e-05,6.054077687495229e-05,5.027598671244371e-05,1.805847422598609e-05,7.1429,4.8571
2.8359375,2.7324037027542512e-05,5.466653117723351e-05,4.58854422476539e-05,2.048084358587012e-05,7.1429,4.8571
2.83984375,3.02611598764019e-05,2.048084358587012e-05,5.371314703593476e-06,1.9027421969939702e-05,7.1429,4.8571
2.84375,3.41672304692149e-05,1.708952648203248e-05,4.8868408316166696e-06,1.5605825249103507e-05,7.1429,4.8571
2.84765625,3.562065208514532e-05,2.341796643472951e-05,1.2184228528267315e-05,1.6090299121080312e-05,7.1429,4.8571
2.8515625,3.3682756597238095e-05,1.8542948097962897e-05,1.4652441107804755e-06,1.3667929761196283e-05,7.1429,4.8571
2.85546875,3.319828272526129e-05,1.1215280784313701e-05,3.917893087663058e-06,1.0246333040360089e-05,7.1429,4.8571
2.859375,3.3682756597238095e-05,7.793684063477507e-06,5.371314703593476e-06,1.0246333040360089e-05,7.1429,4.8571
2.86328125,2.9776686004425094e-05,9.277385296406477e-06,7.3394898084992515e-06,7.793684063477507e-06,7.1429,4.8571
2.8671875,2.63550892835889e-05,1.5605825249103507e-05,2.24490186907759e-05,4.402366959639863e-06,7.1429,4.8571
2.87109375,2.7324037027542512e-05,3.41672304692149e-05,3.2199055364309126e-05,9.80770238803669e-07,7.1429,4.8571
2.875,2.9292212132448285e-05,3.904224880598151e-05,2.9292212132448285e-05,1.4652441107804755e-06,7.1429,4.8571
2.87890625,2.63550892835889e-05,2.4386914178683122e-05,2.341796643472951e-05,1.1822494850056486e-08,7.1429,4.8571
2.8828125,2.7808510899519317e-05,2.6839563155565704e-05,2.1480070946822288e-05,2.948945343709445e-06,7.1429,4.8571
2.88671875,3.1714581492332315e-05,3.7104353318074283e-05,2.880773826047148e-05,7.3394898084992515e-06,7.1429,4.8571
2.890625,2.7324037027542512e-05,4.001119654993513e-05,4.294831939879452e-05,7.793684063477507e-06,7.1429,4.8571
2.89453125,2.9292212132448285e-05,3.0745633748378704e-05,3.80733010620279e-05,6.855015936522445e-06,7.1429,4.8571
2.8984375,3.7104353318074283e-05,2.4386914178683122e-05,1.5605825249103507e-05,4.402366959639863e-06,7.1429,4.8571
2.90234375,3.904224880598151e-05,3.2713808853284484e-05,1.415240363317309e-05,4.8868408316166696e-06,7.1429,4.8571
2.90625,3.3682756597238095e-05,3.6619879446097485e-05,2.3902440306706317e-05,5.886068192568833e-06,7.1429,4.8571
2.91015625,3.1714581492332315e-05,4.3432793270771316e-05,3.41672304692149e-05,2.948945343709445e-06,7.1429,4.8571
2.9140625,3.46517043411917e-05,4.443202063172348e-05,4.782333773556112e-05,1.4652441107804755e-06,7.1429,4.8571
2.91796875,3.513617821316851e-05,3.562065208514532e-05,3.46517043411917e-05,4.962963668268632e-07,7.1429,4.8571
2.921875,3.46517043411917e-05,3.41672304692149e-05,1.9996369713893316e-05,-2.4408264820325253e-06,7.1429,4.8571
2.92578125,3.3682756597238095e-05,4.0525950038910486e-05,3.41672304692149e-05,-1.4415991210803618e-06,7.1429,4.8571
2.9296875,3.513617821316851e-05,4.636991611963071e-05,5.172940832837412e-05,2.4644714717326384e-06,7.1429,4.8571
2.93359375,3.562065208514532e-05,3.80733010620279e-05,4.443202063172348e-05,1.4652441107804755e-06,7.1429,4.8571
2.9375,3.758882719005109e-05,3.0745633748378704e-05,3.2713808853284484e-05,4.402366959639863e-06,7.1429,4.8571
2.94140625,3.7104353318074283e-05,3.1714581492332315e-05,3.123010762035551e-05,1.5121351377126703e-05,7.1429,4.8571
2.9453125,3.2713808853284484e-05,3.02611598764019e-05,2.880773826047148e-05,1.5605825249103507e-05,7.1429,4.8571
2.94921875,3.2713808853284484e-05,2.9776686004425094e-05,3.7104353318074283e-05,1.9027421969939702e-05,7.1429,4.8571
2.953125,2.9776686004425094e-05,2.7808510899519317e-05,4.443202063172348e-05,2.0995597074845476e-05,7.1429,4.8571
2.95703125,2.196454481879909e-05,2.490166766765848e-05,3.3682756597238095e-05,1.6574772993057124e-05,7.1429,4.8571
2.9609375,2.4386914178683122e-05,2.048084358587012e-05,1.6090299121080312e-05,1.5121351377126703e-05,7.1429,4.8571
2.96484375,2.9292212132448285e-05,1.708952648203248e-05,1.8542948097962897e-05,1.5605825249103507e-05,7.1429,4.8571
2.96875,2.9292212132448285e-05,1.6574772993057124e-05,2.9776686004425094e-05,2.048084358587012e-05,7.1429,4.8571
2.97265625,3.319828272526129e-05,2.7808510899519317e-05,3.80733010620279e-05,2.0995597074845476e-05,7.1429,4.8571
2.9765625,3.41672304692149e-05,3.1714581492332315e-05,4.294831939879452e-05,2.3902440306706317e-05,7.1429,4.8571
2.98046875,3.0745633748378704e-05,2.5386141539635285e-05,2.8292984771496126e-05,2.880773826047148e-05,7.1429,4.8571
2.984375,2.9292212132448285e-05,3.123010762035551e-05,2.2933492562752703e-05,2.24490186907759e-05,7.1429,4.8571
2.98828125,3.610512595712213e-05,4.2463845526817706e-05,3.855777493400471e-05,2.1480070946822288e-05,7.1429,4.8571
2.9921875,3.513617821316851e-05,4.149489778286409e-05,4.54009683756771e-05,1.951189584191651e-05,7.1429,4.8571
2.99609375,2.9292212132448285e-05,3.513617821316851e-05,4.443202063172348e-05,1.9996369713893316e-05,7.1429,4.8571
3.0,2.6839563155565704e-05,2.3902440306706317e-05,2.5386141539635285e-05,2.5386141539635285e-05,7.1429,4.8571
3.00390625,3.1714581492332315e-05,2.24490186907759e-05,2.0995597074845476e-05,2.587061541161209e-05,7.1429,4.8571
3.0078125,3.562065208514532e-05,3.41672304692149e-05,3.2199055364309126e-05,2.587061541161209e-05,7.1429,4.8571
3.01171875,2.6839563155565704e-05,3.758882719005109e-05,3.855777493400471e-05,2.6839563155565704e-05,7.1429,4.8571
3.015625,2.5386141539635285e-05,3.1714581492332315e-05,3.3682756597238095e-05,2.2933492562752703e-05,7.1429,4.8571
3.01953125,2.8292984771496126e-05,2.7808510899519317e-05,1.7574000354009283e-05,1.4636877505149896e-05,7.1429,4.8571
3.0234375,2.5386141539635285e-05,3.2713808853284484e-05,1.951189584191651e-05,1.1215280784313701e-05,7.1429,4.8571
3.02734375,2.587061541161209e-05,3.513617821316851e-05,2.3902440306706317e-05,1.1699754656290508e-05,7.1429,4.8571
3.03125,3.0745633748378704e-05,3.319828272526129e-05,2.9292212132448285e-05,1.3667929761196283e-05,7.1429,4.8571
3.03515625,2.8292984771496126e-05,3.2713808853284484e-05,3.513617821316851e-05,1.0246333040360089e-05,7.1429,4.8571
3.0390625,2.196454481879909e-05,2.3902440306706317e-05,1.805847422598609e-05,7.793684063477507e-06,7.1429,4.8571
3.04296875,2.341796643472951e-05,1.8542948097962897e-05,1.415240363317309e-05,1.3183455889219476e-05,7.1429,4.8571
3.046875,2.7324037027542512e-05,2.587061541161209e-05,2.048084358587012e-05,1.3183455889219476e-05,7.1429,4.8571
3.05078125,1.805847422598609e-05,2.880773826047148e-05,2.63550892835889e-05,1.2668702400244121e-05,7.1429,4.8571
3.0546875,1.415240363317309e-05,3.80733010620279e-05,4.685438999160752e-05,1.7574000354009283e-05,7.1429,4.8571
3.05859375,2.7324037027542512e-05,3.6619879446097485e-05,4.391726714274813e-05,1.2184228528267315e-05,7.1429,4.8571
3.0625,3.610512595712213e-05,-1.4415991210803618e-06,-2.4408264820325253e-06,3.917893087663058e-06,7.1429,4.8571
3.06640625,2.7324037027542512e-05,-1.0737441539635333e-05,-1.8065108853284528e-05,1.4652441107804755e-06,7.1429,4.8571
3.0703125,2.2933492562752703e-05,1.6090299121080312e-05,1.805847422598609e-05,5.371314703593476e-06,7.1429,4.8571
3.07421875,2.6839563155565704e-05,1.805847422598609e-05,2.8292984771496126e-05,1.0246333040360089e-05,7.1429,4.8571
3.078125,3.319828272526129e-05,1.4636877505149896e-05,1.6090299121080312e-05,6.3705420645456395e-06,7.1429,4.8571
3.08203125,3.7104353318074283e-05,1.4636877505149896e-05,1.3183455889219476e-05,8.278157935454312e-06,7.1429,4.8571
3.0859375,3.0745633748378704e-05,1.9996369713893316e-05,1.415240363317309e-05,8.762631807431119e-06,7.1429,4.8571
3.08984375,2.490166766765848e-05,2.9292212132448285e-05,2.1480070946822288e-05,3.917893087663058e-06,7.1429,4.8571
3.09375,2.63550892835889e-05,3.319828272526129e-05,2.587061541161209e-05,8.762631807431119e-06,7.1429,4.8571
3.09765625,2.9292212132448285e-05,3.610512595712213e-05,2.3902440306706317e-05,1.2184228528267315e-05,7.1429,4.8571
3.1015625,3.2199055364309126e-05,3.0745633748378704e-05,1.9027421969939702e-05,1.415240363317309e-05,7.1429,4.8571
3.10546875,3.0745633748378704e-05,2.7324037027542512e-05,1.5121351377126703e-05,1.3183455889219476e-05,7.1429,4.8571
3.109375,3.0745633748378704e-05,3.2199055364309126e-05,2.0995597074845476e-05,7.3394898084992515e-06,7.1429,4.8571
3.11328125,3.41672304692149e-05,3.46517043411917e-05,2.2933492562752703e-05,5.886068192568833e-06,7.1429,4.8571
3.1171875,3.123010762035551e-05,2.4386914178683122e-05,1.1215280784313701e-05,5.371314703593476e-06,7.1429,4.8571
3.12109375,2.9292212132448285e-05,2.0995597074845476e-05,8.278157935454312e-06,3.917893087663058e-06,7.1429,4.8571
3.125,3.2713808853284484e-05,2.9776686004425094e-05,1.3667929761196283e-05,1.4652441107804755e-06,7.1429,4.8571
3.12890625,3.46517043411917e-05,3.2199055364309126e-05,1.951189584191651e-05,-9.571252491035569e-07,7.1429,4.8571
3.1328125,3.46517043411917e-05,3.123010762035551e-05,2.587061541161209e-05,-2.9253003540093317e-06,7.1429,4.8571
3.13671875,3.46517043411917e-05,2.490166766765848e-05,1.951189584191651e-05,-4.8631958419165565e-06,7.1429,4.8571
3.140625,3.562065208514532e-05,1.6090299121080312e-05,1.5605825249103507e-05,-9.571252491035569e-07,7.1429,4.8571
3.14453125,3.855777493400471e-05,2.2933492562752703e-05,2.196454481879909e-05,-9.571252491035569e-07,7.1429,4.8571
3.1484375,3.855777493400471e-05,2.8292984771496126e-05,2.5386141539635285e-05,-1.4415991210803618e-06,7.1429,4.8571
3.15234375,3.41672304692149e-05,2.490166766765848e-05,3.6619879446097485e-05,1.1822494850056486e-08,7.1429,4.8571
3.15625,2.8292984771496126e-05,2.0995597074845476e-05,3.513617821316851e-05,-3.4097742259861386e-06,7.1429,4.8571
3.16015625,2.4386914178683122e-05,1.0246333040360089e-05,1.7574000354009283e-05,-5.8321435858701684e-06,7.1429,4.8571
3.1640625,2.2933492562752703e-05,9.761859168383284e-06,1.9027421969939702e-05,-2.4408264820325253e-06,7.1429,4.8571
3.16796875,2.0995597074845476e-05,1.7574000354009283e-05,2.7808510899519317e-05,-2.4408264820325253e-06,7.1429,4.8571
3.171875,1.8542948097962897e-05,1.8542948097962897e-05,3.6619879446097485e-05,-5.8321435858701684e-06,7.1429,4.8571
3.17578125,2.1480070946822288e-05,1.4636877505149896e-05,4.0525950038910486e-05,-2.4408264820325253e-06,7.1429,4.8571
3.1796875,2.63550892835889e-05,5.371314703593476e-06,2.24490186907759e-05,4.962963668268632e-07,7.1429,4.8571
3.18359375,2.0995597074845476e-05,-4.726513771267493e-07,1.805847422598609e-05,-3.894248097962944e-06,7.1429,4.8571
3.1875,1.6090299121080312e-05,2.4644714717326384e-06,3.1714581492332315e-05,-4.3787219699397505e-06,7.1429,4.8571
3.19140625,1.951189584191651e-05,8.762631807431119e-06,3.562065208514532e-05,-2.4408264820325253e-06,7.1429,4.8571
3.1953125,2.63550892835889e-05,9.277385296406477e-06,3.7104353318074283e-05,-3.894248097962944e-06,7.1429,4.8571
3.19921875,2.7324037027542512e-05,1.9799975997558325e-06,2.3902440306706317e-05,-3.4097742259861386e-06,7.1429,4.8571
3.203125,2.3902440306706317e-05,-3.4097742259861386e-06,1.5121351377126703e-05,1.1822494850056486e-08,7.1429,4.8571
3.20703125,2.880773826047148e-05,-9.571252491035569e-07,2.2933492562752703e-05,-1.926072993057168e-06,7.1429,4.8571
3.2109375,3.904224880598151e-05,1.9799975997558325e-06,2.880773826047148e-05,-1.926072993057168e-06,7.1429,4.8571
3.21484375,3.9526722677958316e-05,-4.726513771267493e-07,3.41672304692149e-05,3.4334192156862512e-06,7.1429,4.8571
3.21875,3.1714581492332315e-05,2.948945343709445e-06,2.24490186907759e-05,5.371314703593476e-06,7.1429,4.8571
3.22265625,3.2199055364309126e-05,1.0730806912336894e-05,1.4636877505149896e-05,4.8868408316166696e-06,7.1429,4.8571
3.2265625,3.41672304692149e-05,2.2933492562752703e-05,2.490166766765848e-05,3.917893087663058e-06,7.1429,4.8571
3.23046875,3.513617821316851e-05,3.319828272526129e-05,3.2713808853284484e-05,9.80770238803669e-07,7.1429,4.8571
3.234375,3.3682756597238095e-05,2.63550892835889e-05,3.41672304692149e-05,-5.347669713893363e-06,7.1429,4.8571
3.23828125,3.2713808853284484e-05,2.24490186907759e-05,2.196454481879909e-05,-6.346897074845526e-06,7.1429,4.8571
3.2421875,3.2713808853284484e-05,1.7574000354009283e-05,1.1215280784313701e-05,-4.3787219699397505e-06,7.1429,4.8571
3.24609375,3.3682756597238095e-05,1.6090299121080312e-05,2.24490186907759e-05,-4.8631958419165565e-06,7.1429,4.8571
3.25,3.513617821316851e-05,2.341796643472951e-05,3.46517043411917e-05,-9.571252491035569e-07,7.1429,4.8571
3.25390625,3.319828272526129e-05,1.9996369713893316e-05,3.2713808853284484e-05,2.4644714717326384e-06,7.1429,4.8571
3.2578125,3.1714581492332315e-05,1.6090299121080312e-05,2.587061541161209e-05,9.80770238803669e-07,7.1429,4.8571
3.26171875,2.8292984771496126e-05,2.0995597074845476e-05,1.951189584191651e-05,1.9799975997558325e-06,7.1429,4.8571
3.265625,2.63550892835889e-05,2.490166766765848e-05,2.2933492562752703e-05,9.80770238803669e-07,7.1429,4.8571
3.26953125,3.123010762035551e-05,2.490166766765848e-05,3.562065208514532e-05,1.1822494850056486e-08,7.1429,4.8571
3.2734375,3.610512595712213e-05,2.880773826047148e-05,3.513617821316851e-05,4.962963668268632e-07,7.1429,4.8571
3.27734375,3.80733010620279e-05,3.9526722677958316e-05,3.46517043411917e-05,-1.4415991210803618e-06,7.1429,4.8571
3.28125,3.7104353318074283e-05,5.172940832837412e-05,4.101042391088729e-05,6.855015936522445e-06,7.1429,4.8571
3.28515625,2.8292984771496126e-05,3.9526722677958316e-05,3.02611598764019e-05,1.5121351377126703e-05,7.1429,4.8571
3.2890625,2.4386914178683122e-05,1.6574772993057124e-05,1.2668702400244121e-05,1.0246333040360089e-05,7.1429,4.8571
3.29296875,2.9292212132448285e-05,1.6090299121080312e-05,1.6090299121080312e-05,5.886068192568833e-06,7.1429,4.8571
3.296875,3.610512595712213e-05,2.4386914178683122e-05,2.24490186907759e-05,1.3667929761196283e-05,7.1429,4.8571
3.30078125,3.3682756597238095e-05,2.7808510899519317e-05,2.2933492562752703e-05,2.24490186907759e-05,7.1429,4.8571
3.3046875,2.8292984771496126e-05,2.8292984771496126e-05,2.9776686004425094e-05,2.2933492562752703e-05,7.1429,4.8571
3.30859375,2.880773826047148e-05,2.9776686004425094e-05,2.9776686004425094e-05,2.1480070946822288e-05,7.1429,4.8571
3.3125,3.02611598764019e-05,3.6619879446097485e-05,2.7324037027542512e-05,2.24490186907759e-05,7.1429,4.8571
3.31640625,2.7808510899519317e-05,3.6619879446097485e-05,1.7574000354009283e-05,2.3902440306706317e-05,7.1429,4.8571
3.3203125,2.880773826047148e-05,3.46517043411917e-05,9.761859168383284e-06,2.5386141539635285e-05,7.1429,4.8571
3.32421875,3.0745633748378704e-05,3.2713808853284484e-05,1.951189584191651e-05,2.490166766765848e-05,7.1429,4.8571
3.328125,3.0745633748378704e-05,3.80733010620279e-05,3.562065208514532e-05,2.0995597074845476e-05,7.1429,4.8571
3.33203125,3.1714581492332315e-05,4.782333773556112e-05,3.562065208514532e-05,1.951189584191651e-05,7.1429,4.8571
3.3359375,3.2199055364309126e-05,3.904224880598151e-05,2.341796643472951e-05,1.9996369713893316e-05,7.1429,4.8571
3.33984375,2.9292212132448285e-05,3.0745633748378704e-05,1.3183455889219476e-05,1.8542948097962897e-05,7.1429,4.8571
3.34375,2.9292212132448285e-05,3.80733010620279e-05,1.2668702400244121e-05,1.951189584191651e-05,7.1429,4.8571
3.34765625,3.2713808853284484e-05,4.782333773556112e-05,2.196454481879909e-05,1.805847422598609e-05,7.1429,4.8571
3.3515625,2.880773826047148e-05,4.491649450370029e-05,3.319828272526129e-05,1.8542948097962897e-05,7.1429,4.8571
3.35546875,2.7324037027542512e-05,3.904224880598151e-05,3.0745633748378704e-05,1.9027421969939702e-05,7.1429,4.8571
3.359375,2.3902440306706317e-05,2.8292984771496126e-05,1.8542948097962897e-05,1.951189584191651e-05,7.1429,4.8571
3.36328125,2.24490186907759e-05,1.9996369713893316e-05,1.5605825249103507e-05,2.5386141539635285e-05,7.1429,4.8571
3.3671875,2.341796643472951e-05,3.2199055364309126e-05,2.587061541161209e-05,2.6839563155565704e-05,7.1429,4.8571
3.37109375,2.0995597074845476e-05,3.758882719005109e-05,3.6619879446097485e-05,2.196454481879909e-05,7.1429,4.8571
3.375,2.0995597074845476e-05,2.9776686004425094e-05,3.0745633748378704e-05,1.5605825249103507e-05,7.1429,4.8571
3.37890625,2.4386914178683122e-05,2.3902440306706317e-05,1.9996369713893316e-05,1.1215280784313701e-05,7.1429,4.8571
3.3828125,2.3902440306706317e-05,1.708952648203248e-05,1.415240363317309e-05,1.0246333040360089e-05,7.1429,4.8571
3.38671875,1.8542948097962897e-05,1.5605825249103507e-05,1.2184228528267315e-05,4.8868408316166696e-06,7.1429,4.8571
3.390625,1.5121351377126703e-05,1.7574000354009283e-05,2.1480070946822288e-05,9.80770238803669e-07,7.1429,4.8571
3.39453125,1.6574772993057124e-05,2.2933492562752703e-05,2.24490186907759e-05,6.3705420645456395e-06,7.1429,4.8571
3.3984375,1.805847422598609e-05,2.196454481879909e-05,1.0730806912336894e-05,1.3667929761196283e-05,7.1429,4.8571
3.40234375,2.2933492562752703e-05,2.196454481879909e-05,7.793684063477507e-06,1.5121351377126703e-05,7.1429,4.8571
3.40625,2.490166766765848e-05,3.46517043411917e-05,1.805847422598609e-05,1.2184228528267315e-05,7.1429,4.8571
3.41015625,2.341796643472951e-05,3.855777493400471e-05,2.341796643472951e-05,1.0246333040360089e-05,7.1429,4.8571
3.4140625,2.9292212132448285e-05,3.904224880598151e-05,1.9996369713893316e-05,8.278157935454312e-06,7.1429,4.8571
3.41796875,2.63550892835889e-05,3.2713808853284484e-05,1.9996369713893316e-05,6.855015936522445e-06,7.1429,4.8571
3.421875,2.9292212132448285e-05,2.880773826047148e-05,1.5121351377126703e-05,4.8868408316166696e-06,7.1429,4.8571
3.42578125,3.562065208514532e-05,3.6619879446097485e-05,1.805847422598609e-05,1.1822494850056486e-08,7.1429,4.8571
3.4296875,2.9292212132448285e-05,3.904224880598151e-05,2.0995597074845476e-05,2.948945343709445e-06,7.1429,4.8571
3.43359375,2.63550892835889e-05,4.0525950038910486e-05,2.1480070946822288e-05,7.3394898084992515e-06,7.1429,4.8571
3.4375,2.587061541161209e-05,3.7104353318074283e-05,2.7324037027542512e-05,9.277385296406477e-06,7.1429,4.8571
3.44140625,2.5386141539635285e-05,3.0745633748378704e-05,2.2933492562752703e-05,1.5121351377126703e-05,7.1429,4.8571
3.4453125,2.6839563155565704e-05,2.8292984771496126e-05,2.6839563155565704e-05,1.4636877505149896e-05,7.1429,4.8571
3.44921875,2.3902440306706317e-05,2.880773826047148e-05,3.9526722677958316e-05,8.762631807431119e-06,7.1429,4.8571
3.453125,2.4386914178683122e-05,2.9292212132448285e-05,3.41672304692149e-05,1.9799975997558325e-06,7.1429,4.8571
3.45703125,2.1480070946822288e-05,1.9027421969939702e-05,2.048084358587012e-05,2.4644714717326384e-06,7.1429,4.8571
3.4609375,1.951189584191651e-05,1.8542948097962897e-05,1.4636877505149896e-05,9.277385296406477e-06,7.1429,4.8571
3.46484375,2.4386914178683122e-05,2.63550892835889e-05,2.587061541161209e-05,1.6090299121080312e-05,7.1429,4.8571
3.46875,2.4386914178683122e-05,2.880773826047148e-05,3.610512595712213e-05,2.1480070946822288e-05,7.1429,4.8571
3.47265625,2.587061541161209e-05,3.2713808853284484e-05,3.855777493400471e-05,1.951189584191651e-05,7.1429,4.8571
3.4765625,3.0745633748378704e-05,2.9292212132448285e-05,3.562065208514532e-05,1.805847422598609e-05,7.1429,4.8571
3.48046875,3.2199055364309126e-05,2.24490186907759e-05,1.9996369713893316e-05,1.9027421969939702e-05,7.1429,4.8571
3.484375,3.2713808853284484e-05,1.3667929761196283e-05,1.5121351377126703e-05,1.708952648203248e-05,7.1429,4.8571
3.48828125,3.319828272526129e-05,1.6574772993057124e-05,2.7808510899519317e-05,1.8542948097962897e-05,7.1429,4.8571
3.4921875,3.3682756597238095e-05,2.341796643472951e-05,3.2199055364309126e-05,2.196454481879909e-05,7.1429,4.8571
3.49609375,3.6619879446097485e-05,1.4636877505149896e-05,1.805847422598609e-05,1.9027421969939702e-05,7.1429,4.8571
3.5,3.2713808853284484e-05,1.7574000354009283e-05,1.6090299121080312e-05,2.2933492562752703e-05,7.1429,4.8571
3.50390625,2.9292212132448285e-05,3.02611598764019e-05,2.880773826047148e-05,2.7324037027542512e-05,7.1429,4.8571
3.5078125,3.2199055364309126e-05,3.513617821316851e-05,2.587061541161209e-05,2.7808510899519317e-05,7.1429,4.8571
3.51171875,3.3682756597238095e-05,3.855777493400471e-05,2.6839563155565704e-05,2.5386141539635285e-05,7.1429,4.8571
3.515625,3.758882719005109e-05,4.391726714274813e-05,3.41672304692149e-05,2.4386914178683122e-05,7.1429,4.8571
3.51953125,4.19793716548409e-05,3.6619879446097485e-05,1.9996369713893316e-05,2.490166766765848e-05,7.1429,4.8571
3.5234375,3.9526722677958316e-05,2.880773826047148e-05,2.048084358587012e-05,2.2933492562752703e-05,7.1429,4.8571
3.52734375,3.02611598764019e-05,3.610512595712213e-05,3.610512595712213e-05,2.7324037027542512e-05,7.1429,4.8571
3.53125,2.9292212132448285e-05,3.758882719005109e-05,4.149489778286409e-05,2.587061541161209e-05,7.1429,4.8571
3.53515625,3.319828272526129e-05,3.41672304692149e-05,3.80733010620279e-05,2.0995597074845476e-05,7.1429,4.8571
3.5390625,3.3682756597238095e-05,2.8292984771496126e-05,2.7324037027542512e-05,2.1480070946822288e-05,7.1429,4.8571
3.54296875,2.8292984771496126e-05,2.3902440306706317e-05,2.0995597074845476e-05,1.9027421969939702e-05,7.1429,4.8571
3.546875,2.587061541161209e-05,2.8292984771496126e-05,2.7324037027542512e-05,1.5605825249103507e-05,7.1429,4.8571
3.55078125,2.7324037027542512e-05,4.58854422476539e-05,5.9057075642023326e-05,1.9027421969939702e-05,7.1429,4.8571
3.5546875,3.513617821316851e-05,5.36975834332799e-05,6.83529180605783e-05,1.6090299121080312e-05,7.1429,4.8571
3.55859375,4.391726714274813e-05,1.8542948097962897e-05,1.951189584191651e-05,4.8868408316166696e-06,7.1429,4.8571
3.5625,4.001119654993513e-05,-7.800318690775946e-06,-1.3159810899519364e-05,-9.571252491035569e-07,7.1429,4.8571
3.56640625,3.41672304692149e-05,1.3667929761196283e-05,8.762631807431119e-06,2.4644714717326384e-06,7.1429,4.8571
3.5703125,2.9776686004425094e-05,3.46517043411917e-05,3.610512595712213e-05,2.948945343709445e-06,7.1429,4.8571
3.57421875,3.0745633748378704e-05,2.5386141539635285e-05,3.123010762035551e-05,-2.9253003540093317e-06,7.1429,4.8571
3.578125,3.562065208514532e-05,1.4636877505149896e-05,1.1699754656290508e-05,-9.571252491035569e-07,7.1429,4.8571
3.58203125,3.02611598764019e-05,1.2668702400244121e-05,9.761859168383284e-06,2.948945343709445e-06,7.1429,4.8571
3.5859375,2.6839563155565704e-05,1.708952648203248e-05,1.8542948097962897e-05,2.948945343709445e-06,7.1429,4.8571
3.58984375,3.513617821316851e-05,2.0995597074845476e-05,2.3902440306706317e-05,-4.726513771267493e-07,7.1429,4.8571
3.59375,3.6619879446097485e-05,2.3902440306706317e-05,2.63550892835889e-05,-4.726513771267493e-07,7.1429,4.8571
3.59765625,3.610512595712213e-05,2.3902440306706317e-05,1.951189584191651e-05,3.917893087663058e-06,7.1429,4.8571
3.6015625,3.6619879446097485e-05,1.5605825249103507e-05,1.0730806912336894e-05,1.1215280784313701e-05,7.1429,4.8571
3.60546875,3.562065208514532e-05,1.7574000354009283e-05,1.4636877505149896e-05,1.6574772993057124e-05,7.1429,4.8571
3.609375,3.3682756597238095e-05,2.24490186907759e-05,2.4386914178683122e-05,1.805847422598609e-05,7.1429,4.8571
3.61328125,2.6839563155565704e-05,2.24490186907759e-05,2.5386141539635285e-05,1.5605825249103507e-05,7.1429,4.8571
3.6171875,3.123010762035551e-05,2.24490186907759e-05,1.9027421969939702e-05,1.0246333040360089e-05,7.1429,4.8571
3.62109375,3.46517043411917e-05,1.951189584191651e-05,1.3667929761196283e-05,9.761859168383284e-06,7.1429,4.8571
3.625,2.8292984771496126e-05,1.5605825249103507e-05,1.415240363317309e-05,1.4636877505149896e-05,7.1429,4.8571
3.62890625,3.02611598764019e-05,2.5386141539635285e-05,2.341796643472951e-05,1.415240363317309e-05,7.1429,4.8571
3.6328125,3.3682756597238095e-05,3.41672304692149e-05,3.2713808853284484e-05,1.5121351377126703e-05,7.1429,4.8571
3.63671875,3.123010762035551e-05,3.3682756597238095e-05,3.02611598764019e-05,1.415240363317309e-05,7.1429,4.8571
3.640625,2.7808510899519317e-05,2.63550892835889e-05,2.341796643472951e-05,9.277385296406477e-06,7.1429,4.8571
3.64453125,3.02611598764019e-05,3.2199055364309126e-05,2.9292212132448285e-05,1.0730806912336894e-05,7.1429,4.8571
3.6484375,3.1714581492332315e-05,3.9526722677958316e-05,3.7104353318074283e-05,1.0246333040360089e-05,7.1429,4.8571
3.65234375,3.123010762035551e-05,4.149489778286409e-05,4.001119654993513e-05,7.3394898084992515e-06,7.1429,4.8571
3.65625,3.3682756597238095e-05,3.610512595712213e-05,3.6619879446097485e-05,7.793684063477507e-06,7.1429,4.8571
3.66015625,3.7104353318074283e-05,2.8292984771496126e-05,2.9292212132448285e-05,1.3667929761196283e-05,7.1429,4.8571
3.6640625,3.758882719005109e-05,2.9776686004425094e-05,2.9776686004425094e-05,1.805847422598609e-05,7.1429,4.8571
3.66796875,3.6619879446097485e-05,4.001119654993513e-05,3.319828272526129e-05,1.805847422598609e-05,7.1429,4.8571
3.671875,3.6619879446097485e-05,4.782333773556112e-05,3.562065208514532e-05,1.5605825249103507e-05,7.1429,4.8571
3.67578125,3.562065208514532e-05,4.001119654993513e-05,3.513617821316851e-05,1.1699754656290508e-05,7.1429,4.8571
3.6796875,3.758882719005109e-05,3.513617821316851e-05,2.587061541161209e-05,9.761859168383284e-06,7.1429,4.8571
3.68359375,3.610512595712213e-05,2.880773826047148e-05,2.0995597074845476e-05,8.278157935454312e-06,7.1429,4.8571
3.6875,3.904224880598151e-05,3.3682756597238095e-05,3.319828272526129e-05,4.402366959639863e-06,7.1429,4.8571
3.69140625,4.149489778286409e-05,3.855777493400471e-05,4.19793716548409e-05,5.371314703593476e-06,7.1429,4.8571
3.6953125,3.758882719005109e-05,2.6839563155565704e-05,3.0745633748378704e-05,1.1215280784313701e-05,7.1429,4.8571
3.69921875,3.6619879446097485e-05,2.3902440306706317e-05,1.8542948097962897e-05,1.2668702400244121e-05,7.1429,4.8571
3.703125,3.7104353318074283e-05,2.2933492562752703e-05,1.6090299121080312e-05,1.415240363317309e-05,7.1429,4.8571
3.70703125,4.101042391088729e-05,1.708952648203248e-05,2.4386914178683122e-05,1.5121351377126703e-05,7.1429,4.8571
3.7109375,4.19793716548409e-05,2.24490186907759e-05,3.319828272526129e-05,1.1699754656290508e-05,7.1429,4.8571
3.71484375,3.7104353318074283e-05,2.24490186907759e-05,3.3682756597238095e-05,1.5605825249103507e-05,7.1429,4.8571
3.71875,4.001119654993513e-05,1.0730806912336894e-05,2.2933492562752703e-05,1.7574000354009283e-05,7.1429,4.8571
3.72265625,4.391726714274813e-05,6.3705420645456395e-06,1.5605825249103507e-05,1.6090299121080312e-05,7.1429,4.8571
3.7265625,4.54009683756771e-05,1.2184228528267315e-05,2.3902440306706317e-05,1.5605825249103507e-05,7.1429,4.8571
3.73046875,4.391726714274813e-05,1.5605825249103507e-05,3.123010762035551e-05,1.708952648203248e-05,7.1429,4.8571
3.734375,4.58854422476539e-05,1.2668702400244121e-05,3.46517043411917e-05,1.9027421969939702e-05,7.1429,4.8571
3.73828125,4.833809122453648e-05,4.962963668268632e-07,3.513617821316851e-05,2.341796643472951e-05,7.1429,4.8571
3.7421875,4.54009683756771e-05,-1.926072993057168e-06,2.880773826047148e-05,2.9292212132448285e-05,7.1429,4.8571
3.74609375,4.882256509651329e-05,1.2668702400244121e-05,2.9292212132448285e-05,2.9776686004425094e-05,7.1429,4.8571
3.75,4.782333773556112e-05,1.8542948097962897e-05,3.758882719005109e-05,3.0745633748378704e-05,7.1429,4.8571
3.75390625,4.2463845526817706e-05,2.0995597074845476e-05,3.80733010620279e-05,3.123010762035551e-05,7.1429,4.8571
3.7578125,4.149489778286409e-05,2.341796643472951e-05,3.2713808853284484e-05,3.02611598764019e-05,7.1429,4.8571
3.76171875,3.80733010620279e-05,3.562065208514532e-05,4.19793716548409e-05,3.3682756597238095e-05,7.1429,4.8571
3.765625,3.2199055364309126e-05,1.9996369713893316e-05,3.7104353318074283e-05,4.149489778286409e-05,7.1429,4.8571
3.76953125,3.2713808853284484e-05,-7.315844818799138e-06,1.5605825249103507e-05,3.7104353318074283e-05,7.1429,4.8571
3.7734375,3.758882719005109e-05,8.762631807431119e-06,3.1714581492332315e-05,3.2199055364309126e-05,7.1429,4.8571
3.77734375,3.123010762035551e-05,1.2668702400244121e-05,3.6619879446097485e-05,4.19793716548409e-05,7.1429,4.8571
3.78125,2.9776686004425094e-05,-4.726513771267493e-07,1.4636877505149896e-05,4.001119654993513e-05,7.1429,4.8571
3.78515625,3.904224880598151e-05,1.1699754656290508e-05,1.9996369713893316e-05,2.9292212132448285e-05,7.1429,4.8571
3.7890625,3.2713808853284484e-05,1.951189584191651e-05,3.319828272526129e-05,3.02611598764019e-05,7.1429,4.8571
3.79296875,2.9292212132448285e-05,5.886068192568833e-06,3.2713808853284484e-05,2.8292984771496126e-05,7.1429,4.8571
3.796875,3.1714581492332315e-05,2.948945343709445e-06,2.4386914178683122e-05,2.1480070946822288e-05,7.1429,4.8571
3.80078125,2.9776686004425094e-05,2.948945343709445e-06,2.048084358587012e-05,2.3902440306706317e-05,7.1429,4.8571
3.8046875,3.2713808853284484e-05,-9.571252491035569e-07,2.0995597074845476e-05,2.24490186907759e-05,7.1429,4.8571
3.80859375,3.123010762035551e-05,6.855015936522445e-06,2.7808510899519317e-05,1.3667929761196283e-05,7.1429,4.8571
3.8125,2.880773826047148e-05,5.371314703593476e-06,3.562065208514532e-05,1.2668702400244121e-05,7.1429,4.8571
3.81640625,3.2199055364309126e-05,-1.4415991210803618e-06,3.41672304692149e-05,8.762631807431119e-06,7.1429,4.8571
3.8203125,3.0745633748378704e-05,-3.4097742259861386e-06,2.9776686004425094e-05,5.371314703593476e-06,7.1429,4.8571
3.82421875,2.6839563155565704e-05,-5.8321435858701684e-06,2.63550892835889e-05,8.278157935454312e-06,7.1429,4.8571
3.828125,2.5386141539635285e-05,-3.894248097962944e-06,3.46517043411917e-05,1.1215280784313701e-05,7.1429,4.8571
3.83203125,2.587061541161209e-05,-1.5127986004425139e-05,4.685438999160752e-05,1.3183455889219476e-05,7.1429,4.8571
3.8359375,2.880773826047148e-05,-3.1721216119630753e-05,3.904224880598151e-05,1.3183455889219476e-05,7.1429,4.8571
3.83984375,2.9292212132448285e-05,-4.489284951400017e-05,2.7808510899519317e-05,1.0730806912336894e-05,7.1429,4.8571
3.84375,3.123010762035551e-05,-5.954818414129856e-05,2.8292984771496126e-05,1.7574000354009283e-05,7.1429,4.8571
3.84765625,3.123010762035551e-05,-6.051713188525218e-05,3.6619879446097485e-05,2.490166766765848e-05,7.1429,4.8571
3.8515625,3.02611598764019e-05,-5.270499069962618e-05,4.391726714274813e-05,2.5386141539635285e-05,7.1429,4.8571
3.85546875,3.319828272526129e-05,-5.564211354848556e-05,3.9526722677958316e-05,2.5386141539635285e-05,7.1429,4.8571
3.859375,3.02611598764019e-05,-6.051713188525218e-05,2.0995597074845476e-05,2.4386914178683122e-05,7.1429,4.8571
3.86328125,3.2713808853284484e-05,-6.393872860608837e-05,3.917893087663058e-06,2.24490186907759e-05,7.1429,4.8571
3.8671875,2.9292212132448285e-05,-6.639137758297096e-05,1.2668702400244121e-05,2.5386141539635285e-05,7.1429,4.8571
3.87109375,2.7808510899519317e-05,-6.200083311818115e-05,2.7808510899519317e-05,2.7324037027542512e-05,7.1429,4.8571
3.875,3.80733010620279e-05,-6.0032658013275375e-05,2.5386141539635285e-05,2.6839563155565704e-05,7.1429,4.8571
3.87890625,4.3432793270771316e-05,-5.1251569083695764e-05,2.196454481879909e-05,2.9292212132448285e-05,7.1429,4.8571
3.8828125,3.7104353318074283e-05,-4.6376550746929146e-05,1.9996369713893316e-05,3.610512595712213e-05,7.1429,4.8571
3.88671875,3.02611598764019e-05,-4.2470480154116145e-05,3.0745633748378704e-05,3.904224880598151e-05,7.1429,4.8571
3.890625,3.2713808853284484e-05,-2.6846197782864143e-05,3.9526722677958316e-05,3.41672304692149e-05,7.1429,4.8571
3.89453125,2.3902440306706317e-05,-2.536249654993517e-05,2.9292212132448285e-05,2.9776686004425094e-05,7.1429,4.8571
3.8984375,2.1480070946822288e-05,-2.536249654993517e-05,1.805847422598609e-05,3.46517043411917e-05,7.1429,4.8571
3.90234375,3.02611598764019e-05,-2.048747821316856e-05,1.0730806912336894e-05,3.46517043411917e-05,7.1429,4.8571
3.90625,2.587061541161209e-05,-1.8549582725261333e-05,1.805847422598609e-05,3.3682756597238095e-05,7.1429,4.8571
3.91015625,1.9027421969939702e-05,-8.769266434729558e-06,2.9292212132448285e-05,3.319828272526129e-05,7.1429,4.8571
3.9140625,1.6090299121080312e-05,-4.8631958419165565e-06,2.490166766765848e-05,2.7808510899519317e-05,7.1429,4.8571
3.91796875,1.6574772993057124e-05,-1.219086315556575e-05,2.1480070946822288e-05,2.587061541161209e-05,7.1429,4.8571
3.921875,1.708952648203248e-05,-9.738214178683168e-06,1.8542948097962897e-05,2.490166766765848e-05,7.1429,4.8571
3.92578125,1.9027421969939702e-05,9.80770238803669e-07,2.24490186907759e-05,2.1480070946822288e-05,7.1429,4.8571
3.9296875,2.2933492562752703e-05,1.4636877505149896e-05,2.490166766765848e-05,1.6574772993057124e-05,7.1429,4.8571
3.93359375,2.048084358587012e-05,1.708952648203248e-05,2.6839563155565704e-05,1.415240363317309e-05,7.1429,4.8571
3.9375,1.9996369713893316e-05,1.5121351377126703e-05,2.3902440306706317e-05,1.805847422598609e-05,7.1429,4.8571
3.94140625,2.587061541161209e-05,2.341796643472951e-05,1.5605825249103507e-05,1.951189584191651e-05,7.1429,4.8571
3.9453125,2.880773826047148e-05,3.123010762035551e-05,2.0995597074845476e-05,2.0995597074845476e-05,7.1429,4.8571
3.94921875,3.0745633748378704e-05,4.0525950038910486e-05,2.5386141539635285e-05,1.951189584191651e-05,7.1429,4.8571
3.953125,2.6839563155565704e-05,4.443202063172348e-05,2.9292212132448285e-05,1.708952648203248e-05,7.1429,4.8571
3.95703125,2.341796643472951e-05,3.6619879446097485e-05,3.123010762035551e-05,2.1480070946822288e-05,7.1429,4.8571
3.9609375,2.4386914178683122e-05,3.513617821316851e-05,1.9996369713893316e-05,1.951189584191651e-05,7.1429,4.8571
3.96484375,2.3902440306706317e-05,4.001119654993513e-05,1.7574000354009283e-05,1.7574000354009283e-05,7.1429,4.8571
3.96875,2.1480070946822288e-05,5.027598671244371e-05,2.6839563155565704e-05,1.708952648203248e-05,7.1429,4.8571
3.97265625,2.3902440306706317e-05,5.615023241016249e-05,3.1714581492332315e-05,1.6090299121080312e-05,7.1429,4.8571
3.9765625,2.9776686004425094e-05,4.833809122453648e-05,2.2933492562752703e-05,1.708952648203248e-05,7.1429,4.8571
3.98046875,2.9776686004425094e-05,5.418205730525671e-05,1.7574000354009283e-05,1.4636877505149896e-05,7.1429,4.8571
3.984375,2.880773826047148e-05,6.686921682764933e-05,1.8542948097962897e-05,1.2668702400244121e-05,7.1429,4.8571
3.98828125,3.2199055364309126e-05,6.786844418860149e-05,1.4636877505149896e-05,1.2184228528267315e-05,7.1429,4.8571
3.9921875,3.513617821316851e-05,7.371241026932172e-05,2.5386141539635285e-05,1.1699754656290508e-05,7.1429,4.8571
3.99609375,3.2713808853284484e-05,7.371241026932172e-05,2.4386914178683122e-05,7.793684063477507e-06,7.1429,4.8571
4.0,3.2713808853284484e-05,5.224416181734948e-05,4.402366959639863e-06,6.855015936522445e-06,7.1429,4.8571
4.00390625,3.758882719005109e-05,5.076046058442051e-05,1.0246333040360089e-05,1.0246333040360089e-05,7.1429,4.8571
4.0078125,3.758882719005109e-05,7.077528742046232e-05,1.9027421969939702e-05,1.1215280784313701e-05,7.1429,4.8571
4.01171875,3.758882719005109e-05,7.419688414129852e-05,2.5386141539635285e-05,1.2668702400244121e-05,7.1429,4.8571
4.015625,3.562065208514532e-05,6.638474295567252e-05,2.880773826047148e-05,1.0246333040360089e-05,7.1429,4.8571
4.01953125,3.562065208514532e-05,6.638474295567252e-05,2.3902440306706317e-05,1.2184228528267315e-05,7.1429,4.8571
4.0234375,3.855777493400471e-05,6.735369069962612e-05,2.196454481879909e-05,1.6090299121080312e-05,7.1429,4.8571
4.02734375,3.80733010620279e-05,7.125976129243914e-05,2.1480070946822288e-05,1.0730806912336894e-05,7.1429,4.8571
4.03125,3.904224880598151e-05,7.125976129243914e-05,2.7808510899519317e-05,1.3183455889219476e-05,7.1429,4.8571
4.03515625,4.0525950038910486e-05,7.225898865339129e-05,2.9776686004425094e-05,2.1480070946822288e-05,7.1429,4.8571
4.0390625,3.855777493400471e-05,7.713400699015791e-05,2.9292212132448285e-05,2.6839563155565704e-05,7.1429,4.8571
4.04296875,3.6619879446097485e-05,7.077528742046232e-05,3.123010762035551e-05,2.6839563155565704e-05,7.1429,4.8571
4.046875,3.80733010620279e-05,6.686921682764933e-05,3.46517043411917e-05,2.8292984771496126e-05,7.1429,4.8571
4.05078125,4.2463845526817706e-05,7.468135801327533e-05,4.685438999160752e-05,3.319828272526129e-05,7.1429,4.8571
4.0546875,4.19793716548409e-05,7.27434625253681e-05,4.636991611963071e-05,3.610512595712213e-05,7.1429,4.8571
4.05859375,4.001119654993513e-05,5.8572601770046514e-05,3.46517043411917e-05,3.80733010620279e-05,7.1429,4.8571
4.0625,4.443202063172348e-05,6.054077687495229e-05,3.0745633748378704e-05,4.19793716548409e-05,7.1429,4.8571
4.06640625,4.149489778286409e-05,7.468135801327533e-05,3.513617821316851e-05,4.001119654993513e-05,7.1429,4.8571
4.0703125,3.904224880598151e-05,7.713400699015791e-05,3.904224880598151e-05,3.0745633748378704e-05,7.1429,4.8571
4.07421875,4.0525950038910486e-05,6.786844418860149e-05,3.513617821316851e-05,2.2933492562752703e-05,7.1429,4.8571
4.078125,3.6619879446097485e-05,6.005630300297549e-05,2.24490186907759e-05,2.196454481879909e-05,7.1429,4.8571
4.08203125,3.513617821316851e-05,6.247867236285951e-05,1.2184228528267315e-05,2.1480070946822288e-05,7.1429,4.8571
4.0859375,3.855777493400471e-05,6.15097246189059e-05,1.5121351377126703e-05,1.9996369713893316e-05,7.1429,4.8571
4.08984375,3.6619879446097485e-05,6.638474295567252e-05,2.7808510899519317e-05,1.805847422598609e-05,7.1429,4.8571
4.09375,3.46517043411917e-05,6.590026908369572e-05,3.3682756597238095e-05,1.7574000354009283e-05,7.1429,4.8571
4.09765625,3.562065208514532e-05,5.466653117723351e-05,2.880773826047148e-05,1.7574000354009283e-05,7.1429,4.8571
4.1015625,3.562065208514532e-05,5.5635478921187124e-05,2.0995597074845476e-05,1.1699754656290508e-05,7.1429,4.8571
