timestamp,TP9,AF7,AF8,TP10,Valence,Arousal
0.0,-4.6876048560311286e-05,-7.812145431906614e-05,-3.662160970473793e-05,-4.052854086518654e-05,7.0,5.9333
0.00390625,-4.541471569695583e-05,-7.226105757839323e-05,-4.199489549095903e-05,-4.150778453650721e-05,7.0,5.9333
0.0078125,-4.4922582980086976e-05,-7.714723241016251e-05,-6.249875143968871e-05,-4.1015651819638364e-05,7.0,5.9333
0.01171875,-4.296911739986267e-05,-7.568087778439002e-05,-3.760085337605859e-05,-3.857507528496224e-05,7.0,5.9333
0.015625,-4.5901826651407645e-05,-6.054528585946441e-05,-2.8812769146257726e-05,-3.857507528496224e-05,7.0,5.9333
0.01953125,-4.6876048560311286e-05,-6.884625913481346e-05,-4.7368181277180134e-05,-3.906720800183108e-05,7.0,5.9333
0.0234375,-4.4922582980086976e-05,-8.105416357061112e-05,-3.41810331700618e-05,-3.0766234726482036e-05,7.0,5.9333
0.02734375,-4.394836107118334e-05,-6.982048104371709e-05,-1.4164288175783938e-05,-2.734641452048524e-05,7.0,5.9333
0.03125,-4.6876048560311286e-05,-5.85918202792401e-05,-1.3672155458915085e-05,-3.0766234726482036e-05,7.0,5.9333
0.03515625,-4.7368181277180134e-05,-6.151950776836805e-05,-4.541471569695583e-05,-3.95543189562829e-05,7.0,5.9333
0.0390625,-4.7855292231631955e-05,-6.445221701991301e-05,-4.4922582980086976e-05,-4.248200644541085e-05,7.0,5.9333
0.04296875,-4.6388937605859465e-05,-6.786701546349278e-05,-4.834240318608377e-05,-3.760085337605859e-05,7.0,5.9333
0.046875,-4.346125011673152e-05,-6.933337008926529e-05,-3.711374242160678e-05,-4.199489549095903e-05,7.0,5.9333
0.05078125,-4.541471569695583e-05,-6.640568260013734e-05,-3.95543189562829e-05,-4.4922582980086976e-05,7.0,5.9333
0.0546875,-4.541471569695583e-05,-7.421452315861753e-05,-5.9078931233691924e-05,-4.394836107118334e-05,7.0,5.9333
0.05859375,-4.052854086518654e-05,-7.51937668299382e-05,-4.9316625094987416e-05,-4.052854086518654e-05,7.0,5.9333
0.0625,-4.6388937605859465e-05,-8.105416357061112e-05,-4.834240318608377e-05,-4.6388937605859465e-05,7.0,5.9333
0.06640625,-4.882951414053559e-05,-7.568087778439002e-05,-3.808796433051041e-05,-4.7855292231631955e-05,7.0,5.9333
0.0703125,-4.346125011673152e-05,-5.517200007324331e-05,-2.6367170849164572e-05,-4.248200644541085e-05,7.0,5.9333
0.07421875,-4.394836107118334e-05,-6.054528585946441e-05,-4.150778453650721e-05,-4.6388937605859465e-05,7.0,5.9333
0.078125,-4.346125011673152e-05,-6.982048104371709e-05,-6.445221701991301e-05,-4.6876048560311286e-05,7.0,5.9333
0.08203125,-4.296911739986267e-05,-6.982048104371709e-05,-5.615124374456397e-05,-4.541471569695583e-05,7.0,5.9333
0.0859375,-3.95543189562829e-05,-5.956604218814374e-05,-1.75790866193637e-05,-4.052854086518654e-05,7.0,5.9333
0.08984375,-4.052854086518654e-05,-5.8104709324788276e-05,-2.685930356603342e-05,-3.564738779583429e-05,7.0,5.9333
0.09375,-4.296911739986267e-05,-6.396008430304418e-05,-5.42027999267567e-05,-4.004142991073472e-05,7.0,5.9333
0.09765625,-4.6388937605859465e-05,-7.226105757839323e-05,-5.4684889118791484e-05,-4.150778453650721e-05,7.0,5.9333
0.1015625,-5.4684889118791484e-05,-7.763434336461432e-05,-3.0766234726482036e-05,-4.150778453650721e-05,7.0,5.9333
0.10546875,-5.029586876630808e-05,-7.568087778439002e-05,-3.662160970473793e-05,-4.346125011673152e-05,7.0,5.9333
0.109375,-4.248200644541085e-05,-6.737990450904097e-05,-5.4684889118791484e-05,-4.004142991073472e-05,7.0,5.9333
0.11328125,-4.394836107118334e-05,-6.249875143968871e-05,-3.3206811261158166e-05,-3.564738779583429e-05,7.0,5.9333
0.1171875,-3.906720800183108e-05,-5.8104709324788276e-05,-3.0274102009613188e-05,-3.466814412451362e-05,7.0,5.9333
0.12109375,-3.857507528496224e-05,-5.176222339208057e-05,-3.857507528496224e-05,-4.052854086518654e-05,7.0,5.9333
0.125,-3.857507528496224e-05,-6.493932797436484e-05,-2.783352547493706e-05,-4.150778453650721e-05,7.0,5.9333
0.12890625,-3.662160970473793e-05,-6.982048104371709e-05,-3.3693922215609987e-05,-3.95543189562829e-05,7.0,5.9333
0.1328125,-4.004142991073472e-05,-4.9316625094987416e-05,-4.1015651819638364e-05,-5.224933434653239e-05,7.0,5.9333
0.13671875,-4.346125011673152e-05,-4.6388937605859465e-05,-4.248200644541085e-05,-5.224933434653239e-05,7.0,5.9333
0.140625,-5.0782979720759905e-05,-7.421452315861753e-05,-5.42027999267567e-05,-3.711374242160678e-05,7.0,5.9333
0.14453125,-5.4684889118791484e-05,-0.00010644419435111009,-5.0782979720759905e-05,-2.3439483360036624e-05,7.0,5.9333
0.1484375,-6.151950776836805e-05,-0.00013036787050583657,-9.276993528953994e-05,-2.685930356603342e-05,7.0,5.9333
0.15234375,-7.030759199816891e-05,-0.00013574115629205765,-0.000134761912620737,-3.0274102009613188e-05,7.0,5.9333
0.15625,-7.372741220416572e-05,-0.00014404212956740673,-0.0001342748016662852,-2.2465261451132987e-05,7.0,5.9333
0.16015625,-7.910069799038681e-05,-0.00016308465265278094,-0.00010888477088578622,-2.2465261451132987e-05,7.0,5.9333
0.1640625,-8.251549643396659e-05,-0.00016699158381322957,-0.00012792729397116044,-1.5138510084687574e-05,7.0,5.9333
0.16796875,-8.446896201419089e-05,-0.00016552522918745707,-0.00013622826724650952,-9.770246060883501e-06,7.0,5.9333
0.171875,-8.935513684596017e-05,-0.00018164006478370336,-0.0001254867174364843,-1.318504450446327e-05,7.0,5.9333
0.17578125,-8.78887822201877e-05,-0.00019482219112840467,-0.00017968659920347904,-1.0257357015335323e-05,7.0,5.9333
0.1796875,-8.300762915083543e-05,-0.00016991927130235752,-0.00017675388995193407,-1.660486471046006e-05,7.0,5.9333
0.18359375,-8.007491989929044e-05,-0.00017675388995193407,-0.0001679658057221332,-1.5625621039139396e-05,7.0,5.9333
0.1875,-8.251549643396659e-05,-0.00019042814901350423,-0.0001621054089814603,-1.5138510084687574e-05,7.0,5.9333
0.19140625,-8.495607296864272e-05,-0.0001679658057221332,-0.00013720248915541312,-2.1973128734264135e-05,7.0,5.9333
0.1953125,-8.202838547951476e-05,-0.0001660123401419089,-0.0001342748016662852,-2.392659431448844e-05,7.0,5.9333
0.19921875,-7.372741220416572e-05,-0.000160151943401236,-0.00011913920974135957,-3.906720800183108e-05,7.0,5.9333
0.203125,-6.737990450904097e-05,-0.00014208866398718241,-0.00012450747376516365,-4.834240318608377e-05,7.0,5.9333
0.20703125,-6.933337008926529e-05,-0.00013134711417715726,-0.00012206689723048752,-4.541471569695583e-05,7.0,5.9333
0.2109375,-6.786701546349278e-05,-0.0001323213360860609,-0.00011279170204623482,-4.6388937605859465e-05,7.0,5.9333
0.21484375,-6.396008430304418e-05,-0.0001328084470405127,-0.00010205015223620967,-5.127009067521172e-05,7.0,5.9333
0.21875,-5.956604218814374e-05,-0.00012060054260471504,-7.568087778439002e-05,-4.7855292231631955e-05,7.0,5.9333
0.22265625,-6.200661872281987e-05,-0.00011913920974135957,-8.740167126573587e-05,-4.9316625094987416e-05,7.0,5.9333
0.2265625,-5.0782979720759905e-05,-0.00010205015223620967,-7.568087778439002e-05,-4.4922582980086976e-05,7.0,5.9333
0.23046875,-4.346125011673152e-05,-8.9842247800412e-05,-6.347297334859236e-05,-3.857507528496224e-05,7.0,5.9333
0.234375,-2.918159761961192e-09,-2.918159761961192e-09,-2.918159761961192e-09,-2.918159761961192e-09,7.0,5.9333
0.23828125,-2.918159761961192e-09,-4.900291142137831e-07,-2.918159761961192e-09,-4.900291142137831e-07,7.0,5.9333
0.2421875,-1.46927278553445e-06,-1.46927278553445e-06,-1.956383739986272e-06,-4.900291142137831e-07,7.0,5.9333
0.24609375,2.4376583749141645e-06,2.4376583749141645e-06,4.391123955138468e-06,-4.900291142137831e-07,7.0,5.9333
0.25,-1.4651399130235758e-05,-1.5625621039139396e-05,-2.3439483360036624e-05,-3.909849320210575e-06,7.0,5.9333
0.25390625,-4.199489549095903e-05,-3.662160970473793e-05,-5.273644530098421e-05,-2.8812769146257726e-05,7.0,5.9333
0.2578125,-4.150778453650721e-05,-3.662160970473793e-05,-3.711374242160678e-05,-4.394836107118334e-05,7.0,5.9333
0.26171875,-3.564738779583429e-05,-4.346125011673152e-05,-3.41810331700618e-05,-3.3693922215609987e-05,7.0,5.9333
0.265625,-3.41810331700618e-05,-3.711374242160678e-05,-3.760085337605859e-05,-3.516027684138247e-05,7.0,5.9333
0.26953125,-3.613449875028611e-05,-3.3693922215609987e-05,-3.466814412451362e-05,-4.5901826651407645e-05,7.0,5.9333
0.2734375,-3.808796433051041e-05,-3.857507528496224e-05,-1.807121933623255e-05,-5.176222339208057e-05,7.0,5.9333
0.27734375,-4.296911739986267e-05,-3.174045663538568e-05,-2.734641452048524e-05,-5.176222339208057e-05,7.0,5.9333
0.28125,-3.613449875028611e-05,-1.807121933623255e-05,-3.222756758983749e-05,-3.41810331700618e-05,7.0,5.9333
0.28515625,-3.0274102009613188e-05,-1.4164288175783938e-05,-3.0766234726482036e-05,-2.6367170849164572e-05,7.0,5.9333
0.2890625,-3.3206811261158166e-05,-2.3439483360036624e-05,-3.3693922215609987e-05,-3.174045663538568e-05,7.0,5.9333
0.29296875,-3.174045663538568e-05,-2.1486017779812315e-05,-2.0998906825360498e-05,-2.685930356603342e-05,7.0,5.9333
0.296875,-3.41810331700618e-05,-2.3439483360036624e-05,-2.4905837985809113e-05,-2.539294894026093e-05,7.0,5.9333
0.30078125,-3.613449875028611e-05,-2.734641452048524e-05,-3.857507528496224e-05,-2.734641452048524e-05,7.0,5.9333
0.3046875,-3.466814412451362e-05,-2.6367170849164572e-05,-3.564738779583429e-05,-3.222756758983749e-05,7.0,5.9333
0.30859375,-3.906720800183108e-05,-1.8558330290684374e-05,-2.1973128734264135e-05,-3.857507528496224e-05,7.0,5.9333
0.3125,-3.0766234726482036e-05,-1.660486471046006e-05,-1.611775375600824e-05,-4.004142991073472e-05,7.0,5.9333
0.31640625,-2.9786991055161367e-05,-2.2465261451132987e-05,-2.8320636429388878e-05,-4.4922582980086976e-05,7.0,5.9333
0.3203125,-3.174045663538568e-05,-2.6367170849164572e-05,-2.3439483360036624e-05,-3.808796433051041e-05,7.0,5.9333
0.32421875,-2.3439483360036624e-05,-1.660486471046006e-05,-1.0744467969787137e-05,-2.588005989471275e-05,7.0,5.9333
0.328125,-2.9299880100709547e-05,-1.5138510084687574e-05,-2.6367170849164572e-05,-3.222756758983749e-05,7.0,5.9333
0.33203125,-3.271970030670634e-05,-1.611775375600824e-05,-2.734641452048524e-05,-3.613449875028611e-05,7.0,5.9333
0.3359375,-3.1253345680933856e-05,-1.0257357015335323e-05,-2.4418727031357293e-05,-3.564738779583429e-05,7.0,5.9333
0.33984375,-3.1253345680933856e-05,-1.3672155458915085e-05,-4.346125011673152e-05,-3.906720800183108e-05,7.0,5.9333
0.34375,-3.174045663538568e-05,-1.5625621039139396e-05,-5.42027999267567e-05,-3.906720800183108e-05,7.0,5.9333
0.34765625,-3.857507528496224e-05,-3.0274102009613188e-05,-5.273644530098421e-05,-4.7855292231631955e-05,7.0,5.9333
0.3515625,-3.760085337605859e-05,-4.6876048560311286e-05,-4.6876048560311286e-05,-4.346125011673152e-05,7.0,5.9333
0.35546875,-3.0766234726482036e-05,-3.613449875028611e-05,-3.271970030670634e-05,-3.1253345680933856e-05,7.0,5.9333
0.359375,-3.3206811261158166e-05,-3.564738779583429e-05,-3.41810331700618e-05,-3.662160970473793e-05,7.0,5.9333
0.36328125,-4.052854086518654e-05,-4.394836107118334e-05,-4.004142991073472e-05,-4.248200644541085e-05,7.0,5.9333
0.3671875,-3.760085337605859e-05,-4.541471569695583e-05,-3.760085337605859e-05,-3.0274102009613188e-05,7.0,5.9333
0.37109375,-2.9786991055161367e-05,-3.711374242160678e-05,-3.906720800183108e-05,-2.685930356603342e-05,7.0,5.9333
0.375,-2.2465261451132987e-05,-3.857507528496224e-05,-2.8812769146257726e-05,-4.052854086518654e-05,7.0,5.9333
0.37890625,-2.0019663154039832e-05,-3.760085337605859e-05,-2.392659431448844e-05,-4.004142991073472e-05,7.0,5.9333
0.3828125,-2.8812769146257726e-05,-2.539294894026093e-05,-4.6876048560311286e-05,-4.1015651819638364e-05,7.0,5.9333
0.38671875,-2.734641452048524e-05,-2.4418727031357293e-05,-5.371568897230487e-05,-4.004142991073472e-05,7.0,5.9333
0.390625,-2.0511795870908677e-05,-2.783352547493706e-05,-3.662160970473793e-05,-3.41810331700618e-05,7.0,5.9333
0.39453125,-2.392659431448844e-05,-2.9786991055161367e-05,-3.174045663538568e-05,-3.3206811261158166e-05,7.0,5.9333
0.3984375,-2.2952372405584807e-05,-2.1486017779812315e-05,-2.2952372405584807e-05,-2.9786991055161367e-05,7.0,5.9333
0.40234375,-2.539294894026093e-05,-3.174045663538568e-05,-2.734641452048524e-05,-2.8320636429388878e-05,7.0,5.9333
0.40625,-2.4418727031357293e-05,-3.3206811261158166e-05,-3.271970030670634e-05,-2.9786991055161367e-05,7.0,5.9333
0.41015625,-2.2465261451132987e-05,-2.2952372405584807e-05,-1.807121933623255e-05,-2.6367170849164572e-05,7.0,5.9333
0.4140625,-3.0274102009613188e-05,-2.0998906825360498e-05,-3.222756758983749e-05,-3.3693922215609987e-05,7.0,5.9333
0.41796875,-3.271970030670634e-05,-2.392659431448844e-05,-4.296911739986267e-05,-4.7368181277180134e-05,7.0,5.9333
0.421875,-3.222756758983749e-05,-3.222756758983749e-05,-2.6367170849164572e-05,-4.541471569695583e-05,7.0,5.9333
0.42578125,-2.8812769146257726e-05,-1.8558330290684374e-05,-3.41810331700618e-05,-3.662160970473793e-05,7.0,5.9333
0.4296875,-2.1973128734264135e-05,-1.123157892423896e-05,-3.41810331700618e-05,-3.174045663538568e-05,7.0,5.9333
0.43359375,-2.392659431448844e-05,-1.953255219958801e-05,-2.3439483360036624e-05,-3.0274102009613188e-05,7.0,5.9333
0.4375,-3.0766234726482036e-05,-3.174045663538568e-05,-3.760085337605859e-05,-3.0274102009613188e-05,7.0,5.9333
0.44140625,-3.3206811261158166e-05,-3.95543189562829e-05,-4.150778453650721e-05,-3.466814412451362e-05,7.0,5.9333
0.4453125,-2.734641452048524e-05,-2.9299880100709547e-05,-3.0766234726482036e-05,-2.8812769146257726e-05,7.0,5.9333
0.44921875,-2.6367170849164572e-05,-2.6367170849164572e-05,-3.3206811261158166e-05,-2.392659431448844e-05,7.0,5.9333
0.453125,-3.3693922215609987e-05,-3.3206811261158166e-05,-3.0766234726482036e-05,-3.857507528496224e-05,7.0,5.9333
0.45703125,-3.222756758983749e-05,-2.6367170849164572e-05,-3.564738779583429e-05,-3.613449875028611e-05,7.0,5.9333
0.4609375,-2.8320636429388878e-05,-3.271970030670634e-05,-4.882951414053559e-05,-2.783352547493706e-05,7.0,5.9333
0.46484375,-2.8812769146257726e-05,-4.296911739986267e-05,-4.834240318608377e-05,-3.613449875028611e-05,7.0,5.9333
0.46875,-2.783352547493706e-05,-3.466814412451362e-05,-4.5901826651407645e-05,-3.3693922215609987e-05,7.0,5.9333
0.47265625,-3.0766234726482036e-05,-3.808796433051041e-05,-4.6388937605859465e-05,-3.466814412451362e-05,7.0,5.9333
0.4765625,-2.588005989471275e-05,-3.760085337605859e-05,-3.613449875028611e-05,-4.199489549095903e-05,7.0,5.9333
0.48046875,-2.392659431448844e-05,-2.1973128734264135e-05,-3.1253345680933856e-05,-3.857507528496224e-05,7.0,5.9333
0.484375,-3.174045663538568e-05,-2.8320636429388878e-05,-4.5901826651407645e-05,-4.052854086518654e-05,7.0,5.9333
0.48828125,-3.0766234726482036e-05,-3.174045663538568e-05,-4.6388937605859465e-05,-3.41810331700618e-05,7.0,5.9333
0.4921875,-2.539294894026093e-05,-2.3439483360036624e-05,-4.5901826651407645e-05,-2.6367170849164572e-05,7.0,5.9333
0.49609375,-2.588005989471275e-05,-2.685930356603342e-05,-4.443547202563516e-05,-4.052854086518654e-05,7.0,5.9333
0.5,-3.1253345680933856e-05,-2.9786991055161367e-05,-3.271970030670634e-05,-4.9316625094987416e-05,7.0,5.9333
0.50390625,-3.613449875028611e-05,-3.95543189562829e-05,-3.95543189562829e-05,-4.248200644541085e-05,7.0,5.9333
0.5078125,-2.2952372405584807e-05,-2.8812769146257726e-05,-3.906720800183108e-05,-3.41810331700618e-05,7.0,5.9333
0.51171875,-1.75790866193637e-05,-2.2465261451132987e-05,-2.588005989471275e-05,-3.271970030670634e-05,7.0,5.9333
0.515625,-2.3439483360036624e-05,-4.248200644541085e-05,-3.564738779583429e-05,-3.1253345680933856e-05,7.0,5.9333
0.51953125,-2.392659431448844e-05,-4.004142991073472e-05,-4.346125011673152e-05,-4.052854086518654e-05,7.0,5.9333
0.5234375,-2.734641452048524e-05,-1.807121933623255e-05,-2.8320636429388878e-05,-4.4922582980086976e-05,7.0,5.9333
0.52734375,-3.271970030670634e-05,-2.2465261451132987e-05,-1.0257357015335323e-05,-3.3206811261158166e-05,7.0,5.9333
0.53125,-4.296911739986267e-05,-5.9078931233691924e-05,-5.127009067521172e-05,-2.9786991055161367e-05,7.0,5.9333
0.53515625,-5.371568897230487e-05,-8.007491989929044e-05,-0.0001015580195193408,-2.783352547493706e-05,7.0,5.9333
0.5390625,-6.298586239414054e-05,-9.716397740444037e-05,-0.00011669863320668344,-2.2465261451132987e-05,7.0,5.9333
0.54296875,-6.640568260013734e-05,-0.0001249996064820325,-0.0001254867174364843,-2.4418727031357293e-05,7.0,5.9333
0.546875,-6.737990450904097e-05,-0.00013183422513160905,-0.00012646093934538794,-2.0511795870908677e-05,7.0,5.9333
0.55078125,-6.591354988326848e-05,-0.00014159653127031357,-0.00013915595473563746,-8.791002389562834e-06,7.0,5.9333
0.5546875,-6.396008430304418e-05,-0.00014599559514763102,-0.00014013519840695813,-4.396960274662398e-06,7.0,5.9333
0.55859375,-6.835914818036164e-05,-0.0001342748016662852,-0.00014354999685053786,-9.278113344014656e-06,7.0,5.9333
0.5625,-7.030759199816891e-05,-0.00014404212956740673,-0.0001474569280109865,-6.837536809338523e-06,7.0,5.9333
0.56640625,-6.249875143968871e-05,-0.00014648270610208286,-0.0001289015158800641,-8.791002389562834e-06,7.0,5.9333
0.5703125,-5.615124374456397e-05,-0.00011571938953536277,-0.00011913920974135957,-2.4905837985809113e-05,7.0,5.9333
0.57421875,-6.151950776836805e-05,-0.00011571938953536277,-0.0001342748016662852,-2.588005989471275e-05,7.0,5.9333
0.578125,-5.7125465653467614e-05,-0.00012109267532158388,-0.00012402036281071183,-2.2952372405584807e-05,7.0,5.9333
0.58203125,-5.224933434653239e-05,-9.716397740444037e-05,-0.00011181245837491416,-2.9786991055161367e-05,7.0,5.9333
0.5859375,-5.224933434653239e-05,-8.837589317463951e-05,-0.00010790552721446556,-3.613449875028611e-05,7.0,5.9333
0.58984375,-5.517200007324331e-05,-0.000101070908564889,-0.00010058379761043717,-3.1253345680933856e-05,7.0,5.9333
0.59375,-6.396008430304418e-05,-0.000101070908564889,-9.667686644998855e-05,-3.1253345680933856e-05,7.0,5.9333
0.59765625,-5.615124374456397e-05,-8.935513684596017e-05,-8.007491989929044e-05,-4.150778453650721e-05,7.0,5.9333
0.6015625,-4.9316625094987416e-05,-7.860856527351797e-05,-6.689279355458916e-05,-2.783352547493706e-05,7.0,5.9333
0.60546875,-5.176222339208057e-05,-8.300762915083543e-05,-7.51937668299382e-05,-2.1973128734264135e-05,7.0,5.9333
0.609375,-5.7612576607919435e-05,-8.202838547951476e-05,-9.032935875486381e-05,-3.808796433051041e-05,7.0,5.9333
0.61328125,-5.273644530098421e-05,-7.275319029526206e-05,-7.51937668299382e-05,-3.711374242160678e-05,7.0,5.9333
0.6171875,-4.199489549095903e-05,-6.933337008926529e-05,-5.42027999267567e-05,-2.9786991055161367e-05,7.0,5.9333
0.62109375,-4.346125011673152e-05,-6.689279355458916e-05,-4.199489549095903e-05,-3.222756758983749e-05,7.0,5.9333
0.625,-5.176222339208057e-05,-6.737990450904097e-05,-6.737990450904097e-05,-3.3693922215609987e-05,7.0,5.9333
0.62890625,-4.834240318608377e-05,-6.445221701991301e-05,-6.298586239414054e-05,-3.3206811261158166e-05,7.0,5.9333
0.6328125,-4.004142991073472e-05,-5.615124374456397e-05,-4.882951414053559e-05,-3.0274102009613188e-05,7.0,5.9333
0.63671875,-3.466814412451362e-05,-5.371568897230487e-05,-5.273644530098421e-05,-3.564738779583429e-05,7.0,5.9333
0.640625,-3.41810331700618e-05,-5.615124374456397e-05,-3.516027684138247e-05,-4.004142991073472e-05,7.0,5.9333
0.64453125,-3.174045663538568e-05,-4.541471569695583e-05,-3.0274102009613188e-05,-3.3693922215609987e-05,7.0,5.9333
0.6484375,-3.0274102009613188e-05,-3.466814412451362e-05,-3.808796433051041e-05,-3.1253345680933856e-05,7.0,5.9333
0.65234375,-4.150778453650721e-05,-3.857507528496224e-05,-3.3693922215609987e-05,-3.662160970473793e-05,7.0,5.9333
0.65625,-4.248200644541085e-05,-4.199489549095903e-05,-2.1973128734264135e-05,-4.199489549095903e-05,7.0,5.9333
0.66015625,-3.3206811261158166e-05,-3.564738779583429e-05,-3.3206811261158166e-05,-3.808796433051041e-05,7.0,5.9333
0.6640625,-3.808796433051041e-05,-3.662160970473793e-05,-2.685930356603342e-05,-2.9299880100709547e-05,7.0,5.9333
0.66796875,-4.1015651819638364e-05,-3.906720800183108e-05,-3.222756758983749e-05,-2.9299880100709547e-05,7.0,5.9333
0.671875,-4.296911739986267e-05,-3.564738779583429e-05,-4.052854086518654e-05,-3.0766234726482036e-05,7.0,5.9333
0.67578125,-4.346125011673152e-05,-3.711374242160678e-05,-4.199489549095903e-05,-3.0274102009613188e-05,7.0,5.9333
0.6796875,-4.199489549095903e-05,-3.711374242160678e-05,-4.1015651819638364e-05,-4.394836107118334e-05,7.0,5.9333
0.68359375,-4.6876048560311286e-05,-4.882951414053559e-05,-4.346125011673152e-05,-5.0782979720759905e-05,7.0,5.9333
0.6875,-4.199489549095903e-05,-5.127009067521172e-05,-5.0782979720759905e-05,-4.541471569695583e-05,7.0,5.9333
0.69140625,-3.906720800183108e-05,-4.443547202563516e-05,-4.541471569695583e-05,-4.199489549095903e-05,7.0,5.9333
0.6953125,-4.394836107118334e-05,-4.5901826651407645e-05,-4.150778453650721e-05,-4.1015651819638364e-05,7.0,5.9333
0.69921875,-4.6876048560311286e-05,-4.6876048560311286e-05,-4.7855292231631955e-05,-4.4922582980086976e-05,7.0,5.9333
0.703125,-4.346125011673152e-05,-4.248200644541085e-05,-4.199489549095903e-05,-3.613449875028611e-05,7.0,5.9333
0.70703125,-4.004142991073472e-05,-4.248200644541085e-05,-3.1253345680933856e-05,-3.222756758983749e-05,7.0,5.9333
0.7109375,-4.5901826651407645e-05,-5.127009067521172e-05,-4.150778453650721e-05,-4.4922582980086976e-05,7.0,5.9333
0.71484375,-3.711374242160678e-05,-4.443547202563516e-05,-3.41810331700618e-05,-4.834240318608377e-05,7.0,5.9333
0.71875,-2.734641452048524e-05,-2.8812769146257726e-05,-4.1015651819638364e-05,-4.296911739986267e-05,7.0,5.9333
0.72265625,-2.9299880100709547e-05,-3.174045663538568e-05,-4.150778453650721e-05,-4.443547202563516e-05,7.0,5.9333
0.7265625,-3.3693922215609987e-05,-4.1015651819638364e-05,-2.588005989471275e-05,-3.662160970473793e-05,7.0,5.9333
0.73046875,-3.564738779583429e-05,-3.613449875028611e-05,-2.685930356603342e-05,-2.783352547493706e-05,7.0,5.9333
0.734375,-3.466814412451362e-05,-3.613449875028611e-05,-3.857507528496224e-05,-3.0274102009613188e-05,7.0,5.9333
0.73828125,-3.271970030670634e-05,-4.296911739986267e-05,-4.6876048560311286e-05,-3.41810331700618e-05,7.0,5.9333
0.7421875,-3.564738779583429e-05,-4.394836107118334e-05,-3.1253345680933856e-05,-3.760085337605859e-05,7.0,5.9333
0.74609375,-3.41810331700618e-05,-4.346125011673152e-05,-3.41810331700618e-05,-4.346125011673152e-05,7.0,5.9333
0.75,-2.783352547493706e-05,-4.443547202563516e-05,-4.7855292231631955e-05,-4.199489549095903e-05,7.0,5.9333
0.75390625,-2.4905837985809113e-05,-4.1015651819638364e-05,-2.8812769146257726e-05,-3.3206811261158166e-05,7.0,5.9333
0.7578125,-2.1973128734264135e-05,-4.052854086518654e-05,-1.7091975664911885e-05,-3.0766234726482036e-05,7.0,5.9333
0.76171875,-2.783352547493706e-05,-3.906720800183108e-05,-3.516027684138247e-05,-2.9299880100709547e-05,7.0,5.9333
0.765625,-3.0274102009613188e-05,-2.685930356603342e-05,-3.760085337605859e-05,-3.271970030670634e-05,7.0,5.9333
0.76953125,-2.8812769146257726e-05,-3.222756758983749e-05,-3.0766234726482036e-05,-3.1253345680933856e-05,7.0,5.9333
0.7734375,-3.41810331700618e-05,-4.4922582980086976e-05,-3.1253345680933856e-05,-3.3206811261158166e-05,7.0,5.9333
0.77734375,-3.662160970473793e-05,-4.5901826651407645e-05,-3.271970030670634e-05,-4.4922582980086976e-05,7.0,5.9333
0.78125,-3.662160970473793e-05,-4.834240318608377e-05,-5.0782979720759905e-05,-5.273644530098421e-05,7.0,5.9333
0.78515625,-3.3693922215609987e-05,-4.004142991073472e-05,-3.271970030670634e-05,-3.711374242160678e-05,7.0,5.9333
0.7890625,-2.783352547493706e-05,-3.271970030670634e-05,-2.2465261451132987e-05,-2.8320636429388878e-05,7.0,5.9333
0.79296875,-2.6367170849164572e-05,-3.613449875028611e-05,-3.3206811261158166e-05,-4.541471569695583e-05,7.0,5.9333
0.796875,-2.734641452048524e-05,-3.222756758983749e-05,-3.3693922215609987e-05,-4.346125011673152e-05,7.0,5.9333
0.80078125,-3.662160970473793e-05,-3.466814412451362e-05,-4.1015651819638364e-05,-4.1015651819638364e-05,7.0,5.9333
0.8046875,-4.199489549095903e-05,-4.394836107118334e-05,-4.346125011673152e-05,-4.346125011673152e-05,7.0,5.9333
0.80859375,-4.5901826651407645e-05,-3.516027684138247e-05,-2.6367170849164572e-05,-4.052854086518654e-05,7.0,5.9333
0.8125,-4.6388937605859465e-05,-2.392659431448844e-05,-2.8812769146257726e-05,-4.052854086518654e-05,7.0,5.9333
0.81640625,-4.1015651819638364e-05,-3.3693922215609987e-05,-4.346125011673152e-05,-4.394836107118334e-05,7.0,5.9333
0.8203125,-4.4922582980086976e-05,-4.296911739986267e-05,-3.271970030670634e-05,-4.150778453650721e-05,7.0,5.9333
0.82421875,-3.711374242160678e-05,-3.857507528496224e-05,-3.466814412451362e-05,-3.808796433051041e-05,7.0,5.9333
0.828125,-2.8812769146257726e-05,-2.0998906825360498e-05,-2.4418727031357293e-05,-3.906720800183108e-05,7.0,5.9333
0.83203125,-2.588005989471275e-05,-4.900291142137831e-07,-2.918159761961192e-09,-3.271970030670634e-05,7.0,5.9333
0.8359375,-3.0274102009613188e-05,-9.770246060883501e-06,-3.906720800183108e-05,-2.8812769146257726e-05,7.0,5.9333
0.83984375,-3.564738779583429e-05,-1.807121933623255e-05,-5.5659111027695125e-05,-3.222756758983749e-05,7.0,5.9333
0.84375,-3.271970030670634e-05,-1.2210822595559626e-05,-3.222756758983749e-05,-2.392659431448844e-05,7.0,5.9333
0.84765625,-4.443547202563516e-05,-2.588005989471275e-05,-3.662160970473793e-05,-3.564738779583429e-05,7.0,5.9333
0.8515625,-4.052854086518654e-05,-3.564738779583429e-05,-3.516027684138247e-05,-4.6388937605859465e-05,7.0,5.9333
0.85546875,-2.783352547493706e-05,-3.1253345680933856e-05,-3.3693922215609987e-05,-2.3439483360036624e-05,7.0,5.9333
0.859375,-3.3693922215609987e-05,-3.808796433051041e-05,-3.613449875028611e-05,-2.4418727031357293e-05,7.0,5.9333
0.86328125,-3.516027684138247e-05,-3.3693922215609987e-05,-2.2952372405584807e-05,-3.174045663538568e-05,7.0,5.9333
0.8671875,-3.3206811261158166e-05,-2.9786991055161367e-05,-2.4905837985809113e-05,-1.2210822595559626e-05,7.0,5.9333
0.87109375,-3.564738779583429e-05,-4.7368181277180134e-05,-3.0274102009613188e-05,-2.0019663154039832e-05,7.0,5.9333
0.875,-4.004142991073472e-05,-4.980875781185626e-05,-3.564738779583429e-05,-3.41810331700618e-05,7.0,5.9333
0.87890625,-4.7368181277180134e-05,-5.127009067521172e-05,-5.42027999267567e-05,-2.588005989471275e-05,7.0,5.9333
0.8828125,-4.5901826651407645e-05,-5.371568897230487e-05,-3.3206811261158166e-05,-3.1253345680933856e-05,7.0,5.9333
0.88671875,-4.150778453650721e-05,-5.029586876630808e-05,-3.662160970473793e-05,-4.7368181277180134e-05,7.0,5.9333
0.890625,-4.296911739986267e-05,-5.5659111027695125e-05,-2.8320636429388878e-05,-3.808796433051041e-05,7.0,5.9333
0.89453125,-3.613449875028611e-05,-4.6388937605859465e-05,-1.4651399130235758e-05,-2.4905837985809113e-05,7.0,5.9333
0.8984375,-3.662160970473793e-05,-4.7368181277180134e-05,-4.7855292231631955e-05,-3.41810331700618e-05,7.0,5.9333
0.90234375,-3.0274102009613188e-05,-3.906720800183108e-05,-2.9786991055161367e-05,-2.9299880100709547e-05,7.0,5.9333
0.90625,-2.3439483360036624e-05,-2.734641452048524e-05,-2.1486017779812315e-05,-2.1973128734264135e-05,7.0,5.9333
0.91015625,-2.9786991055161367e-05,-3.3693922215609987e-05,-4.6876048560311286e-05,-3.41810331700618e-05,7.0,5.9333
0.9140625,-3.760085337605859e-05,-4.199489549095903e-05,-4.834240318608377e-05,-4.052854086518654e-05,7.0,5.9333
0.91796875,-4.296911739986267e-05,-4.9316625094987416e-05,-4.248200644541085e-05,-2.4905837985809113e-05,7.0,5.9333
0.921875,-4.4922582980086976e-05,-4.9316625094987416e-05,-3.564738779583429e-05,-2.2952372405584807e-05,7.0,5.9333
0.92578125,-4.5901826651407645e-05,-4.980875781185626e-05,-4.052854086518654e-05,-3.662160970473793e-05,7.0,5.9333
0.9296875,-4.443547202563516e-05,-5.4684889118791484e-05,-5.66383546990158e-05,-4.7368181277180134e-05,7.0,5.9333
0.93359375,-4.199489549095903e-05,-5.176222339208057e-05,-6.298586239414054e-05,-4.7855292231631955e-05,7.0,5.9333
0.9375,-3.808796433051041e-05,-5.4684889118791484e-05,-5.615124374456397e-05,-4.296911739986267e-05,7.0,5.9333
0.94140625,-3.760085337605859e-05,-5.7612576607919435e-05,-6.103239681391623e-05,-4.394836107118334e-05,7.0,5.9333
0.9453125,-3.516027684138247e-05,-4.5901826651407645e-05,-4.394836107118334e-05,-3.711374242160678e-05,7.0,5.9333
0.94921875,-3.1253345680933856e-05,-4.296911739986267e-05,-2.9786991055161367e-05,-2.6367170849164572e-05,7.0,5.9333
0.953125,-3.3693922215609987e-05,-3.662160970473793e-05,-5.176222339208057e-05,-2.6367170849164572e-05,7.0,5.9333
0.95703125,-3.3693922215609987e-05,-3.41810331700618e-05,-5.7612576607919435e-05,-4.052854086518654e-05,7.0,5.9333
0.9609375,-2.8320636429388878e-05,-4.248200644541085e-05,-4.9316625094987416e-05,-3.857507528496224e-05,7.0,5.9333
0.96484375,-3.760085337605859e-05,-4.6388937605859465e-05,-3.760085337605859e-05,-2.392659431448844e-05,7.0,5.9333
0.96875,-4.9316625094987416e-05,-4.6388937605859465e-05,-2.734641452048524e-05,-3.906720800183108e-05,7.0,5.9333
0.97265625,-4.7368181277180134e-05,-4.346125011673152e-05,-3.564738779583429e-05,-5.0782979720759905e-05,7.0,5.9333
0.9765625,-4.346125011673152e-05,-3.662160970473793e-05,-3.3693922215609987e-05,-3.1253345680933856e-05,7.0,5.9333
0.98046875,-4.7855292231631955e-05,-2.9299880100709547e-05,-2.734641452048524e-05,-2.539294894026093e-05,7.0,5.9333
0.984375,-5.517200007324331e-05,-4.004142991073472e-05,-2.9299880100709547e-05,-3.0274102009613188e-05,7.0,5.9333
0.98828125,-5.7125465653467614e-05,-5.5659111027695125e-05,-2.8812769146257726e-05,-3.1253345680933856e-05,7.0,5.9333
0.9921875,-5.322355625543603e-05,-4.6876048560311286e-05,-2.539294894026093e-05,-3.662160970473793e-05,7.0,5.9333
0.99609375,-4.394836107118334e-05,-4.394836107118334e-05,-2.8812769146257726e-05,-4.004142991073472e-05,7.0,5.9333
1.0,-3.760085337605859e-05,-4.248200644541085e-05,-4.248200644541085e-05,-2.8320636429388878e-05,7.0,5.9333
1.00390625,-4.248200644541085e-05,-4.541471569695583e-05,-4.004142991073472e-05,-3.222756758983749e-05,7.0,5.9333
1.0078125,-5.371568897230487e-05,-5.615124374456397e-05,-3.41810331700618e-05,-4.834240318608377e-05,7.0,5.9333
1.01171875,-5.371568897230487e-05,-5.4684889118791484e-05,-3.0274102009613188e-05,-4.394836107118334e-05,7.0,5.9333
1.015625,-3.906720800183108e-05,-4.443547202563516e-05,-2.734641452048524e-05,-3.0274102009613188e-05,7.0,5.9333
1.01953125,-3.906720800183108e-05,-4.980875781185626e-05,-3.516027684138247e-05,-2.734641452048524e-05,7.0,5.9333
1.0234375,-5.7125465653467614e-05,-5.224933434653239e-05,-4.541471569695583e-05,-4.199489549095903e-05,7.0,5.9333
1.02734375,-5.322355625543603e-05,-4.541471569695583e-05,-2.539294894026093e-05,-4.6876048560311286e-05,7.0,5.9333
1.03125,-3.662160970473793e-05,-3.466814412451362e-05,-1.9045441245136188e-05,-3.516027684138247e-05,7.0,5.9333
1.03515625,-3.662160970473793e-05,-3.174045663538568e-05,-5.0782979720759905e-05,-3.906720800183108e-05,7.0,5.9333
1.0390625,-4.5901826651407645e-05,-3.516027684138247e-05,-4.6388937605859465e-05,-3.857507528496224e-05,7.0,5.9333
1.04296875,-4.5901826651407645e-05,-3.564738779583429e-05,-3.711374242160678e-05,-4.443547202563516e-05,7.0,5.9333
1.046875,-3.516027684138247e-05,-2.588005989471275e-05,-4.346125011673152e-05,-4.834240318608377e-05,7.0,5.9333
1.05078125,-3.271970030670634e-05,-2.0511795870908677e-05,-4.346125011673152e-05,-4.004142991073472e-05,7.0,5.9333
1.0546875,-3.662160970473793e-05,-3.3693922215609987e-05,-3.95543189562829e-05,-5.371568897230487e-05,7.0,5.9333
1.05859375,-3.466814412451362e-05,-3.3206811261158166e-05,-4.052854086518654e-05,-5.5659111027695125e-05,7.0,5.9333
1.0625,-3.3206811261158166e-05,-2.6367170849164572e-05,-4.1015651819638364e-05,-4.5901826651407645e-05,7.0,5.9333
1.06640625,-3.466814412451362e-05,-2.4418727031357293e-05,-3.613449875028611e-05,-3.808796433051041e-05,7.0,5.9333
1.0703125,-3.808796433051041e-05,-3.564738779583429e-05,-4.150778453650721e-05,-3.808796433051041e-05,7.0,5.9333
1.07421875,-4.248200644541085e-05,-3.711374242160678e-05,-3.760085337605859e-05,-4.6388937605859465e-05,7.0,5.9333
1.078125,-4.004142991073472e-05,-3.222756758983749e-05,-3.857507528496224e-05,-4.882951414053559e-05,7.0,5.9333
1.08203125,-4.5901826651407645e-05,-3.613449875028611e-05,-4.394836107118334e-05,-5.7125465653467614e-05,7.0,5.9333
1.0859375,-4.882951414053559e-05,-3.857507528496224e-05,-4.248200644541085e-05,-5.4684889118791484e-05,7.0,5.9333
1.08984375,-4.004142991073472e-05,-2.9786991055161367e-05,-2.6367170849164572e-05,-4.443547202563516e-05,7.0,5.9333
1.09375,-3.564738779583429e-05,-1.4651399130235758e-05,-1.953255219958801e-05,-4.541471569695583e-05,7.0,5.9333
1.09765625,-3.613449875028611e-05,-1.123157892423896e-05,-2.9786991055161367e-05,-3.760085337605859e-05,7.0,5.9333
1.1015625,-4.346125011673152e-05,-1.8558330290684374e-05,-2.392659431448844e-05,-2.8320636429388878e-05,7.0,5.9333
1.10546875,-4.443547202563516e-05,-1.611775375600824e-05,-2.392659431448844e-05,-4.004142991073472e-05,7.0,5.9333
1.109375,-3.564738779583429e-05,-1.0257357015335323e-05,-2.9299880100709547e-05,-4.346125011673152e-05,7.0,5.9333
1.11328125,-3.808796433051041e-05,-1.5138510084687574e-05,-4.150778453650721e-05,-4.199489549095903e-05,7.0,5.9333
1.1171875,-4.346125011673152e-05,-2.9299880100709547e-05,-4.5901826651407645e-05,-4.834240318608377e-05,7.0,5.9333
1.12109375,-4.199489549095903e-05,-3.3693922215609987e-05,-3.41810331700618e-05,-5.224933434653239e-05,7.0,5.9333
1.125,-4.296911739986267e-05,-2.9299880100709547e-05,-3.760085337605859e-05,-4.4922582980086976e-05,7.0,5.9333
1.12890625,-3.857507528496224e-05,-2.685930356603342e-05,-2.4905837985809113e-05,-3.760085337605859e-05,7.0,5.9333
1.1328125,-3.857507528496224e-05,-2.9299880100709547e-05,-3.662160970473793e-05,-3.760085337605859e-05,7.0,5.9333
1.13671875,-4.296911739986267e-05,-3.174045663538568e-05,-3.711374242160678e-05,-3.857507528496224e-05,7.0,5.9333
1.140625,-4.199489549095903e-05,-2.8320636429388878e-05,-1.8558330290684374e-05,-4.9316625094987416e-05,7.0,5.9333
1.14453125,-4.052854086518654e-05,-3.613449875028611e-05,-3.95543189562829e-05,-5.127009067521172e-05,7.0,5.9333
1.1484375,-3.760085337605859e-05,-3.711374242160678e-05,-3.466814412451362e-05,-3.271970030670634e-05,7.0,5.9333
1.15234375,-3.41810331700618e-05,-3.0766234726482036e-05,-2.6367170849164572e-05,-2.8812769146257726e-05,7.0,5.9333
1.15625,-3.271970030670634e-05,-3.613449875028611e-05,-3.0274102009613188e-05,-4.1015651819638364e-05,7.0,5.9333
1.16015625,-3.613449875028611e-05,-3.906720800183108e-05,-3.711374242160678e-05,-3.516027684138247e-05,7.0,5.9333
1.1640625,-3.711374242160678e-05,-3.3693922215609987e-05,-3.808796433051041e-05,-2.9299880100709547e-05,7.0,5.9333
1.16796875,-2.539294894026093e-05,-3.3693922215609987e-05,-3.711374242160678e-05,-2.734641452048524e-05,7.0,5.9333
1.171875,-2.734641452048524e-05,-2.9299880100709547e-05,-4.004142991073472e-05,-3.906720800183108e-05,7.0,5.9333
1.17578125,-3.0766234726482036e-05,-2.9299880100709547e-05,-3.222756758983749e-05,-4.7855292231631955e-05,7.0,5.9333
1.1796875,-2.734641452048524e-05,-4.052854086518654e-05,-3.222756758983749e-05,-4.6876048560311286e-05,7.0,5.9333
1.18359375,-2.8812769146257726e-05,-4.248200644541085e-05,-4.296911739986267e-05,-4.346125011673152e-05,7.0,5.9333
1.1875,-3.174045663538568e-05,-4.296911739986267e-05,-5.5659111027695125e-05,-4.346125011673152e-05,7.0,5.9333
1.19140625,-3.564738779583429e-05,-5.7125465653467614e-05,-5.85918202792401e-05,-4.394836107118334e-05,7.0,5.9333
1.1953125,-4.052854086518654e-05,-6.737990450904097e-05,-5.9078931233691924e-05,-4.4922582980086976e-05,7.0,5.9333
1.19921875,-3.3693922215609987e-05,-6.151950776836805e-05,-5.66383546990158e-05,-4.394836107118334e-05,7.0,5.9333
1.203125,-2.588005989471275e-05,-5.8104709324788276e-05,-5.322355625543603e-05,-4.052854086518654e-05,7.0,5.9333
1.20703125,-3.3206811261158166e-05,-5.7125465653467614e-05,-5.273644530098421e-05,-4.150778453650721e-05,7.0,5.9333
1.2109375,-2.9786991055161367e-05,-5.273644530098421e-05,-4.980875781185626e-05,-4.4922582980086976e-05,7.0,5.9333
1.21484375,-3.613449875028611e-05,-5.127009067521172e-05,-4.443547202563516e-05,-4.7368181277180134e-05,7.0,5.9333
1.21875,-5.029586876630808e-05,-4.346125011673152e-05,-2.8320636429388878e-05,-3.95543189562829e-05,7.0,5.9333
1.22265625,-4.004142991073472e-05,-4.4922582980086976e-05,-2.9299880100709547e-05,-4.199489549095903e-05,7.0,5.9333
1.2265625,-2.0511795870908677e-05,-5.0782979720759905e-05,-4.9316625094987416e-05,-4.7855292231631955e-05,7.0,5.9333
1.23046875,-1.318504450446327e-05,-3.662160970473793e-05,-4.052854086518654e-05,-4.980875781185626e-05,7.0,5.9333
1.234375,-1.611775375600824e-05,-1.5625621039139396e-05,-3.808796433051041e-05,-5.371568897230487e-05,7.0,5.9333
1.23828125,-1.8558330290684374e-05,-2.2952372405584807e-05,-3.857507528496224e-05,-5.9078931233691924e-05,7.0,5.9333
1.2421875,-1.9045441245136188e-05,-1.5625621039139396e-05,-1.2210822595559626e-05,-6.151950776836805e-05,7.0,5.9333
1.24609375,-1.172371164110781e-05,-4.396960274662398e-06,-2.0998906825360498e-05,-5.371568897230487e-05,7.0,5.9333
1.25,-9.770246060883501e-06,-9.278113344014656e-06,-2.4418727031357293e-05,-4.052854086518654e-05,7.0,5.9333
1.25390625,-1.611775375600824e-05,-1.123157892423896e-05,5.857478580910957e-06,-3.808796433051041e-05,7.0,5.9333
1.2578125,-1.611775375600824e-05,-1.5138510084687574e-05,-1.660486471046006e-05,-4.394836107118334e-05,7.0,5.9333
1.26171875,-2.0019663154039832e-05,-1.660486471046006e-05,-4.199489549095903e-05,-3.662160970473793e-05,7.0,5.9333
1.265625,-2.734641452048524e-05,-1.611775375600824e-05,-2.8812769146257726e-05,-3.711374242160678e-05,7.0,5.9333
1.26953125,-2.4905837985809113e-05,-1.3672155458915085e-05,-1.123157892423896e-05,-4.834240318608377e-05,7.0,5.9333
1.2734375,-2.685930356603342e-05,-1.8558330290684374e-05,-1.953255219958801e-05,-4.980875781185626e-05,7.0,5.9333
1.27734375,-2.4905837985809113e-05,-1.318504450446327e-05,-3.613449875028611e-05,-4.296911739986267e-05,7.0,5.9333
1.28125,-1.8558330290684374e-05,-9.278113344014656e-06,-2.734641452048524e-05,-3.906720800183108e-05,7.0,5.9333
1.28515625,-1.172371164110781e-05,-3.909849320210575e-06,-1.4651399130235758e-05,-4.1015651819638364e-05,7.0,5.9333
1.2890625,-8.303891435111012e-06,1.4634364660105275e-06,-6.837536809338523e-06,-3.95543189562829e-05,7.0,5.9333
1.29296875,-1.4164288175783938e-05,-1.2210822595559626e-05,-2.8320636429388878e-05,-4.6876048560311286e-05,7.0,5.9333
1.296875,-1.807121933623255e-05,-2.0511795870908677e-05,-3.222756758983749e-05,-5.7125465653467614e-05,7.0,5.9333
1.30078125,-1.7091975664911885e-05,-2.8812769146257726e-05,-1.5625621039139396e-05,-5.615124374456397e-05,7.0,5.9333
1.3046875,-9.770246060883501e-06,-3.1253345680933856e-05,-3.0274102009613188e-05,-4.6388937605859465e-05,7.0,5.9333
1.30859375,-1.4164288175783938e-05,-2.6367170849164572e-05,-5.371568897230487e-05,-4.443547202563516e-05,7.0,5.9333
1.3125,-2.588005989471275e-05,-2.4418727031357293e-05,-4.7855292231631955e-05,-5.273644530098421e-05,7.0,5.9333
1.31640625,-2.783352547493706e-05,-3.271970030670634e-05,-3.760085337605859e-05,-5.66383546990158e-05,7.0,5.9333
1.3203125,-2.392659431448844e-05,-4.004142991073472e-05,-4.9316625094987416e-05,-4.9316625094987416e-05,7.0,5.9333
1.32421875,-3.0274102009613188e-05,-4.394836107118334e-05,-5.4684889118791484e-05,-4.7855292231631955e-05,7.0,5.9333
1.328125,-3.3206811261158166e-05,-3.662160970473793e-05,-4.7855292231631955e-05,-5.322355625543603e-05,7.0,5.9333
1.33203125,-3.0766234726482036e-05,-3.1253345680933856e-05,-5.127009067521172e-05,-4.980875781185626e-05,7.0,5.9333
1.3359375,-3.271970030670634e-05,-3.41810331700618e-05,-3.906720800183108e-05,-4.834240318608377e-05,7.0,5.9333
1.33984375,-3.516027684138247e-05,-4.1015651819638364e-05,-4.394836107118334e-05,-4.980875781185626e-05,7.0,5.9333
1.34375,-3.41810331700618e-05,-3.564738779583429e-05,-2.539294894026093e-05,-4.150778453650721e-05,7.0,5.9333
1.34765625,-2.588005989471275e-05,-2.2952372405584807e-05,-1.0744467969787137e-05,-2.9299880100709547e-05,7.0,5.9333
1.3515625,-3.174045663538568e-05,-2.8812769146257726e-05,-3.564738779583429e-05,-3.808796433051041e-05,7.0,5.9333
1.35546875,-4.296911739986267e-05,-3.760085337605859e-05,-2.8812769146257726e-05,-5.273644530098421e-05,7.0,5.9333
1.359375,-3.906720800183108e-05,-2.8320636429388878e-05,-1.611775375600824e-05,-5.127009067521172e-05,7.0,5.9333
1.36328125,-3.564738779583429e-05,-3.0274102009613188e-05,-3.174045663538568e-05,-3.857507528496224e-05,7.0,5.9333
1.3671875,-3.271970030670634e-05,-3.41810331700618e-05,-3.271970030670634e-05,-3.41810331700618e-05,7.0,5.9333
1.37109375,-3.222756758983749e-05,-2.0511795870908677e-05,-2.0511795870908677e-05,-3.466814412451362e-05,7.0,5.9333
1.375,-3.613449875028611e-05,-1.75790866193637e-05,-2.1973128734264135e-05,-2.734641452048524e-05,7.0,5.9333
1.37890625,-3.906720800183108e-05,-2.8812769146257726e-05,-2.0019663154039832e-05,-3.0274102009613188e-05,7.0,5.9333
1.3828125,-3.174045663538568e-05,-2.2465261451132987e-05,-1.7091975664911885e-05,-3.222756758983749e-05,7.0,5.9333
1.38671875,-2.588005989471275e-05,-2.0998906825360498e-05,-1.611775375600824e-05,-2.734641452048524e-05,7.0,5.9333
1.390625,-2.6367170849164572e-05,-2.685930356603342e-05,-1.318504450446327e-05,-3.1253345680933856e-05,7.0,5.9333
1.39453125,-2.2465261451132987e-05,-1.8558330290684374e-05,-2.3439483360036624e-05,-2.588005989471275e-05,7.0,5.9333
1.3984375,-3.466814412451362e-05,-2.8320636429388878e-05,-3.466814412451362e-05,-3.222756758983749e-05,7.0,5.9333
1.40234375,-3.662160970473793e-05,-3.564738779583429e-05,-3.3206811261158166e-05,-4.199489549095903e-05,7.0,5.9333
1.40625,-2.2952372405584807e-05,-2.0019663154039832e-05,-4.6876048560311286e-05,-3.466814412451362e-05,7.0,5.9333
1.41015625,-2.539294894026093e-05,-2.0511795870908677e-05,-3.662160970473793e-05,-3.466814412451362e-05,7.0,5.9333
1.4140625,-2.588005989471275e-05,-2.2465261451132987e-05,-1.9045441245136188e-05,-3.3206811261158166e-05,7.0,5.9333
1.41796875,-2.8320636429388878e-05,-2.392659431448844e-05,-3.0274102009613188e-05,-3.906720800183108e-05,7.0,5.9333
1.421875,-3.808796433051041e-05,-2.783352547493706e-05,-4.834240318608377e-05,-4.199489549095903e-05,7.0,5.9333
1.42578125,-4.6388937605859465e-05,-2.6367170849164572e-05,-4.9316625094987416e-05,-4.394836107118334e-05,7.0,5.9333
1.4296875,-4.296911739986267e-05,-3.760085337605859e-05,-4.248200644541085e-05,-4.199489549095903e-05,7.0,5.9333
1.43359375,-3.564738779583429e-05,-2.734641452048524e-05,-3.271970030670634e-05,-3.0766234726482036e-05,7.0,5.9333
1.4375,-3.857507528496224e-05,-2.4905837985809113e-05,-3.174045663538568e-05,-2.6367170849164572e-05,7.0,5.9333
1.44140625,-4.248200644541085e-05,-3.466814412451362e-05,-3.222756758983749e-05,-3.174045663538568e-05,7.0,5.9333
1.4453125,-4.9316625094987416e-05,-3.466814412451362e-05,-3.808796433051041e-05,-5.0782979720759905e-05,7.0,5.9333
1.44921875,-4.6388937605859465e-05,-3.0274102009613188e-05,-4.248200644541085e-05,-5.176222339208057e-05,7.0,5.9333
1.453125,-3.516027684138247e-05,-2.9786991055161367e-05,-3.906720800183108e-05,-4.1015651819638364e-05,7.0,5.9333
1.45703125,-3.3693922215609987e-05,-3.808796433051041e-05,-4.004142991073472e-05,-4.6876048560311286e-05,7.0,5.9333
1.4609375,-3.857507528496224e-05,-4.052854086518654e-05,-3.662160970473793e-05,-4.443547202563516e-05,7.0,5.9333
1.46484375,-4.346125011673152e-05,-3.0766234726482036e-05,-2.8320636429388878e-05,-3.174045663538568e-05,7.0,5.9333
1.46875,-4.443547202563516e-05,-3.760085337605859e-05,-2.6367170849164572e-05,-3.564738779583429e-05,7.0,5.9333
1.47265625,-4.541471569695583e-05,-4.346125011673152e-05,-1.953255219958801e-05,-4.346125011673152e-05,7.0,5.9333
1.4765625,-4.6876048560311286e-05,-3.516027684138247e-05,-9.278113344014656e-06,-4.052854086518654e-05,7.0,5.9333
1.48046875,-4.296911739986267e-05,-4.296911739986267e-05,-3.41810331700618e-05,-4.834240318608377e-05,7.0,5.9333
1.484375,-4.004142991073472e-05,-4.296911739986267e-05,-4.6388937605859465e-05,-4.7368181277180134e-05,7.0,5.9333
1.48828125,-3.711374242160678e-05,-3.466814412451362e-05,-3.662160970473793e-05,-4.052854086518654e-05,7.0,5.9333
1.4921875,-3.760085337605859e-05,-2.0511795870908677e-05,-4.248200644541085e-05,-4.5901826651407645e-05,7.0,5.9333
1.49609375,-4.394836107118334e-05,-2.4418727031357293e-05,-3.711374242160678e-05,-4.248200644541085e-05,7.0,5.9333
1.5,-4.443547202563516e-05,-3.3206811261158166e-05,-3.906720800183108e-05,-4.052854086518654e-05,7.0,5.9333
1.50390625,-4.199489549095903e-05,-2.9786991055161367e-05,-4.394836107118334e-05,-4.296911739986267e-05,7.0,5.9333
1.5078125,-3.760085337605859e-05,-2.734641452048524e-05,-3.3693922215609987e-05,-4.541471569695583e-05,7.0,5.9333
1.51171875,-4.052854086518654e-05,-3.3693922215609987e-05,-4.150778453650721e-05,-4.5901826651407645e-05,7.0,5.9333
1.515625,-4.248200644541085e-05,-4.199489549095903e-05,-3.857507528496224e-05,-4.1015651819638364e-05,7.0,5.9333
1.51953125,-4.1015651819638364e-05,-3.564738779583429e-05,-4.052854086518654e-05,-4.6876048560311286e-05,7.0,5.9333
1.5234375,-3.711374242160678e-05,-3.906720800183108e-05,-4.296911739986267e-05,-3.857507528496224e-05,7.0,5.9333
1.52734375,-3.516027684138247e-05,-3.662160970473793e-05,-4.296911739986267e-05,-3.564738779583429e-05,7.0,5.9333
1.53125,-3.808796433051041e-05,-2.734641452048524e-05,-4.443547202563516e-05,-4.296911739986267e-05,7.0,5.9333
1.53515625,-4.4922582980086976e-05,-4.9316625094987416e-05,-4.052854086518654e-05,-4.443547202563516e-05,7.0,5.9333
1.5390625,-5.176222339208057e-05,-6.347297334859236e-05,-4.541471569695583e-05,-4.541471569695583e-05,7.0,5.9333
1.54296875,-5.127009067521172e-05,-5.176222339208057e-05,-6.786701546349278e-05,-4.7855292231631955e-05,7.0,5.9333
1.546875,-4.443547202563516e-05,-3.808796433051041e-05,-6.542643892881667e-05,-4.248200644541085e-05,7.0,5.9333
1.55078125,-4.6388937605859465e-05,-4.199489549095903e-05,-4.4922582980086976e-05,-3.0274102009613188e-05,7.0,5.9333
1.5546875,-4.7855292231631955e-05,-4.882951414053559e-05,-4.150778453650721e-05,-3.516027684138247e-05,7.0,5.9333
1.55859375,-3.857507528496224e-05,-4.6388937605859465e-05,-5.517200007324331e-05,-4.7368181277180134e-05,7.0,5.9333
1.5625,-3.222756758983749e-05,-4.150778453650721e-05,-4.6876048560311286e-05,-3.3693922215609987e-05,7.0,5.9333
1.56640625,-3.466814412451362e-05,-4.150778453650721e-05,-2.1486017779812315e-05,-3.1253345680933856e-05,7.0,5.9333
1.5703125,-4.150778453650721e-05,-3.222756758983749e-05,-3.0766234726482036e-05,-3.662160970473793e-05,7.0,5.9333
1.57421875,-4.7855292231631955e-05,-3.711374242160678e-05,-4.882951414053559e-05,-3.3693922215609987e-05,7.0,5.9333
1.578125,-4.5901826651407645e-05,-5.4684889118791484e-05,-4.443547202563516e-05,-3.613449875028611e-05,7.0,5.9333
1.58203125,-3.857507528496224e-05,-4.882951414053559e-05,-3.271970030670634e-05,-3.808796433051041e-05,7.0,5.9333
1.5859375,-3.857507528496224e-05,-4.7855292231631955e-05,-3.174045663538568e-05,-2.8812769146257726e-05,7.0,5.9333
1.58984375,-3.564738779583429e-05,-5.0782979720759905e-05,-4.296911739986267e-05,-3.0274102009613188e-05,7.0,5.9333
1.59375,-3.3693922215609987e-05,-5.371568897230487e-05,-5.127009067521172e-05,-4.394836107118334e-05,7.0,5.9333
1.59765625,-3.857507528496224e-05,-6.445221701991301e-05,-4.9316625094987416e-05,-4.004142991073472e-05,7.0,5.9333
1.6015625,-4.150778453650721e-05,-7.421452315861753e-05,-4.248200644541085e-05,-4.199489549095903e-05,7.0,5.9333
1.60546875,-3.857507528496224e-05,-7.177394662394142e-05,-3.613449875028611e-05,-3.0766234726482036e-05,7.0,5.9333
1.609375,-3.516027684138247e-05,-7.275319029526206e-05,-5.4684889118791484e-05,-2.4418727031357293e-05,7.0,5.9333
1.61328125,-4.296911739986267e-05,-8.593531663996339e-05,-7.079972471503776e-05,-4.199489549095903e-05,7.0,5.9333
1.6171875,-5.127009067521172e-05,-9.228282433508811e-05,-5.615124374456397e-05,-4.6388937605859465e-05,7.0,5.9333
1.62109375,-4.7855292231631955e-05,-8.593531663996339e-05,-5.127009067521172e-05,-4.052854086518654e-05,7.0,5.9333
1.625,-3.662160970473793e-05,-6.933337008926529e-05,-5.7125465653467614e-05,-3.613449875028611e-05,7.0,5.9333
1.62890625,-3.613449875028611e-05,-6.591354988326848e-05,-5.127009067521172e-05,-3.613449875028611e-05,7.0,5.9333
1.6328125,-4.1015651819638364e-05,-6.737990450904097e-05,-4.5901826651407645e-05,-3.808796433051041e-05,7.0,5.9333
1.63671875,-3.808796433051041e-05,-6.200661872281987e-05,-3.906720800183108e-05,-3.564738779583429e-05,7.0,5.9333
1.640625,-3.808796433051041e-05,-5.615124374456397e-05,-3.662160970473793e-05,-3.271970030670634e-05,7.0,5.9333
1.64453125,-4.6388937605859465e-05,-6.103239681391623e-05,-5.176222339208057e-05,-3.0274102009613188e-05,7.0,5.9333
1.6484375,-4.394836107118334e-05,-6.347297334859236e-05,-3.564738779583429e-05,-3.564738779583429e-05,7.0,5.9333
1.65234375,-3.3693922215609987e-05,-6.103239681391623e-05,-1.7091975664911885e-05,-3.808796433051041e-05,7.0,5.9333
1.65625,-4.199489549095903e-05,-5.956604218814374e-05,-4.6388937605859465e-05,-3.808796433051041e-05,7.0,5.9333
1.66015625,-4.1015651819638364e-05,-4.882951414053559e-05,-4.541471569695583e-05,-2.783352547493706e-05,7.0,5.9333
1.6640625,-4.004142991073472e-05,-5.7125465653467614e-05,-3.808796433051041e-05,-3.1253345680933856e-05,7.0,5.9333
1.66796875,-4.296911739986267e-05,-5.615124374456397e-05,-5.176222339208057e-05,-3.564738779583429e-05,7.0,5.9333
1.671875,-3.760085337605859e-05,-3.564738779583429e-05,-3.271970030670634e-05,-2.2465261451132987e-05,7.0,5.9333
1.67578125,-4.199489549095903e-05,-4.7855292231631955e-05,-2.0019663154039832e-05,-2.8320636429388878e-05,7.0,5.9333
1.6796875,-3.906720800183108e-05,-5.273644530098421e-05,-4.882951414053559e-05,-3.906720800183108e-05,7.0,5.9333
1.68359375,-3.3206811261158166e-05,-4.004142991073472e-05,-5.224933434653239e-05,-3.95543189562829e-05,7.0,5.9333
1.6875,-3.662160970473793e-05,-5.127009067521172e-05,-5.273644530098421e-05,-3.662160970473793e-05,7.0,5.9333
1.69140625,-3.760085337605859e-05,-4.541471569695583e-05,-5.42027999267567e-05,-2.539294894026093e-05,7.0,5.9333
1.6953125,-3.516027684138247e-05,-3.564738779583429e-05,-4.541471569695583e-05,-2.9786991055161367e-05,7.0,5.9333
1.69921875,-3.662160970473793e-05,-5.0782979720759905e-05,-5.5659111027695125e-05,-4.394836107118334e-05,7.0,5.9333
1.703125,-3.3693922215609987e-05,-4.248200644541085e-05,-5.4684889118791484e-05,-3.857507528496224e-05,7.0,5.9333
1.70703125,-3.222756758983749e-05,-2.4905837985809113e-05,-3.95543189562829e-05,-4.199489549095903e-05,7.0,5.9333
1.7109375,-3.174045663538568e-05,-2.8812769146257726e-05,-3.711374242160678e-05,-3.466814412451362e-05,7.0,5.9333
1.71484375,-3.3206811261158166e-05,-3.662160970473793e-05,-4.6388937605859465e-05,-2.4418727031357293e-05,7.0,5.9333
1.71875,-3.271970030670634e-05,-3.906720800183108e-05,-5.8104709324788276e-05,-3.1253345680933856e-05,7.0,5.9333
1.72265625,-3.1253345680933856e-05,-3.808796433051041e-05,-3.808796433051041e-05,-3.41810331700618e-05,7.0,5.9333
1.7265625,-3.174045663538568e-05,-4.346125011673152e-05,-3.906720800183108e-05,-3.0766234726482036e-05,7.0,5.9333
1.73046875,-3.662160970473793e-05,-4.394836107118334e-05,-6.445221701991301e-05,-3.3206811261158166e-05,7.0,5.9333
1.734375,-3.906720800183108e-05,-4.346125011673152e-05,-3.564738779583429e-05,-4.052854086518654e-05,7.0,5.9333
1.73828125,-3.711374242160678e-05,-3.466814412451362e-05,-2.4905837985809113e-05,-3.662160970473793e-05,7.0,5.9333
1.7421875,-3.662160970473793e-05,-3.3206811261158166e-05,-4.346125011673152e-05,-3.95543189562829e-05,7.0,5.9333
1.74609375,-3.0766234726482036e-05,-2.9299880100709547e-05,-4.882951414053559e-05,-3.906720800183108e-05,7.0,5.9333
1.75,-2.1973128734264135e-05,-1.807121933623255e-05,-4.1015651819638364e-05,-2.588005989471275e-05,7.0,5.9333
1.75390625,-2.1486017779812315e-05,-1.8558330290684374e-05,-3.808796433051041e-05,-3.1253345680933856e-05,7.0,5.9333
1.7578125,-2.4905837985809113e-05,-1.4164288175783938e-05,-3.808796433051041e-05,-3.857507528496224e-05,7.0,5.9333
1.76171875,-3.0274102009613188e-05,-1.7091975664911885e-05,-3.711374242160678e-05,-3.808796433051041e-05,7.0,5.9333
1.765625,-2.9786991055161367e-05,-2.4905837985809113e-05,-4.1015651819638364e-05,-5.127009067521172e-05,7.0,5.9333
1.76953125,-2.4905837985809113e-05,-2.1973128734264135e-05,-4.248200644541085e-05,-5.0782979720759905e-05,7.0,5.9333
1.7734375,-2.539294894026093e-05,-2.1486017779812315e-05,-4.004142991073472e-05,-3.95543189562829e-05,7.0,5.9333
1.77734375,-2.783352547493706e-05,-2.8320636429388878e-05,-3.564738779583429e-05,-4.248200644541085e-05,7.0,5.9333
1.78125,-3.0766234726482036e-05,-3.0766234726482036e-05,-4.296911739986267e-05,-4.394836107118334e-05,7.0,5.9333
1.78515625,-3.0766234726482036e-05,-3.564738779583429e-05,-4.296911739986267e-05,-4.004142991073472e-05,7.0,5.9333
1.7890625,-3.564738779583429e-05,-3.466814412451362e-05,-4.052854086518654e-05,-3.174045663538568e-05,7.0,5.9333
1.79296875,-3.662160970473793e-05,-3.0766234726482036e-05,-5.273644530098421e-05,-2.9786991055161367e-05,7.0,5.9333
1.796875,-3.1253345680933856e-05,-2.6367170849164572e-05,-3.95543189562829e-05,-3.3206811261158166e-05,7.0,5.9333
1.80078125,-3.613449875028611e-05,-3.711374242160678e-05,-3.0274102009613188e-05,-3.662160970473793e-05,7.0,5.9333
1.8046875,-3.564738779583429e-05,-4.296911739986267e-05,-3.906720800183108e-05,-4.296911739986267e-05,7.0,5.9333
1.80859375,-3.174045663538568e-05,-3.662160970473793e-05,-3.808796433051041e-05,-4.199489549095903e-05,7.0,5.9333
1.8125,-2.685930356603342e-05,-3.222756758983749e-05,-3.711374242160678e-05,-3.516027684138247e-05,7.0,5.9333
1.81640625,-1.4164288175783938e-05,-1.172371164110781e-05,-3.271970030670634e-05,-1.9045441245136188e-05,7.0,5.9333
1.8203125,-2.3439483360036624e-05,-1.9045441245136188e-05,-3.0766234726482036e-05,-2.392659431448844e-05,7.0,5.9333
1.82421875,-4.199489549095903e-05,-3.906720800183108e-05,-5.0782979720759905e-05,-2.9786991055161367e-05,7.0,5.9333
1.828125,-3.711374242160678e-05,-5.42027999267567e-05,-5.615124374456397e-05,-2.8320636429388878e-05,7.0,5.9333
1.83203125,-2.9786991055161367e-05,-7.470665587548637e-05,-7.372741220416572e-05,-3.271970030670634e-05,7.0,5.9333
1.8359375,-3.0274102009613188e-05,-0.00010058379761043717,-0.0001030243741451133,-2.392659431448844e-05,7.0,5.9333
1.83984375,-3.516027684138247e-05,-0.00012402036281071183,-0.0001230461409018082,-1.318504450446327e-05,7.0,5.9333
1.84375,-3.1253345680933856e-05,-0.00013720248915541312,-0.00014110942031586175,-7.324647763790345e-06,7.0,5.9333
1.84765625,-2.392659431448844e-05,-0.00014989750454566262,-0.00014550346243076217,9.764409741359572e-06,7.0,5.9333
1.8515625,-2.4905837985809113e-05,-0.00015527079033188373,-0.00013574115629205765,2.294653608606087e-05,7.0,5.9333
1.85546875,-2.0511795870908677e-05,-0.0001679658057221332,-0.00014696981705653468,3.1734620315861745e-05,7.0,5.9333
1.859375,-2.8320636429388878e-05,-0.00017382620246280612,-0.0001586906105378805,3.8569238965438315e-05,7.0,5.9333
1.86328125,-3.808796433051041e-05,-0.00016991927130235752,-0.00016991927130235752,4.052270454566262e-05,7.0,5.9333
1.8671875,-3.174045663538568e-05,-0.00017822024457770657,-0.00018603410689860378,4.00355935912108e-05,7.0,5.9333
1.87109375,-2.6367170849164572e-05,-0.0001811479320668345,-0.00018212717573815517,4.00355935912108e-05,7.0,5.9333
1.875,-2.0019663154039832e-05,-0.00016357176360723278,-0.00018212717573815517,4.150194821698328e-05,7.0,5.9333
1.87890625,-1.660486471046006e-05,-0.00016161829802700844,-0.00019091525996795604,3.07603984069581e-05,7.0,5.9333
1.8828125,-9.770246060883501e-06,-0.0001621054089814603,-0.00019774987861753262,1.9039604925612266e-05,7.0,5.9333
1.88671875,3.4169020462348313e-06,-0.00014013519840695813,-0.00019091525996795604,1.708613934538795e-05,7.0,5.9333
1.890625,3.4169020462348313e-06,-0.00011913920974135957,-0.00016503811823300526,1.2204986276035697e-05,7.0,5.9333
1.89453125,-1.956383739986272e-06,-0.0001196263206958114,-0.0001474569280109865,-1.956383739986272e-06,7.0,5.9333
1.8984375,4.87823490959029e-06,-0.00012792729397116044,-0.0001503896372625315,-2.1486017779812315e-05,7.0,5.9333
1.90234375,1.1225742604715037e-05,-0.00010937188184023805,-0.00014306288589608607,-3.3693922215609987e-05,7.0,5.9333
1.90625,6.831700489814601e-06,-9.37491789608606e-05,-0.00013378769071183336,-4.1015651819638364e-05,7.0,5.9333
1.91015625,6.344589535362778e-06,-6.786701546349278e-05,-0.00011279170204623482,-4.7855292231631955e-05,7.0,5.9333
1.9140625,1.317920818493934e-05,-5.42027999267567e-05,-9.863033203021285e-05,-5.127009067521172e-05,7.0,5.9333
1.91796875,1.757325029983977e-05,-6.249875143968871e-05,-9.667686644998855e-05,-5.371568897230487e-05,7.0,5.9333
1.921875,2.0505959551384748e-05,-4.346125011673152e-05,-9.276993528953994e-05,-6.347297334859236e-05,7.0,5.9333
1.92578125,1.1225742604715037e-05,-3.613449875028611e-05,-6.396008430304418e-05,-7.177394662394142e-05,7.0,5.9333
1.9296875,6.344589535362778e-06,-2.8320636429388878e-05,-6.542643892881667e-05,-7.372741220416572e-05,7.0,5.9333
1.93359375,1.0738631650263215e-05,-1.953255219958801e-05,-7.910069799038681e-05,-8.105416357061112e-05,7.0,5.9333
1.9375,8.298055115587083e-06,-1.9045441245136188e-05,-5.7125465653467614e-05,-8.642242759441519e-05,7.0,5.9333
1.94140625,-9.77140068665605e-07,-2.0511795870908677e-05,-2.783352547493706e-05,-8.154127452506294e-05,7.0,5.9333
1.9453125,-8.791002389562834e-06,-1.318504450446327e-05,-3.3206811261158166e-05,-8.056203085374227e-05,7.0,5.9333
1.94921875,-4.884071229114219e-06,-2.443494694438094e-06,-4.248200644541085e-05,-7.958780894483864e-05,7.0,5.9333
1.953125,-3.4227383657587607e-06,3.4169020462348313e-06,-2.3439483360036624e-05,-7.51937668299382e-05,7.0,5.9333
1.95703125,-8.791002389562834e-06,9.277298786907756e-06,-1.9045441245136188e-05,-7.763434336461432e-05,7.0,5.9333
1.9609375,-1.2697933550011448e-05,1.9526715880064086e-05,-1.611775375600824e-05,-8.154127452506294e-05,7.0,5.9333
1.96484375,-1.8558330290684374e-05,2.1480181460288393e-05,-1.8558330290684374e-05,-8.837589317463951e-05,7.0,5.9333
1.96875,-2.1973128734264135e-05,2.8319821872281976e-05,-7.324647763790345e-06,-7.421452315861753e-05,7.0,5.9333
1.97265625,-2.8812769146257726e-05,3.0273287452506293e-05,6.344589535362778e-06,-7.030759199816891e-05,7.0,5.9333
1.9765625,-2.6367170849164572e-05,2.1972314177157244e-05,4.391123955138468e-06,-6.933337008926529e-05,7.0,5.9333
1.98046875,-1.9045441245136188e-05,3.417519685053787e-05,4.391123955138468e-06,-5.7612576607919435e-05,7.0,5.9333
1.984375,-2.8320636429388878e-05,3.7107906102082846e-05,-5.371182183566035e-06,-5.8104709324788276e-05,7.0,5.9333
1.98828125,-3.41810331700618e-05,2.1972314177157244e-05,-8.303891435111012e-06,-6.396008430304418e-05,7.0,5.9333
1.9921875,-3.662160970473793e-05,2.4412890711833367e-05,4.87823490959029e-06,-7.226105757839323e-05,7.0,5.9333
1.99609375,-3.808796433051041e-05,1.806538301670862e-05,-2.918159761961192e-09,-7.372741220416572e-05,7.0,5.9333
2.0,-3.3693922215609987e-05,2.3433647040512695e-05,-8.791002389562834e-06,-6.396008430304418e-05,7.0,5.9333
2.00390625,-3.41810331700618e-05,2.978115473563744e-05,1.659902839093614e-05,-5.5659111027695125e-05,7.0,5.9333
2.0078125,-3.516027684138247e-05,2.978115473563744e-05,1.4158451856260015e-05,-6.298586239414054e-05,7.0,5.9333
2.01171875,-3.711374242160678e-05,2.6853467246509494e-05,-5.863314900434887e-06,-6.005817490501259e-05,7.0,5.9333
2.015625,-3.857507528496224e-05,1.806538301670862e-05,4.841927946898537e-07,-5.371568897230487e-05,7.0,5.9333
2.01953125,-4.052854086518654e-05,-1.46927278553445e-06,1.2204986276035697e-05,-5.4684889118791484e-05,7.0,5.9333
2.0234375,-4.6388937605859465e-05,-1.75790866193637e-05,1.659902839093614e-05,-5.4684889118791484e-05,7.0,5.9333
2.02734375,-5.127009067521172e-05,-1.172371164110781e-05,1.5624806482032498e-05,-5.176222339208057e-05,7.0,5.9333
2.03125,-4.6388937605859465e-05,-2.443494694438094e-06,8.298055115587083e-06,-4.7855292231631955e-05,7.0,5.9333
2.03515625,-4.394836107118334e-05,-3.909849320210575e-06,-6.837536809338523e-06,-4.9316625094987416e-05,7.0,5.9333
2.0390625,-4.6388937605859465e-05,-6.837536809338523e-06,-2.9306056488899086e-06,-4.7855292231631955e-05,7.0,5.9333
2.04296875,-5.029586876630808e-05,-6.837536809338523e-06,3.4169020462348313e-06,-5.224933434653239e-05,7.0,5.9333
2.046875,-5.5659111027695125e-05,-1.5138510084687574e-05,3.4169020462348313e-06,-5.517200007324331e-05,7.0,5.9333
2.05078125,-5.42027999267567e-05,-1.953255219958801e-05,3.904013000686653e-06,-4.882951414053559e-05,7.0,5.9333
2.0546875,-4.7368181277180134e-05,-1.2697933550011448e-05,1.9505474204623426e-06,-4.004142991073472e-05,7.0,5.9333
2.05859375,-3.760085337605859e-05,-5.863314900434887e-06,-5.371182183566035e-06,-3.41810331700618e-05,7.0,5.9333
2.0625,-3.857507528496224e-05,-1.46927278553445e-06,2.1972314177157244e-05,-4.248200644541085e-05,7.0,5.9333
2.06640625,-4.150778453650721e-05,-3.909849320210575e-06,3.417519685053787e-05,-4.248200644541085e-05,7.0,5.9333
2.0703125,-4.882951414053559e-05,-2.4905837985809113e-05,-1.2697933550011448e-05,-4.346125011673152e-05,7.0,5.9333
2.07421875,-4.6388937605859465e-05,-2.9299880100709547e-05,-9.770246060883501e-06,-5.0782979720759905e-05,7.0,5.9333
2.078125,-4.150778453650721e-05,-2.4905837985809113e-05,-3.4227383657587607e-06,-4.199489549095903e-05,7.0,5.9333
2.08203125,-4.443547202563516e-05,-2.2952372405584807e-05,-1.660486471046006e-05,-3.662160970473793e-05,7.0,5.9333
2.0859375,-4.5901826651407645e-05,-2.1486017779812315e-05,-1.8558330290684374e-05,-4.248200644541085e-05,7.0,5.9333
2.08984375,-4.9316625094987416e-05,-2.0019663154039832e-05,-1.8558330290684374e-05,-3.95543189562829e-05,7.0,5.9333
2.09375,-4.5901826651407645e-05,-2.2465261451132987e-05,3.904013000686653e-06,-3.3693922215609987e-05,7.0,5.9333
2.09765625,-4.296911739986267e-05,-2.9299880100709547e-05,-2.443494694438094e-06,-4.004142991073472e-05,7.0,5.9333
2.1015625,-4.1015651819638364e-05,-2.1973128734264135e-05,-1.611775375600824e-05,-3.95543189562829e-05,7.0,5.9333
2.10546875,-3.662160970473793e-05,-1.3672155458915085e-05,-9.278113344014656e-06,-3.222756758983749e-05,7.0,5.9333
2.109375,-4.004142991073472e-05,-2.392659431448844e-05,-2.2952372405584807e-05,-4.004142991073472e-05,7.0,5.9333
2.11328125,-4.7368181277180134e-05,-2.4905837985809113e-05,-1.5138510084687574e-05,-4.346125011673152e-05,7.0,5.9333
2.1171875,-4.7855292231631955e-05,-1.318504450446327e-05,-8.303891435111012e-06,-3.41810331700618e-05,7.0,5.9333
2.12109375,-3.857507528496224e-05,-1.611775375600824e-05,-2.734641452048524e-05,-3.3693922215609987e-05,7.0,5.9333
2.125,-3.760085337605859e-05,-2.0511795870908677e-05,-2.2465261451132987e-05,-3.466814412451362e-05,7.0,5.9333
2.12890625,-4.346125011673152e-05,-1.5625621039139396e-05,-4.900291142137831e-07,-3.564738779583429e-05,7.0,5.9333
2.1328125,-4.394836107118334e-05,-2.4418727031357293e-05,9.763255115587057e-07,-3.3206811261158166e-05,7.0,5.9333
2.13671875,-4.296911739986267e-05,-1.4651399130235758e-05,-9.770246060883501e-06,-2.734641452048524e-05,7.0,5.9333
2.140625,-4.150778453650721e-05,-8.303891435111012e-06,-3.613449875028611e-05,-2.9786991055161367e-05,7.0,5.9333
2.14453125,-3.760085337605859e-05,-1.8558330290684374e-05,-3.564738779583429e-05,-2.685930356603342e-05,7.0,5.9333
2.1484375,-3.466814412451362e-05,-1.5625621039139396e-05,-2.4905837985809113e-05,-2.685930356603342e-05,7.0,5.9333
2.15234375,-4.980875781185626e-05,-2.1486017779812315e-05,-3.271970030670634e-05,-4.9316625094987416e-05,7.0,5.9333
2.15625,-4.6876048560311286e-05,-1.953255219958801e-05,-3.174045663538568e-05,-5.273644530098421e-05,7.0,5.9333
2.16015625,-3.3206811261158166e-05,-1.2697933550011448e-05,-2.4418727031357293e-05,-3.613449875028611e-05,7.0,5.9333
2.1640625,-4.052854086518654e-05,-1.172371164110781e-05,-2.4418727031357293e-05,-2.4418727031357293e-05,7.0,5.9333
2.16796875,-4.004142991073472e-05,-1.0257357015335323e-05,-2.2952372405584807e-05,-3.1253345680933856e-05,7.0,5.9333
2.171875,-3.95543189562829e-05,-2.1486017779812315e-05,-2.2952372405584807e-05,-3.857507528496224e-05,7.0,5.9333
2.17578125,-4.004142991073472e-05,-2.539294894026093e-05,-2.539294894026093e-05,-3.174045663538568e-05,7.0,5.9333
2.1796875,-3.857507528496224e-05,-1.8558330290684374e-05,-1.807121933623255e-05,-3.662160970473793e-05,7.0,5.9333
2.18359375,-5.176222339208057e-05,-2.685930356603342e-05,-3.613449875028611e-05,-5.615124374456397e-05,7.0,5.9333
2.1875,-5.371568897230487e-05,-2.1486017779812315e-05,-4.296911739986267e-05,-5.4684889118791484e-05,7.0,5.9333
2.19140625,-4.443547202563516e-05,-1.2697933550011448e-05,-3.174045663538568e-05,-4.346125011673152e-05,7.0,5.9333
2.1953125,-4.346125011673152e-05,-2.4418727031357293e-05,-3.564738779583429e-05,-3.906720800183108e-05,7.0,5.9333
2.19921875,-4.834240318608377e-05,-2.392659431448844e-05,-3.564738779583429e-05,-3.3206811261158166e-05,7.0,5.9333
2.203125,-4.004142991073472e-05,-1.7091975664911885e-05,-3.613449875028611e-05,-3.466814412451362e-05,7.0,5.9333
2.20703125,-3.808796433051041e-05,-1.75790866193637e-05,-2.588005989471275e-05,-3.0766234726482036e-05,7.0,5.9333
2.2109375,-5.42027999267567e-05,-3.564738779583429e-05,-3.3206811261158166e-05,-3.662160970473793e-05,7.0,5.9333
2.21484375,-5.8104709324788276e-05,-5.224933434653239e-05,-5.273644530098421e-05,-4.394836107118334e-05,7.0,5.9333
2.21875,-4.296911739986267e-05,-3.0766234726482036e-05,-3.906720800183108e-05,-4.1015651819638364e-05,7.0,5.9333
2.22265625,-3.613449875028611e-05,-4.900291142137831e-07,-2.9299880100709547e-05,-3.808796433051041e-05,7.0,5.9333
2.2265625,-5.615124374456397e-05,-2.9299880100709547e-05,-2.2465261451132987e-05,-2.3439483360036624e-05,7.0,5.9333
2.23046875,-7.226105757839323e-05,-5.956604218814374e-05,-4.346125011673152e-05,-2.539294894026093e-05,7.0,5.9333
2.234375,-7.275319029526206e-05,-3.760085337605859e-05,-5.42027999267567e-05,-3.516027684138247e-05,7.0,5.9333
2.23828125,-6.542643892881667e-05,-3.95543189562829e-05,-5.322355625543603e-05,-2.734641452048524e-05,7.0,5.9333
2.2421875,-7.568087778439002e-05,-6.640568260013734e-05,-6.347297334859236e-05,-2.588005989471275e-05,7.0,5.9333
2.24609375,-8.740167126573587e-05,-5.956604218814374e-05,-6.298586239414054e-05,-3.271970030670634e-05,7.0,5.9333
2.25,-7.763434336461432e-05,-5.224933434653239e-05,-6.103239681391623e-05,-2.4905837985809113e-05,7.0,5.9333
2.25390625,-8.202838547951476e-05,-5.8104709324788276e-05,-5.4684889118791484e-05,-1.807121933623255e-05,7.0,5.9333
2.2578125,-8.300762915083543e-05,-5.371568897230487e-05,-5.7612576607919435e-05,-2.1486017779812315e-05,7.0,5.9333
2.26171875,-7.275319029526206e-05,-5.0782979720759905e-05,-6.249875143968871e-05,-2.0998906825360498e-05,7.0,5.9333
2.265625,-6.689279355458916e-05,-3.711374242160678e-05,-4.6876048560311286e-05,-1.807121933623255e-05,7.0,5.9333
2.26953125,-6.689279355458916e-05,-5.127009067521172e-05,-4.6876048560311286e-05,-2.685930356603342e-05,7.0,5.9333
2.2734375,-7.079972471503776e-05,-5.42027999267567e-05,-4.834240318608377e-05,-3.516027684138247e-05,7.0,5.9333
2.27734375,-7.226105757839323e-05,-4.346125011673152e-05,-5.66383546990158e-05,-3.662160970473793e-05,7.0,5.9333
2.28125,-6.982048104371709e-05,-4.980875781185626e-05,-6.493932797436484e-05,-3.564738779583429e-05,7.0,5.9333
2.28515625,-6.591354988326848e-05,-4.7368181277180134e-05,-4.980875781185626e-05,-3.41810331700618e-05,7.0,5.9333
2.2890625,-6.103239681391623e-05,-4.5901826651407645e-05,-3.662160970473793e-05,-3.564738779583429e-05,7.0,5.9333
2.29296875,-5.273644530098421e-05,-3.95543189562829e-05,-3.808796433051041e-05,-3.857507528496224e-05,7.0,5.9333
2.296875,-5.029586876630808e-05,-3.3206811261158166e-05,-5.176222339208057e-05,-4.004142991073472e-05,7.0,5.9333
2.30078125,-5.224933434653239e-05,-4.296911739986267e-05,-5.5659111027695125e-05,-3.857507528496224e-05,7.0,5.9333
2.3046875,-5.517200007324331e-05,-4.9316625094987416e-05,-3.808796433051041e-05,-3.3693922215609987e-05,7.0,5.9333
2.30859375,-5.517200007324331e-05,-4.7855292231631955e-05,-4.6388937605859465e-05,-3.711374242160678e-05,7.0,5.9333
2.3125,-4.834240318608377e-05,-4.443547202563516e-05,-4.6388937605859465e-05,-4.004142991073472e-05,7.0,5.9333
2.31640625,-4.7855292231631955e-05,-4.1015651819638364e-05,-3.906720800183108e-05,-3.808796433051041e-05,7.0,5.9333
2.3203125,-5.0782979720759905e-05,-3.222756758983749e-05,-4.150778453650721e-05,-4.346125011673152e-05,7.0,5.9333
2.32421875,-4.1015651819638364e-05,-2.8812769146257726e-05,-2.2952372405584807e-05,-4.248200644541085e-05,7.0,5.9333
2.328125,-4.004142991073472e-05,-4.248200644541085e-05,-3.613449875028611e-05,-3.613449875028611e-05,7.0,5.9333
2.33203125,-3.808796433051041e-05,-4.4922582980086976e-05,-4.7368181277180134e-05,-3.271970030670634e-05,7.0,5.9333
2.3359375,-3.1253345680933856e-05,-4.199489549095903e-05,-2.392659431448844e-05,-3.174045663538568e-05,7.0,5.9333
2.33984375,-3.662160970473793e-05,-4.004142991073472e-05,-2.1486017779812315e-05,-2.783352547493706e-05,7.0,5.9333
2.34375,-4.248200644541085e-05,-4.6388937605859465e-05,-3.0274102009613188e-05,-3.564738779583429e-05,7.0,5.9333
2.34765625,-3.3693922215609987e-05,-3.95543189562829e-05,-2.2952372405584807e-05,-4.4922582980086976e-05,7.0,5.9333
2.3515625,-3.41810331700618e-05,-3.1253345680933856e-05,-2.8812769146257726e-05,-3.516027684138247e-05,7.0,5.9333
2.35546875,-4.150778453650721e-05,-3.0274102009613188e-05,-4.150778453650721e-05,-3.564738779583429e-05,7.0,5.9333
2.359375,-4.052854086518654e-05,-3.222756758983749e-05,-4.443547202563516e-05,-4.248200644541085e-05,7.0,5.9333
2.36328125,-4.346125011673152e-05,-2.685930356603342e-05,-3.3206811261158166e-05,-3.808796433051041e-05,7.0,5.9333
2.3671875,-3.95543189562829e-05,-2.588005989471275e-05,-2.4418727031357293e-05,-2.8320636429388878e-05,7.0,5.9333
2.37109375,-2.588005989471275e-05,-3.906720800183108e-05,-3.3206811261158166e-05,-3.3693922215609987e-05,7.0,5.9333
2.375,-2.8320636429388878e-05,-3.0766234726482036e-05,-3.41810331700618e-05,-4.052854086518654e-05,7.0,5.9333
2.37890625,-2.685930356603342e-05,-2.0998906825360498e-05,-2.685930356603342e-05,-2.4418727031357293e-05,7.0,5.9333
2.3828125,-2.392659431448844e-05,-3.41810331700618e-05,-3.808796433051041e-05,-2.4418727031357293e-05,7.0,5.9333
2.38671875,-3.0766234726482036e-05,-6.103239681391623e-05,-6.347297334859236e-05,-2.4905837985809113e-05,7.0,5.9333
2.390625,-4.1015651819638364e-05,-8.642242759441519e-05,-7.470665587548637e-05,-2.0998906825360498e-05,7.0,5.9333
2.39453125,-3.808796433051041e-05,-0.00010644419435111009,-0.00010595206163424124,-2.3439483360036624e-05,7.0,5.9333
2.3984375,-2.0998906825360498e-05,-0.0001249996064820325,-0.00012792729397116044,-1.611775375600824e-05,7.0,5.9333
2.40234375,-2.0998906825360498e-05,-0.00015527079033188373,-0.00014550346243076217,-3.4227383657587607e-06,7.0,5.9333
2.40625,-3.0274102009613188e-05,-0.00016991927130235752,-0.00017235984783703362,1.0738631650263215e-05,7.0,5.9333
2.41015625,-2.4418727031357293e-05,-0.00017040638225680933,-0.00017235984783703362,2.0018848596932924e-05,7.0,5.9333
2.4140625,-1.660486471046006e-05,-0.00019628854575417715,-0.00018652121785305562,2.978115473563744e-05,7.0,5.9333
2.41796875,-2.0019663154039832e-05,-0.00021093702672465097,-0.00020605085189288167,3.5641551476310364e-05,7.0,5.9333
2.421875,-2.2952372405584807e-05,-0.0002070300955642023,-0.00019872912228885328,3.906137168230715e-05,7.0,5.9333
2.42578125,-2.0998906825360498e-05,-0.00020263605344930189,-0.00019433508017395286,3.906137168230715e-05,7.0,5.9333
2.4296875,-1.3672155458915085e-05,-0.0002143518251682307,-0.00020263605344930189,3.417519685053787e-05,7.0,5.9333
2.43359375,-1.7091975664911885e-05,-0.00021923297823758298,-0.00020751720651865415,3.07603984069581e-05,7.0,5.9333
2.4375,-2.0511795870908677e-05,-0.00020507662998397802,-0.00020165680977798122,4.3455413797207596e-05,7.0,5.9333
2.44140625,-2.6367170849164572e-05,-0.0002006825878690776,-0.0001992162332433051,4.101483726253147e-05,7.0,5.9333
2.4453125,-2.783352547493706e-05,-0.00019335583650263217,-0.00018994103805905239,2.6366356292057674e-05,7.0,5.9333
2.44921875,-2.392659431448844e-05,-0.00017382620246280612,-0.00015966483244678415,2.587422357518882e-05,7.0,5.9333
2.453125,-3.3206811261158166e-05,-0.00015527079033188373,-0.0001474569280109865,2.245942513160905e-05,7.0,5.9333
2.45703125,-3.662160970473793e-05,-0.00014013519840695813,-0.000134761912620737,1.2204986276035697e-05,7.0,5.9333
2.4609375,-3.41810331700618e-05,-0.00013036787050583657,-0.00012060054260471504,1.0251520695811393e-05,7.0,5.9333
2.46484375,-4.052854086518654e-05,-0.00012402036281071183,-0.0001030243741451133,5.370367626459142e-06,7.0,5.9333
2.46875,-4.346125011673152e-05,-0.00010058379761043717,-6.737990450904097e-05,-8.791002389562834e-06,7.0,5.9333
2.47265625,-3.95543189562829e-05,-7.177394662394142e-05,-7.470665587548637e-05,-2.9306056488899086e-06,7.0,5.9333
2.4765625,-4.296911739986267e-05,-6.200661872281987e-05,-8.544820568551156e-05,-5.863314900434887e-06,7.0,5.9333
2.48046875,-4.541471569695583e-05,-4.6876048560311286e-05,-6.151950776836805e-05,-3.808796433051041e-05,7.0,5.9333
2.484375,-4.150778453650721e-05,-3.222756758983749e-05,-4.1015651819638364e-05,-4.394836107118334e-05,7.0,5.9333
2.48828125,-3.564738779583429e-05,-1.611775375600824e-05,-1.7091975664911885e-05,-2.0998906825360498e-05,7.0,5.9333
2.4921875,-4.1015651819638364e-05,-3.909849320210575e-06,-2.1486017779812315e-05,-3.0274102009613188e-05,7.0,5.9333
2.49609375,-5.4684889118791484e-05,-1.660486471046006e-05,-1.4164288175783938e-05,-5.0782979720759905e-05,7.0,5.9333
2.5,-5.4684889118791484e-05,-2.443494694438094e-06,4.841927946898537e-07,-4.882951414053559e-05,7.0,5.9333
2.50390625,-4.5901826651407645e-05,8.298055115587083e-06,3.904013000686653e-06,-4.7368181277180134e-05,7.0,5.9333
2.5078125,-4.6876048560311286e-05,1.0251520695811393e-05,4.150194821698328e-05,-5.224933434653239e-05,7.0,5.9333
2.51171875,-5.7612576607919435e-05,1.269209723048752e-05,2.0505959551384748e-05,-6.103239681391623e-05,7.0,5.9333
2.515625,-5.0782979720759905e-05,7.810944161135267e-06,5.370367626459142e-06,-5.7612576607919435e-05,7.0,5.9333
2.51953125,-3.95543189562829e-05,2.7340578200961315e-05,1.806538301670862e-05,-5.322355625543603e-05,7.0,5.9333
2.5234375,-4.541471569695583e-05,3.8082128010986494e-05,1.659902839093614e-05,-5.615124374456397e-05,7.0,5.9333
2.52734375,-4.394836107118334e-05,2.6853467246509494e-05,1.8552493971160445e-05,-6.493932797436484e-05,7.0,5.9333
2.53125,-4.4922582980086976e-05,3.0273287452506293e-05,3.2221731270313565e-05,-6.640568260013734e-05,7.0,5.9333
2.53515625,-5.029586876630808e-05,2.929404378118562e-05,4.052270454566262e-05,-6.151950776836805e-05,7.0,5.9333
2.5390625,-4.4922582980086976e-05,2.978115473563744e-05,1.8552493971160445e-05,-6.005817490501259e-05,7.0,5.9333
2.54296875,-4.5901826651407645e-05,2.782768915541314e-05,1.2204986276035697e-05,-6.103239681391623e-05,7.0,5.9333
2.546875,-4.6876048560311286e-05,2.6366356292057674e-05,2.782768915541314e-05,-6.884625913481346e-05,7.0,5.9333
2.55078125,-4.443547202563516e-05,2.6366356292057674e-05,2.1480181460288393e-05,-7.177394662394142e-05,7.0,5.9333
2.5546875,-4.6876048560311286e-05,2.4412890711833367e-05,1.9526715880064086e-05,-6.640568260013734e-05,7.0,5.9333
2.55859375,-4.346125011673152e-05,2.3925779757381547e-05,2.8806932826733797e-05,-5.7125465653467614e-05,7.0,5.9333
2.5625,-2.9786991055161367e-05,2.0018848596932924e-05,2.245942513160905e-05,-6.054528585946441e-05,7.0,5.9333
2.56640625,-2.9786991055161367e-05,2.8319821872281976e-05,3.466732956740672e-05,-6.396008430304418e-05,7.0,5.9333
2.5703125,-4.150778453650721e-05,2.587422357518882e-05,2.7340578200961315e-05,-5.8104709324788276e-05,7.0,5.9333
2.57421875,-4.1015651819638364e-05,1.3671340901808193e-05,1.708613934538795e-05,-5.615124374456397e-05,7.0,5.9333
2.578125,-3.516027684138247e-05,2.5387112620737e-05,3.8569238965438315e-05,-5.4684889118791484e-05,7.0,5.9333
2.58203125,-2.3439483360036624e-05,2.6366356292057674e-05,5.126927611810483e-05,-4.541471569695583e-05,7.0,5.9333
2.5859375,-2.1973128734264135e-05,1.708613934538795e-05,3.320097494163424e-05,-4.7855292231631955e-05,7.0,5.9333
2.58984375,-3.760085337605859e-05,1.4645562810711822e-05,2.5387112620737e-05,-5.8104709324788276e-05,7.0,5.9333
2.59375,-3.906720800183108e-05,1.0251520695811393e-05,2.6853467246509494e-05,-5.42027999267567e-05,7.0,5.9333
2.59765625,-3.3693922215609987e-05,1.1717875321583875e-05,6.831700489814601e-06,-4.882951414053559e-05,7.0,5.9333
2.6015625,-3.41810331700618e-05,-2.443494694438094e-06,-1.956383739986272e-06,-5.224933434653239e-05,7.0,5.9333
2.60546875,-2.783352547493706e-05,-1.2210822595559626e-05,1.5132673765163645e-05,-5.42027999267567e-05,7.0,5.9333
2.609375,-2.8812769146257726e-05,-1.4164288175783938e-05,7.323833206683446e-06,-5.371568897230487e-05,7.0,5.9333
2.61328125,-3.271970030670634e-05,-1.807121933623255e-05,3.904013000686653e-06,-4.9316625094987416e-05,7.0,5.9333
2.6171875,-3.271970030670634e-05,-1.9045441245136188e-05,3.4169020462348313e-06,-5.0782979720759905e-05,7.0,5.9333
2.62109375,-3.0274102009613188e-05,-1.0257357015335323e-05,6.831700489814601e-06,-5.371568897230487e-05,7.0,5.9333
2.625,-2.9786991055161367e-05,4.841927946898537e-07,1.317920818493934e-05,-4.834240318608377e-05,7.0,5.9333
2.62890625,-4.394836107118334e-05,3.4169020462348313e-06,7.810944161135267e-06,-5.224933434653239e-05,7.0,5.9333
2.6328125,-4.4922582980086976e-05,-7.324647763790345e-06,1.659902839093614e-05,-5.0782979720759905e-05,7.0,5.9333
2.63671875,-3.3206811261158166e-05,-9.770246060883501e-06,-5.863314900434887e-06,-5.0782979720759905e-05,7.0,5.9333
2.640625,-3.1253345680933856e-05,-4.396960274662398e-06,-1.7091975664911885e-05,-5.4684889118791484e-05,7.0,5.9333
2.64453125,-3.222756758983749e-05,-7.816780480659196e-06,1.4634364660105275e-06,-4.6876048560311286e-05,7.0,5.9333
2.6484375,-3.613449875028611e-05,-1.318504450446327e-05,-5.863314900434887e-06,-4.6876048560311286e-05,7.0,5.9333
2.65234375,-3.0274102009613188e-05,-1.0744467969787137e-05,-6.837536809338523e-06,-5.029586876630808e-05,7.0,5.9333
2.65625,-3.0766234726482036e-05,-1.5138510084687574e-05,5.370367626459142e-06,-4.150778453650721e-05,7.0,5.9333
2.66015625,-3.271970030670634e-05,-1.7091975664911885e-05,-2.1486017779812315e-05,-4.052854086518654e-05,7.0,5.9333
2.6640625,-3.3206811261158166e-05,-2.3439483360036624e-05,-2.1486017779812315e-05,-4.7368181277180134e-05,7.0,5.9333
2.66796875,-3.516027684138247e-05,-2.539294894026093e-05,1.9505474204623426e-06,-4.296911739986267e-05,7.0,5.9333
2.671875,-2.734641452048524e-05,-1.660486471046006e-05,-2.9306056488899086e-06,-3.466814412451362e-05,7.0,5.9333
2.67578125,-2.734641452048524e-05,-2.1486017779812315e-05,-1.7091975664911885e-05,-4.346125011673152e-05,7.0,5.9333
2.6796875,-3.3693922215609987e-05,-2.1973128734264135e-05,-2.3439483360036624e-05,-5.127009067521172e-05,7.0,5.9333
2.68359375,-3.0274102009613188e-05,-2.539294894026093e-05,-1.318504450446327e-05,-4.9316625094987416e-05,7.0,5.9333
2.6875,-2.6367170849164572e-05,-2.6367170849164572e-05,-2.392659431448844e-05,-3.808796433051041e-05,7.0,5.9333
2.69140625,-3.0274102009613188e-05,-6.350425854886708e-06,-5.863314900434887e-06,-3.808796433051041e-05,7.0,5.9333
2.6953125,-2.685930356603342e-05,9.763255115587057e-07,9.764409741359572e-06,-4.150778453650721e-05,7.0,5.9333
2.69921875,-2.734641452048524e-05,-2.392659431448844e-05,-3.516027684138247e-05,-3.857507528496224e-05,7.0,5.9333
2.703125,-3.0766234726482036e-05,-3.516027684138247e-05,-2.9786991055161367e-05,-3.760085337605859e-05,7.0,5.9333
2.70703125,-2.2952372405584807e-05,-6.837536809338523e-06,-1.3672155458915085e-05,-3.662160970473793e-05,7.0,5.9333
2.7109375,-2.2465261451132987e-05,3.4169020462348313e-06,-3.4227383657587607e-06,-3.3206811261158166e-05,7.0,5.9333
2.71484375,-2.4905837985809113e-05,-1.3672155458915085e-05,-4.396960274662398e-06,-2.685930356603342e-05,7.0,5.9333
2.71875,-3.174045663538568e-05,-3.3693922215609987e-05,-1.3672155458915085e-05,-2.2465261451132987e-05,7.0,5.9333
2.72265625,-3.174045663538568e-05,-4.346125011673152e-05,-2.0019663154039832e-05,-2.783352547493706e-05,7.0,5.9333
2.7265625,-3.1253345680933856e-05,-4.541471569695583e-05,-2.685930356603342e-05,-4.052854086518654e-05,7.0,5.9333
2.73046875,-3.516027684138247e-05,-3.760085337605859e-05,-2.4905837985809113e-05,-4.834240318608377e-05,7.0,5.9333
2.734375,-2.8320636429388878e-05,-3.906720800183108e-05,-2.9299880100709547e-05,-4.199489549095903e-05,7.0,5.9333
2.73828125,-3.222756758983749e-05,-3.564738779583429e-05,-1.5625621039139396e-05,-3.564738779583429e-05,7.0,5.9333
2.7421875,-2.8812769146257726e-05,-2.2952372405584807e-05,6.831700489814601e-06,-2.8320636429388878e-05,7.0,5.9333
2.74609375,-2.8320636429388878e-05,-3.613449875028611e-05,-1.4651399130235758e-05,-2.685930356603342e-05,7.0,5.9333
2.75,-4.394836107118334e-05,-4.004142991073472e-05,-4.882951414053559e-05,-4.541471569695583e-05,7.0,5.9333
2.75390625,-4.4922582980086976e-05,-4.004142991073472e-05,-3.41810331700618e-05,-5.322355625543603e-05,7.0,5.9333
2.7578125,-3.808796433051041e-05,-4.5901826651407645e-05,-2.2465261451132987e-05,-4.6876048560311286e-05,7.0,5.9333
2.76171875,-3.662160970473793e-05,-4.4922582980086976e-05,-4.1015651819638364e-05,-4.5901826651407645e-05,7.0,5.9333
2.765625,-3.662160970473793e-05,-2.9299880100709547e-05,-3.271970030670634e-05,-4.150778453650721e-05,7.0,5.9333
2.76953125,-3.41810331700618e-05,-2.8812769146257726e-05,-2.2952372405584807e-05,-3.0274102009613188e-05,7.0,5.9333
2.7734375,-3.0274102009613188e-05,-2.6367170849164572e-05,-1.75790866193637e-05,-2.392659431448844e-05,7.0,5.9333
2.77734375,-2.8812769146257726e-05,-7.816780480659196e-06,-1.4651399130235758e-05,-2.3439483360036624e-05,7.0,5.9333
2.78125,-3.3693922215609987e-05,-2.2465261451132987e-05,-2.685930356603342e-05,-3.41810331700618e-05,7.0,5.9333
2.78515625,-4.394836107118334e-05,-2.588005989471275e-05,-3.3206811261158166e-05,-4.1015651819638364e-05,7.0,5.9333
2.7890625,-3.906720800183108e-05,-1.46927278553445e-06,-2.6367170849164572e-05,-3.516027684138247e-05,7.0,5.9333
2.79296875,-2.6367170849164572e-05,-1.0744467969787137e-05,-1.75790866193637e-05,-3.271970030670634e-05,7.0,5.9333
2.796875,-3.0766234726482036e-05,-2.6367170849164572e-05,-2.588005989471275e-05,-4.443547202563516e-05,7.0,5.9333
2.80078125,-3.41810331700618e-05,-1.9045441245136188e-05,-1.9045441245136188e-05,-5.273644530098421e-05,7.0,5.9333
2.8046875,-3.0274102009613188e-05,-2.443494694438094e-06,-1.75790866193637e-05,-4.004142991073472e-05,7.0,5.9333
2.80859375,-2.734641452048524e-05,-2.918159761961192e-09,-2.392659431448844e-05,-2.539294894026093e-05,7.0,5.9333
2.8125,-2.588005989471275e-05,-1.4651399130235758e-05,3.904013000686653e-06,-2.0511795870908677e-05,7.0,5.9333
2.81640625,-2.8320636429388878e-05,-1.5625621039139396e-05,8.298055115587083e-06,-2.0511795870908677e-05,7.0,5.9333
2.8203125,-2.4905837985809113e-05,-4.396960274662398e-06,-1.953255219958801e-05,-2.6367170849164572e-05,7.0,5.9333
2.82421875,-2.588005989471275e-05,5.370367626459142e-06,-1.75790866193637e-05,-3.3206811261158166e-05,7.0,5.9333
2.828125,-3.516027684138247e-05,-1.5625621039139396e-05,-1.5138510084687574e-05,-3.1253345680933856e-05,7.0,5.9333
2.83203125,-3.808796433051041e-05,-1.8558330290684374e-05,-1.611775375600824e-05,-2.8320636429388878e-05,7.0,5.9333
2.8359375,-4.1015651819638364e-05,-2.8320636429388878e-05,-3.4227383657587607e-06,-3.711374242160678e-05,7.0,5.9333
2.83984375,-5.029586876630808e-05,-4.5901826651407645e-05,-1.807121933623255e-05,-3.711374242160678e-05,7.0,5.9333
2.84375,-4.6388937605859465e-05,-3.222756758983749e-05,-3.516027684138247e-05,-3.808796433051041e-05,7.0,5.9333
2.84765625,-3.662160970473793e-05,-1.953255219958801e-05,-2.9299880100709547e-05,-3.516027684138247e-05,7.0,5.9333
2.8515625,-3.613449875028611e-05,-2.4905837985809113e-05,-2.9786991055161367e-05,-3.41810331700618e-05,7.0,5.9333
2.85546875,-3.564738779583429e-05,-3.466814412451362e-05,-1.807121933623255e-05,-4.199489549095903e-05,7.0,5.9333
2.859375,-4.394836107118334e-05,-3.613449875028611e-05,-1.807121933623255e-05,-4.199489549095903e-05,7.0,5.9333
2.86328125,-4.4922582980086976e-05,-3.0766234726482036e-05,-3.0274102009613188e-05,-3.174045663538568e-05,7.0,5.9333
2.8671875,-3.41810331700618e-05,-2.4418727031357293e-05,-2.8320636429388878e-05,-3.3206811261158166e-05,7.0,5.9333
2.87109375,-2.8812769146257726e-05,-1.4164288175783938e-05,-2.783352547493706e-05,-3.711374242160678e-05,7.0,5.9333
2.875,-3.41810331700618e-05,-3.613449875028611e-05,-3.613449875028611e-05,-4.052854086518654e-05,7.0,5.9333
2.87890625,-3.711374242160678e-05,-4.6876048560311286e-05,-3.613449875028611e-05,-3.41810331700618e-05,7.0,5.9333
2.8828125,-3.174045663538568e-05,-3.222756758983749e-05,-3.41810331700618e-05,-2.685930356603342e-05,7.0,5.9333
2.88671875,-3.41810331700618e-05,-4.443547202563516e-05,-2.734641452048524e-05,-4.248200644541085e-05,7.0,5.9333
2.890625,-4.541471569695583e-05,-5.8104709324788276e-05,-2.783352547493706e-05,-4.1015651819638364e-05,7.0,5.9333
2.89453125,-4.9316625094987416e-05,-5.0782979720759905e-05,-4.150778453650721e-05,-3.222756758983749e-05,7.0,5.9333
2.8984375,-4.4922582980086976e-05,-5.224933434653239e-05,-4.6876048560311286e-05,-3.857507528496224e-05,7.0,5.9333
2.90234375,-4.248200644541085e-05,-4.4922582980086976e-05,-4.199489549095903e-05,-3.0274102009613188e-05,7.0,5.9333
2.90625,-4.248200644541085e-05,-4.296911739986267e-05,-1.75790866193637e-05,-2.8812769146257726e-05,7.0,5.9333
2.91015625,-4.1015651819638364e-05,-5.273644530098421e-05,-3.222756758983749e-05,-3.662160970473793e-05,7.0,5.9333
2.9140625,-3.760085337605859e-05,-4.1015651819638364e-05,-4.5901826651407645e-05,-3.174045663538568e-05,7.0,5.9333
2.91796875,-3.857507528496224e-05,-4.296911739986267e-05,-4.296911739986267e-05,-2.9786991055161367e-05,7.0,5.9333
2.921875,-4.199489549095903e-05,-4.5901826651407645e-05,-4.443547202563516e-05,-2.734641452048524e-05,7.0,5.9333
2.92578125,-3.808796433051041e-05,-3.808796433051041e-05,-2.8812769146257726e-05,-2.734641452048524e-05,7.0,5.9333
2.9296875,-4.004142991073472e-05,-4.6876048560311286e-05,-1.172371164110781e-05,-2.734641452048524e-05,7.0,5.9333
2.93359375,-4.5901826651407645e-05,-6.151950776836805e-05,-3.3693922215609987e-05,-2.392659431448844e-05,7.0,5.9333
2.9375,-4.004142991073472e-05,-6.005817490501259e-05,-3.0274102009613188e-05,-1.5138510084687574e-05,7.0,5.9333
2.94140625,-3.516027684138247e-05,-6.103239681391623e-05,-3.1253345680933856e-05,-1.953255219958801e-05,7.0,5.9333
2.9453125,-3.95543189562829e-05,-5.8104709324788276e-05,-4.199489549095903e-05,-2.9786991055161367e-05,7.0,5.9333
2.94921875,-4.6876048560311286e-05,-5.127009067521172e-05,-2.9299880100709547e-05,-3.662160970473793e-05,7.0,5.9333
2.953125,-4.346125011673152e-05,-4.882951414053559e-05,-3.0766234726482036e-05,-3.808796433051041e-05,7.0,5.9333
2.95703125,-4.346125011673152e-05,-5.273644530098421e-05,-3.662160970473793e-05,-3.271970030670634e-05,7.0,5.9333
2.9609375,-4.150778453650721e-05,-4.834240318608377e-05,-3.808796433051041e-05,-2.685930356603342e-05,7.0,5.9333
2.96484375,-3.41810331700618e-05,-2.539294894026093e-05,-3.41810331700618e-05,-2.685930356603342e-05,7.0,5.9333
2.96875,-4.1015651819638364e-05,-4.248200644541085e-05,-4.541471569695583e-05,-3.271970030670634e-05,7.0,5.9333
2.97265625,-4.199489549095903e-05,-4.6876048560311286e-05,-3.466814412451362e-05,-2.783352547493706e-05,7.0,5.9333
2.9765625,-3.857507528496224e-05,-3.0766234726482036e-05,-2.539294894026093e-05,-2.0511795870908677e-05,7.0,5.9333
2.98046875,-2.9786991055161367e-05,-3.174045663538568e-05,-3.613449875028611e-05,-2.2465261451132987e-05,7.0,5.9333
2.984375,-3.41810331700618e-05,-3.0766234726482036e-05,-3.3206811261158166e-05,-3.662160970473793e-05,7.0,5.9333
2.98828125,-4.394836107118334e-05,-3.466814412451362e-05,-3.1253345680933856e-05,-3.760085337605859e-05,7.0,5.9333
2.9921875,-2.9299880100709547e-05,-3.613449875028611e-05,-3.271970030670634e-05,-2.539294894026093e-05,7.0,5.9333
2.99609375,-2.734641452048524e-05,-2.783352547493706e-05,-3.0766234726482036e-05,-3.0274102009613188e-05,7.0,5.9333
3.0,-3.711374242160678e-05,-2.6367170849164572e-05,-3.0766234726482036e-05,-2.6367170849164572e-05,7.0,5.9333
3.00390625,-4.1015651819638364e-05,-3.3693922215609987e-05,-3.3693922215609987e-05,-3.0274102009613188e-05,7.0,5.9333
3.0078125,-3.95543189562829e-05,-2.8320636429388878e-05,-2.9786991055161367e-05,-3.711374242160678e-05,7.0,5.9333
3.01171875,-3.3206811261158166e-05,-3.0274102009613188e-05,-2.0019663154039832e-05,-2.8812769146257726e-05,7.0,5.9333
3.015625,-3.760085337605859e-05,-3.222756758983749e-05,-4.980875781185626e-05,-2.783352547493706e-05,7.0,5.9333
3.01953125,-4.4922582980086976e-05,-2.4905837985809113e-05,-6.445221701991301e-05,-2.4905837985809113e-05,7.0,5.9333
3.0234375,-3.95543189562829e-05,-2.4418727031357293e-05,-3.662160970473793e-05,-2.6367170849164572e-05,7.0,5.9333
3.02734375,-3.857507528496224e-05,-2.4418727031357293e-05,-3.613449875028611e-05,-3.1253345680933856e-05,7.0,5.9333
3.03125,-4.1015651819638364e-05,-2.8812769146257726e-05,-4.7368181277180134e-05,-3.0766234726482036e-05,7.0,5.9333
3.03515625,-3.662160970473793e-05,-3.41810331700618e-05,-4.5901826651407645e-05,-3.174045663538568e-05,7.0,5.9333
3.0390625,-3.906720800183108e-05,-4.541471569695583e-05,-4.541471569695583e-05,-3.0766234726482036e-05,7.0,5.9333
3.04296875,-4.150778453650721e-05,-5.42027999267567e-05,-4.4922582980086976e-05,-3.271970030670634e-05,7.0,5.9333
3.046875,-3.41810331700618e-05,-4.150778453650721e-05,-4.882951414053559e-05,-2.9786991055161367e-05,7.0,5.9333
3.05078125,-3.0274102009613188e-05,-2.8812769146257726e-05,-3.857507528496224e-05,-2.2465261451132987e-05,7.0,5.9333
3.0546875,-3.613449875028611e-05,-4.004142991073472e-05,-3.0274102009613188e-05,-3.613449875028611e-05,7.0,5.9333
3.05859375,-4.052854086518654e-05,-4.443547202563516e-05,-3.808796433051041e-05,-3.95543189562829e-05,7.0,5.9333
3.0625,-4.199489549095903e-05,-3.760085337605859e-05,-1.8558330290684374e-05,-2.8812769146257726e-05,7.0,5.9333
3.06640625,-4.5901826651407645e-05,-4.7855292231631955e-05,-2.685930356603342e-05,-3.0766234726482036e-05,7.0,5.9333
3.0703125,-4.346125011673152e-05,-4.7855292231631955e-05,-4.150778453650721e-05,-3.516027684138247e-05,7.0,5.9333
3.07421875,-4.882951414053559e-05,-4.6388937605859465e-05,-3.516027684138247e-05,-3.222756758983749e-05,7.0,5.9333
3.078125,-5.8104709324788276e-05,-6.054528585946441e-05,-5.273644530098421e-05,-2.8320636429388878e-05,7.0,5.9333
3.08203125,-5.127009067521172e-05,-4.980875781185626e-05,-3.3693922215609987e-05,-2.685930356603342e-05,7.0,5.9333
3.0859375,-4.5901826651407645e-05,-4.394836107118334e-05,-2.783352547493706e-05,-3.516027684138247e-05,7.0,5.9333
3.08984375,-3.808796433051041e-05,-4.150778453650721e-05,-5.176222339208057e-05,-3.662160970473793e-05,7.0,5.9333
3.09375,-3.41810331700618e-05,-2.685930356603342e-05,-5.371568897230487e-05,-3.662160970473793e-05,7.0,5.9333
3.09765625,-4.541471569695583e-05,-3.1253345680933856e-05,-4.004142991073472e-05,-4.248200644541085e-05,7.0,5.9333
3.1015625,-5.176222339208057e-05,-3.466814412451362e-05,-3.857507528496224e-05,-4.346125011673152e-05,7.0,5.9333
3.10546875,-4.541471569695583e-05,-2.9299880100709547e-05,-5.371568897230487e-05,-4.346125011673152e-05,7.0,5.9333
3.109375,-4.1015651819638364e-05,-2.685930356603342e-05,-4.248200644541085e-05,-3.3693922215609987e-05,7.0,5.9333
3.11328125,-3.760085337605859e-05,-1.7091975664911885e-05,-2.3439483360036624e-05,-2.6367170849164572e-05,7.0,5.9333
3.1171875,-3.906720800183108e-05,-2.4905837985809113e-05,-2.8320636429388878e-05,-3.466814412451362e-05,7.0,5.9333
3.12109375,-4.541471569695583e-05,-3.95543189562829e-05,-4.541471569695583e-05,-3.711374242160678e-05,7.0,5.9333
3.125,-4.834240318608377e-05,-3.271970030670634e-05,-4.394836107118334e-05,-2.8812769146257726e-05,7.0,5.9333
3.12890625,-4.248200644541085e-05,-3.174045663538568e-05,-3.808796433051041e-05,-3.174045663538568e-05,7.0,5.9333
3.1328125,-3.95543189562829e-05,-4.443547202563516e-05,-3.3693922215609987e-05,-3.906720800183108e-05,7.0,5.9333
3.13671875,-4.394836107118334e-05,-4.394836107118334e-05,-4.6876048560311286e-05,-4.443547202563516e-05,7.0,5.9333
3.140625,-4.004142991073472e-05,-3.564738779583429e-05,-5.615124374456397e-05,-4.1015651819638364e-05,7.0,5.9333
3.14453125,-4.346125011673152e-05,-4.7855292231631955e-05,-3.271970030670634e-05,-4.5901826651407645e-05,7.0,5.9333
3.1484375,-4.1015651819638364e-05,-3.857507528496224e-05,-3.271970030670634e-05,-4.1015651819638364e-05,7.0,5.9333
3.15234375,-3.711374242160678e-05,-2.539294894026093e-05,-5.517200007324331e-05,-2.734641452048524e-05,7.0,5.9333
3.15625,-3.3693922215609987e-05,-2.734641452048524e-05,-4.7368181277180134e-05,-2.9299880100709547e-05,7.0,5.9333
3.16015625,-3.613449875028611e-05,-2.8812769146257726e-05,-2.9299880100709547e-05,-3.3206811261158166e-05,7.0,5.9333
3.1640625,-3.95543189562829e-05,-1.953255219958801e-05,-3.0274102009613188e-05,-3.0274102009613188e-05,7.0,5.9333
3.16796875,-3.41810331700618e-05,-2.2952372405584807e-05,-3.41810331700618e-05,-2.685930356603342e-05,7.0,5.9333
3.171875,-4.296911739986267e-05,-3.613449875028611e-05,-1.8558330290684374e-05,-2.0511795870908677e-05,7.0,5.9333
3.17578125,-5.7612576607919435e-05,-2.588005989471275e-05,-1.0257357015335323e-05,-2.4418727031357293e-05,7.0,5.9333
3.1796875,-4.199489549095903e-05,-3.564738779583429e-05,-4.1015651819638364e-05,-4.248200644541085e-05,7.0,5.9333
3.18359375,-3.174045663538568e-05,-4.7368181277180134e-05,-6.347297334859236e-05,-5.517200007324331e-05,7.0,5.9333
3.1875,-2.2952372405584807e-05,-2.4905837985809113e-05,-3.613449875028611e-05,-4.346125011673152e-05,7.0,5.9333
3.19140625,-9.278113344014656e-06,-1.807121933623255e-05,-1.807121933623255e-05,-4.443547202563516e-05,7.0,5.9333
3.1953125,-9.77140068665605e-07,-1.4651399130235758e-05,-3.3206811261158166e-05,-5.0782979720759905e-05,7.0,5.9333
3.19921875,9.277298786907756e-06,-7.816780480659196e-06,-3.711374242160678e-05,-4.541471569695583e-05,7.0,5.9333
3.203125,9.277298786907756e-06,-9.278113344014656e-06,-3.857507528496224e-05,-5.371568897230487e-05,7.0,5.9333
3.20703125,1.3671340901808193e-05,-1.318504450446327e-05,-4.443547202563516e-05,-6.591354988326848e-05,7.0,5.9333
3.2109375,3.07603984069581e-05,-1.807121933623255e-05,-4.9316625094987416e-05,-6.445221701991301e-05,7.0,5.9333
3.21484375,3.320097494163424e-05,-4.396960274662398e-06,-4.9316625094987416e-05,-5.85918202792401e-05,7.0,5.9333
3.21875,2.7340578200961315e-05,-5.371182183566035e-06,-4.394836107118334e-05,-6.200661872281987e-05,7.0,5.9333
3.22265625,3.515444052185854e-05,-1.172371164110781e-05,-3.41810331700618e-05,-6.151950776836805e-05,7.0,5.9333
3.2265625,4.638310128633555e-05,-7.816780480659196e-06,-4.004142991073472e-05,-6.591354988326848e-05,7.0,5.9333
3.23046875,4.73623449576562e-05,-8.303891435111012e-06,-4.443547202563516e-05,-6.933337008926529e-05,7.0,5.9333
3.234375,4.638310128633555e-05,1.2204986276035697e-05,-4.9316625094987416e-05,-6.689279355458916e-05,7.0,5.9333
3.23828125,4.54088793774319e-05,5.370367626459142e-06,-4.9316625094987416e-05,-7.079972471503776e-05,7.0,5.9333
3.2421875,3.6620795147631026e-05,-2.4418727031357293e-05,-5.273644530098421e-05,-6.786701546349278e-05,7.0,5.9333
3.24609375,4.3455413797207596e-05,-1.0744467969787137e-05,-4.004142991073472e-05,-4.346125011673152e-05,7.0,5.9333
3.25,4.3455413797207596e-05,-4.396960274662398e-06,-3.662160970473793e-05,-4.980875781185626e-05,7.0,5.9333
3.25390625,2.929404378118562e-05,-3.909849320210575e-06,-5.322355625543603e-05,-6.298586239414054e-05,7.0,5.9333
3.2578125,2.4412890711833367e-05,-9.77140068665605e-07,-3.906720800183108e-05,-5.322355625543603e-05,7.0,5.9333
3.26171875,2.245942513160905e-05,-4.884071229114219e-06,-2.8320636429388878e-05,-5.615124374456397e-05,7.0,5.9333
3.265625,1.708613934538795e-05,-1.5138510084687574e-05,-3.174045663538568e-05,-5.224933434653239e-05,7.0,5.9333
3.26953125,1.0738631650263215e-05,-1.611775375600824e-05,-2.8812769146257726e-05,-4.834240318608377e-05,7.0,5.9333
3.2734375,1.5624806482032498e-05,-5.863314900434887e-06,-2.0019663154039832e-05,-5.42027999267567e-05,7.0,5.9333
3.27734375,2.3433647040512695e-05,-3.4227383657587607e-06,-2.6367170849164572e-05,-4.882951414053559e-05,7.0,5.9333
3.28125,2.490000166628519e-05,-1.956383739986272e-06,-1.8558330290684374e-05,-4.1015651819638364e-05,7.0,5.9333
3.28515625,1.659902839093614e-05,-2.443494694438094e-06,-8.303891435111012e-06,-4.199489549095903e-05,7.0,5.9333
3.2890625,4.841927946898537e-07,2.4376583749141645e-06,-2.2465261451132987e-05,-4.980875781185626e-05,7.0,5.9333
3.29296875,-1.956383739986272e-06,-3.4227383657587607e-06,-3.0274102009613188e-05,-4.980875781185626e-05,7.0,5.9333
3.296875,-4.396960274662398e-06,-1.8558330290684374e-05,-2.8320636429388878e-05,-4.541471569695583e-05,7.0,5.9333
3.30078125,-9.278113344014656e-06,-1.7091975664911885e-05,-1.9045441245136188e-05,-4.394836107118334e-05,7.0,5.9333
3.3046875,-1.2210822595559626e-05,-1.4651399130235758e-05,-2.4905837985809113e-05,-5.322355625543603e-05,7.0,5.9333
3.30859375,-1.807121933623255e-05,-1.0744467969787137e-05,-1.75790866193637e-05,-5.7612576607919435e-05,7.0,5.9333
3.3125,-1.611775375600824e-05,-1.5138510084687574e-05,-1.7091975664911885e-05,-5.322355625543603e-05,7.0,5.9333
3.31640625,-2.0019663154039832e-05,-2.1973128734264135e-05,-3.174045663538568e-05,-5.66383546990158e-05,7.0,5.9333
3.3203125,-1.75790866193637e-05,-1.318504450446327e-05,-1.8558330290684374e-05,-5.127009067521172e-05,7.0,5.9333
3.32421875,-1.318504450446327e-05,-4.396960274662398e-06,-8.303891435111012e-06,-4.6388937605859465e-05,7.0,5.9333
3.328125,-1.5138510084687574e-05,-9.77140068665605e-07,-1.318504450446327e-05,-4.1015651819638364e-05,7.0,5.9333
3.33203125,-9.770246060883501e-06,-7.816780480659196e-06,-2.3439483360036624e-05,-3.564738779583429e-05,7.0,5.9333
3.3359375,-1.9045441245136188e-05,-1.2697933550011448e-05,-2.685930356603342e-05,-4.296911739986267e-05,7.0,5.9333
3.33984375,-2.783352547493706e-05,-8.303891435111012e-06,-1.9045441245136188e-05,-4.443547202563516e-05,7.0,5.9333
3.34375,-1.953255219958801e-05,-4.884071229114219e-06,-2.4905837985809113e-05,-4.5901826651407645e-05,7.0,5.9333
3.34765625,-1.8558330290684374e-05,-4.884071229114219e-06,-3.0274102009613188e-05,-4.834240318608377e-05,7.0,5.9333
3.3515625,-2.2465261451132987e-05,2.4376583749141645e-06,-2.9306056488899086e-06,-4.346125011673152e-05,7.0,5.9333
3.35546875,-2.0998906825360498e-05,-4.900291142137831e-07,5.857478580910957e-06,-3.222756758983749e-05,7.0,5.9333
3.359375,-2.1486017779812315e-05,-9.770246060883501e-06,-2.9299880100709547e-05,-3.662160970473793e-05,7.0,5.9333
3.36328125,-2.588005989471275e-05,-8.791002389562834e-06,-1.660486471046006e-05,-3.857507528496224e-05,7.0,5.9333
3.3671875,-2.783352547493706e-05,-9.278113344014656e-06,-8.791002389562834e-06,-3.0274102009613188e-05,7.0,5.9333
3.37109375,-2.539294894026093e-05,-5.371182183566035e-06,-2.539294894026093e-05,-2.3439483360036624e-05,7.0,5.9333
3.375,-2.2952372405584807e-05,-3.4227383657587607e-06,-2.2465261451132987e-05,-2.1486017779812315e-05,7.0,5.9333
3.37890625,-2.0019663154039832e-05,-3.909849320210575e-06,-2.0019663154039832e-05,-3.564738779583429e-05,7.0,5.9333
3.3828125,-1.807121933623255e-05,-1.8558330290684374e-05,-3.41810331700618e-05,-4.443547202563516e-05,7.0,5.9333
3.38671875,-2.0511795870908677e-05,-2.2952372405584807e-05,-2.8320636429388878e-05,-4.4922582980086976e-05,7.0,5.9333
3.390625,-2.9299880100709547e-05,-2.1973128734264135e-05,-2.4905837985809113e-05,-5.0782979720759905e-05,7.0,5.9333
3.39453125,-3.222756758983749e-05,-2.3439483360036624e-05,-4.7368181277180134e-05,-4.394836107118334e-05,7.0,5.9333
3.3984375,-2.4905837985809113e-05,-1.5625621039139396e-05,-4.1015651819638364e-05,-3.3206811261158166e-05,7.0,5.9333
3.40234375,-2.685930356603342e-05,-2.392659431448844e-05,-2.1486017779812315e-05,-3.41810331700618e-05,7.0,5.9333
3.40625,-2.588005989471275e-05,-2.0511795870908677e-05,-7.816780480659196e-06,-3.1253345680933856e-05,7.0,5.9333
3.41015625,-2.2465261451132987e-05,-1.8558330290684374e-05,-8.303891435111012e-06,-2.8320636429388878e-05,7.0,5.9333
3.4140625,-2.6367170849164572e-05,-4.004142991073472e-05,-3.95543189562829e-05,-2.1973128734264135e-05,7.0,5.9333
3.41796875,-3.174045663538568e-05,-4.882951414053559e-05,-3.857507528496224e-05,-2.8320636429388878e-05,7.0,5.9333
3.421875,-3.174045663538568e-05,-4.052854086518654e-05,-2.0019663154039832e-05,-3.662160970473793e-05,7.0,5.9333
3.42578125,-3.1253345680933856e-05,-3.95543189562829e-05,-2.1973128734264135e-05,-2.8812769146257726e-05,7.0,5.9333
3.4296875,-3.222756758983749e-05,-4.6876048560311286e-05,-2.4418727031357293e-05,-3.0274102009613188e-05,7.0,5.9333
3.43359375,-3.662160970473793e-05,-4.9316625094987416e-05,-1.953255219958801e-05,-3.3206811261158166e-05,7.0,5.9333
3.4375,-3.41810331700618e-05,-3.711374242160678e-05,-1.5625621039139396e-05,-3.3693922215609987e-05,7.0,5.9333
3.44140625,-3.906720800183108e-05,-3.466814412451362e-05,-2.2465261451132987e-05,-4.394836107118334e-05,7.0,5.9333
3.4453125,-4.296911739986267e-05,-3.95543189562829e-05,-2.9299880100709547e-05,-4.1015651819638364e-05,7.0,5.9333
3.44921875,-3.0766234726482036e-05,-2.9786991055161367e-05,-2.392659431448844e-05,-3.0766234726482036e-05,7.0,5.9333
3.453125,-2.783352547493706e-05,-3.222756758983749e-05,-1.660486471046006e-05,-3.271970030670634e-05,7.0,5.9333
3.45703125,-2.8812769146257726e-05,-3.174045663538568e-05,-1.0744467969787137e-05,-3.1253345680933856e-05,7.0,5.9333
3.4609375,-2.3439483360036624e-05,-2.2465261451132987e-05,-1.75790866193637e-05,-2.8320636429388878e-05,7.0,5.9333
3.46484375,-2.6367170849164572e-05,-3.41810331700618e-05,-2.1486017779812315e-05,-3.3206811261158166e-05,7.0,5.9333
3.46875,-2.734641452048524e-05,-4.5901826651407645e-05,-1.172371164110781e-05,-3.760085337605859e-05,7.0,5.9333
3.47265625,-2.734641452048524e-05,-4.004142991073472e-05,-2.4418727031357293e-05,-3.516027684138247e-05,7.0,5.9333
3.4765625,-2.8812769146257726e-05,-3.174045663538568e-05,-2.685930356603342e-05,-3.662160970473793e-05,7.0,5.9333
3.48046875,-3.0274102009613188e-05,-4.296911739986267e-05,-3.662160970473793e-05,-4.004142991073472e-05,7.0,5.9333
3.484375,-2.9299880100709547e-05,-4.834240318608377e-05,-4.541471569695583e-05,-3.613449875028611e-05,7.0,5.9333
3.48828125,-2.9786991055161367e-05,-4.296911739986267e-05,-2.392659431448844e-05,-3.516027684138247e-05,7.0,5.9333
3.4921875,-3.613449875028611e-05,-4.834240318608377e-05,-4.199489549095903e-05,-3.613449875028611e-05,7.0,5.9333
3.49609375,-3.271970030670634e-05,-4.7855292231631955e-05,-4.980875781185626e-05,-3.466814412451362e-05,7.0,5.9333
3.5,-3.271970030670634e-05,-4.7855292231631955e-05,-3.41810331700618e-05,-3.466814412451362e-05,7.0,5.9333
3.50390625,-4.004142991073472e-05,-4.5901826651407645e-05,-3.808796433051041e-05,-3.1253345680933856e-05,7.0,5.9333
3.5078125,-3.466814412451362e-05,-4.541471569695583e-05,-3.613449875028611e-05,-3.271970030670634e-05,7.0,5.9333
3.51171875,-2.2952372405584807e-05,-3.0766234726482036e-05,-3.1253345680933856e-05,-3.0766234726482036e-05,7.0,5.9333
3.515625,-2.2465261451132987e-05,-3.174045663538568e-05,-3.3206811261158166e-05,-2.783352547493706e-05,7.0,5.9333
3.51953125,-2.4418727031357293e-05,-2.9299880100709547e-05,-8.303891435111012e-06,-3.174045663538568e-05,7.0,5.9333
3.5234375,-2.1486017779812315e-05,-1.953255219958801e-05,-1.46927278553445e-06,-2.8320636429388878e-05,7.0,5.9333
3.52734375,-2.685930356603342e-05,-2.9299880100709547e-05,-5.029586876630808e-05,-3.222756758983749e-05,7.0,5.9333
3.53125,-3.906720800183108e-05,-3.3693922215609987e-05,-6.591354988326848e-05,-5.029586876630808e-05,7.0,5.9333
3.53515625,-3.662160970473793e-05,8.785166070038904e-06,-1.8558330290684374e-05,-6.493932797436484e-05,7.0,5.9333
3.5390625,-3.174045663538568e-05,2.5387112620737e-05,1.317920818493934e-05,-3.564738779583429e-05,7.0,5.9333
3.54296875,-4.9316625094987416e-05,-4.541471569695583e-05,-3.906720800183108e-05,-5.371182183566035e-06,7.0,5.9333
3.546875,-6.835914818036164e-05,-7.226105757839323e-05,-5.42027999267567e-05,-2.0998906825360498e-05,7.0,5.9333
3.55078125,-7.421452315861753e-05,-8.202838547951476e-05,-4.7855292231631955e-05,-2.4418727031357293e-05,7.0,5.9333
3.5546875,-8.154127452506294e-05,-0.00010009668665598535,-6.396008430304418e-05,9.763255115587057e-07,7.0,5.9333
3.55859375,-0.0001030243741451133,-0.00010644419435111009,-7.763434336461432e-05,5.857478580910957e-06,7.0,5.9333
3.5625,-0.00011913920974135957,-0.00011767285511558707,-7.568087778439002e-05,8.785166070038904e-06,7.0,5.9333
3.56640625,-0.00013085498146028838,-0.00012694805029983978,-8.886300412909134e-05,2.3433647040512695e-05,7.0,5.9333
3.5703125,-0.00014452924052185855,-0.00012744018301670863,-8.251549643396659e-05,2.490000166628519e-05,7.0,5.9333
3.57421875,-0.0001621054089814603,-0.00015380443570611123,-8.9842247800412e-05,2.3433647040512695e-05,7.0,5.9333
3.578125,-0.00016991927130235752,-0.00014794403896543833,-0.00010351148509956511,1.9526715880064086e-05,7.0,5.9333
3.58203125,-0.00016845291667658501,-0.00014452924052185855,-9.276993528953994e-05,2.8319821872281976e-05,7.0,5.9333
3.5859375,-0.00017040638225680933,-0.0001542965684229801,-0.00011913920974135957,2.6853467246509494e-05,7.0,5.9333
3.58984375,-0.00017235984783703362,-0.0001328084470405127,-0.0001015580195193408,2.0505959551384748e-05,7.0,5.9333
3.59375,-0.0001772410009063859,-0.00013915595473563746,-8.251549643396659e-05,1.9526715880064086e-05,7.0,5.9333
3.59765625,-0.00017284695879148546,-0.00013720248915541312,-9.472340086976424e-05,1.4645562810711822e-05,7.0,5.9333
3.6015625,-0.00015917772149233233,-0.0001196263206958114,-9.570264454108492e-05,5.857478580910957e-06,7.0,5.9333
3.60546875,-0.00014159653127031357,-0.00010790552721446556,-7.324030124971389e-05,-5.863314900434887e-06,7.0,5.9333
3.609375,-0.00013036787050583657,-0.00010497783972533761,-7.275319029526206e-05,-2.443494694438094e-06,7.0,5.9333
3.61328125,-0.00012450747376516365,-0.00010937188184023805,-9.032935875486381e-05,1.9505474204623426e-06,7.0,5.9333
3.6171875,-0.0001181599660700389,-9.37491789608606e-05,-7.226105757839323e-05,-4.900291142137831e-07,7.0,5.9333
3.62109375,-0.00012060054260471504,-7.910069799038681e-05,-5.66383546990158e-05,-5.371182183566035e-06,7.0,5.9333
3.625,-0.00011718574416113527,-7.714723241016251e-05,-6.054528585946441e-05,-1.7091975664911885e-05,7.0,5.9333
3.62890625,-0.00010253726319066148,-6.347297334859236e-05,-4.248200644541085e-05,-1.2210822595559626e-05,7.0,5.9333
3.6328125,-0.00010058379761043717,-5.517200007324331e-05,-5.322355625543603e-05,-9.278113344014656e-06,7.0,5.9333
3.63671875,-0.00010644419435111009,-6.689279355458916e-05,-4.980875781185626e-05,-1.5625621039139396e-05,7.0,5.9333
3.640625,-9.130358066376745e-05,-6.542643892881667e-05,-2.8320636429388878e-05,-1.0744467969787137e-05,7.0,5.9333
3.64453125,-8.544820568551156e-05,-6.396008430304418e-05,-2.9786991055161367e-05,-1.5625621039139396e-05,7.0,5.9333
3.6484375,-9.814322107576105e-05,-6.542643892881667e-05,-5.615124374456397e-05,-2.0998906825360498e-05,7.0,5.9333
3.65234375,-9.081646970931564e-05,-5.224933434653239e-05,-5.176222339208057e-05,-1.5625621039139396e-05,7.0,5.9333
3.65625,-7.763434336461432e-05,-4.4922582980086976e-05,-2.734641452048524e-05,-1.807121933623255e-05,7.0,5.9333
3.66015625,-7.275319029526206e-05,-5.273644530098421e-05,-2.588005989471275e-05,-1.953255219958801e-05,7.0,5.9333
3.6640625,-7.421452315861753e-05,-4.980875781185626e-05,-3.466814412451362e-05,-2.539294894026093e-05,7.0,5.9333
3.66796875,-6.835914818036164e-05,-3.613449875028611e-05,-3.906720800183108e-05,-2.6367170849164572e-05,7.0,5.9333
3.671875,-5.85918202792401e-05,-2.6367170849164572e-05,-2.4905837985809113e-05,-1.75790866193637e-05,7.0,5.9333
3.67578125,-6.689279355458916e-05,-3.3206811261158166e-05,-2.4418727031357293e-05,-2.539294894026093e-05,7.0,5.9333
3.6796875,-7.616798873884184e-05,-4.443547202563516e-05,-3.1253345680933856e-05,-3.808796433051041e-05,7.0,5.9333
3.68359375,-7.226105757839323e-05,-3.857507528496224e-05,-2.0998906825360498e-05,-3.711374242160678e-05,7.0,5.9333
3.6875,-6.200661872281987e-05,-3.516027684138247e-05,-1.7091975664911885e-05,-3.0274102009613188e-05,7.0,5.9333
3.69140625,-5.127009067521172e-05,-3.0274102009613188e-05,-3.1253345680933856e-05,-2.2465261451132987e-05,7.0,5.9333
3.6953125,-4.980875781185626e-05,-1.4651399130235758e-05,-2.588005989471275e-05,-2.4905837985809113e-05,7.0,5.9333
3.69921875,-4.9316625094987416e-05,-1.9045441245136188e-05,-2.8812769146257726e-05,-2.4418727031357293e-05,7.0,5.9333
3.703125,-4.4922582980086976e-05,-3.0274102009613188e-05,-4.1015651819638364e-05,-2.9786991055161367e-05,7.0,5.9333
3.70703125,-4.443547202563516e-05,-2.392659431448844e-05,-3.41810331700618e-05,-3.711374242160678e-05,7.0,5.9333
3.7109375,-4.248200644541085e-05,-2.3439483360036624e-05,-2.539294894026093e-05,-3.808796433051041e-05,7.0,5.9333
3.71484375,-4.394836107118334e-05,-2.539294894026093e-05,-1.4651399130235758e-05,-3.271970030670634e-05,7.0,5.9333
3.71875,-4.6388937605859465e-05,-2.539294894026093e-05,-3.174045663538568e-05,-2.9786991055161367e-05,7.0,5.9333
3.72265625,-5.0782979720759905e-05,-2.539294894026093e-05,-6.396008430304418e-05,-4.150778453650721e-05,7.0,5.9333
3.7265625,-5.66383546990158e-05,-3.3693922215609987e-05,-4.248200644541085e-05,-4.248200644541085e-05,7.0,5.9333
3.73046875,-5.66383546990158e-05,-4.199489549095903e-05,-2.3439483360036624e-05,-3.564738779583429e-05,7.0,5.9333
3.734375,-5.0782979720759905e-05,-3.857507528496224e-05,-2.8812769146257726e-05,-3.857507528496224e-05,7.0,5.9333
3.73828125,-5.4684889118791484e-05,-4.4922582980086976e-05,-3.564738779583429e-05,-4.443547202563516e-05,7.0,5.9333
3.7421875,-5.176222339208057e-05,-3.95543189562829e-05,-3.857507528496224e-05,-3.516027684138247e-05,7.0,5.9333
3.74609375,-4.346125011673152e-05,-3.516027684138247e-05,-2.588005989471275e-05,-2.539294894026093e-05,7.0,5.9333
3.75,-5.4684889118791484e-05,-4.199489549095903e-05,-1.5625621039139396e-05,-3.222756758983749e-05,7.0,5.9333
3.75390625,-6.054528585946441e-05,-4.7368181277180134e-05,-2.783352547493706e-05,-3.711374242160678e-05,7.0,5.9333
3.7578125,-5.85918202792401e-05,-5.0782979720759905e-05,-5.176222339208057e-05,-4.6876048560311286e-05,7.0,5.9333
3.76171875,-5.371568897230487e-05,-4.6876048560311286e-05,-5.615124374456397e-05,-5.127009067521172e-05,7.0,5.9333
3.765625,-4.443547202563516e-05,-4.394836107118334e-05,-3.0274102009613188e-05,-3.711374242160678e-05,7.0,5.9333
3.76953125,-4.052854086518654e-05,-4.150778453650721e-05,-3.222756758983749e-05,-3.174045663538568e-05,7.0,5.9333
3.7734375,-4.394836107118334e-05,-3.906720800183108e-05,-3.516027684138247e-05,-3.0766234726482036e-05,7.0,5.9333
3.77734375,-4.7368181277180134e-05,-3.711374242160678e-05,-1.318504450446327e-05,-3.3693922215609987e-05,7.0,5.9333
3.78125,-4.150778453650721e-05,-4.199489549095903e-05,-3.222756758983749e-05,-3.613449875028611e-05,7.0,5.9333
3.78515625,-3.662160970473793e-05,-3.174045663538568e-05,-3.3693922215609987e-05,-2.4418727031357293e-05,7.0,5.9333
3.7890625,-4.052854086518654e-05,-2.1486017779812315e-05,-2.4905837985809113e-05,-3.711374242160678e-05,7.0,5.9333
3.79296875,-4.6876048560311286e-05,-3.808796433051041e-05,-2.0998906825360498e-05,-4.9316625094987416e-05,7.0,5.9333
3.796875,-5.127009067521172e-05,-4.4922582980086976e-05,-1.5625621039139396e-05,-2.734641452048524e-05,7.0,5.9333
3.80078125,-4.7368181277180134e-05,-4.394836107118334e-05,-2.8812769146257726e-05,-2.4418727031357293e-05,7.0,5.9333
3.8046875,-4.7855292231631955e-05,-4.296911739986267e-05,-4.4922582980086976e-05,-4.150778453650721e-05,7.0,5.9333
3.80859375,-4.7368181277180134e-05,-4.199489549095903e-05,-4.1015651819638364e-05,-3.760085337605859e-05,7.0,5.9333
3.8125,-4.004142991073472e-05,-4.4922582980086976e-05,-3.1253345680933856e-05,-3.3693922215609987e-05,7.0,5.9333
3.81640625,-3.564738779583429e-05,-4.443547202563516e-05,-3.1253345680933856e-05,-4.834240318608377e-05,7.0,5.9333
3.8203125,-3.41810331700618e-05,-4.4922582980086976e-05,-3.0274102009613188e-05,-5.517200007324331e-05,7.0,5.9333
3.82421875,-4.248200644541085e-05,-5.42027999267567e-05,-3.41810331700618e-05,-4.6876048560311286e-05,7.0,5.9333
3.828125,-4.980875781185626e-05,-5.956604218814374e-05,-3.3206811261158166e-05,-3.711374242160678e-05,7.0,5.9333
3.83203125,-4.541471569695583e-05,-5.7612576607919435e-05,-4.1015651819638364e-05,-3.564738779583429e-05,7.0,5.9333
3.8359375,-3.662160970473793e-05,-6.347297334859236e-05,-4.248200644541085e-05,-4.004142991073472e-05,7.0,5.9333
3.83984375,-3.41810331700618e-05,-6.249875143968871e-05,-4.394836107118334e-05,-4.1015651819638364e-05,7.0,5.9333
3.84375,-3.466814412451362e-05,-5.956604218814374e-05,-2.8320636429388878e-05,-3.857507528496224e-05,7.0,5.9333
3.84765625,-3.3206811261158166e-05,-4.980875781185626e-05,-2.4905837985809113e-05,-3.662160970473793e-05,7.0,5.9333
3.8515625,-2.9299880100709547e-05,-3.760085337605859e-05,-4.296911739986267e-05,-3.1253345680933856e-05,7.0,5.9333
3.85546875,-2.588005989471275e-05,-3.516027684138247e-05,-3.95543189562829e-05,-2.8320636429388878e-05,7.0,5.9333
3.859375,-2.734641452048524e-05,-3.0766234726482036e-05,-4.5901826651407645e-05,-3.1253345680933856e-05,7.0,5.9333
3.86328125,-2.8812769146257726e-05,-2.734641452048524e-05,-3.906720800183108e-05,-3.0274102009613188e-05,7.0,5.9333
3.8671875,-1.807121933623255e-05,-1.9045441245136188e-05,-2.539294894026093e-05,-3.3206811261158166e-05,7.0,5.9333
3.87109375,-1.807121933623255e-05,-1.4164288175783938e-05,-2.8812769146257726e-05,-4.004142991073472e-05,7.0,5.9333
3.875,-3.0274102009613188e-05,-2.3439483360036624e-05,-3.41810331700618e-05,-4.5901826651407645e-05,7.0,5.9333
3.87890625,-2.734641452048524e-05,-2.3439483360036624e-05,-2.685930356603342e-05,-3.564738779583429e-05,7.0,5.9333
3.8828125,-2.0019663154039832e-05,-6.350425854886708e-06,-1.5625621039139396e-05,-2.6367170849164572e-05,7.0,5.9333
3.88671875,-2.4418727031357293e-05,-1.318504450446327e-05,-3.41810331700618e-05,-3.222756758983749e-05,7.0,5.9333
3.890625,-2.9299880100709547e-05,-2.539294894026093e-05,-4.7368181277180134e-05,-3.174045663538568e-05,7.0,5.9333
3.89453125,-2.734641452048524e-05,-1.7091975664911885e-05,-2.588005989471275e-05,-2.783352547493706e-05,7.0,5.9333
3.8984375,-3.0766234726482036e-05,-1.5138510084687574e-05,-3.808796433051041e-05,-2.539294894026093e-05,7.0,5.9333
3.90234375,-2.783352547493706e-05,-1.123157892423896e-05,-4.4922582980086976e-05,-4.1015651819638364e-05,7.0,5.9333
3.90625,-3.41810331700618e-05,-1.4651399130235758e-05,-2.734641452048524e-05,-4.1015651819638364e-05,7.0,5.9333
3.91015625,-4.980875781185626e-05,-2.4418727031357293e-05,-4.1015651819638364e-05,-3.174045663538568e-05,7.0,5.9333
3.9140625,-4.7368181277180134e-05,-2.1973128734264135e-05,-4.6388937605859465e-05,-3.613449875028611e-05,7.0,5.9333
3.91796875,-3.808796433051041e-05,-4.150778453650721e-05,-4.541471569695583e-05,-3.613449875028611e-05,7.0,5.9333
3.921875,-3.222756758983749e-05,-4.541471569695583e-05,-5.029586876630808e-05,-3.466814412451362e-05,7.0,5.9333
3.92578125,-4.150778453650721e-05,-3.760085337605859e-05,-2.8320636429388878e-05,-3.613449875028611e-05,7.0,5.9333
3.9296875,-4.4922582980086976e-05,-5.371568897230487e-05,-3.174045663538568e-05,-4.150778453650721e-05,7.0,5.9333
3.93359375,-4.1015651819638364e-05,-4.980875781185626e-05,-5.4684889118791484e-05,-3.1253345680933856e-05,7.0,5.9333
3.9375,-4.6388937605859465e-05,-3.760085337605859e-05,-4.7368181277180134e-05,-2.539294894026093e-05,7.0,5.9333
3.94140625,-4.6388937605859465e-05,-4.248200644541085e-05,-5.224933434653239e-05,-3.516027684138247e-05,7.0,5.9333
3.9453125,-4.004142991073472e-05,-4.541471569695583e-05,-6.298586239414054e-05,-3.906720800183108e-05,7.0,5.9333
3.94921875,-4.6388937605859465e-05,-4.199489549095903e-05,-3.3206811261158166e-05,-2.8320636429388878e-05,7.0,5.9333
3.953125,-5.0782979720759905e-05,-3.0274102009613188e-05,-3.466814412451362e-05,-2.9299880100709547e-05,7.0,5.9333
3.95703125,-4.248200644541085e-05,-2.1973128734264135e-05,-4.052854086518654e-05,-3.0274102009613188e-05,7.0,5.9333
3.9609375,-4.394836107118334e-05,-4.052854086518654e-05,-3.3693922215609987e-05,-3.271970030670634e-05,7.0,5.9333
3.96484375,-4.004142991073472e-05,-4.6876048560311286e-05,-6.200661872281987e-05,-3.271970030670634e-05,7.0,5.9333
3.96875,-3.3693922215609987e-05,-3.174045663538568e-05,-4.882951414053559e-05,-2.1973128734264135e-05,7.0,5.9333
3.97265625,-3.516027684138247e-05,-3.222756758983749e-05,-3.613449875028611e-05,-2.539294894026093e-05,7.0,5.9333
3.9765625,-3.613449875028611e-05,-4.199489549095903e-05,-4.6388937605859465e-05,-3.906720800183108e-05,7.0,5.9333
3.98046875,-3.711374242160678e-05,-5.4684889118791484e-05,-4.541471569695583e-05,-4.541471569695583e-05,7.0,5.9333
3.984375,-3.222756758983749e-05,-3.760085337605859e-05,-3.41810331700618e-05,-3.41810331700618e-05,7.0,5.9333
3.98828125,-1.660486471046006e-05,-2.4905837985809113e-05,-2.6367170849164572e-05,-2.2952372405584807e-05,7.0,5.9333
3.9921875,-2.1973128734264135e-05,-3.271970030670634e-05,-3.1253345680933856e-05,-2.783352547493706e-05,7.0,5.9333
3.99609375,-3.613449875028611e-05,-3.0766234726482036e-05,-3.174045663538568e-05,-3.0274102009613188e-05,7.0,5.9333
4.0,-3.466814412451362e-05,-3.222756758983749e-05,-1.8558330290684374e-05,-2.685930356603342e-05,7.0,5.9333
4.00390625,-3.174045663538568e-05,-4.052854086518654e-05,-1.4164288175783938e-05,-3.564738779583429e-05,7.0,5.9333
4.0078125,-3.3693922215609987e-05,-3.1253345680933856e-05,-2.392659431448844e-05,-4.1015651819638364e-05,7.0,5.9333
4.01171875,-4.1015651819638364e-05,-2.8320636429388878e-05,-3.0274102009613188e-05,-5.371568897230487e-05,7.0,5.9333
4.015625,-4.150778453650721e-05,-3.3206811261158166e-05,-3.466814412451362e-05,-5.224933434653239e-05,7.0,5.9333
4.01953125,-4.150778453650721e-05,-2.8320636429388878e-05,-4.394836107118334e-05,-3.711374242160678e-05,7.0,5.9333
4.0234375,-4.1015651819638364e-05,-3.1253345680933856e-05,-4.4922582980086976e-05,-3.95543189562829e-05,7.0,5.9333
4.02734375,-3.466814412451362e-05,-2.4905837985809113e-05,-4.052854086518654e-05,-3.95543189562829e-05,7.0,5.9333
4.03125,-2.9299880100709547e-05,-2.0998906825360498e-05,-2.0511795870908677e-05,-2.392659431448844e-05,7.0,5.9333
4.03515625,-2.9786991055161367e-05,-2.734641452048524e-05,-3.1253345680933856e-05,-2.8320636429388878e-05,7.0,5.9333
4.0390625,-2.685930356603342e-05,-1.5138510084687574e-05,-5.029586876630808e-05,-4.394836107118334e-05,7.0,5.9333
4.04296875,-3.0766234726482036e-05,-1.7091975664911885e-05,-4.4922582980086976e-05,-4.7855292231631955e-05,7.0,5.9333
4.046875,-3.466814412451362e-05,-1.75790866193637e-05,-4.6876048560311286e-05,-4.394836107118334e-05,7.0,5.9333
4.05078125,-3.41810331700618e-05,-1.7091975664911885e-05,-2.4905837985809113e-05,-4.4922582980086976e-05,7.0,5.9333
4.0546875,-3.222756758983749e-05,-1.8558330290684374e-05,-2.443494694438094e-06,-3.3206811261158166e-05,7.0,5.9333
4.05859375,-2.588005989471275e-05,-7.324647763790345e-06,-2.6367170849164572e-05,-2.2465261451132987e-05,7.0,5.9333
4.0625,-3.1253345680933856e-05,-1.953255219958801e-05,-3.808796433051041e-05,-2.539294894026093e-05,7.0,5.9333
4.06640625,-3.711374242160678e-05,-3.1253345680933856e-05,-2.8320636429388878e-05,-3.3206811261158166e-05,7.0,5.9333
4.0703125,-3.3206811261158166e-05,-2.783352547493706e-05,-5.176222339208057e-05,-4.443547202563516e-05,7.0,5.9333
4.07421875,-3.3206811261158166e-05,-2.8812769146257726e-05,-4.150778453650721e-05,-4.834240318608377e-05,7.0,5.9333
4.078125,-3.0766234726482036e-05,-2.9786991055161367e-05,-2.6367170849164572e-05,-4.296911739986267e-05,7.0,5.9333
4.08203125,-2.6367170849164572e-05,-2.2465261451132987e-05,-5.322355625543603e-05,-3.41810331700618e-05,7.0,5.9333
4.0859375,-2.734641452048524e-05,-1.2210822595559626e-05,-4.346125011673152e-05,-3.222756758983749e-05,7.0,5.9333
4.08984375,-3.3693922215609987e-05,-3.564738779583429e-05,-3.516027684138247e-05,-3.0766234726482036e-05,7.0,5.9333
4.09375,-4.052854086518654e-05,-5.273644530098421e-05,-5.273644530098421e-05,-3.516027684138247e-05,7.0,5.9333
4.09765625,-3.662160970473793e-05,-4.394836107118334e-05,-6.249875143968871e-05,-4.052854086518654e-05,7.0,5.9333
