timestamp,TP9,AF7,AF8,TP10,Valence,Arousal
0.0,-2.4415257340352453e-05,-4.150492452735177e-05,-3.174235728084227e-05,-2.3932303483634667e-05,5.8667,7.0667
0.00390625,-3.7599897628747967e-05,-4.345743797665368e-05,-2.051023044174866e-05,-2.6857623987182393e-05,5.8667,7.0667
0.0078125,-2.929999063401233e-05,-5.908444491187912e-05,-3.223221047837032e-05,-3.4674577125200244e-05,5.8667,7.0667
0.01171875,-1.5625497148088783e-05,-3.7599897628747967e-05,-3.5647384179446074e-05,-3.271516433508809e-05,5.8667,7.0667
0.015625,-1.3672983698786879e-05,-2.832718357976651e-05,-3.0279697029068415e-05,-2.148993683680473e-05,5.8667,7.0667
0.01953125,-1.8067863794918722e-05,-3.271516433508809e-05,-2.929999063401233e-05,-1.7095056740672902e-05,5.8667,7.0667
0.0234375,-1.4652690093842962e-05,-2.8810137436484296e-05,-1.4652690093842962e-05,-2.978984383154038e-05,5.8667,7.0667
0.02734375,-8.305296548409217e-06,-2.734747718471044e-05,-1.7095056740672902e-05,-3.613723737697411e-05,5.8667,7.0667
0.03125,-1.3672983698786879e-05,-2.49051105378805e-05,-3.271516433508809e-05,-3.320501753261614e-05,5.8667,7.0667
0.03515625,-1.4162836896314928e-05,-3.174235728084227e-05,-3.271516433508809e-05,-3.9062557880521835e-05,5.8667,7.0667
0.0390625,-8.305296548409217e-06,-1.904757018997479e-05,-3.515753098191803e-05,-3.7599897628747967e-05,5.8667,7.0667
0.04296875,-1.270017664454106e-05,-1.6605203543144868e-05,-4.345743797665368e-05,-2.978984383154038e-05,5.8667,7.0667
0.046875,-1.6115350345616817e-05,-2.7837330382238475e-05,-2.6367770789654356e-05,-3.0279697029068415e-05,5.8667,7.0667
0.05078125,-2.0020377244220625e-05,-2.0020377244220625e-05,-2.148993683680473e-05,-2.978984383154038e-05,5.8667,7.0667
0.0546875,-1.172047024948499e-05,-2.0020377244220625e-05,-2.8810137436484296e-05,-3.125250408331423e-05,5.8667,7.0667
0.05859375,-1.123061705195694e-05,-2.978984383154038e-05,-3.4674577125200244e-05,-3.07626508857862e-05,5.8667,7.0667
0.0625,-2.734747718471044e-05,-2.1000083639276693e-05,-2.3442450286106633e-05,-3.3694870730144175e-05,5.8667,7.0667
0.06640625,-2.4415257340352453e-05,-7.815443350881182e-06,1.4641700389105238e-06,-3.223221047837032e-05,5.8667,7.0667
0.0703125,-1.7095056740672902e-05,-1.8557716992446757e-05,-2.4477562005035196e-06,-2.3932303483634667e-05,5.8667,7.0667
0.07421875,-1.5625497148088783e-05,-4.00422642755779e-05,-2.0020377244220625e-05,-2.49051105378805e-05,5.8667,7.0667
0.078125,-1.2210323447013024e-05,-3.955241107804987e-05,-9.27810360265505e-06,-3.320501753261614e-05,5.8667,7.0667
0.08203125,-1.4652690093842962e-05,-2.7837330382238475e-05,-1.270017664454106e-05,-3.711004443121993e-05,5.8667,7.0667
0.0859375,-2.2462743891050565e-05,-3.07626508857862e-05,-2.4415257340352453e-05,-3.7599897628747967e-05,5.8667,7.0667
0.08984375,-2.051023044174866e-05,-3.515753098191803e-05,-1.6605203543144868e-05,-3.5647384179446074e-05,5.8667,7.0667
0.09375,-1.5625497148088783e-05,-2.929999063401233e-05,-1.8067863794918722e-05,-3.662709057450215e-05,5.8667,7.0667
0.09765625,-2.1000083639276693e-05,-1.8557716992446757e-05,-2.1972890693522514e-05,-4.345743797665368e-05,5.8667,7.0667
0.1015625,-1.7095056740672902e-05,-2.1972890693522514e-05,-3.515753098191803e-05,-3.9062557880521835e-05,5.8667,7.0667
0.10546875,-1.2210323447013024e-05,-2.1000083639276693e-05,-3.0279697029068415e-05,-4.0532117473105954e-05,5.8667,7.0667
0.109375,-2.0020377244220625e-05,-2.148993683680473e-05,-1.6115350345616817e-05,-4.5899804623483614e-05,5.8667,7.0667
0.11328125,-1.904757018997479e-05,-8.795149745937265e-06,-1.5625497148088783e-05,-4.5416850766765834e-05,5.8667,7.0667
0.1171875,-1.0747663195239156e-05,-4.8832235065232085e-06,-1.6115350345616817e-05,-4.0532117473105954e-05,5.8667,7.0667
0.12109375,-1.2210323447013024e-05,-2.832718357976651e-05,-2.1972890693522514e-05,-3.223221047837032e-05,5.8667,7.0667
0.125,-1.6115350345616817e-05,-2.978984383154038e-05,-1.8557716992446757e-05,-3.0279697029068415e-05,5.8667,7.0667
0.12890625,-1.025780999771112e-05,-3.174235728084227e-05,-1.025780999771112e-05,-3.4184723927672206e-05,5.8667,7.0667
0.1328125,-7.325590153353147e-06,-3.174235728084227e-05,-1.6115350345616817e-05,-2.832718357976651e-05,5.8667,7.0667
0.13671875,-1.7584909938200936e-05,-2.5884816932936573e-05,-5.3730767040512434e-06,-2.7837330382238475e-05,5.8667,7.0667
0.140625,-2.4415257340352453e-05,-4.297448411993589e-05,-1.3672983698786879e-05,-3.711004443121993e-05,5.8667,7.0667
0.14453125,-2.1000083639276693e-05,-4.883202446784159e-05,-3.4184723927672206e-05,-3.9062557880521835e-05,5.8667,7.0667
0.1484375,-2.2462743891050565e-05,-4.687951101853969e-05,-3.9062557880521835e-05,-3.271516433508809e-05,5.8667,7.0667
0.15234375,-1.8067863794918722e-05,-5.6642078265049183e-05,-3.271516433508809e-05,-3.4674577125200244e-05,5.8667,7.0667
0.15625,-1.8067863794918722e-05,-5.762178466010526e-05,-3.857960402380405e-05,-3.3694870730144175e-05,5.8667,7.0667
0.16015625,-2.3932303483634667e-05,-5.419971161821925e-05,-4.7369364216067726e-05,-2.978984383154038e-05,5.8667,7.0667
0.1640625,-2.051023044174866e-05,-4.883202446784159e-05,-3.07626508857862e-05,-3.4674577125200244e-05,5.8667,7.0667
0.16796875,-2.4415257340352453e-05,-5.1274391114671524e-05,-2.49051105378805e-05,-3.3694870730144175e-05,5.8667,7.0667
0.171875,-3.07626508857862e-05,-4.5416850766765834e-05,-2.3932303483634667e-05,-3.125250408331423e-05,5.8667,7.0667
0.17578125,-2.3932303483634667e-05,-4.980483152208741e-05,-3.515753098191803e-05,-3.711004443121993e-05,5.8667,7.0667
0.1796875,-1.6115350345616817e-05,-5.5669271210803366e-05,-4.492699756923778e-05,-3.223221047837032e-05,5.8667,7.0667
0.18359375,-1.8557716992446757e-05,-4.345743797665368e-05,-3.7599897628747967e-05,-2.539496373540854e-05,5.8667,7.0667
0.1875,-4.8832235065232085e-06,-2.3932303483634667e-05,-2.2462743891050565e-05,-2.6857623987182393e-05,5.8667,7.0667
0.19140625,1.1226737285420028e-05,-7.325590153353147e-06,-9.27810360265505e-06,-1.8067863794918722e-05,5.8667,7.0667
0.1953125,4.8793437399862966e-06,-1.270017664454106e-05,-1.3672983698786879e-05,-1.0747663195239156e-05,5.8667,7.0667
0.19921875,-1.025780999771112e-05,-4.883202446784159e-05,-4.638965782101165e-05,-2.29525970885786e-05,5.8667,7.0667
0.203125,-3.07626508857862e-05,-8.642653254291598e-05,-5.908444491187912e-05,-2.832718357976651e-05,5.8667,7.0667
0.20703125,-2.7837330382238475e-05,-9.521629273517965e-05,-7.080642494850077e-05,-1.8557716992446757e-05,5.8667,7.0667
0.2109375,-1.3672983698786879e-05,-0.00010547561252002743,-0.0001122990605813687,-1.270017664454106e-05,5.8667,7.0667
0.21484375,-1.9579030029754847e-06,-0.00011767364707255663,-0.00011816350027008466,-7.815443350881182e-06,5.8667,7.0667
0.21875,-4.883434103913657e-07,-0.0001401310014099336,-0.0001401310014099336,1.9471238956283086e-06,5.8667,7.0667
0.22265625,-1.2210323447013024e-05,-0.00016405791533989468,-0.00017382738192721445,8.294517441062054e-06,5.8667,7.0667
0.2265625,-1.4652690093842962e-05,-0.00017333752872968641,-0.0001870051228747997,1.5621617381551872e-05,5.8667,7.0667
0.23046875,-1.4652690093842962e-05,-0.0001831000959761959,-0.00020361183620508122,2.2458864124513638e-05,5.8667,7.0667
0.234375,-1.7584909938200936e-05,-0.00019042719591668572,-0.0001962847362645914,2.0016497477683715e-05,5.8667,7.0667
0.23828125,-1.7095056740672902e-05,-0.00019677458946211948,-0.00018896453566491186,3.124862431677732e-05,5.8667,7.0667
0.2421875,-1.7095056740672902e-05,-0.0002124015963973449,-0.00021679647649347673,4.3943411407644784e-05,5.8667,7.0667
0.24609375,-2.8810137436484296e-05,-0.00022704889693751426,-0.00021581677009842066,5.078065815060657e-05,5.8667,7.0667
0.25,-3.857960402380405e-05,-0.00023144377703364613,-0.00020263212981002515,4.9800951755550494e-05,5.8667,7.0667
0.25390625,-3.711004443121993e-05,-0.00021288455025406268,-0.0001953119292103456,4.052133836575879e-05,5.8667,7.0667
0.2578125,-3.320501753261614e-05,-0.00020702700990615699,-0.00019286956256351565,3.7106164664683005e-05,5.8667,7.0667
0.26171875,-3.320501753261614e-05,-0.00019042719591668572,-0.00016699013518425265,3.075877111924927e-05,5.8667,7.0667
0.265625,-3.320501753261614e-05,-0.00019188985616845955,-0.0001723578223346303,3.320113776607923e-05,5.8667,7.0667
0.26953125,-3.7599897628747967e-05,-0.00018505260942549778,-0.00017675270243076215,2.929611086747542e-05,5.8667,7.0667
0.2734375,-4.3947291174181715e-05,-0.00016308510828564885,-0.00015575800834515905,1.4158957129778002e-05,5.8667,7.0667
0.27734375,-5.1274391114671524e-05,-0.00017968492227512012,-0.00016259525508812082,1.4641910986495787e-05,5.8667,7.0667
0.28125,-5.81116378576333e-05,-0.0001591731820462348,-0.00015185298144655525,1.0247030890363959e-05,5.8667,7.0667
0.28515625,-5.81116378576333e-05,-0.00014355307445181961,-0.00015087327505149917,1.9471238956283086e-06,5.8667,7.0667
0.2890625,-5.713193146257723e-05,-0.00012792606751659417,-0.00013281080081025404,-4.8832235065232085e-06,5.8667,7.0667
0.29296875,-5.762178466010526e-05,-0.00012499384767223617,-0.00012206852716868846,-6.352783099107327e-06,5.8667,7.0667
0.296875,-6.298947181048292e-05,-0.00012938872776836803,-0.000132320947612726,-1.6605203543144868e-05,5.8667,7.0667
0.30078125,-6.933686535591667e-05,-0.0001088907862211032,-0.00011083640032959485,-2.5884816932936573e-05,5.8667,7.0667
0.3046875,-7.128937880521856e-05,-0.00010351619972991528,-9.668585232776376e-05,-3.3694870730144175e-05,5.8667,7.0667
0.30859375,-6.885391149919889e-05,-0.00010108073242389561,-8.105884539253832e-05,-4.102197067063399e-05,5.8667,7.0667
0.3125,-6.59216916548409e-05,-8.154869859006634e-05,-5.419971161821925e-05,-4.00422642755779e-05,5.8667,7.0667
0.31640625,-6.3969178205539e-05,-7.324879159533071e-05,-4.297448411993589e-05,-4.5416850766765834e-05,5.8667,7.0667
0.3203125,-5.81116378576333e-05,-5.5669271210803366e-05,-4.3947291174181715e-05,-4.980483152208741e-05,5.8667,7.0667
0.32421875,-5.2737051366445385e-05,-3.223221047837032e-05,-4.492699756923778e-05,-4.297448411993589e-05,5.8667,7.0667
0.328125,-4.5899804623483614e-05,-2.734747718471044e-05,-4.785231807278551e-05,-4.834217127031355e-05,5.8667,7.0667
0.33203125,-4.150492452735177e-05,-6.352783099107327e-06,-2.929999063401233e-05,-5.0784537917143486e-05,5.8667,7.0667
0.3359375,-4.199477772487981e-05,-4.883434103913657e-07,-9.781966079194006e-07,-4.5899804623483614e-05,5.8667,7.0667
0.33984375,-4.297448411993589e-05,-8.795149745937265e-06,-8.795149745937265e-06,-4.834217127031355e-05,5.8667,7.0667
0.34375,-4.2484630922407846e-05,-3.910416452277389e-06,-9.767956800183086e-06,-5.1274391114671524e-05,5.8667,7.0667
0.34765625,-4.2484630922407846e-05,4.389490542458247e-06,-1.4680498054474497e-06,-5.371675776150146e-05,5.8667,7.0667
0.3515625,-3.711004443121993e-05,5.3691969375143315e-06,4.84463643854454e-07,-5.0784537917143486e-05,5.8667,7.0667
0.35546875,-3.271516433508809e-05,9.764077033646174e-06,4.84463643854454e-07,-4.834217127031355e-05,5.8667,7.0667
0.359375,-3.5647384179446074e-05,2.436977093156358e-06,-5.389553673580849e-09,-4.9321877665369625e-05,5.8667,7.0667
0.36328125,-4.00422642755779e-05,-1.270017664454106e-05,-9.767956800183086e-06,-5.322690456397342e-05,5.8667,7.0667
0.3671875,-4.4437144371709745e-05,-5.3730767040512434e-06,-9.27810360265505e-06,-6.054710516365298e-05,5.8667,7.0667
0.37109375,-4.00422642755779e-05,6.831857189288186e-06,1.9471238956283086e-06,-5.81116378576333e-05,5.8667,7.0667
0.375,-3.808975082627602e-05,1.660132377660794e-05,-4.883434103913657e-07,-5.1274391114671524e-05,5.8667,7.0667
0.37890625,-3.5647384179446074e-05,2.8316404472419348e-05,5.8590501350423665e-06,-4.980483152208741e-05,5.8667,7.0667
0.3828125,-3.223221047837032e-05,2.6363891023117446e-05,1.1716590482948063e-05,-5.5669271210803366e-05,5.8667,7.0667
0.38671875,-3.320501753261614e-05,2.2458864124513638e-05,1.0247030890363959e-05,-5.762178466010526e-05,5.8667,7.0667
0.390625,-3.320501753261614e-05,2.0506350675211735e-05,-1.0747663195239156e-05,-5.762178466010526e-05,5.8667,7.0667
0.39453125,-3.4184723927672206e-05,2.2948717322041685e-05,-1.4652690093842962e-05,-5.713193146257723e-05,5.8667,7.0667
0.3984375,-2.978984383154038e-05,2.5384184628061374e-05,3.899637344930212e-06,-4.980483152208741e-05,5.8667,7.0667
0.40234375,-2.3932303483634667e-05,2.9779064724193203e-05,1.9036791082627616e-05,-5.1274391114671524e-05,5.8667,7.0667
0.40625,-1.8557716992446757e-05,3.466379801785308e-05,3.899637344930212e-06,-6.152681155870906e-05,5.8667,7.0667
0.41015625,-2.1000083639276693e-05,2.8316404472419348e-05,-1.270017664454106e-05,-5.762178466010526e-05,5.8667,7.0667
0.4140625,-2.832718357976651e-05,2.3921524376287492e-05,-9.781966079194006e-07,-5.61591244083314e-05,5.8667,7.0667
0.41796875,-2.6367770789654356e-05,2.2948717322041685e-05,-3.910416452277389e-06,-6.103695836118103e-05,5.8667,7.0667
0.421875,-2.929999063401233e-05,1.1226737285420028e-05,-9.767956800183086e-06,-5.762178466010526e-05,5.8667,7.0667
0.42578125,-3.0279697029068415e-05,1.9471238956283086e-06,2.436977093156358e-06,-5.81116378576333e-05,5.8667,7.0667
0.4296875,-2.7837330382238475e-05,4.389490542458247e-06,-4.8832235065232085e-06,-5.419971161821925e-05,5.8667,7.0667
0.43359375,-3.174235728084227e-05,1.4641700389105238e-06,-1.8557716992446757e-05,-5.419971161821925e-05,5.8667,7.0667
0.4375,-2.832718357976651e-05,5.8590501350423665e-06,-1.5625497148088783e-05,-5.5669271210803366e-05,5.8667,7.0667
0.44140625,-2.734747718471044e-05,1.9036791082627616e-05,-1.4162836896314928e-05,-4.9321877665369625e-05,5.8667,7.0667
0.4453125,-2.7837330382238475e-05,2.436977093156358e-06,-1.6115350345616817e-05,-5.1274391114671524e-05,5.8667,7.0667
0.44921875,-2.3442450286106633e-05,-1.270017664454106e-05,-9.767956800183086e-06,-4.980483152208741e-05,5.8667,7.0667
0.453125,-2.3442450286106633e-05,1.4641700389105238e-06,1.2206443680476112e-05,-4.638965782101165e-05,5.8667,7.0667
0.45703125,-2.148993683680473e-05,1.0736884087891994e-05,9.764077033646174e-06,-4.883202446784159e-05,5.8667,7.0667
0.4609375,-1.8067863794918722e-05,1.660132377660794e-05,-2.0020377244220625e-05,-4.297448411993589e-05,5.8667,7.0667
0.46484375,-1.8557716992446757e-05,1.3669103932249967e-05,-3.320501753261614e-05,-4.687951101853969e-05,5.8667,7.0667
0.46875,-1.904757018997479e-05,4.84463643854454e-07,-2.49051105378805e-05,-4.9321877665369625e-05,5.8667,7.0667
0.47265625,-1.4652690093842962e-05,2.9268302906843925e-06,-1.6115350345616817e-05,-4.785231807278551e-05,5.8667,7.0667
0.4765625,-1.3672983698786879e-05,-4.400269649805424e-06,-2.539496373540854e-05,-5.2737051366445385e-05,5.8667,7.0667
0.48046875,-1.5142543291370998e-05,-1.6115350345616817e-05,-2.3442450286106633e-05,-4.5899804623483614e-05,5.8667,7.0667
0.484375,-1.6605203543144868e-05,-1.3190029842069094e-05,-1.7584909938200936e-05,-4.492699756923778e-05,5.8667,7.0667
0.48828125,-3.07626508857862e-05,-6.842636296635362e-06,-1.172047024948499e-05,-4.9321877665369625e-05,5.8667,7.0667
0.4921875,-2.978984383154038e-05,-7.325590153353147e-06,-9.767956800183086e-06,-4.5899804623483614e-05,5.8667,7.0667
0.49609375,-2.3442450286106633e-05,-5.3730767040512434e-06,-1.2210323447013024e-05,-4.297448411993589e-05,5.8667,7.0667
0.5,-2.49051105378805e-05,-1.4680498054474497e-06,-6.842636296635362e-06,-3.857960402380405e-05,5.8667,7.0667
0.50390625,-2.832718357976651e-05,-2.8810137436484296e-05,-2.2462743891050565e-05,-3.7599897628747967e-05,5.8667,7.0667
0.5078125,-2.832718357976651e-05,-3.9062557880521835e-05,-2.6367770789654356e-05,-3.955241107804987e-05,5.8667,7.0667
0.51171875,-3.271516433508809e-05,-2.148993683680473e-05,-1.025780999771112e-05,-3.857960402380405e-05,5.8667,7.0667
0.515625,-2.929999063401233e-05,-2.4477562005035196e-06,1.2206443680476112e-05,-3.223221047837032e-05,5.8667,7.0667
0.51953125,-2.148993683680473e-05,-6.352783099107327e-06,2.9268302906843925e-06,-2.49051105378805e-05,5.8667,7.0667
0.5234375,-2.1000083639276693e-05,-3.271516433508809e-05,-3.0279697029068415e-05,-2.0020377244220625e-05,5.8667,7.0667
0.52734375,-1.4652690093842962e-05,-3.4674577125200244e-05,-1.3190029842069094e-05,-3.0279697029068415e-05,5.8667,7.0667
0.53125,-1.6115350345616817e-05,-3.07626508857862e-05,-2.734747718471044e-05,-3.9062557880521835e-05,5.8667,7.0667
0.53515625,-2.3932303483634667e-05,-3.613723737697411e-05,-4.3947291174181715e-05,-3.5647384179446074e-05,5.8667,7.0667
0.5390625,-2.0020377244220625e-05,-4.150492452735177e-05,-2.978984383154038e-05,-3.320501753261614e-05,5.8667,7.0667
0.54296875,-2.3932303483634667e-05,-3.515753098191803e-05,-3.3694870730144175e-05,-3.174235728084227e-05,5.8667,7.0667
0.546875,-2.539496373540854e-05,-2.1972890693522514e-05,-2.0020377244220625e-05,-3.271516433508809e-05,5.8667,7.0667
0.55078125,-2.051023044174866e-05,-2.1000083639276693e-05,-9.767956800183086e-06,-3.174235728084227e-05,5.8667,7.0667
0.5546875,-2.3932303483634667e-05,-2.2462743891050565e-05,-2.3442450286106633e-05,-3.174235728084227e-05,5.8667,7.0667
0.55859375,-2.929999063401233e-05,-3.07626508857862e-05,-2.148993683680473e-05,-3.271516433508809e-05,5.8667,7.0667
0.5625,-3.223221047837032e-05,-3.223221047837032e-05,-3.613723737697411e-05,-3.4184723927672206e-05,5.8667,7.0667
0.56640625,-3.174235728084227e-05,-3.613723737697411e-05,-5.029468471961544e-05,-3.857960402380405e-05,5.8667,7.0667
0.5703125,-2.7837330382238475e-05,-3.4674577125200244e-05,-3.4674577125200244e-05,-3.7599897628747967e-05,5.8667,7.0667
0.57421875,-2.978984383154038e-05,-3.515753098191803e-05,-4.00422642755779e-05,-3.320501753261614e-05,5.8667,7.0667
0.578125,-2.978984383154038e-05,-4.297448411993589e-05,-3.7599897628747967e-05,-3.4184723927672206e-05,5.8667,7.0667
0.58203125,-3.5647384179446074e-05,-3.515753098191803e-05,-2.978984383154038e-05,-3.7599897628747967e-05,5.8667,7.0667
0.5859375,-3.320501753261614e-05,-2.929999063401233e-05,-4.0532117473105954e-05,-3.271516433508809e-05,5.8667,7.0667
0.58984375,-2.978984383154038e-05,-3.808975082627602e-05,-3.320501753261614e-05,-3.125250408331423e-05,5.8667,7.0667
0.59375,-2.8810137436484296e-05,-3.5647384179446074e-05,-2.2462743891050565e-05,-3.3694870730144175e-05,5.8667,7.0667
0.59765625,-2.6367770789654356e-05,-3.4184723927672206e-05,-2.832718357976651e-05,-2.978984383154038e-05,5.8667,7.0667
0.6015625,-2.929999063401233e-05,-4.102197067063399e-05,-3.5647384179446074e-05,-3.07626508857862e-05,5.8667,7.0667
0.60546875,-3.808975082627602e-05,-3.0279697029068415e-05,-2.7837330382238475e-05,-2.832718357976651e-05,5.8667,7.0667
0.609375,-3.9062557880521835e-05,-1.3190029842069094e-05,-3.4674577125200244e-05,-2.29525970885786e-05,5.8667,7.0667
0.61328125,-3.0279697029068415e-05,-2.2462743891050565e-05,-3.808975082627602e-05,-2.29525970885786e-05,5.8667,7.0667
0.6171875,-2.3442450286106633e-05,-4.199477772487981e-05,-3.662709057450215e-05,-2.539496373540854e-05,5.8667,7.0667
0.62109375,-2.8810137436484296e-05,-4.687951101853969e-05,-4.638965782101165e-05,-2.6857623987182393e-05,5.8667,7.0667
0.625,-3.613723737697411e-05,-5.176424431219956e-05,-3.613723737697411e-05,-2.6367770789654356e-05,5.8667,7.0667
0.62890625,-3.174235728084227e-05,-4.638965782101165e-05,-3.711004443121993e-05,-2.6857623987182393e-05,5.8667,7.0667
0.6328125,-3.515753098191803e-05,-4.199477772487981e-05,-4.7369364216067726e-05,-2.539496373540854e-05,5.8667,7.0667
0.63671875,-4.00422642755779e-05,-3.808975082627602e-05,-3.3694870730144175e-05,-2.734747718471044e-05,5.8667,7.0667
0.640625,-3.3694870730144175e-05,-3.7599897628747967e-05,-3.9062557880521835e-05,-2.5884816932936573e-05,5.8667,7.0667
0.64453125,-2.6857623987182393e-05,-4.5899804623483614e-05,-5.371675776150146e-05,-2.29525970885786e-05,5.8667,7.0667
0.6484375,-2.6367770789654356e-05,-5.81116378576333e-05,-5.176424431219956e-05,-2.539496373540854e-05,5.8667,7.0667
0.65234375,-2.929999063401233e-05,-6.152681155870906e-05,-5.517941801327532e-05,-2.6857623987182393e-05,5.8667,7.0667
0.65625,-2.978984383154038e-05,-4.785231807278551e-05,-4.199477772487981e-05,-2.49051105378805e-05,5.8667,7.0667
0.66015625,-2.3932303483634667e-05,-3.857960402380405e-05,-2.8810137436484296e-05,-1.7584909938200936e-05,5.8667,7.0667
0.6640625,-2.051023044174866e-05,-4.687951101853969e-05,-3.320501753261614e-05,-1.5142543291370998e-05,5.8667,7.0667
0.66796875,-1.8557716992446757e-05,-4.785231807278551e-05,-4.0532117473105954e-05,-2.1000083639276693e-05,5.8667,7.0667
0.671875,-2.4415257340352453e-05,-4.5416850766765834e-05,-5.322690456397342e-05,-2.148993683680473e-05,5.8667,7.0667
0.67578125,-3.0279697029068415e-05,-4.492699756923778e-05,-4.3947291174181715e-05,-2.1972890693522514e-05,5.8667,7.0667
0.6796875,-2.539496373540854e-05,-3.613723737697411e-05,-3.125250408331423e-05,-2.29525970885786e-05,5.8667,7.0667
0.68359375,-2.3442450286106633e-05,-3.125250408331423e-05,-3.223221047837032e-05,-2.6367770789654356e-05,5.8667,7.0667
0.6875,-2.3442450286106633e-05,-4.00422642755779e-05,-4.297448411993589e-05,-2.29525970885786e-05,5.8667,7.0667
0.69140625,-3.5647384179446074e-05,-4.883202446784159e-05,-3.515753098191803e-05,-1.3190029842069094e-05,5.8667,7.0667
0.6953125,-4.9321877665369625e-05,-3.7599897628747967e-05,-2.2462743891050565e-05,-9.27810360265505e-06,5.8667,7.0667
0.69921875,-2.929999063401233e-05,-2.2462743891050565e-05,-2.2462743891050565e-05,-2.3442450286106633e-05,5.8667,7.0667
0.703125,-3.910416452277389e-06,-3.613723737697411e-05,-4.980483152208741e-05,-2.6367770789654356e-05,5.8667,7.0667
0.70703125,-2.9307100572213044e-06,-5.9574298109407164e-05,-7.471145184710457e-05,-2.1972890693522514e-05,5.8667,7.0667
0.7109375,4.84463643854454e-07,-5.2737051366445385e-05,-6.933686535591667e-05,-2.6367770789654356e-05,5.8667,7.0667
0.71484375,1.2206443680476112e-05,-5.371675776150146e-05,-7.031657175097273e-05,-3.5647384179446074e-05,5.8667,7.0667
0.71875,1.660132377660794e-05,-4.5416850766765834e-05,-8.007913899748223e-05,-4.150492452735177e-05,5.8667,7.0667
0.72265625,2.147915772945757e-05,-5.908444491187912e-05,-0.0001122990605813687,-4.102197067063399e-05,5.8667,7.0667
0.7265625,2.8316404472419348e-05,-7.031657175097273e-05,-0.0001088907862211032,-4.150492452735177e-05,5.8667,7.0667
0.73046875,3.80858710597391e-05,-4.297448411993589e-05,-8.789609213550009e-05,-4.834217127031355e-05,5.8667,7.0667
0.734375,4.931109855802245e-05,-6.347932500801096e-05,-0.00011962616052185852,-5.176424431219956e-05,5.8667,7.0667
0.73828125,5.614834530098423e-05,-6.347932500801096e-05,-0.00013573612131380177,-5.859459171435109e-05,5.8667,7.0667
0.7421875,6.103307859464411e-05,-5.419971161821925e-05,-0.00014306322125429158,-5.9574298109407164e-05,5.8667,7.0667
0.74609375,6.689061894254982e-05,-5.762178466010526e-05,-0.00013330065400778205,-5.371675776150146e-05,5.8667,7.0667
0.75,7.47006727397574e-05,-5.1274391114671524e-05,-0.00012890577391165025,-5.859459171435109e-05,5.8667,7.0667
0.75390625,7.666008552986958e-05,-5.81116378576333e-05,-0.00014208351485923547,-5.81116378576333e-05,5.8667,7.0667
0.7578125,8.056511242847335e-05,-5.0784537917143486e-05,-0.00011962616052185852,-5.9574298109407164e-05,5.8667,7.0667
0.76171875,9.423270657358666e-05,-4.834217127031355e-05,-0.00012157867397116042,-6.59216916548409e-05,5.8667,7.0667
0.765625,9.765477961547267e-05,-6.00641513069352e-05,-0.00012402104061799037,-6.347932500801096e-05,5.8667,7.0667
0.76953125,9.47225597711147e-05,-5.224719816891735e-05,-0.00012206852716868846,-6.3969178205539e-05,5.8667,7.0667
0.7734375,9.813773347219045e-05,-4.7369364216067726e-05,-0.00013183109441519797,-6.641154485236894e-05,5.8667,7.0667
0.77734375,0.00011132237376058597,-5.176424431219956e-05,-0.00012792606751659417,-6.152681155870906e-05,5.8667,7.0667
0.78125,0.00010497498021515224,-4.834217127031355e-05,-0.00012597355406729227,-5.908444491187912e-05,5.8667,7.0667
0.78515625,8.983782647745482e-05,-3.4674577125200244e-05,-0.00011816350027008466,-6.494198525978481e-05,5.8667,7.0667
0.7890625,8.202777268024721e-05,-3.4184723927672206e-05,-0.00010791107982604713,-6.59216916548409e-05,5.8667,7.0667
0.79296875,7.812274578164343e-05,-2.929999063401233e-05,-8.837904599221786e-05,-6.250651795376514e-05,5.8667,7.0667
0.796875,7.177535223620969e-05,-1.8067863794918722e-05,-7.91063319432364e-05,-6.250651795376514e-05,5.8667,7.0667
0.80078125,5.614834530098423e-05,-2.148993683680473e-05,-7.812662554818034e-05,-6.3969178205539e-05,5.8667,7.0667
0.8046875,5.51755382467384e-05,-2.29525970885786e-05,-7.275893839780267e-05,-6.250651795376514e-05,5.8667,7.0667
0.80859375,5.126361200732435e-05,-1.904757018997479e-05,-6.78742051041428e-05,-4.980483152208741e-05,5.8667,7.0667
0.8125,4.2963705012588716e-05,-1.4162836896314928e-05,-6.641154485236894e-05,-4.7369364216067726e-05,5.8667,7.0667
0.81640625,3.661631146715498e-05,-1.0747663195239156e-05,-5.859459171435109e-05,-5.0784537917143486e-05,5.8667,7.0667
0.8203125,3.271128456855118e-05,-5.389553673580849e-09,-3.320501753261614e-05,-4.102197067063399e-05,5.8667,7.0667
0.82421875,4.638577805447474e-05,4.389490542458247e-06,-3.613723737697411e-05,-3.9062557880521835e-05,5.8667,7.0667
0.828125,3.564350441290915e-05,-8.305296548409217e-06,-4.297448411993589e-05,-4.297448411993589e-05,5.8667,7.0667
0.83203125,2.490123077134359e-05,9.743168413824889e-07,-2.8810137436484296e-05,-3.955241107804987e-05,5.8667,7.0667
0.8359375,3.0268917921721254e-05,-5.389553673580849e-09,-3.271516433508809e-05,-3.711004443121993e-05,5.8667,7.0667
0.83984375,2.880625766994737e-05,-1.9579030029754847e-06,-3.174235728084227e-05,-4.345743797665368e-05,5.8667,7.0667
0.84375,2.1969010926985617e-05,7.321710386816235e-06,-2.3442450286106633e-05,-4.297448411993589e-05,5.8667,7.0667
0.84765625,1.0247030890363959e-05,-5.389553673580849e-09,-4.00422642755779e-05,-3.955241107804987e-05,5.8667,7.0667
0.8515625,9.274223836118124e-06,-1.4680498054474497e-06,-4.4437144371709745e-05,-3.7599897628747967e-05,5.8667,7.0667
0.85546875,5.8590501350423665e-06,-1.8557716992446757e-05,-3.3694870730144175e-05,-3.174235728084227e-05,5.8667,7.0667
0.859375,4.389490542458247e-06,-4.150492452735177e-05,-2.2462743891050565e-05,-3.0279697029068415e-05,5.8667,7.0667
0.86328125,-3.4205632547493394e-06,-5.6642078265049183e-05,-3.515753098191803e-05,-3.662709057450215e-05,5.8667,7.0667
0.8671875,-1.6115350345616817e-05,-5.1274391114671524e-05,-3.9062557880521835e-05,-4.102197067063399e-05,5.8667,7.0667
0.87109375,-6.352783099107327e-06,-4.00422642755779e-05,-3.808975082627602e-05,-3.07626508857862e-05,5.8667,7.0667
0.875,-6.842636296635362e-06,-3.613723737697411e-05,-2.978984383154038e-05,-3.4674577125200244e-05,5.8667,7.0667
0.87890625,-1.904757018997479e-05,-3.808975082627602e-05,-1.6605203543144868e-05,-4.3947291174181715e-05,5.8667,7.0667
0.8828125,-1.3190029842069094e-05,-3.320501753261614e-05,-2.8810137436484296e-05,-3.613723737697411e-05,5.8667,7.0667
0.88671875,-1.270017664454106e-05,-2.1000083639276693e-05,-3.271516433508809e-05,-3.4184723927672206e-05,5.8667,7.0667
0.890625,-1.5142543291370998e-05,-1.172047024948499e-05,-2.6367770789654356e-05,-2.8810137436484296e-05,5.8667,7.0667
0.89453125,-1.8067863794918722e-05,-2.4415257340352453e-05,-2.3932303483634667e-05,-2.6367770789654356e-05,5.8667,7.0667
0.8984375,-1.7584909938200936e-05,-2.734747718471044e-05,-3.3694870730144175e-05,-2.6857623987182393e-05,5.8667,7.0667
0.90234375,-1.904757018997479e-05,-2.29525970885786e-05,-3.7599897628747967e-05,-2.29525970885786e-05,5.8667,7.0667
0.90625,-2.539496373540854e-05,-2.929999063401233e-05,-2.29525970885786e-05,-3.125250408331423e-05,5.8667,7.0667
0.91015625,-3.174235728084227e-05,-1.6605203543144868e-05,-7.325590153353147e-06,-3.174235728084227e-05,5.8667,7.0667
0.9140625,-2.3442450286106633e-05,-1.3672983698786879e-05,-2.49051105378805e-05,-2.6367770789654356e-05,5.8667,7.0667
0.91796875,-1.7584909938200936e-05,-1.3672983698786879e-05,-3.9062557880521835e-05,-2.734747718471044e-05,5.8667,7.0667
0.921875,-3.3694870730144175e-05,-1.172047024948499e-05,-1.4162836896314928e-05,-2.29525970885786e-05,5.8667,7.0667
0.92578125,-4.00422642755779e-05,-2.148993683680473e-05,-1.6605203543144868e-05,-2.2462743891050565e-05,5.8667,7.0667
0.9296875,-2.978984383154038e-05,-2.148993683680473e-05,-2.4415257340352453e-05,-2.929999063401233e-05,5.8667,7.0667
0.93359375,-2.6367770789654356e-05,-1.2210323447013024e-05,-1.4162836896314928e-05,-2.6367770789654356e-05,5.8667,7.0667
0.9375,-3.223221047837032e-05,-1.123061705195694e-05,-3.5647384179446074e-05,-2.2462743891050565e-05,5.8667,7.0667
0.94140625,-3.857960402380405e-05,-2.832718357976651e-05,-5.2737051366445385e-05,-3.0279697029068415e-05,5.8667,7.0667
0.9453125,-3.07626508857862e-05,-2.4415257340352453e-05,-3.857960402380405e-05,-3.0279697029068415e-05,5.8667,7.0667
0.94921875,-2.734747718471044e-05,-1.6115350345616817e-05,-2.49051105378805e-05,-2.6857623987182393e-05,5.8667,7.0667
0.953125,-2.734747718471044e-05,-1.270017664454106e-05,-3.320501753261614e-05,-2.2462743891050565e-05,5.8667,7.0667
0.95703125,-3.0279697029068415e-05,-5.3730767040512434e-06,-4.883202446784159e-05,-2.148993683680473e-05,5.8667,7.0667
0.9609375,-3.125250408331423e-05,-1.172047024948499e-05,-3.808975082627602e-05,-2.1972890693522514e-05,5.8667,7.0667
0.96484375,-2.3442450286106633e-05,-9.781966079194006e-07,-2.8810137436484296e-05,-2.0020377244220625e-05,5.8667,7.0667
0.96875,-2.7837330382238475e-05,2.9268302906843925e-06,-2.734747718471044e-05,-2.4415257340352453e-05,5.8667,7.0667
0.97265625,-3.320501753261614e-05,-2.5884816932936573e-05,-2.6367770789654356e-05,-3.0279697029068415e-05,5.8667,7.0667
0.9765625,-3.4184723927672206e-05,-3.7599897628747967e-05,-4.0532117473105954e-05,-3.174235728084227e-05,5.8667,7.0667
0.98046875,-3.125250408331423e-05,-3.955241107804987e-05,-3.223221047837032e-05,-2.4415257340352453e-05,5.8667,7.0667
0.984375,-3.711004443121993e-05,-2.929999063401233e-05,-1.8557716992446757e-05,-2.0020377244220625e-05,5.8667,7.0667
0.98828125,-3.808975082627602e-05,-7.815443350881182e-06,-1.904757018997479e-05,-3.07626508857862e-05,5.8667,7.0667
0.9921875,-1.5142543291370998e-05,-1.904757018997479e-05,-2.7837330382238475e-05,-3.320501753261614e-05,5.8667,7.0667
0.99609375,-7.325590153353147e-06,-4.297448411993589e-05,-4.687951101853969e-05,-2.49051105378805e-05,5.8667,7.0667
1.0,-1.7584909938200936e-05,-4.7369364216067726e-05,-5.371675776150146e-05,-2.539496373540854e-05,5.8667,7.0667
1.00390625,-1.8557716992446757e-05,-4.785231807278551e-05,-5.371675776150146e-05,-3.0279697029068415e-05,5.8667,7.0667
1.0078125,-1.6115350345616817e-05,-4.7369364216067726e-05,-6.103695836118103e-05,-2.8810137436484296e-05,5.8667,7.0667
1.01171875,-1.3190029842069094e-05,-4.883202446784159e-05,-6.00641513069352e-05,-2.734747718471044e-05,5.8667,7.0667
1.015625,-1.270017664454106e-05,-5.029468471961544e-05,-4.7369364216067726e-05,-2.734747718471044e-05,5.8667,7.0667
1.01953125,-3.4205632547493394e-06,-5.322690456397342e-05,-6.347932500801096e-05,-2.539496373540854e-05,5.8667,7.0667
1.0234375,-8.795149745937265e-06,-4.0532117473105954e-05,-6.641154485236894e-05,-2.6367770789654356e-05,5.8667,7.0667
1.02734375,-1.8067863794918722e-05,-3.223221047837032e-05,-5.4689564815747284e-05,-2.148993683680473e-05,5.8667,7.0667
1.03125,-6.842636296635362e-06,-3.174235728084227e-05,-4.4437144371709745e-05,-1.7095056740672902e-05,5.8667,7.0667
1.03515625,-1.0747663195239156e-05,-2.978984383154038e-05,-4.9321877665369625e-05,-2.051023044174866e-05,5.8667,7.0667
1.0390625,-2.734747718471044e-05,-3.3694870730144175e-05,-4.980483152208741e-05,-2.4415257340352453e-05,5.8667,7.0667
1.04296875,-2.2462743891050565e-05,-3.174235728084227e-05,-4.00422642755779e-05,-2.832718357976651e-05,5.8667,7.0667
1.046875,-1.7584909938200936e-05,-2.6857623987182393e-05,-4.7369364216067726e-05,-2.5884816932936573e-05,5.8667,7.0667
1.05078125,-2.1972890693522514e-05,-2.2462743891050565e-05,-5.0784537917143486e-05,-1.7095056740672902e-05,5.8667,7.0667
1.0546875,-7.815443350881182e-06,-6.352783099107327e-06,-3.857960402380405e-05,-7.815443350881182e-06,5.8667,7.0667
1.05859375,-3.910416452277389e-06,3.4166834882124275e-06,-2.6367770789654356e-05,-1.7095056740672902e-05,5.8667,7.0667
1.0625,-1.8557716992446757e-05,-1.0747663195239156e-05,-2.4415257340352453e-05,-3.3694870730144175e-05,5.8667,7.0667
1.06640625,-2.6367770789654356e-05,-1.8067863794918722e-05,-2.832718357976651e-05,-2.8810137436484296e-05,5.8667,7.0667
1.0703125,-2.29525970885786e-05,-1.4652690093842962e-05,-3.9062557880521835e-05,-1.7584909938200936e-05,5.8667,7.0667
1.07421875,-5.3730767040512434e-06,3.4166834882124275e-06,-2.6857623987182393e-05,-1.270017664454106e-05,5.8667,7.0667
1.078125,-1.123061705195694e-05,-3.4205632547493394e-06,-2.49051105378805e-05,-1.4162836896314928e-05,5.8667,7.0667
1.08203125,-1.8067863794918722e-05,-1.6605203543144868e-05,-2.7837330382238475e-05,-1.2210323447013024e-05,5.8667,7.0667
1.0859375,-4.883434103913657e-07,-5.3730767040512434e-06,-1.5625497148088783e-05,-6.842636296635362e-06,5.8667,7.0667
1.08984375,-4.883434103913657e-07,-1.5625497148088783e-05,-2.1000083639276693e-05,-5.389553673580849e-09,5.8667,7.0667
1.09375,-1.953742338750284e-05,-5.762178466010526e-05,-6.982671855344468e-05,-9.27810360265505e-06,5.8667,7.0667
1.09765625,-2.3932303483634667e-05,-7.861647874570837e-05,-9.521629273517965e-05,-1.3190029842069094e-05,5.8667,7.0667
1.1015625,-1.7095056740672902e-05,-7.617411209887843e-05,-8.447401909361406e-05,3.899637344930212e-06,5.8667,7.0667
1.10546875,-3.4205632547493394e-06,-9.033845878233003e-05,-9.668585232776376e-05,1.660132377660794e-05,5.8667,7.0667
1.109375,8.78437063859009e-06,-0.0001015636862806134,-0.00011816350027008466,3.2221431371023126e-05,5.8667,7.0667
1.11328125,5.8590501350423665e-06,-0.00011620408747997251,-0.00013036843416342408,4.7358585108720544e-05,5.8667,7.0667
1.1171875,-5.389553673580849e-09,-0.00013281080081025404,-0.00013525316745708398,5.17534652048524e-05,5.8667,7.0667
1.12109375,1.9471238956283086e-06,-0.00015526815514763103,-0.00016015288844129088,5.663819849851228e-05,5.8667,7.0667
1.125,6.342003991760151e-06,-0.00016699013518425265,-0.0001826171421194781,6.054322539711606e-05,5.8667,7.0667
1.12890625,-1.4680498054474497e-06,-0.00015966303524376284,-0.0001826171421194781,6.493810549324792e-05,5.8667,7.0667
1.1328125,-1.123061705195694e-05,-0.00016113259483634698,-0.00017773240882581825,7.323801248798355e-05,5.8667,7.0667
1.13671875,1.4641700389105238e-06,-0.00016405791533989468,-0.00017382738192721445,6.689061894254982e-05,5.8667,7.0667
1.140625,-4.883434103913657e-07,-0.00015869022818951702,-0.00016845279543602651,5.7611005552758084e-05,5.8667,7.0667
1.14453125,-2.1000083639276693e-05,-0.00014599544109864955,-0.00015234283464408328,6.78703253376059e-05,5.8667,7.0667
1.1484375,-1.7584909938200936e-05,-0.00013476331425955594,-0.0001474581013504234,7.07956458411536e-05,5.8667,7.0667
1.15234375,-1.0747663195239156e-05,-0.00015087327505149917,-0.0001679629422384985,5.7611005552758084e-05,5.8667,7.0667
1.15625,-1.3190029842069094e-05,-0.00014111070780498968,-0.00016308510828564885,4.2473851815060665e-05,5.8667,7.0667
1.16015625,-1.8067863794918722e-05,-0.00012353118742046234,-0.0001264634072648203,3.612645826962694e-05,5.8667,7.0667
1.1640625,-2.1972890693522514e-05,-0.00012108882077363239,-0.0001142515740306706,3.7106164664683005e-05,5.8667,7.0667
1.16796875,-2.7837330382238475e-05,-0.00010644841957427327,-0.0001122990605813687,2.880625766994737e-05,5.8667,7.0667
1.171875,-3.174235728084227e-05,-8.789609213550009e-05,-9.424348568093382e-05,2.1969010926985617e-05,5.8667,7.0667
1.17578125,-2.929999063401233e-05,-7.17792320027466e-05,-7.128937880521856e-05,1.9526644280155664e-05,5.8667,7.0667
1.1796875,-3.0279697029068415e-05,-5.2737051366445385e-05,-5.1274391114671524e-05,1.2689397537193897e-05,5.8667,7.0667
1.18359375,-3.07626508857862e-05,-4.2484630922407846e-05,-4.2484630922407846e-05,5.3691969375143315e-06,5.8667,7.0667
1.1875,-3.613723737697411e-05,-3.271516433508809e-05,-4.00422642755779e-05,3.899637344930212e-06,5.8667,7.0667
1.19140625,-4.150492452735177e-05,-1.8067863794918722e-05,-2.832718357976651e-05,4.84463643854454e-07,5.8667,7.0667
1.1953125,-4.00422642755779e-05,-2.734747718471044e-05,-1.4162836896314928e-05,-3.4205632547493394e-06,5.8667,7.0667
1.19921875,-3.857960402380405e-05,-2.929999063401233e-05,-8.795149745937265e-06,-9.767956800183086e-06,5.8667,7.0667
1.203125,-4.5899804623483614e-05,-9.767956800183086e-06,-4.8832235065232085e-06,-1.904757018997479e-05,5.8667,7.0667
1.20703125,-4.883202446784159e-05,-1.4680498054474497e-06,5.8590501350423665e-06,-2.832718357976651e-05,5.8667,7.0667
1.2109375,-4.9321877665369625e-05,-4.400269649805424e-06,6.831857189288186e-06,-3.125250408331423e-05,5.8667,7.0667
1.21484375,-5.0784537917143486e-05,1.1716590482948063e-05,8.78437063859009e-06,-2.734747718471044e-05,5.8667,7.0667
1.21875,-5.2737051366445385e-05,2.0989304531929518e-05,1.855383722590983e-05,-2.8810137436484296e-05,5.8667,7.0667
1.22265625,-5.419971161821925e-05,2.2948717322041685e-05,1.9036791082627616e-05,-3.0279697029068415e-05,5.8667,7.0667
1.2265625,-5.517941801327532e-05,1.7084277633325727e-05,2.147915772945757e-05,-3.271516433508809e-05,5.8667,7.0667
1.23046875,-5.371675776150146e-05,6.342003991760151e-06,2.441137757381554e-05,-3.515753098191803e-05,5.8667,7.0667
1.234375,-5.322690456397342e-05,-5.3730767040512434e-06,2.0506350675211735e-05,-3.320501753261614e-05,5.8667,7.0667
1.23828125,-5.4689564815747284e-05,-6.842636296635362e-06,1.855383722590983e-05,-3.7599897628747967e-05,5.8667,7.0667
1.2421875,-5.61591244083314e-05,-1.9579030029754847e-06,2.5384184628061374e-05,-3.7599897628747967e-05,5.8667,7.0667
1.24609375,-5.6642078265049183e-05,9.743168413824889e-07,2.880625766994737e-05,-3.711004443121993e-05,5.8667,7.0667
1.25,-5.859459171435109e-05,1.1716590482948063e-05,2.2458864124513638e-05,-4.00422642755779e-05,5.8667,7.0667
1.25390625,-5.517941801327532e-05,1.660132377660794e-05,3.271128456855118e-05,-3.515753098191803e-05,5.8667,7.0667
1.2578125,-4.980483152208741e-05,1.5131764184023821e-05,2.343167117875947e-05,-4.102197067063399e-05,5.8667,7.0667
1.26171875,-4.834217127031355e-05,1.806398402838181e-05,1.5131764184023821e-05,-4.4437144371709745e-05,5.8667,7.0667
1.265625,-4.5416850766765834e-05,1.1226737285420028e-05,2.1969010926985617e-05,-3.808975082627602e-05,5.8667,7.0667
1.26953125,-4.7369364216067726e-05,1.4158957129778002e-05,1.855383722590983e-05,-3.174235728084227e-05,5.8667,7.0667
1.2734375,-4.980483152208741e-05,2.6363891023117446e-05,1.660132377660794e-05,-3.223221047837032e-05,5.8667,7.0667
1.27734375,-4.102197067063399e-05,1.2206443680476112e-05,2.6363891023117446e-05,-4.102197067063399e-05,5.8667,7.0667
1.28125,-3.9062557880521835e-05,4.389490542458247e-06,2.5384184628061374e-05,-4.297448411993589e-05,5.8667,7.0667
1.28515625,-3.9062557880521835e-05,2.490123077134359e-05,4.8793437399862966e-06,-3.3694870730144175e-05,5.8667,7.0667
1.2890625,-4.297448411993589e-05,3.661631146715498e-05,1.4641700389105238e-06,-3.125250408331423e-05,5.8667,7.0667
1.29296875,-4.5899804623483614e-05,2.9779064724193203e-05,4.389490542458247e-06,-3.4184723927672206e-05,5.8667,7.0667
1.296875,-4.834217127031355e-05,3.320113776607923e-05,1.9526644280155664e-05,-3.320501753261614e-05,5.8667,7.0667
1.30078125,-5.029468471961544e-05,2.929611086747542e-05,2.343167117875947e-05,-3.174235728084227e-05,5.8667,7.0667
1.3046875,-4.199477772487981e-05,2.490123077134359e-05,1.5621617381551872e-05,-3.125250408331423e-05,5.8667,7.0667
1.30859375,-3.9062557880521835e-05,2.6853744220645493e-05,1.4641910986495787e-05,-3.125250408331423e-05,5.8667,7.0667
1.3125,-3.955241107804987e-05,1.855383722590983e-05,1.757413083085376e-05,-3.07626508857862e-05,5.8667,7.0667
1.31640625,-4.0532117473105954e-05,2.0016497477683715e-05,7.321710386816235e-06,-2.832718357976651e-05,5.8667,7.0667
1.3203125,-4.5416850766765834e-05,2.490123077134359e-05,-1.9579030029754847e-06,-2.929999063401233e-05,5.8667,7.0667
1.32421875,-4.345743797665368e-05,1.4641910986495787e-05,4.389490542458247e-06,-2.3932303483634667e-05,5.8667,7.0667
1.328125,-3.955241107804987e-05,-1.4680498054474497e-06,-6.842636296635362e-06,-1.904757018997479e-05,5.8667,7.0667
1.33203125,-3.808975082627602e-05,-7.325590153353147e-06,-9.781966079194006e-07,-1.8067863794918722e-05,5.8667,7.0667
1.3359375,-4.199477772487981e-05,-1.270017664454106e-05,9.274223836118124e-06,-1.904757018997479e-05,5.8667,7.0667
1.33984375,-4.5416850766765834e-05,-2.3932303483634667e-05,-2.9307100572213044e-06,-2.2462743891050565e-05,5.8667,7.0667
1.34375,-4.3947291174181715e-05,-1.8557716992446757e-05,1.4641700389105238e-06,-2.1972890693522514e-05,5.8667,7.0667
1.34765625,-4.297448411993589e-05,-1.0747663195239156e-05,-5.8629299015792775e-06,-2.49051105378805e-05,5.8667,7.0667
1.3515625,-4.3947291174181715e-05,-8.795149745937265e-06,-1.6115350345616817e-05,-3.07626508857862e-05,5.8667,7.0667
1.35546875,-5.2737051366445385e-05,-7.325590153353147e-06,-1.270017664454106e-05,-2.4415257340352453e-05,5.8667,7.0667
1.359375,-5.0784537917143486e-05,-8.305296548409217e-06,-1.3672983698786879e-05,-2.3442450286106633e-05,5.8667,7.0667
1.36328125,-4.199477772487981e-05,-5.8629299015792775e-06,-2.9307100572213044e-06,-2.3932303483634667e-05,5.8667,7.0667
1.3671875,-3.9062557880521835e-05,-4.400269649805424e-06,-4.400269649805424e-06,-2.0020377244220625e-05,5.8667,7.0667
1.37109375,-4.687951101853969e-05,-7.815443350881182e-06,-3.910416452277389e-06,-2.3442450286106633e-05,5.8667,7.0667
1.375,-4.5899804623483614e-05,-5.3730767040512434e-06,-9.767956800183086e-06,-1.953742338750284e-05,5.8667,7.0667
1.37890625,-4.00422642755779e-05,-3.910416452277389e-06,-1.8557716992446757e-05,-1.8557716992446757e-05,5.8667,7.0667
1.3828125,-4.345743797665368e-05,-1.3190029842069094e-05,-2.0020377244220625e-05,-2.539496373540854e-05,5.8667,7.0667
1.38671875,-4.5899804623483614e-05,-7.325590153353147e-06,-2.3932303483634667e-05,-2.3442450286106633e-05,5.8667,7.0667
1.390625,-4.199477772487981e-05,-3.910416452277389e-06,-2.3932303483634667e-05,-2.3442450286106633e-05,5.8667,7.0667
1.39453125,-3.857960402380405e-05,-1.4162836896314928e-05,-3.4184723927672206e-05,-2.3442450286106633e-05,5.8667,7.0667
1.3984375,-4.150492452735177e-05,-1.2210323447013024e-05,-2.7837330382238475e-05,-1.7584909938200936e-05,5.8667,7.0667
1.40234375,-4.4437144371709745e-05,-1.025780999771112e-05,-2.051023044174866e-05,-1.4652690093842962e-05,5.8667,7.0667
1.40625,-4.199477772487981e-05,-1.123061705195694e-05,-2.1972890693522514e-05,-1.6605203543144868e-05,5.8667,7.0667
1.41015625,-3.955241107804987e-05,-8.305296548409217e-06,4.8793437399862966e-06,-8.305296548409217e-06,5.8667,7.0667
1.4140625,-4.297448411993589e-05,-9.27810360265505e-06,-5.8629299015792775e-06,-5.3730767040512434e-06,5.8667,7.0667
1.41796875,-4.199477772487981e-05,-1.270017664454106e-05,-2.734747718471044e-05,-8.795149745937265e-06,5.8667,7.0667
1.421875,-4.345743797665368e-05,-1.2210323447013024e-05,-1.904757018997479e-05,-1.025780999771112e-05,5.8667,7.0667
1.42578125,-4.345743797665368e-05,-1.6605203543144868e-05,-2.49051105378805e-05,-1.123061705195694e-05,5.8667,7.0667
1.4296875,-4.492699756923778e-05,-9.27810360265505e-06,-3.0279697029068415e-05,-9.27810360265505e-06,5.8667,7.0667
1.43359375,-5.029468471961544e-05,-3.910416452277389e-06,-2.49051105378805e-05,-1.4162836896314928e-05,5.8667,7.0667
1.4375,-4.492699756923778e-05,-1.2210323447013024e-05,-2.1000083639276693e-05,-1.6605203543144868e-05,5.8667,7.0667
1.44140625,-4.687951101853969e-05,-1.0747663195239156e-05,-2.3442450286106633e-05,-1.3190029842069094e-05,5.8667,7.0667
1.4453125,-4.3947291174181715e-05,-1.8557716992446757e-05,-3.07626508857862e-05,-1.172047024948499e-05,5.8667,7.0667
1.44921875,-3.515753098191803e-05,-2.3932303483634667e-05,-2.1000083639276693e-05,-8.795149745937265e-06,5.8667,7.0667
1.453125,-4.102197067063399e-05,-1.5142543291370998e-05,-1.5625497148088783e-05,-5.8629299015792775e-06,5.8667,7.0667
1.45703125,-4.4437144371709745e-05,-1.5625497148088783e-05,-3.125250408331423e-05,-7.325590153353147e-06,5.8667,7.0667
1.4609375,-4.3947291174181715e-05,-2.29525970885786e-05,-2.051023044174866e-05,-1.025780999771112e-05,5.8667,7.0667
1.46484375,-4.102197067063399e-05,-1.904757018997479e-05,-2.49051105378805e-05,-6.352783099107327e-06,5.8667,7.0667
1.46875,-3.9062557880521835e-05,-2.2462743891050565e-05,-3.125250408331423e-05,-2.9307100572213044e-06,5.8667,7.0667
1.47265625,-4.00422642755779e-05,-3.4184723927672206e-05,-1.8557716992446757e-05,-4.8832235065232085e-06,5.8667,7.0667
1.4765625,-4.345743797665368e-05,-4.102197067063399e-05,-1.904757018997479e-05,-4.400269649805424e-06,5.8667,7.0667
1.48046875,-3.857960402380405e-05,-3.9062557880521835e-05,-2.1972890693522514e-05,-4.883434103913657e-07,5.8667,7.0667
1.484375,-3.515753098191803e-05,-3.07626508857862e-05,-1.7095056740672902e-05,4.8793437399862966e-06,5.8667,7.0667
1.48828125,-3.857960402380405e-05,-2.6857623987182393e-05,-6.842636296635362e-06,-4.883434103913657e-07,5.8667,7.0667
1.4921875,-2.4415257340352453e-05,-2.929999063401233e-05,-2.4477562005035196e-06,-2.4477562005035196e-06,5.8667,7.0667
1.49609375,-2.148993683680473e-05,-2.8810137436484296e-05,3.899637344930212e-06,4.84463643854454e-07,5.8667,7.0667
1.5,-3.7599897628747967e-05,-4.00422642755779e-05,4.84463643854454e-07,4.84463643854454e-07,5.8667,7.0667
1.50390625,-3.4674577125200244e-05,-4.492699756923778e-05,-2.8810137436484296e-05,-3.910416452277389e-06,5.8667,7.0667
1.5078125,-3.0279697029068415e-05,-3.4184723927672206e-05,-3.271516433508809e-05,-8.305296548409217e-06,5.8667,7.0667
1.51171875,-3.3694870730144175e-05,-3.223221047837032e-05,-1.8557716992446757e-05,-9.27810360265505e-06,5.8667,7.0667
1.515625,-3.07626508857862e-05,-4.150492452735177e-05,-2.734747718471044e-05,-8.795149745937265e-06,5.8667,7.0667
1.51953125,-2.734747718471044e-05,-2.29525970885786e-05,-4.00422642755779e-05,-8.795149745937265e-06,5.8667,7.0667
1.5234375,-2.6857623987182393e-05,-2.3932303483634667e-05,-2.978984383154038e-05,-9.767956800183086e-06,5.8667,7.0667
1.52734375,-1.7584909938200936e-05,-4.9321877665369625e-05,-2.3442450286106633e-05,-1.0747663195239156e-05,5.8667,7.0667
1.53125,-2.051023044174866e-05,-3.808975082627602e-05,-3.955241107804987e-05,-8.795149745937265e-06,5.8667,7.0667
1.53515625,-3.711004443121993e-05,-3.9062557880521835e-05,-4.199477772487981e-05,-9.767956800183086e-06,5.8667,7.0667
1.5390625,-4.150492452735177e-05,-4.3947291174181715e-05,-1.0747663195239156e-05,-8.795149745937265e-06,5.8667,7.0667
1.54296875,-3.223221047837032e-05,-1.4652690093842962e-05,8.78437063859009e-06,-1.6115350345616817e-05,5.8667,7.0667
1.546875,-1.3672983698786879e-05,-3.174235728084227e-05,-3.711004443121993e-05,-2.3442450286106633e-05,5.8667,7.0667
1.55078125,-8.305296548409217e-06,-6.298947181048292e-05,-7.617411209887843e-05,-1.5625497148088783e-05,5.8667,7.0667
1.5546875,-1.123061705195694e-05,-5.762178466010526e-05,-6.298947181048292e-05,-1.270017664454106e-05,5.8667,7.0667
1.55859375,-5.8629299015792775e-06,-4.297448411993589e-05,-4.0532117473105954e-05,-1.5625497148088783e-05,5.8667,7.0667
1.5625,7.81156358434427e-06,-4.883202446784159e-05,-6.3969178205539e-05,-2.0020377244220625e-05,5.8667,7.0667
1.56640625,1.2206443680476112e-05,-7.17792320027466e-05,-9.375363248340579e-05,-2.1972890693522514e-05,5.8667,7.0667
1.5703125,1.0247030890363959e-05,-7.226908520027465e-05,-9.326377928587774e-05,-2.5884816932936573e-05,5.8667,7.0667
1.57421875,1.5621617381551872e-05,-8.789609213550009e-05,-0.00010254339267566946,-2.8810137436484296e-05,5.8667,7.0667
1.578125,1.5621617381551872e-05,-9.424348568093382e-05,-0.00012011601371938656,-3.07626508857862e-05,5.8667,7.0667
1.58203125,2.490123077134359e-05,-8.350121203936825e-05,-0.00012987858096589607,-3.174235728084227e-05,5.8667,7.0667
1.5859375,4.101119156328681e-05,-8.642653254291598e-05,-0.00013768863476310367,-3.515753098191803e-05,5.8667,7.0667
1.58984375,3.466379801785308e-05,-9.619599913023572e-05,-0.00015380549489585715,-4.199477772487981e-05,5.8667,7.0667
1.59375,3.173157817349511e-05,-0.00010010102602883952,-0.0001533156416983291,-4.2484630922407846e-05,5.8667,7.0667
1.59765625,4.3943411407644784e-05,-9.424348568093382e-05,-0.00015526815514763103,-4.492699756923778e-05,5.8667,7.0667
1.6015625,5.029080495307852e-05,-8.740623893797207e-05,-0.0001362259745113298,-4.9321877665369625e-05,5.8667,7.0667
1.60546875,5.614834530098423e-05,-0.00010351619972991528,-0.00013036843416342408,-4.4437144371709745e-05,5.8667,7.0667
1.609375,5.3216125456626255e-05,-0.00010840093302357515,-0.00014160056100251771,-4.199477772487981e-05,5.8667,7.0667
1.61328125,4.7848438306248596e-05,-9.424348568093382e-05,-0.0001342734610620279,-4.4437144371709745e-05,5.8667,7.0667
1.6171875,5.71280516960403e-05,-9.229097223163192e-05,-0.0001274362143190661,-4.5416850766765834e-05,5.8667,7.0667
1.62109375,5.90805651453422e-05,-9.082141263904781e-05,-0.0001342734610620279,-4.687951101853969e-05,5.8667,7.0667
1.625,4.7848438306248596e-05,-9.082141263904781e-05,-0.0001474581013504234,-4.199477772487981e-05,5.8667,7.0667
1.62890625,4.833829150377664e-05,-8.350121203936825e-05,-0.00011620408747997251,-4.785231807278551e-05,5.8667,7.0667
1.6328125,5.17534652048524e-05,-7.324879159533071e-05,-0.00010351619972991528,-4.785231807278551e-05,5.8667,7.0667
1.63671875,3.9548531311512955e-05,-6.59216916548409e-05,-9.863836577706567e-05,-3.7599897628747967e-05,5.8667,7.0667
1.640625,3.320113776607923e-05,-5.322690456397342e-05,-8.154869859006634e-05,-3.662709057450215e-05,5.8667,7.0667
1.64453125,3.2221431371023126e-05,-4.638965782101165e-05,-9.277392608834971e-05,-3.955241107804987e-05,5.8667,7.0667
1.6484375,2.929611086747542e-05,-4.883202446784159e-05,-9.082141263904781e-05,-4.297448411993589e-05,5.8667,7.0667
1.65234375,2.343167117875947e-05,-3.857960402380405e-05,-8.007913899748223e-05,-4.297448411993589e-05,5.8667,7.0667
1.65625,1.4641910986495787e-05,-3.223221047837032e-05,-8.252150564431218e-05,-4.297448411993589e-05,5.8667,7.0667
1.66015625,1.2206443680476112e-05,-3.320501753261614e-05,-6.543183845731286e-05,-4.345743797665368e-05,5.8667,7.0667
1.6640625,1.2689397537193897e-05,-3.808975082627602e-05,-4.9321877665369625e-05,-4.00422642755779e-05,5.8667,7.0667
1.66796875,8.294517441062054e-06,-3.174235728084227e-05,-5.1274391114671524e-05,-4.0532117473105954e-05,5.8667,7.0667
1.671875,4.84463643854454e-07,-1.8067863794918722e-05,-2.6367770789654356e-05,-4.00422642755779e-05,5.8667,7.0667
1.67578125,4.8793437399862966e-06,-2.2462743891050565e-05,-2.3932303483634667e-05,-3.5647384179446074e-05,5.8667,7.0667
1.6796875,1.1716590482948063e-05,-2.734747718471044e-05,-4.2484630922407846e-05,-3.320501753261614e-05,5.8667,7.0667
1.68359375,4.84463643854454e-07,-2.2462743891050565e-05,-2.832718357976651e-05,-3.711004443121993e-05,5.8667,7.0667
1.6875,-7.815443350881182e-06,-2.2462743891050565e-05,-3.125250408331423e-05,-3.808975082627602e-05,5.8667,7.0667
1.69140625,-4.8832235065232085e-06,-2.1000083639276693e-05,-1.8557716992446757e-05,-3.320501753261614e-05,5.8667,7.0667
1.6953125,-6.842636296635362e-06,-2.3932303483634667e-05,-2.7837330382238475e-05,-2.7837330382238475e-05,5.8667,7.0667
1.69921875,-8.795149745937265e-06,-2.3442450286106633e-05,-4.150492452735177e-05,-3.0279697029068415e-05,5.8667,7.0667
1.703125,-1.0747663195239156e-05,-1.953742338750284e-05,-1.7095056740672902e-05,-2.978984383154038e-05,5.8667,7.0667
1.70703125,-9.27810360265505e-06,-2.1972890693522514e-05,-2.734747718471044e-05,-2.929999063401233e-05,5.8667,7.0667
1.7109375,-1.9579030029754847e-06,-1.5142543291370998e-05,-3.07626508857862e-05,-3.662709057450215e-05,5.8667,7.0667
1.71484375,-5.389553673580849e-09,-8.795149745937265e-06,-4.150492452735177e-05,-3.5647384179446074e-05,5.8667,7.0667
1.71875,4.84463643854454e-07,-3.910416452277389e-06,-4.0532117473105954e-05,-2.6367770789654356e-05,5.8667,7.0667
1.72265625,7.81156358434427e-06,-9.781966079194006e-07,-1.953742338750284e-05,-1.8557716992446757e-05,5.8667,7.0667
1.7265625,9.743168413824889e-07,-4.883434103913657e-07,-2.539496373540854e-05,-1.4162836896314928e-05,5.8667,7.0667
1.73046875,-1.5625497148088783e-05,-4.8832235065232085e-06,-1.0747663195239156e-05,-2.2462743891050565e-05,5.8667,7.0667
1.734375,-1.8067863794918722e-05,-1.8557716992446757e-05,-1.3190029842069094e-05,-2.8810137436484296e-05,5.8667,7.0667
1.73828125,-2.0020377244220625e-05,-2.3442450286106633e-05,-3.3694870730144175e-05,-2.1000083639276693e-05,5.8667,7.0667
1.7421875,-2.051023044174866e-05,-2.5884816932936573e-05,-2.29525970885786e-05,-2.49051105378805e-05,5.8667,7.0667
1.74609375,-1.8557716992446757e-05,-3.0279697029068415e-05,-3.125250408331423e-05,-2.49051105378805e-05,5.8667,7.0667
1.75,-1.7584909938200936e-05,-2.734747718471044e-05,-3.515753098191803e-05,-2.1972890693522514e-05,5.8667,7.0667
1.75390625,-2.49051105378805e-05,-2.3932303483634667e-05,-3.857960402380405e-05,-2.3932303483634667e-05,5.8667,7.0667
1.7578125,-2.978984383154038e-05,-1.8557716992446757e-05,-3.515753098191803e-05,-1.8557716992446757e-05,5.8667,7.0667
1.76171875,-2.6857623987182393e-05,-1.3190029842069094e-05,-2.148993683680473e-05,-2.051023044174866e-05,5.8667,7.0667
1.765625,-2.6857623987182393e-05,-1.6605203543144868e-05,-2.832718357976651e-05,-2.4415257340352453e-05,5.8667,7.0667
1.76953125,-2.49051105378805e-05,-8.795149745937265e-06,-2.49051105378805e-05,-2.3932303483634667e-05,5.8667,7.0667
1.7734375,-2.6367770789654356e-05,-1.3672983698786879e-05,-2.29525970885786e-05,-2.832718357976651e-05,5.8667,7.0667
1.77734375,-2.929999063401233e-05,-2.4415257340352453e-05,-2.29525970885786e-05,-3.223221047837032e-05,5.8667,7.0667
1.78125,-2.6367770789654356e-05,-2.3932303483634667e-05,-3.125250408331423e-05,-3.125250408331423e-05,5.8667,7.0667
1.78515625,-2.539496373540854e-05,-2.2462743891050565e-05,-3.223221047837032e-05,-2.6367770789654356e-05,5.8667,7.0667
1.7890625,-2.1000083639276693e-05,-2.5884816932936573e-05,-2.6367770789654356e-05,-3.4184723927672206e-05,5.8667,7.0667
1.79296875,-2.539496373540854e-05,-2.7837330382238475e-05,-2.051023044174866e-05,-3.223221047837032e-05,5.8667,7.0667
1.796875,-3.5647384179446074e-05,-2.49051105378805e-05,-2.49051105378805e-05,-2.2462743891050565e-05,5.8667,7.0667
1.80078125,-3.7599897628747967e-05,-2.6857623987182393e-05,-3.662709057450215e-05,-2.3932303483634667e-05,5.8667,7.0667
1.8046875,-3.5647384179446074e-05,-3.5647384179446074e-05,-3.515753098191803e-05,-2.539496373540854e-05,5.8667,7.0667
1.80859375,-2.6367770789654356e-05,-3.174235728084227e-05,-3.808975082627602e-05,-1.904757018997479e-05,5.8667,7.0667
1.8125,-2.2462743891050565e-05,-2.734747718471044e-05,-4.00422642755779e-05,-1.4652690093842962e-05,5.8667,7.0667
1.81640625,-2.3442450286106633e-05,-3.4184723927672206e-05,-4.0532117473105954e-05,-2.2462743891050565e-05,5.8667,7.0667
1.8203125,-1.4652690093842962e-05,-2.29525970885786e-05,-2.3442450286106633e-05,-1.4652690093842962e-05,5.8667,7.0667
1.82421875,-1.3672983698786879e-05,-2.3932303483634667e-05,-1.025780999771112e-05,-3.910416452277389e-06,5.8667,7.0667
1.828125,-1.7095056740672902e-05,-4.834217127031355e-05,-3.857960402380405e-05,-1.025780999771112e-05,5.8667,7.0667
1.83203125,-2.734747718471044e-05,-6.494198525978481e-05,-6.836405830167084e-05,-1.904757018997479e-05,5.8667,7.0667
1.8359375,-2.5884816932936573e-05,-7.520130504463262e-05,-7.715381849393452e-05,-1.2210323447013024e-05,5.8667,7.0667
1.83984375,-2.9307100572213044e-06,-7.617411209887843e-05,-8.49638722911421e-05,-3.4205632547493394e-06,5.8667,7.0667
1.84375,1.0247030890363959e-05,-8.301135884184022e-05,-9.424348568093382e-05,2.9268302906843925e-06,5.8667,7.0667
1.84765625,3.4166834882124275e-06,-0.0001049857593224994,-0.00011962616052185852,1.2206443680476112e-05,5.8667,7.0667
1.8515625,-5.389553673580849e-09,-0.0001069382727718013,-0.00010791107982604713,1.1716590482948063e-05,5.8667,7.0667
1.85546875,7.321710386816235e-06,-0.00011669394067750055,-0.00010449590612497137,1.806398402838181e-05,5.8667,7.0667
1.859375,-1.9579030029754847e-06,-0.0001381784879606317,-0.00014355307445181961,5.3705978654154306e-05,5.8667,7.0667
1.86328125,-2.0020377244220625e-05,-0.00016161554869306474,-0.0001679629422384985,7.617023233234153e-05,5.8667,7.0667
1.8671875,-2.832718357976651e-05,-0.00018065772932936595,-0.0001699154556878004,8.447013932707716e-05,5.8667,7.0667
1.87109375,-3.711004443121993e-05,-0.00018554246262302585,-0.00016113259483634698,9.179033992675672e-05,5.8667,7.0667
1.875,-4.785231807278551e-05,-0.00018212728892195008,-0.00017773240882581825,9.47225597711147e-05,5.8667,7.0667
1.87890625,-6.103695836118103e-05,-0.00019433222281528952,-0.00018603231582055388,9.716492641794463e-05,5.8667,7.0667
1.8828125,-7.37317454520485e-05,-0.00021093203680476078,-0.00018896453566491186,0.00010106995331654843,5.8667,7.0667
1.88671875,-7.080642494850077e-05,-0.0001972644426596475,-0.00018603231582055388,9.960729306477458e-05,5.8667,7.0667
1.890625,-7.080642494850077e-05,-0.000204094790061799,-0.00019140000297093154,9.570226616617077e-05,5.8667,7.0667
1.89453125,-9.375363248340579e-05,-0.00021093203680476078,-0.0002011694695582513,9.47225597711147e-05,5.8667,7.0667
1.8984375,-0.00010059087922636757,-0.000204094790061799,-0.0001699154556878004,8.886501942320898e-05,5.8667,7.0667
1.90234375,-0.0001015636862806134,-0.00020067961636072325,-0.00014452588150606544,8.837516622568097e-05,5.8667,7.0667
1.90625,-0.00010840093302357515,-0.00019091704911421376,-0.00015966303524376284,8.642265277637906e-05,5.8667,7.0667
1.91015625,-0.00011132625352712288,-0.0001962847362645914,-0.00016405791533989468,8.398028612954911e-05,5.8667,7.0667
1.9140625,-0.00011962616052185852,-0.00018896453566491186,-0.00013183109441519797,7.958540603341729e-05,5.8667,7.0667
1.91796875,-0.0001269463611215381,-0.00016894264863355455,-0.00011572113362325473,6.640076574502177e-05,5.8667,7.0667
1.921875,-0.00013183109441519797,-0.00015869022818951702,-0.00010351619972991528,5.8590711947814186e-05,5.8667,7.0667
1.92578125,-0.00013183109441519797,-0.00014208351485923547,-7.471145184710457e-05,5.51755382467384e-05,5.8667,7.0667
1.9296875,-0.0001362259745113298,-0.00012938872776836803,-7.226908520027465e-05,4.589592485694669e-05,5.8667,7.0667
1.93359375,-0.00014257336805676354,-0.00010449590612497137,-5.419971161821925e-05,3.2221431371023126e-05,5.8667,7.0667
1.9375,-0.00014501573470359345,-7.76367723506523e-05,-2.3932303483634667e-05,2.9779064724193203e-05,5.8667,7.0667
1.94140625,-0.00014257336805676354,-6.445903140306704e-05,-1.270017664454106e-05,2.0016497477683715e-05,5.8667,7.0667
1.9453125,-0.00013866834115815974,-4.5416850766765834e-05,3.899637344930212e-06,1.660132377660794e-05,5.8667,7.0667
1.94921875,-0.00013768863476310367,-2.0020377244220625e-05,2.441137757381554e-05,9.274223836118124e-06,5.8667,7.0667
1.953125,-0.00013525316745708398,-1.123061705195694e-05,3.9548531311512955e-05,-8.795149745937265e-06,5.8667,7.0667
1.95703125,-0.00012597355406729227,-4.8832235065232085e-06,4.931109855802245e-05,-1.5625497148088783e-05,5.8667,7.0667
1.9609375,-0.00011669394067750055,-4.883434103913657e-07,5.419583185168232e-05,-1.8557716992446757e-05,5.8667,7.0667
1.96484375,-0.00011767364707255663,-6.842636296635362e-06,4.540607165941867e-05,-2.4415257340352453e-05,5.8667,7.0667
1.96875,-0.00011669394067750055,3.4166834882124275e-06,5.3705978654154306e-05,-2.3932303483634667e-05,5.8667,7.0667
1.97265625,-0.00010986359327534903,1.6111470579079906e-05,6.054322539711606e-05,-2.6367770789654356e-05,5.8667,7.0667
1.9765625,-9.473333887846186e-05,2.8316404472419348e-05,5.956351900205999e-05,-2.978984383154038e-05,5.8667,7.0667
1.98046875,-9.082141263904781e-05,3.320113776607923e-05,6.78703253376059e-05,-3.271516433508809e-05,5.8667,7.0667
1.984375,-8.837904599221786e-05,2.78265512748913e-05,6.249573884641796e-05,-3.4674577125200244e-05,5.8667,7.0667
1.98828125,-8.203165244678413e-05,3.0268917921721254e-05,6.152293179217216e-05,-3.320501753261614e-05,5.8667,7.0667
1.9921875,-7.91063319432364e-05,3.80858710597391e-05,7.47006727397574e-05,-3.5647384179446074e-05,5.8667,7.0667
1.99609375,-7.17792320027466e-05,4.101119156328681e-05,9.325989951934085e-05,-3.9062557880521835e-05,5.8667,7.0667
2.0,-5.859459171435109e-05,3.661631146715498e-05,7.07956458411536e-05,-4.00422642755779e-05,5.8667,7.0667
2.00390625,-5.2737051366445385e-05,4.150104476081486e-05,6.200588564888995e-05,-4.102197067063399e-05,5.8667,7.0667
2.0078125,-4.834217127031355e-05,4.1990897958342885e-05,6.884313239185169e-05,-4.5416850766765834e-05,5.8667,7.0667
2.01171875,-4.199477772487981e-05,4.491621846189062e-05,4.2473851815060665e-05,-4.834217127031355e-05,5.8667,7.0667
2.015625,-5.0784537917143486e-05,4.833829150377664e-05,4.540607165941867e-05,-4.102197067063399e-05,5.8667,7.0667
2.01953125,-5.0784537917143486e-05,5.078065815060657e-05,5.8590711947814186e-05,-4.102197067063399e-05,5.8667,7.0667
2.0234375,-4.785231807278551e-05,5.3216125456626255e-05,6.835327919432367e-05,-4.345743797665368e-05,5.8667,7.0667
2.02734375,-4.834217127031355e-05,4.9800951755550494e-05,7.177535223620969e-05,-3.955241107804987e-05,5.8667,7.0667
2.03125,-4.3947291174181715e-05,5.273317159990847e-05,7.226520543373772e-05,-4.2484630922407846e-05,5.8667,7.0667
2.03515625,-3.711004443121993e-05,5.3216125456626255e-05,6.933298558937974e-05,-4.2484630922407846e-05,5.8667,7.0667
2.0390625,-3.125250408331423e-05,5.17534652048524e-05,6.005337219958804e-05,-3.808975082627602e-05,5.8667,7.0667
2.04296875,-4.199477772487981e-05,5.2243318402380424e-05,5.126361200732435e-05,-4.150492452735177e-05,5.8667,7.0667
2.046875,-4.199477772487981e-05,6.249573884641796e-05,5.419583185168232e-05,-4.150492452735177e-05,5.8667,7.0667
2.05078125,-3.174235728084227e-05,7.714303938658735e-05,6.298559204394601e-05,-3.955241107804987e-05,5.8667,7.0667
2.0546875,-2.832718357976651e-05,6.542795869077593e-05,5.3216125456626255e-05,-4.5899804623483614e-05,5.8667,7.0667
2.05859375,-2.8810137436484296e-05,3.9548531311512955e-05,4.686873191119253e-05,-4.5416850766765834e-05,5.8667,7.0667
2.0625,-2.8810137436484296e-05,2.2458864124513638e-05,4.052133836575879e-05,-3.808975082627602e-05,5.8667,7.0667
2.06640625,-2.539496373540854e-05,2.490123077134359e-05,3.7106164664683005e-05,-4.00422642755779e-05,5.8667,7.0667
2.0703125,-2.49051105378805e-05,2.490123077134359e-05,4.2963705012588716e-05,-4.638965782101165e-05,5.8667,7.0667
2.07421875,-2.734747718471044e-05,1.2206443680476112e-05,5.029080495307852e-05,-4.5899804623483614e-05,5.8667,7.0667
2.078125,-2.539496373540854e-05,9.743168413824889e-07,4.931109855802245e-05,-4.638965782101165e-05,5.8667,7.0667
2.08203125,-2.734747718471044e-05,4.8793437399862966e-06,4.931109855802245e-05,-4.9321877665369625e-05,5.8667,7.0667
2.0859375,-2.3932303483634667e-05,5.8590501350423665e-06,3.612645826962694e-05,-5.0784537917143486e-05,5.8667,7.0667
2.08984375,-2.148993683680473e-05,8.78437063859009e-06,2.490123077134359e-05,-5.176424431219956e-05,5.8667,7.0667
2.09375,-2.539496373540854e-05,1.6111470579079906e-05,2.6363891023117446e-05,-4.7369364216067726e-05,5.8667,7.0667
2.09765625,-1.4652690093842962e-05,4.8793437399862966e-06,2.1969010926985617e-05,-4.638965782101165e-05,5.8667,7.0667
2.1015625,-1.4162836896314928e-05,4.84463643854454e-07,2.343167117875947e-05,-4.687951101853969e-05,5.8667,7.0667
2.10546875,-1.8067863794918722e-05,7.81156358434427e-06,2.0989304531929518e-05,-5.1274391114671524e-05,5.8667,7.0667
2.109375,-1.5142543291370998e-05,8.294517441062054e-06,1.6111470579079906e-05,-5.0784537917143486e-05,5.8667,7.0667
2.11328125,-1.2210323447013024e-05,-4.883434103913657e-07,2.441137757381554e-05,-5.517941801327532e-05,5.8667,7.0667
2.1171875,-1.2210323447013024e-05,1.4641700389105238e-06,8.294517441062054e-06,-5.713193146257723e-05,5.8667,7.0667
2.12109375,-1.7095056740672902e-05,4.8793437399862966e-06,-1.9579030029754847e-06,-5.2737051366445385e-05,5.8667,7.0667
2.125,-1.8557716992446757e-05,-1.9579030029754847e-06,-6.842636296635362e-06,-5.5669271210803366e-05,5.8667,7.0667
2.12890625,-2.1000083639276693e-05,-3.4205632547493394e-06,-2.29525970885786e-05,-5.419971161821925e-05,5.8667,7.0667
2.1328125,-1.7584909938200936e-05,-9.27810360265505e-06,1.9471238956283086e-06,-5.176424431219956e-05,5.8667,7.0667
2.13671875,-2.2462743891050565e-05,-1.6115350345616817e-05,2.9268302906843925e-06,-5.0784537917143486e-05,5.8667,7.0667
2.140625,-1.953742338750284e-05,-1.025780999771112e-05,-2.3442450286106633e-05,-5.517941801327532e-05,5.8667,7.0667
2.14453125,-1.7584909938200936e-05,-1.172047024948499e-05,-1.7095056740672902e-05,-5.762178466010526e-05,5.8667,7.0667
2.1484375,-1.904757018997479e-05,-1.4162836896314928e-05,-1.4652690093842962e-05,-5.6642078265049183e-05,5.8667,7.0667
2.15234375,-1.7095056740672902e-05,-3.910416452277389e-06,-5.3730767040512434e-06,-5.859459171435109e-05,5.8667,7.0667
2.15625,-2.0020377244220625e-05,-6.352783099107327e-06,4.8793437399862966e-06,-5.5669271210803366e-05,5.8667,7.0667
2.16015625,-1.8557716992446757e-05,-8.795149745937265e-06,9.743168413824889e-07,-5.224719816891735e-05,5.8667,7.0667
2.1640625,-1.8067863794918722e-05,-4.400269649805424e-06,1.4641700389105238e-06,-4.345743797665368e-05,5.8667,7.0667
2.16796875,-1.4162836896314928e-05,-7.815443350881182e-06,-1.6605203543144868e-05,-4.199477772487981e-05,5.8667,7.0667
2.171875,-1.3672983698786879e-05,-9.781966079194006e-07,-1.4162836896314928e-05,-4.150492452735177e-05,5.8667,7.0667
2.17578125,-1.270017664454106e-05,1.4158957129778002e-05,1.0247030890363959e-05,-3.4184723927672206e-05,5.8667,7.0667
2.1796875,-6.842636296635362e-06,2.2458864124513638e-05,9.764077033646174e-06,-2.539496373540854e-05,5.8667,7.0667
2.18359375,-6.352783099107327e-06,1.9526644280155664e-05,1.9526644280155664e-05,-2.2462743891050565e-05,5.8667,7.0667
2.1875,-3.910416452277389e-06,4.8793437399862966e-06,2.2458864124513638e-05,-2.734747718471044e-05,5.8667,7.0667
2.19140625,-4.8832235065232085e-06,4.8793437399862966e-06,8.78437063859009e-06,-2.978984383154038e-05,5.8667,7.0667
2.1953125,-3.910416452277389e-06,1.2689397537193897e-05,4.389490542458247e-06,-3.662709057450215e-05,5.8667,7.0667
2.19921875,-9.27810360265505e-06,6.831857189288186e-06,-1.172047024948499e-05,-3.7599897628747967e-05,5.8667,7.0667
2.203125,-1.7095056740672902e-05,-6.842636296635362e-06,-2.1000083639276693e-05,-3.4674577125200244e-05,5.8667,7.0667
2.20703125,-1.2210323447013024e-05,-1.0747663195239156e-05,-1.7095056740672902e-05,-3.3694870730144175e-05,5.8667,7.0667
2.2109375,-8.305296548409217e-06,-1.5625497148088783e-05,-6.842636296635362e-06,-2.734747718471044e-05,5.8667,7.0667
2.21484375,-1.2210323447013024e-05,-2.3932303483634667e-05,-1.4680498054474497e-06,-2.6857623987182393e-05,5.8667,7.0667
2.21875,-8.795149745937265e-06,-2.4415257340352453e-05,-1.5142543291370998e-05,-3.07626508857862e-05,5.8667,7.0667
2.22265625,-5.3730767040512434e-06,-2.2462743891050565e-05,-2.3442450286106633e-05,-2.29525970885786e-05,5.8667,7.0667
2.2265625,-5.8629299015792775e-06,-2.29525970885786e-05,-1.7584909938200936e-05,-2.051023044174866e-05,5.8667,7.0667
2.23046875,-5.8629299015792775e-06,-2.49051105378805e-05,-1.123061705195694e-05,-2.7837330382238475e-05,5.8667,7.0667
2.234375,-3.4205632547493394e-06,-1.7584909938200936e-05,-1.123061705195694e-05,-3.0279697029068415e-05,5.8667,7.0667
2.23828125,-4.8832235065232085e-06,-1.4162836896314928e-05,-2.2462743891050565e-05,-2.929999063401233e-05,5.8667,7.0667
2.2421875,-2.4477562005035196e-06,-1.3672983698786879e-05,-3.955241107804987e-05,-3.3694870730144175e-05,5.8667,7.0667
2.24609375,3.899637344930212e-06,-1.4680498054474497e-06,-3.0279697029068415e-05,-3.271516433508809e-05,5.8667,7.0667
2.25,5.3691969375143315e-06,-5.389553673580849e-09,-2.8810137436484296e-05,-2.2462743891050565e-05,5.8667,7.0667
2.25390625,4.84463643854454e-07,-6.842636296635362e-06,-1.270017664454106e-05,-3.0279697029068415e-05,5.8667,7.0667
2.2578125,-9.767956800183086e-06,-6.842636296635362e-06,-2.148993683680473e-05,-4.00422642755779e-05,5.8667,7.0667
2.26171875,-1.6605203543144868e-05,-1.3672983698786879e-05,-4.297448411993589e-05,-4.150492452735177e-05,5.8667,7.0667
2.265625,-1.904757018997479e-05,-1.6605203543144868e-05,-4.199477772487981e-05,-4.102197067063399e-05,5.8667,7.0667
2.26953125,-2.5884816932936573e-05,-1.6605203543144868e-05,-3.662709057450215e-05,-3.808975082627602e-05,5.8667,7.0667
2.2734375,-3.0279697029068415e-05,-2.8810137436484296e-05,-2.734747718471044e-05,-4.102197067063399e-05,5.8667,7.0667
2.27734375,-2.148993683680473e-05,-3.3694870730144175e-05,-3.515753098191803e-05,-4.2484630922407846e-05,5.8667,7.0667
2.28125,-1.4652690093842962e-05,-2.6367770789654356e-05,-3.5647384179446074e-05,-3.223221047837032e-05,5.8667,7.0667
2.28515625,-2.051023044174866e-05,-2.978984383154038e-05,-3.613723737697411e-05,-2.148993683680473e-05,5.8667,7.0667
2.2890625,-1.270017664454106e-05,-3.857960402380405e-05,-2.5884816932936573e-05,-2.539496373540854e-05,5.8667,7.0667
2.29296875,-5.3730767040512434e-06,-3.174235728084227e-05,-2.7837330382238475e-05,-2.6857623987182393e-05,5.8667,7.0667
2.296875,-1.7095056740672902e-05,-2.978984383154038e-05,-4.687951101853969e-05,-2.1972890693522514e-05,5.8667,7.0667
2.30078125,-2.0020377244220625e-05,-4.9321877665369625e-05,-3.662709057450215e-05,-2.7837330382238475e-05,5.8667,7.0667
2.3046875,-1.8557716992446757e-05,-5.9574298109407164e-05,-3.3694870730144175e-05,-3.4674577125200244e-05,5.8667,7.0667
2.30859375,-2.1000083639276693e-05,-5.517941801327532e-05,-4.492699756923778e-05,-3.271516433508809e-05,5.8667,7.0667
2.3125,-2.3932303483634667e-05,-4.9321877665369625e-05,-4.3947291174181715e-05,-2.832718357976651e-05,5.8667,7.0667
2.31640625,-2.2462743891050565e-05,-5.6642078265049183e-05,-3.613723737697411e-05,-3.0279697029068415e-05,5.8667,7.0667
2.3203125,-1.953742338750284e-05,-5.61591244083314e-05,-3.320501753261614e-05,-3.3694870730144175e-05,5.8667,7.0667
2.32421875,-1.2210323447013024e-05,-5.029468471961544e-05,-4.980483152208741e-05,-3.613723737697411e-05,5.8667,7.0667
2.328125,-1.4652690093842962e-05,-5.224719816891735e-05,-5.5669271210803366e-05,-3.613723737697411e-05,5.8667,7.0667
2.33203125,-2.2462743891050565e-05,-6.250651795376514e-05,-4.7369364216067726e-05,-3.515753098191803e-05,5.8667,7.0667
2.3359375,-1.6605203543144868e-05,-5.029468471961544e-05,-5.029468471961544e-05,-3.711004443121993e-05,5.8667,7.0667
2.33984375,-7.815443350881182e-06,-4.2484630922407846e-05,-4.883202446784159e-05,-3.515753098191803e-05,5.8667,7.0667
2.34375,-7.815443350881182e-06,-3.9062557880521835e-05,-3.07626508857862e-05,-2.4415257340352453e-05,5.8667,7.0667
2.34765625,-4.8832235065232085e-06,-2.929999063401233e-05,-2.3932303483634667e-05,-2.6367770789654356e-05,5.8667,7.0667
2.3515625,-1.0747663195239156e-05,-2.4415257340352453e-05,-2.6367770789654356e-05,-2.832718357976651e-05,5.8667,7.0667
2.35546875,-9.767956800183086e-06,-1.4162836896314928e-05,-2.29525970885786e-05,-2.539496373540854e-05,5.8667,7.0667
2.359375,-1.2210323447013024e-05,-1.4652690093842962e-05,-2.6367770789654356e-05,-3.0279697029068415e-05,5.8667,7.0667
2.36328125,-1.6115350345616817e-05,-6.352783099107327e-06,-3.223221047837032e-05,-3.174235728084227e-05,5.8667,7.0667
2.3671875,-1.9579030029754847e-06,-5.8629299015792775e-06,-3.955241107804987e-05,-2.734747718471044e-05,5.8667,7.0667
2.37109375,-5.389553673580849e-09,-1.5142543291370998e-05,-3.4184723927672206e-05,-3.07626508857862e-05,5.8667,7.0667
2.375,-1.2210323447013024e-05,-2.539496373540854e-05,-2.051023044174866e-05,-3.5647384179446074e-05,5.8667,7.0667
2.37890625,-1.6115350345616817e-05,-3.857960402380405e-05,-2.051023044174866e-05,-3.271516433508809e-05,5.8667,7.0667
2.3828125,-1.123061705195694e-05,-4.5899804623483614e-05,-5.029468471961544e-05,-3.3694870730144175e-05,5.8667,7.0667
2.38671875,-1.0747663195239156e-05,-4.883202446784159e-05,-6.20166647562371e-05,-4.150492452735177e-05,5.8667,7.0667
2.390625,-1.3190029842069094e-05,-4.883202446784159e-05,-3.271516433508809e-05,-4.5416850766765834e-05,5.8667,7.0667
2.39453125,-1.3672983698786879e-05,-4.150492452735177e-05,-3.4674577125200244e-05,-4.5416850766765834e-05,5.8667,7.0667
2.3984375,-1.2210323447013024e-05,-3.271516433508809e-05,-4.834217127031355e-05,-3.711004443121993e-05,5.8667,7.0667
2.40234375,-6.352783099107327e-06,-5.176424431219956e-05,-4.638965782101165e-05,-2.8810137436484296e-05,5.8667,7.0667
2.40625,-1.025780999771112e-05,-6.250651795376514e-05,-4.687951101853969e-05,-2.929999063401233e-05,5.8667,7.0667
2.41015625,-1.5142543291370998e-05,-5.0784537917143486e-05,-4.834217127031355e-05,-3.808975082627602e-05,5.8667,7.0667
2.4140625,-4.8832235065232085e-06,-4.345743797665368e-05,-5.0784537917143486e-05,-4.102197067063399e-05,5.8667,7.0667
2.41796875,3.4166834882124275e-06,-3.223221047837032e-05,-4.199477772487981e-05,-3.320501753261614e-05,5.8667,7.0667
2.421875,-9.781966079194006e-07,-2.832718357976651e-05,-2.148993683680473e-05,-3.271516433508809e-05,5.8667,7.0667
2.42578125,-1.9579030029754847e-06,-2.5884816932936573e-05,-1.4162836896314928e-05,-3.9062557880521835e-05,5.8667,7.0667
2.4296875,-5.3730767040512434e-06,-1.904757018997479e-05,-2.1972890693522514e-05,-3.662709057450215e-05,5.8667,7.0667
2.43359375,-1.5142543291370998e-05,-1.5142543291370998e-05,-2.0020377244220625e-05,-3.0279697029068415e-05,5.8667,7.0667
2.4375,-1.3190029842069094e-05,-1.2210323447013024e-05,-1.8067863794918722e-05,-3.4184723927672206e-05,5.8667,7.0667
2.44140625,-1.172047024948499e-05,-1.7095056740672902e-05,-3.515753098191803e-05,-4.199477772487981e-05,5.8667,7.0667
2.4453125,-8.795149745937265e-06,-1.3672983698786879e-05,-4.150492452735177e-05,-4.0532117473105954e-05,5.8667,7.0667
2.44921875,-8.305296548409217e-06,-2.4477562005035196e-06,-2.49051105378805e-05,-3.515753098191803e-05,5.8667,7.0667
2.453125,-1.4162836896314928e-05,1.4641700389105238e-06,-2.734747718471044e-05,-3.5647384179446074e-05,5.8667,7.0667
2.45703125,-2.051023044174866e-05,-5.3730767040512434e-06,-2.3442450286106633e-05,-3.808975082627602e-05,5.8667,7.0667
2.4609375,-2.148993683680473e-05,-2.0020377244220625e-05,-2.1972890693522514e-05,-3.7599897628747967e-05,5.8667,7.0667
2.46484375,-1.6605203543144868e-05,-1.7095056740672902e-05,-2.7837330382238475e-05,-4.00422642755779e-05,5.8667,7.0667
2.46875,-1.8067863794918722e-05,-4.8832235065232085e-06,-1.2210323447013024e-05,-4.00422642755779e-05,5.8667,7.0667
2.47265625,-1.123061705195694e-05,-5.389553673580849e-09,-4.400269649805424e-06,-3.07626508857862e-05,5.8667,7.0667
2.4765625,-5.8629299015792775e-06,-2.4477562005035196e-06,-1.8557716992446757e-05,-2.8810137436484296e-05,5.8667,7.0667
2.48046875,-4.8832235065232085e-06,9.743168413824889e-07,-2.8810137436484296e-05,-3.7599897628747967e-05,5.8667,7.0667
2.484375,-6.842636296635362e-06,-4.883434103913657e-07,-2.7837330382238475e-05,-4.297448411993589e-05,5.8667,7.0667
2.48828125,-1.2210323447013024e-05,-1.025780999771112e-05,-3.4674577125200244e-05,-3.9062557880521835e-05,5.8667,7.0667
2.4921875,-5.8629299015792775e-06,-1.270017664454106e-05,-2.8810137436484296e-05,-3.271516433508809e-05,5.8667,7.0667
2.49609375,-3.910416452277389e-06,-1.904757018997479e-05,-1.8067863794918722e-05,-3.4184723927672206e-05,5.8667,7.0667
2.5,-1.4652690093842962e-05,-2.49051105378805e-05,-3.174235728084227e-05,-3.271516433508809e-05,5.8667,7.0667
2.50390625,-1.7584909938200936e-05,-2.49051105378805e-05,-3.3694870730144175e-05,-3.271516433508809e-05,5.8667,7.0667
2.5078125,-1.2210323447013024e-05,-3.5647384179446074e-05,-3.320501753261614e-05,-3.174235728084227e-05,5.8667,7.0667
2.51171875,-1.2210323447013024e-05,-3.711004443121993e-05,-3.4184723927672206e-05,-2.929999063401233e-05,5.8667,7.0667
2.515625,-7.815443350881182e-06,-2.832718357976651e-05,-3.07626508857862e-05,-3.125250408331423e-05,5.8667,7.0667
2.51953125,-3.910416452277389e-06,-3.271516433508809e-05,-3.3694870730144175e-05,-2.539496373540854e-05,5.8667,7.0667
2.5234375,-1.025780999771112e-05,-2.929999063401233e-05,-2.49051105378805e-05,-2.0020377244220625e-05,5.8667,7.0667
2.52734375,1.9471238956283086e-06,-2.6367770789654356e-05,-2.3442450286106633e-05,-2.7837330382238475e-05,5.8667,7.0667
2.53125,5.3691969375143315e-06,-2.832718357976651e-05,-2.051023044174866e-05,-2.734747718471044e-05,5.8667,7.0667
2.53515625,-1.123061705195694e-05,-2.5884816932936573e-05,-1.7095056740672902e-05,-2.5884816932936573e-05,5.8667,7.0667
2.5390625,-1.8557716992446757e-05,-2.49051105378805e-05,-1.6115350345616817e-05,-2.734747718471044e-05,5.8667,7.0667
2.54296875,-1.6115350345616817e-05,-1.4652690093842962e-05,-1.7584909938200936e-05,-2.051023044174866e-05,5.8667,7.0667
2.546875,-1.3672983698786879e-05,-1.8067863794918722e-05,-2.539496373540854e-05,-2.1000083639276693e-05,5.8667,7.0667
2.55078125,-1.123061705195694e-05,-2.051023044174866e-05,-2.929999063401233e-05,-2.539496373540854e-05,5.8667,7.0667
2.5546875,-4.8832235065232085e-06,-1.025780999771112e-05,-1.7584909938200936e-05,-2.4415257340352453e-05,5.8667,7.0667
2.55859375,-1.4652690093842962e-05,-1.3190029842069094e-05,-4.883434103913657e-07,-2.148993683680473e-05,5.8667,7.0667
2.5625,-1.5142543291370998e-05,-2.4415257340352453e-05,-2.1000083639276693e-05,-2.2462743891050565e-05,5.8667,7.0667
2.56640625,-2.4477562005035196e-06,-2.3932303483634667e-05,-3.125250408331423e-05,-2.4415257340352453e-05,5.8667,7.0667
2.5703125,-5.8629299015792775e-06,-9.27810360265505e-06,-7.815443350881182e-06,-2.539496373540854e-05,5.8667,7.0667
2.57421875,-6.352783099107327e-06,-8.795149745937265e-06,-1.5142543291370998e-05,-2.3932303483634667e-05,5.8667,7.0667
2.578125,-6.352783099107327e-06,-1.123061705195694e-05,-3.07626508857862e-05,-2.2462743891050565e-05,5.8667,7.0667
2.58203125,-8.795149745937265e-06,-4.883434103913657e-07,-9.767956800183086e-06,-2.051023044174866e-05,5.8667,7.0667
2.5859375,-4.400269649805424e-06,5.8590501350423665e-06,-1.0747663195239156e-05,-1.8067863794918722e-05,5.8667,7.0667
2.58984375,3.899637344930212e-06,5.3691969375143315e-06,-9.767956800183086e-06,-1.6605203543144868e-05,5.8667,7.0667
2.59375,4.8793437399862966e-06,-5.3730767040512434e-06,-1.270017664454106e-05,-2.1000083639276693e-05,5.8667,7.0667
2.59765625,-8.795149745937265e-06,-6.842636296635362e-06,-2.5884816932936573e-05,-2.6857623987182393e-05,5.8667,7.0667
2.6015625,-1.270017664454106e-05,-1.3672983698786879e-05,-2.6857623987182393e-05,-2.29525970885786e-05,5.8667,7.0667
2.60546875,-1.4162836896314928e-05,-2.8810137436484296e-05,-3.9062557880521835e-05,-1.953742338750284e-05,5.8667,7.0667
2.609375,-1.5625497148088783e-05,-2.978984383154038e-05,-3.4674577125200244e-05,-2.29525970885786e-05,5.8667,7.0667
2.61328125,-1.2210323447013024e-05,-3.4674577125200244e-05,-3.4674577125200244e-05,-2.3932303483634667e-05,5.8667,7.0667
2.6171875,-1.4652690093842962e-05,-4.297448411993589e-05,-2.832718357976651e-05,-2.29525970885786e-05,5.8667,7.0667
2.62109375,-2.0020377244220625e-05,-4.2484630922407846e-05,-2.4415257340352453e-05,-2.0020377244220625e-05,5.8667,7.0667
2.625,-2.2462743891050565e-05,-3.955241107804987e-05,-3.613723737697411e-05,-2.2462743891050565e-05,5.8667,7.0667
2.62890625,-2.539496373540854e-05,-3.174235728084227e-05,-2.6367770789654356e-05,-2.0020377244220625e-05,5.8667,7.0667
2.6328125,-2.3442450286106633e-05,-3.174235728084227e-05,-2.539496373540854e-05,-1.6115350345616817e-05,5.8667,7.0667
2.63671875,-2.0020377244220625e-05,-3.0279697029068415e-05,-3.7599897628747967e-05,-2.3932303483634667e-05,5.8667,7.0667
2.640625,-2.29525970885786e-05,-2.3932303483634667e-05,-4.9321877665369625e-05,-2.3932303483634667e-05,5.8667,7.0667
2.64453125,-2.929999063401233e-05,-3.662709057450215e-05,-4.834217127031355e-05,-1.4652690093842962e-05,5.8667,7.0667
2.6484375,-3.4674577125200244e-05,-4.834217127031355e-05,-4.150492452735177e-05,-2.2462743891050565e-05,5.8667,7.0667
2.65234375,-3.4184723927672206e-05,-4.5899804623483614e-05,-3.955241107804987e-05,-2.539496373540854e-05,5.8667,7.0667
2.65625,-3.613723737697411e-05,-4.785231807278551e-05,-3.613723737697411e-05,-1.7584909938200936e-05,5.8667,7.0667
2.66015625,-3.4184723927672206e-05,-4.2484630922407846e-05,-2.8810137436484296e-05,-1.953742338750284e-05,5.8667,7.0667
2.6640625,-2.3442450286106633e-05,-4.687951101853969e-05,-3.4184723927672206e-05,-2.29525970885786e-05,5.8667,7.0667
2.66796875,-1.270017664454106e-05,-4.345743797665368e-05,-4.5899804623483614e-05,-2.1972890693522514e-05,5.8667,7.0667
2.671875,-9.27810360265505e-06,-3.271516433508809e-05,-3.7599897628747967e-05,-2.0020377244220625e-05,5.8667,7.0667
2.67578125,-1.4652690093842962e-05,-4.4437144371709745e-05,-4.0532117473105954e-05,-2.49051105378805e-05,5.8667,7.0667
2.6796875,-1.7584909938200936e-05,-3.808975082627602e-05,-4.883202446784159e-05,-2.29525970885786e-05,5.8667,7.0667
2.68359375,-7.325590153353147e-06,-2.051023044174866e-05,-3.320501753261614e-05,-2.4415257340352453e-05,5.8667,7.0667
2.6875,1.9471238956283086e-06,-1.8067863794918722e-05,-4.102197067063399e-05,-2.929999063401233e-05,5.8667,7.0667
2.69140625,-5.3730767040512434e-06,-9.767956800183086e-06,-4.297448411993589e-05,-2.978984383154038e-05,5.8667,7.0667
2.6953125,-9.767956800183086e-06,-8.305296548409217e-06,-3.955241107804987e-05,-2.5884816932936573e-05,5.8667,7.0667
2.69921875,-3.4205632547493394e-06,-1.123061705195694e-05,-4.3947291174181715e-05,-2.49051105378805e-05,5.8667,7.0667
2.703125,-4.400269649805424e-06,-1.0747663195239156e-05,-5.176424431219956e-05,-2.7837330382238475e-05,5.8667,7.0667
2.70703125,-1.3190029842069094e-05,-1.2210323447013024e-05,-4.687951101853969e-05,-2.539496373540854e-05,5.8667,7.0667
2.7109375,-1.123061705195694e-05,-1.270017664454106e-05,-4.5416850766765834e-05,-2.929999063401233e-05,5.8667,7.0667
2.71484375,2.436977093156358e-06,-1.8557716992446757e-05,-5.517941801327532e-05,-3.0279697029068415e-05,5.8667,7.0667
2.71875,-2.9307100572213044e-06,-2.5884816932936573e-05,-5.322690456397342e-05,-2.5884816932936573e-05,5.8667,7.0667
2.72265625,-2.0020377244220625e-05,-3.07626508857862e-05,-5.81116378576333e-05,-3.125250408331423e-05,5.8667,7.0667
2.7265625,-2.051023044174866e-05,-3.955241107804987e-05,-5.176424431219956e-05,-3.4674577125200244e-05,5.8667,7.0667
2.73046875,-1.270017664454106e-05,-5.371675776150146e-05,-4.980483152208741e-05,-3.3694870730144175e-05,5.8667,7.0667
2.734375,-1.3672983698786879e-05,-6.347932500801096e-05,-6.250651795376514e-05,-3.4184723927672206e-05,5.8667,7.0667
2.73828125,-1.8067863794918722e-05,-5.2737051366445385e-05,-5.1274391114671524e-05,-3.613723737697411e-05,5.8667,7.0667
2.7421875,-2.4415257340352453e-05,-5.908444491187912e-05,-3.857960402380405e-05,-4.102197067063399e-05,5.8667,7.0667
2.74609375,-2.3442450286106633e-05,-5.762178466010526e-05,-3.7599897628747967e-05,-3.271516433508809e-05,5.8667,7.0667
2.75,-2.0020377244220625e-05,-4.980483152208741e-05,-4.2484630922407846e-05,-2.6367770789654356e-05,5.8667,7.0667
2.75390625,-2.8810137436484296e-05,-5.322690456397342e-05,-3.857960402380405e-05,-2.49051105378805e-05,5.8667,7.0667
2.7578125,-2.4415257340352453e-05,-4.5416850766765834e-05,-3.320501753261614e-05,-1.953742338750284e-05,5.8667,7.0667
2.76171875,-2.1000083639276693e-05,-4.785231807278551e-05,-4.883202446784159e-05,-2.3932303483634667e-05,5.8667,7.0667
2.765625,-3.662709057450215e-05,-5.1274391114671524e-05,-4.980483152208741e-05,-2.5884816932936573e-05,5.8667,7.0667
2.76953125,-3.3694870730144175e-05,-4.3947291174181715e-05,-3.5647384179446074e-05,-2.6857623987182393e-05,5.8667,7.0667
2.7734375,-3.07626508857862e-05,-4.7369364216067726e-05,-4.883202446784159e-05,-3.07626508857862e-05,5.8667,7.0667
2.77734375,-3.3694870730144175e-05,-5.176424431219956e-05,-5.1274391114671524e-05,-2.4415257340352453e-05,5.8667,7.0667
2.78125,-2.4415257340352453e-05,-4.7369364216067726e-05,-3.662709057450215e-05,-2.3442450286106633e-05,5.8667,7.0667
2.78515625,-2.6367770789654356e-05,-5.2737051366445385e-05,-4.7369364216067726e-05,-2.2462743891050565e-05,5.8667,7.0667
2.7890625,-2.29525970885786e-05,-5.1274391114671524e-05,-5.517941801327532e-05,-1.904757018997479e-05,5.8667,7.0667
2.79296875,-2.2462743891050565e-05,-4.4437144371709745e-05,-5.908444491187912e-05,-1.7095056740672902e-05,5.8667,7.0667
2.796875,-3.0279697029068415e-05,-5.6642078265049183e-05,-6.933686535591667e-05,-9.767956800183086e-06,5.8667,7.0667
2.80078125,-2.5884816932936573e-05,-6.933686535591667e-05,-7.275893839780267e-05,-1.4652690093842962e-05,5.8667,7.0667
2.8046875,-2.051023044174866e-05,-7.812662554818034e-05,-9.57061459327077e-05,-9.27810360265505e-06,5.8667,7.0667
2.80859375,-1.8557716992446757e-05,-8.447401909361406e-05,-7.520130504463262e-05,6.342003991760151e-06,5.8667,7.0667
2.8125,-1.4162836896314928e-05,-9.033845878233003e-05,-7.324879159533071e-05,8.294517441062054e-06,5.8667,7.0667
2.81640625,-1.025780999771112e-05,-0.00010205353947814143,-0.00011474142722819864,1.5621617381551872e-05,5.8667,7.0667
2.8203125,-1.025780999771112e-05,-0.0001015636862806134,-0.00011816350027008466,2.2458864124513638e-05,5.8667,7.0667
2.82421875,-1.270017664454106e-05,-0.0001122990605813687,-0.00012597355406729227,2.7343597418173514e-05,5.8667,7.0667
2.828125,-1.3672983698786879e-05,-0.00012402104061799037,-0.00011718379387502857,3.2221431371023126e-05,5.8667,7.0667
2.83203125,-1.123061705195694e-05,-0.00012157867397116042,-0.00011376862017395283,3.7596017862211056e-05,5.8667,7.0667
2.8359375,-1.3190029842069094e-05,-0.00012792606751659417,-0.00011132625352712288,3.9548531311512955e-05,5.8667,7.0667
2.83984375,-2.051023044174866e-05,-0.00013866834115815974,-9.033845878233003e-05,3.3690990963607245e-05,5.8667,7.0667
2.84375,-2.148993683680473e-05,-0.00014111070780498968,-9.229097223163192e-05,4.052133836575879e-05,5.8667,7.0667
2.84765625,-1.4652690093842962e-05,-0.00014794795454795142,-0.00012011601371938656,4.7358585108720544e-05,5.8667,7.0667
2.8515625,-1.4652690093842962e-05,-0.00015185298144655525,-0.00013866834115815974,4.540607165941867e-05,5.8667,7.0667
2.85546875,-2.29525970885786e-05,-0.00014062085460746164,-0.00014404292764934765,4.4433264605172835e-05,5.8667,7.0667
2.859375,-2.734747718471044e-05,-0.00013866834115815974,-0.00013720568090638588,4.3943411407644784e-05,5.8667,7.0667
2.86328125,-2.3442450286106633e-05,-0.00012890577391165025,-0.00013525316745708398,3.564350441290915e-05,5.8667,7.0667
2.8671875,-1.953742338750284e-05,-0.00012206852716868846,-0.00013330065400778205,3.173157817349511e-05,5.8667,7.0667
2.87109375,-2.6857623987182393e-05,-0.00012597355406729227,-0.00012059896757610435,2.6363891023117446e-05,5.8667,7.0667
2.875,-3.515753098191803e-05,-0.00011669394067750055,-0.0001230413342229343,9.764077033646174e-06,5.8667,7.0667
2.87890625,-2.5884816932936573e-05,-9.863836577706567e-05,-0.00012059896757610435,-4.883434103913657e-07,5.8667,7.0667
2.8828125,-1.8557716992446757e-05,-8.203165244678413e-05,-0.0001069382727718013,-6.842636296635362e-06,5.8667,7.0667
2.88671875,-2.1972890693522514e-05,-7.031657175097273e-05,-9.863836577706567e-05,-1.8067863794918722e-05,5.8667,7.0667
2.890625,-1.8557716992446757e-05,-5.6642078265049183e-05,-8.545372548867015e-05,-2.3932303483634667e-05,5.8667,7.0667
2.89453125,-1.172047024948499e-05,-4.7369364216067726e-05,-8.007913899748223e-05,-2.29525970885786e-05,5.8667,7.0667
2.8984375,-1.4162836896314928e-05,-4.00422642755779e-05,-7.666396529640647e-05,-2.6857623987182393e-05,5.8667,7.0667
2.90234375,-1.6115350345616817e-05,-3.9062557880521835e-05,-6.933686535591667e-05,-3.125250408331423e-05,5.8667,7.0667
2.90625,-1.3190029842069094e-05,-4.345743797665368e-05,-6.59216916548409e-05,-4.102197067063399e-05,5.8667,7.0667
2.91015625,-1.3672983698786879e-05,-3.857960402380405e-05,-5.0784537917143486e-05,-4.5416850766765834e-05,5.8667,7.0667
2.9140625,-2.051023044174866e-05,-2.7837330382238475e-05,-2.978984383154038e-05,-4.345743797665368e-05,5.8667,7.0667
2.91796875,-1.4652690093842962e-05,-1.904757018997479e-05,-3.07626508857862e-05,-4.3947291174181715e-05,5.8667,7.0667
2.921875,-1.4162836896314928e-05,-2.051023044174866e-05,-2.978984383154038e-05,-4.687951101853969e-05,5.8667,7.0667
2.92578125,-2.539496373540854e-05,-2.4415257340352453e-05,-2.3442450286106633e-05,-5.1274391114671524e-05,5.8667,7.0667
2.9296875,-2.3442450286106633e-05,-2.49051105378805e-05,-2.832718357976651e-05,-5.6642078265049183e-05,5.8667,7.0667
2.93359375,-2.539496373540854e-05,-2.49051105378805e-05,-2.49051105378805e-05,-5.176424431219956e-05,5.8667,7.0667
2.9375,-2.6857623987182393e-05,-2.4415257340352453e-05,-2.0020377244220625e-05,-5.029468471961544e-05,5.8667,7.0667
2.94140625,-1.5625497148088783e-05,-1.0747663195239156e-05,3.4166834882124275e-06,-5.0784537917143486e-05,5.8667,7.0667
2.9453125,-1.7095056740672902e-05,-9.27810360265505e-06,1.1716590482948063e-05,-4.7369364216067726e-05,5.8667,7.0667
2.94921875,-2.1972890693522514e-05,-1.7584909938200936e-05,-2.2462743891050565e-05,-4.492699756923778e-05,5.8667,7.0667
2.953125,-2.2462743891050565e-05,-1.4652690093842962e-05,-1.904757018997479e-05,-4.7369364216067726e-05,5.8667,7.0667
2.95703125,-2.3932303483634667e-05,-1.3672983698786879e-05,-1.4652690093842962e-05,-5.176424431219956e-05,5.8667,7.0667
2.9609375,-2.734747718471044e-05,-1.3190029842069094e-05,-2.3932303483634667e-05,-5.322690456397342e-05,5.8667,7.0667
2.96484375,-2.929999063401233e-05,-8.305296548409217e-06,-2.1972890693522514e-05,-5.419971161821925e-05,5.8667,7.0667
2.96875,-2.6857623987182393e-05,-5.8629299015792775e-06,-2.3442450286106633e-05,-5.419971161821925e-05,5.8667,7.0667
2.97265625,-2.5884816932936573e-05,-6.842636296635362e-06,-2.832718357976651e-05,-5.4689564815747284e-05,5.8667,7.0667
2.9765625,-2.1000083639276693e-05,-6.842636296635362e-06,-2.1000083639276693e-05,-4.980483152208741e-05,5.8667,7.0667
2.98046875,-1.953742338750284e-05,-5.389553673580849e-09,-6.842636296635362e-06,-4.638965782101165e-05,5.8667,7.0667
2.984375,-1.8557716992446757e-05,1.4641700389105238e-06,-5.8629299015792775e-06,-5.176424431219956e-05,5.8667,7.0667
2.98828125,-1.8067863794918722e-05,-6.842636296635362e-06,-1.7095056740672902e-05,-5.81116378576333e-05,5.8667,7.0667
2.9921875,-2.1000083639276693e-05,-1.0747663195239156e-05,-2.539496373540854e-05,-5.859459171435109e-05,5.8667,7.0667
2.99609375,-1.7095056740672902e-05,-1.025780999771112e-05,-7.325590153353147e-06,-5.517941801327532e-05,5.8667,7.0667
3.0,-1.172047024948499e-05,-1.025780999771112e-05,-1.4162836896314928e-05,-5.4689564815747284e-05,5.8667,7.0667
3.00390625,-2.4415257340352453e-05,-6.352783099107327e-06,-2.734747718471044e-05,-5.419971161821925e-05,5.8667,7.0667
3.0078125,-2.3932303483634667e-05,-7.815443350881182e-06,-2.1972890693522514e-05,-5.61591244083314e-05,5.8667,7.0667
3.01171875,-1.5625497148088783e-05,-8.305296548409217e-06,-8.305296548409217e-06,-6.103695836118103e-05,5.8667,7.0667
3.015625,-2.539496373540854e-05,-8.795149745937265e-06,-9.27810360265505e-06,-5.81116378576333e-05,5.8667,7.0667
3.01953125,-3.07626508857862e-05,-2.051023044174866e-05,-2.8810137436484296e-05,-5.6642078265049183e-05,5.8667,7.0667
3.0234375,-3.07626508857862e-05,-2.6367770789654356e-05,-1.7584909938200936e-05,-5.859459171435109e-05,5.8667,7.0667
3.02734375,-2.6367770789654356e-05,-1.904757018997479e-05,-1.3190029842069094e-05,-5.517941801327532e-05,5.8667,7.0667
3.03125,-1.8557716992446757e-05,-2.3442450286106633e-05,-2.929999063401233e-05,-5.224719816891735e-05,5.8667,7.0667
3.03515625,-2.148993683680473e-05,-2.539496373540854e-05,-2.3932303483634667e-05,-5.9574298109407164e-05,5.8667,7.0667
3.0390625,-2.148993683680473e-05,-1.4652690093842962e-05,-1.7584909938200936e-05,-6.445903140306704e-05,5.8667,7.0667
3.04296875,-1.953742338750284e-05,-1.5625497148088783e-05,-1.7584909938200936e-05,-5.762178466010526e-05,5.8667,7.0667
3.046875,-1.6115350345616817e-05,-1.8067863794918722e-05,-8.305296548409217e-06,-5.2737051366445385e-05,5.8667,7.0667
3.05078125,-1.7095056740672902e-05,-2.0020377244220625e-05,-3.515753098191803e-05,-4.7369364216067726e-05,5.8667,7.0667
3.0546875,-2.49051105378805e-05,-1.7584909938200936e-05,-4.102197067063399e-05,-4.5416850766765834e-05,5.8667,7.0667
3.05859375,-2.2462743891050565e-05,-8.305296548409217e-06,-2.7837330382238475e-05,-4.492699756923778e-05,5.8667,7.0667
3.0625,-2.6367770789654356e-05,-1.172047024948499e-05,-3.320501753261614e-05,-4.9321877665369625e-05,5.8667,7.0667
3.06640625,-2.832718357976651e-05,-1.6115350345616817e-05,-1.953742338750284e-05,-4.9321877665369625e-05,5.8667,7.0667
3.0703125,-1.7095056740672902e-05,-1.3672983698786879e-05,-1.5625497148088783e-05,-4.102197067063399e-05,5.8667,7.0667
3.07421875,-1.5625497148088783e-05,-1.0747663195239156e-05,-3.320501753261614e-05,-3.3694870730144175e-05,5.8667,7.0667
3.078125,-2.832718357976651e-05,-1.3672983698786879e-05,-2.734747718471044e-05,-3.711004443121993e-05,5.8667,7.0667
3.08203125,-2.832718357976651e-05,-2.2462743891050565e-05,-2.0020377244220625e-05,-4.199477772487981e-05,5.8667,7.0667
3.0859375,-2.3442450286106633e-05,-1.5625497148088783e-05,-1.5625497148088783e-05,-3.711004443121993e-05,5.8667,7.0667
3.08984375,-2.7837330382238475e-05,-1.270017664454106e-05,-1.2210323447013024e-05,-4.00422642755779e-05,5.8667,7.0667
3.09375,-3.4184723927672206e-05,-2.3932303483634667e-05,-2.3442450286106633e-05,-4.00422642755779e-05,5.8667,7.0667
3.09765625,-2.7837330382238475e-05,-2.29525970885786e-05,-3.3694870730144175e-05,-3.320501753261614e-05,5.8667,7.0667
3.1015625,-2.3932303483634667e-05,-1.8557716992446757e-05,-2.4415257340352453e-05,-3.613723737697411e-05,5.8667,7.0667
3.10546875,-2.7837330382238475e-05,-1.7095056740672902e-05,-2.5884816932936573e-05,-4.0532117473105954e-05,5.8667,7.0667
3.109375,-2.8810137436484296e-05,-1.8557716992446757e-05,-3.3694870730144175e-05,-4.5899804623483614e-05,5.8667,7.0667
3.11328125,-2.832718357976651e-05,-2.3442450286106633e-05,-1.8557716992446757e-05,-4.7369364216067726e-05,5.8667,7.0667
3.1171875,-2.734747718471044e-05,-2.539496373540854e-05,-2.929999063401233e-05,-5.029468471961544e-05,5.8667,7.0667
3.12109375,-2.3442450286106633e-05,-1.7584909938200936e-05,-3.320501753261614e-05,-4.9321877665369625e-05,5.8667,7.0667
3.125,-2.49051105378805e-05,-1.8067863794918722e-05,-1.953742338750284e-05,-3.3694870730144175e-05,5.8667,7.0667
3.12890625,-3.515753098191803e-05,-3.320501753261614e-05,-2.4415257340352453e-05,-2.929999063401233e-05,5.8667,7.0667
3.1328125,-3.271516433508809e-05,-2.832718357976651e-05,-2.832718357976651e-05,-3.07626508857862e-05,5.8667,7.0667
3.13671875,-2.539496373540854e-05,-2.5884816932936573e-05,-2.6367770789654356e-05,-3.4184723927672206e-05,5.8667,7.0667
3.140625,-3.174235728084227e-05,-4.199477772487981e-05,-2.49051105378805e-05,-3.808975082627602e-05,5.8667,7.0667
3.14453125,-2.978984383154038e-05,-3.223221047837032e-05,-3.9062557880521835e-05,-3.4674577125200244e-05,5.8667,7.0667
3.1484375,-2.539496373540854e-05,-3.271516433508809e-05,-4.345743797665368e-05,-3.271516433508809e-05,5.8667,7.0667
3.15234375,-3.0279697029068415e-05,-3.320501753261614e-05,-5.0784537917143486e-05,-3.4674577125200244e-05,5.8667,7.0667
3.15625,-3.07626508857862e-05,-2.6367770789654356e-05,-4.00422642755779e-05,-3.9062557880521835e-05,5.8667,7.0667
3.16015625,-3.07626508857862e-05,-3.271516433508809e-05,-4.5899804623483614e-05,-4.834217127031355e-05,5.8667,7.0667
3.1640625,-2.832718357976651e-05,-3.9062557880521835e-05,-5.224719816891735e-05,-4.5899804623483614e-05,5.8667,7.0667
3.16796875,-2.978984383154038e-05,-4.5899804623483614e-05,-3.955241107804987e-05,-4.102197067063399e-05,5.8667,7.0667
3.171875,-3.271516433508809e-05,-4.0532117473105954e-05,-4.5899804623483614e-05,-4.4437144371709745e-05,5.8667,7.0667
3.17578125,-2.5884816932936573e-05,-3.223221047837032e-05,-3.174235728084227e-05,-4.150492452735177e-05,5.8667,7.0667
3.1796875,-2.3932303483634667e-05,-3.271516433508809e-05,-2.6857623987182393e-05,-3.808975082627602e-05,5.8667,7.0667
3.18359375,-2.7837330382238475e-05,-4.3947291174181715e-05,-3.125250408331423e-05,-4.297448411993589e-05,5.8667,7.0667
3.1875,-2.539496373540854e-05,-4.102197067063399e-05,-3.662709057450215e-05,-4.638965782101165e-05,5.8667,7.0667
3.19140625,-2.3932303483634667e-05,-3.5647384179446074e-05,-2.978984383154038e-05,-4.3947291174181715e-05,5.8667,7.0667
3.1953125,-2.929999063401233e-05,-3.3694870730144175e-05,-2.49051105378805e-05,-3.808975082627602e-05,5.8667,7.0667
3.19921875,-2.832718357976651e-05,-3.7599897628747967e-05,-4.102197067063399e-05,-4.102197067063399e-05,5.8667,7.0667
3.203125,-2.539496373540854e-05,-3.9062557880521835e-05,-2.3932303483634667e-05,-4.5416850766765834e-05,5.8667,7.0667
3.20703125,-2.1000083639276693e-05,-2.49051105378805e-05,4.84463643854454e-07,-3.7599897628747967e-05,5.8667,7.0667
3.2109375,-2.0020377244220625e-05,-2.148993683680473e-05,-5.8629299015792775e-06,-3.4184723927672206e-05,5.8667,7.0667
3.21484375,-2.49051105378805e-05,-3.5647384179446074e-05,-1.6605203543144868e-05,-3.9062557880521835e-05,5.8667,7.0667
3.21875,-2.5884816932936573e-05,-3.955241107804987e-05,-2.978984383154038e-05,-3.662709057450215e-05,5.8667,7.0667
3.22265625,-2.1972890693522514e-05,-3.857960402380405e-05,-4.00422642755779e-05,-3.515753098191803e-05,5.8667,7.0667
3.2265625,-8.305296548409217e-06,-3.5647384179446074e-05,-3.271516433508809e-05,-3.9062557880521835e-05,5.8667,7.0667
3.23046875,-9.27810360265505e-06,-3.613723737697411e-05,-4.785231807278551e-05,-4.5899804623483614e-05,5.8667,7.0667
3.234375,-2.1000083639276693e-05,-3.3694870730144175e-05,-5.224719816891735e-05,-4.7369364216067726e-05,5.8667,7.0667
3.23828125,-2.0020377244220625e-05,-2.1972890693522514e-05,-3.955241107804987e-05,-3.223221047837032e-05,5.8667,7.0667
3.2421875,-1.7584909938200936e-05,-2.832718357976651e-05,-4.102197067063399e-05,-3.3694870730144175e-05,5.8667,7.0667
3.24609375,-1.7584909938200936e-05,-2.978984383154038e-05,-3.955241107804987e-05,-3.515753098191803e-05,5.8667,7.0667
3.25,-2.148993683680473e-05,-2.49051105378805e-05,-4.687951101853969e-05,-2.8810137436484296e-05,5.8667,7.0667
3.25390625,-2.1000083639276693e-05,-3.662709057450215e-05,-4.883202446784159e-05,-2.539496373540854e-05,5.8667,7.0667
3.2578125,-2.1972890693522514e-05,-5.908444491187912e-05,-6.054710516365298e-05,-1.904757018997479e-05,5.8667,7.0667
3.26171875,-2.929999063401233e-05,-8.301135884184022e-05,-7.324879159533071e-05,-2.1972890693522514e-05,5.8667,7.0667
3.265625,-2.7837330382238475e-05,-9.619599913023572e-05,-6.00641513069352e-05,-1.123061705195694e-05,5.8667,7.0667
3.26953125,-1.7095056740672902e-05,-9.668585232776376e-05,-7.812662554818034e-05,1.9471238956283086e-06,5.8667,7.0667
3.2734375,-1.3672983698786879e-05,-0.0001069382727718013,-0.00011278891377889675,1.2689397537193897e-05,5.8667,7.0667
3.27734375,-2.0020377244220625e-05,-0.00013671582770885781,-0.0001264634072648203,2.8316404472419348e-05,5.8667,7.0667
3.28125,-2.6367770789654356e-05,-0.00016113259483634698,-0.00012987858096589607,3.905867811398491e-05,5.8667,7.0667
3.28515625,-2.5884816932936573e-05,-0.00016747998838178072,-0.0001455055879011215,4.9800951755550494e-05,5.8667,7.0667
3.2890625,-2.6367770789654356e-05,-0.00016356806214236667,-0.00016650028198672464,5.273317159990847e-05,5.8667,7.0667
3.29296875,-2.4415257340352453e-05,-0.0001713850152803845,-0.00016064274163881892,5.614834530098423e-05,5.8667,7.0667
3.296875,-2.49051105378805e-05,-0.00018456965556878002,-0.00016699013518425265,7.030579264362558e-05,5.8667,7.0667
3.30078125,-2.734747718471044e-05,-0.00018993734271915768,-0.00017382738192721445,7.519052593728545e-05,5.8667,7.0667
3.3046875,-2.1000083639276693e-05,-0.0001870051228747997,-0.00016747998838178072,6.884313239185169e-05,5.8667,7.0667
3.30859375,-1.8067863794918722e-05,-0.00018749497607232774,-0.00017089516208285648,6.444825229571987e-05,5.8667,7.0667
3.3125,-1.270017664454106e-05,-0.0001831000959761959,-0.00016943250183108262,6.347544524147406e-05,5.8667,7.0667
3.31640625,-6.842636296635362e-06,-0.00016845279543602651,-0.00017529004217898829,5.8590711947814186e-05,5.8667,7.0667
3.3203125,-7.325590153353147e-06,-0.00016113259483634698,-0.00017577989537651635,5.4685685049210374e-05,5.8667,7.0667
3.32421875,-9.27810360265505e-06,-0.00016064274163881892,-0.00016650028198672464,3.905867811398491e-05,5.8667,7.0667
3.328125,-1.123061705195694e-05,-0.00014355307445181961,-0.00016601042878919658,2.2948717322041685e-05,5.8667,7.0667
3.33203125,-1.4652690093842962e-05,-0.00011913630732433049,-0.000132320947612726,2.0506350675211735e-05,5.8667,7.0667
3.3359375,-1.7584909938200936e-05,-0.00011523128042572669,-0.00011962616052185852,1.4641910986495787e-05,5.8667,7.0667
3.33984375,-1.8067863794918722e-05,-0.00011913630732433049,-0.00013330065400778205,-1.4680498054474497e-06,5.8667,7.0667
3.34375,-1.8557716992446757e-05,-9.765865938200958e-05,-0.0001254837008697642,-1.6115350345616817e-05,5.8667,7.0667
3.34765625,-2.051023044174866e-05,-8.007913899748223e-05,-0.0001069382727718013,-2.4415257340352453e-05,5.8667,7.0667
3.3515625,-2.051023044174866e-05,-7.715381849393452e-05,-7.666396529640647e-05,-3.515753098191803e-05,5.8667,7.0667
3.35546875,-2.3932303483634667e-05,-6.690139804989697e-05,-5.419971161821925e-05,-3.223221047837032e-05,5.8667,7.0667
3.359375,-2.49051105378805e-05,-5.2737051366445385e-05,-6.20166647562371e-05,-3.0279697029068415e-05,5.8667,7.0667
3.36328125,-2.5884816932936573e-05,-5.224719816891735e-05,-6.78742051041428e-05,-4.4437144371709745e-05,5.8667,7.0667
3.3671875,-2.978984383154038e-05,-5.322690456397342e-05,-6.59216916548409e-05,-5.81116378576333e-05,5.8667,7.0667
3.37109375,-2.6857623987182393e-05,-3.7599897628747967e-05,-5.713193146257723e-05,-6.103695836118103e-05,5.8667,7.0667
3.375,-2.8810137436484296e-05,-2.29525970885786e-05,-3.174235728084227e-05,-5.908444491187912e-05,5.8667,7.0667
3.37890625,-2.8810137436484296e-05,-1.7584909938200936e-05,-2.4415257340352453e-05,-6.152681155870906e-05,5.8667,7.0667
3.3828125,-2.7837330382238475e-05,-2.2462743891050565e-05,-2.1972890693522514e-05,-6.445903140306704e-05,5.8667,7.0667
3.38671875,-2.978984383154038e-05,-1.6605203543144868e-05,-1.2210323447013024e-05,-6.494198525978481e-05,5.8667,7.0667
3.390625,-3.271516433508809e-05,-1.025780999771112e-05,-1.904757018997479e-05,-7.128937880521856e-05,5.8667,7.0667
3.39453125,-3.320501753261614e-05,-7.325590153353147e-06,-1.3672983698786879e-05,-7.568425890135041e-05,5.8667,7.0667
3.3984375,-3.7599897628747967e-05,-7.325590153353147e-06,7.321710386816235e-06,-7.520130504463262e-05,5.8667,7.0667
3.40234375,-3.662709057450215e-05,-6.352783099107327e-06,2.9268302906843925e-06,-7.666396529640647e-05,5.8667,7.0667
3.40625,-3.320501753261614e-05,5.8590501350423665e-06,2.9268302906843925e-06,-7.031657175097273e-05,5.8667,7.0667
3.41015625,-3.271516433508809e-05,6.831857189288186e-06,1.5621617381551872e-05,-6.690139804989697e-05,5.8667,7.0667
3.4140625,-3.174235728084227e-05,3.899637344930212e-06,-3.910416452277389e-06,-6.933686535591667e-05,5.8667,7.0667
3.41796875,-3.320501753261614e-05,1.0247030890363959e-05,1.9471238956283086e-06,-7.324879159533071e-05,5.8667,7.0667
3.421875,-2.978984383154038e-05,1.6111470579079906e-05,4.389490542458247e-06,-7.080642494850077e-05,5.8667,7.0667
3.42578125,-3.07626508857862e-05,1.3179250734721933e-05,-9.27810360265505e-06,-6.78742051041428e-05,5.8667,7.0667
3.4296875,-3.174235728084227e-05,9.274223836118124e-06,-9.767956800183086e-06,-7.226908520027465e-05,5.8667,7.0667
3.43359375,-3.223221047837032e-05,1.9036791082627616e-05,4.84463643854454e-07,-7.471145184710457e-05,5.8667,7.0667
3.4375,-3.0279697029068415e-05,1.6111470579079906e-05,1.6111470579079906e-05,-7.715381849393452e-05,5.8667,7.0667
3.44140625,-3.07626508857862e-05,1.3669103932249967e-05,1.660132377660794e-05,-8.252150564431218e-05,5.8667,7.0667
3.4453125,-2.7837330382238475e-05,1.5621617381551872e-05,3.899637344930212e-06,-7.959618514076444e-05,5.8667,7.0667
3.44921875,-2.148993683680473e-05,7.321710386816235e-06,-2.4477562005035196e-06,-7.275893839780267e-05,5.8667,7.0667
3.453125,-2.0020377244220625e-05,9.764077033646174e-06,4.84463643854454e-07,-7.666396529640647e-05,5.8667,7.0667
3.45703125,-2.3442450286106633e-05,7.321710386816235e-06,7.81156358434427e-06,-7.617411209887843e-05,5.8667,7.0667
3.4609375,-3.0279697029068415e-05,1.0736884087891994e-05,6.831857189288186e-06,-6.78742051041428e-05,5.8667,7.0667
3.46484375,-2.4415257340352453e-05,1.9036791082627616e-05,1.9471238956283086e-06,-6.494198525978481e-05,5.8667,7.0667
3.46875,-2.4415257340352453e-05,1.5621617381551872e-05,1.9471238956283086e-06,-6.103695836118103e-05,5.8667,7.0667
3.47265625,-2.5884816932936573e-05,1.6111470579079906e-05,1.855383722590983e-05,-6.00641513069352e-05,5.8667,7.0667
3.4765625,-2.5884816932936573e-05,1.660132377660794e-05,6.342003991760151e-06,-6.494198525978481e-05,5.8667,7.0667
3.48046875,-2.49051105378805e-05,1.806398402838181e-05,-6.352783099107327e-06,-5.4689564815747284e-05,5.8667,7.0667
3.484375,-2.0020377244220625e-05,2.1969010926985617e-05,1.2689397537193897e-05,-5.4689564815747284e-05,5.8667,7.0667
3.48828125,-2.3932303483634667e-05,1.4158957129778002e-05,5.3691969375143315e-06,-6.690139804989697e-05,5.8667,7.0667
3.4921875,-3.174235728084227e-05,7.81156358434427e-06,-4.883434103913657e-07,-6.494198525978481e-05,5.8667,7.0667
3.49609375,-2.2462743891050565e-05,8.294517441062054e-06,5.8590501350423665e-06,-6.250651795376514e-05,5.8667,7.0667
3.5,-2.3932303483634667e-05,9.764077033646174e-06,1.4641910986495787e-05,-6.543183845731286e-05,5.8667,7.0667
3.50390625,-3.7599897628747967e-05,5.8590501350423665e-06,2.0016497477683715e-05,-6.054710516365298e-05,5.8667,7.0667
3.5078125,-3.320501753261614e-05,-9.781966079194006e-07,5.8590501350423665e-06,-4.980483152208741e-05,5.8667,7.0667
3.51171875,-2.8810137436484296e-05,2.436977093156358e-06,-1.4680498054474497e-06,-4.7369364216067726e-05,5.8667,7.0667
3.515625,-2.832718357976651e-05,2.9268302906843925e-06,-5.389553673580849e-09,-5.762178466010526e-05,5.8667,7.0667
3.51953125,-2.978984383154038e-05,3.899637344930212e-06,-4.883434103913657e-07,-6.20166647562371e-05,5.8667,7.0667
3.5234375,-2.7837330382238475e-05,1.4641700389105238e-06,-2.9307100572213044e-06,-5.859459171435109e-05,5.8667,7.0667
3.52734375,-2.734747718471044e-05,8.294517441062054e-06,-1.3190029842069094e-05,-5.61591244083314e-05,5.8667,7.0667
3.53125,-2.1972890693522514e-05,1.1716590482948063e-05,-1.9579030029754847e-06,-5.9574298109407164e-05,5.8667,7.0667
3.53515625,-1.8557716992446757e-05,3.4166834882124275e-06,3.4166834882124275e-06,-5.908444491187912e-05,5.8667,7.0667
3.5390625,-1.5625497148088783e-05,8.294517441062054e-06,-2.148993683680473e-05,-5.2737051366445385e-05,5.8667,7.0667
3.54296875,-1.8067863794918722e-05,9.274223836118124e-06,-2.49051105378805e-05,-5.517941801327532e-05,5.8667,7.0667
3.546875,-3.0279697029068415e-05,2.436977093156358e-06,-1.4680498054474497e-06,-5.4689564815747284e-05,5.8667,7.0667
3.55078125,-2.7837330382238475e-05,8.78437063859009e-06,-3.4205632547493394e-06,-5.517941801327532e-05,5.8667,7.0667
3.5546875,-2.2462743891050565e-05,3.899637344930212e-06,-1.6605203543144868e-05,-5.762178466010526e-05,5.8667,7.0667
3.55859375,-2.7837330382238475e-05,-9.767956800183086e-06,-1.7584909938200936e-05,-5.419971161821925e-05,5.8667,7.0667
3.5625,-2.929999063401233e-05,-1.172047024948499e-05,-3.223221047837032e-05,-5.517941801327532e-05,5.8667,7.0667
3.56640625,-2.4415257340352453e-05,-1.4652690093842962e-05,-2.734747718471044e-05,-5.4689564815747284e-05,5.8667,7.0667
3.5703125,-1.953742338750284e-05,-6.842636296635362e-06,-8.795149745937265e-06,-4.980483152208741e-05,5.8667,7.0667
3.57421875,-1.6605203543144868e-05,-2.9307100572213044e-06,-5.8629299015792775e-06,-4.9321877665369625e-05,5.8667,7.0667
3.578125,-1.4162836896314928e-05,-9.781966079194006e-07,-4.400269649805424e-06,-4.9321877665369625e-05,5.8667,7.0667
3.58203125,-2.1000083639276693e-05,-1.270017664454106e-05,-8.795149745937265e-06,-4.687951101853969e-05,5.8667,7.0667
3.5859375,-3.320501753261614e-05,-2.6367770789654356e-05,-1.0747663195239156e-05,-4.199477772487981e-05,5.8667,7.0667
3.58984375,-3.3694870730144175e-05,-2.929999063401233e-05,-2.832718357976651e-05,-3.5647384179446074e-05,5.8667,7.0667
3.59375,-2.978984383154038e-05,-3.7599897628747967e-05,-3.5647384179446074e-05,-3.4184723927672206e-05,5.8667,7.0667
3.59765625,-3.223221047837032e-05,-4.5899804623483614e-05,-2.539496373540854e-05,-4.00422642755779e-05,5.8667,7.0667
3.6015625,-3.0279697029068415e-05,-4.2484630922407846e-05,-2.49051105378805e-05,-4.4437144371709745e-05,5.8667,7.0667
3.60546875,-2.929999063401233e-05,-3.320501753261614e-05,-2.1000083639276693e-05,-4.3947291174181715e-05,5.8667,7.0667
3.609375,-3.07626508857862e-05,-4.2484630922407846e-05,-2.539496373540854e-05,-4.5416850766765834e-05,5.8667,7.0667
3.61328125,-2.6367770789654356e-05,-4.0532117473105954e-05,-2.978984383154038e-05,-4.638965782101165e-05,5.8667,7.0667
3.6171875,-3.174235728084227e-05,-3.3694870730144175e-05,-9.767956800183086e-06,-4.492699756923778e-05,5.8667,7.0667
3.62109375,-4.0532117473105954e-05,-3.7599897628747967e-05,-1.6605203543144868e-05,-4.638965782101165e-05,5.8667,7.0667
3.625,-4.2484630922407846e-05,-3.613723737697411e-05,-3.711004443121993e-05,-4.0532117473105954e-05,5.8667,7.0667
3.62890625,-3.4674577125200244e-05,-3.3694870730144175e-05,-2.8810137436484296e-05,-3.5647384179446074e-05,5.8667,7.0667
3.6328125,-2.929999063401233e-05,-2.6857623987182393e-05,-1.904757018997479e-05,-3.7599897628747967e-05,5.8667,7.0667
3.63671875,-3.662709057450215e-05,-2.2462743891050565e-05,-1.3672983698786879e-05,-3.7599897628747967e-05,5.8667,7.0667
3.640625,-2.978984383154038e-05,-2.051023044174866e-05,-5.389553673580849e-09,-3.9062557880521835e-05,5.8667,7.0667
3.64453125,-1.8067863794918722e-05,-1.025780999771112e-05,-2.9307100572213044e-06,-3.857960402380405e-05,5.8667,7.0667
3.6484375,-1.6605203543144868e-05,-1.123061705195694e-05,-1.123061705195694e-05,-4.297448411993589e-05,5.8667,7.0667
3.65234375,-2.0020377244220625e-05,-1.7584909938200936e-05,-1.6115350345616817e-05,-4.297448411993589e-05,5.8667,7.0667
3.65625,-2.3442450286106633e-05,-1.6605203543144868e-05,-3.0279697029068415e-05,-3.662709057450215e-05,5.8667,7.0667
3.66015625,-1.8557716992446757e-05,-1.025780999771112e-05,-2.978984383154038e-05,-3.9062557880521835e-05,5.8667,7.0667
3.6640625,-2.148993683680473e-05,-8.795149745937265e-06,-2.5884816932936573e-05,-4.345743797665368e-05,5.8667,7.0667
3.66796875,-2.4415257340352453e-05,-1.3672983698786879e-05,-2.49051105378805e-05,-4.297448411993589e-05,5.8667,7.0667
3.671875,-2.29525970885786e-05,-1.7095056740672902e-05,-2.051023044174866e-05,-4.2484630922407846e-05,5.8667,7.0667
3.67578125,-2.2462743891050565e-05,-1.4652690093842962e-05,-1.4162836896314928e-05,-4.3947291174181715e-05,5.8667,7.0667
3.6796875,-2.051023044174866e-05,-1.270017664454106e-05,-2.5884816932936573e-05,-4.150492452735177e-05,5.8667,7.0667
3.68359375,-2.0020377244220625e-05,-1.5625497148088783e-05,-1.8557716992446757e-05,-3.4674577125200244e-05,5.8667,7.0667
3.6875,-1.7584909938200936e-05,-1.7584909938200936e-05,-9.27810360265505e-06,-3.0279697029068415e-05,5.8667,7.0667
3.69140625,-2.0020377244220625e-05,-2.051023044174866e-05,-2.3442450286106633e-05,-3.271516433508809e-05,5.8667,7.0667
3.6953125,-2.1972890693522514e-05,-2.5884816932936573e-05,-1.172047024948499e-05,-3.955241107804987e-05,5.8667,7.0667
3.69921875,-2.1000083639276693e-05,-2.978984383154038e-05,-9.27810360265505e-06,-4.00422642755779e-05,5.8667,7.0667
3.703125,-2.49051105378805e-05,-3.271516433508809e-05,-2.2462743891050565e-05,-3.174235728084227e-05,5.8667,7.0667
3.70703125,-2.929999063401233e-05,-3.0279697029068415e-05,-3.271516433508809e-05,-2.929999063401233e-05,5.8667,7.0667
3.7109375,-2.6367770789654356e-05,-3.4674577125200244e-05,-1.7584909938200936e-05,-3.174235728084227e-05,5.8667,7.0667
3.71484375,-2.148993683680473e-05,-3.711004443121993e-05,-1.0747663195239156e-05,-3.5647384179446074e-05,5.8667,7.0667
3.71875,-2.1972890693522514e-05,-3.07626508857862e-05,-2.832718357976651e-05,-3.662709057450215e-05,5.8667,7.0667
3.72265625,-1.8557716992446757e-05,-3.0279697029068415e-05,-3.125250408331423e-05,-3.9062557880521835e-05,5.8667,7.0667
3.7265625,-1.8067863794918722e-05,-2.2462743891050565e-05,-2.4415257340352453e-05,-3.857960402380405e-05,5.8667,7.0667
3.73046875,-2.1972890693522514e-05,-1.5625497148088783e-05,-1.4162836896314928e-05,-3.0279697029068415e-05,5.8667,7.0667
3.734375,-1.8067863794918722e-05,-2.4415257340352453e-05,-2.148993683680473e-05,-3.125250408331423e-05,5.8667,7.0667
3.73828125,-2.0020377244220625e-05,-2.2462743891050565e-05,-3.271516433508809e-05,-3.857960402380405e-05,5.8667,7.0667
3.7421875,-2.2462743891050565e-05,-1.953742338750284e-05,-3.4184723927672206e-05,-4.00422642755779e-05,5.8667,7.0667
3.74609375,-2.2462743891050565e-05,-2.734747718471044e-05,-2.6857623987182393e-05,-4.0532117473105954e-05,5.8667,7.0667
3.75,-2.6367770789654356e-05,-2.734747718471044e-05,-4.297448411993589e-05,-4.2484630922407846e-05,5.8667,7.0667
3.75390625,-2.6857623987182393e-05,-2.8810137436484296e-05,-4.5416850766765834e-05,-3.515753098191803e-05,5.8667,7.0667
3.7578125,-2.29525970885786e-05,-2.1000083639276693e-05,-1.953742338750284e-05,-3.07626508857862e-05,5.8667,7.0667
3.76171875,-1.904757018997479e-05,-1.5142543291370998e-05,-1.904757018997479e-05,-3.223221047837032e-05,5.8667,7.0667
3.765625,-2.0020377244220625e-05,-2.7837330382238475e-05,-3.662709057450215e-05,-3.320501753261614e-05,5.8667,7.0667
3.76953125,-2.6857623987182393e-05,-2.734747718471044e-05,-3.7599897628747967e-05,-3.857960402380405e-05,5.8667,7.0667
3.7734375,-2.832718357976651e-05,-1.7584909938200936e-05,-2.0020377244220625e-05,-3.808975082627602e-05,5.8667,7.0667
3.77734375,-2.3442450286106633e-05,-2.2462743891050565e-05,-5.8629299015792775e-06,-3.5647384179446074e-05,5.8667,7.0667
3.78125,-2.051023044174866e-05,-2.49051105378805e-05,-2.8810137436484296e-05,-3.613723737697411e-05,5.8667,7.0667
3.78515625,-2.3932303483634667e-05,-2.6367770789654356e-05,-3.223221047837032e-05,-3.4184723927672206e-05,5.8667,7.0667
3.7890625,-2.49051105378805e-05,-2.734747718471044e-05,-3.125250408331423e-05,-3.613723737697411e-05,5.8667,7.0667
3.79296875,-1.8557716992446757e-05,-1.953742338750284e-05,-3.808975082627602e-05,-3.857960402380405e-05,5.8667,7.0667
3.796875,-2.6857623987182393e-05,-2.2462743891050565e-05,-3.4674577125200244e-05,-4.150492452735177e-05,5.8667,7.0667
3.80078125,-3.320501753261614e-05,-3.223221047837032e-05,-4.345743797665368e-05,-3.955241107804987e-05,5.8667,7.0667
3.8046875,-2.5884816932936573e-05,-2.929999063401233e-05,-4.150492452735177e-05,-3.223221047837032e-05,5.8667,7.0667
3.80859375,-2.4415257340352453e-05,-2.49051105378805e-05,-2.539496373540854e-05,-2.929999063401233e-05,5.8667,7.0667
3.8125,-2.4415257340352453e-05,-1.6605203543144868e-05,-2.3442450286106633e-05,-2.734747718471044e-05,5.8667,7.0667
3.81640625,-2.148993683680473e-05,-1.953742338750284e-05,-3.5647384179446074e-05,-2.6367770789654356e-05,5.8667,7.0667
3.8203125,-2.1000083639276693e-05,-4.0532117473105954e-05,-4.00422642755779e-05,-3.320501753261614e-05,5.8667,7.0667
3.82421875,-1.7584909938200936e-05,-4.7369364216067726e-05,-4.5416850766765834e-05,-3.223221047837032e-05,5.8667,7.0667
3.828125,-1.8557716992446757e-05,-4.3947291174181715e-05,-4.3947291174181715e-05,-3.125250408331423e-05,5.8667,7.0667
3.83203125,-2.2462743891050565e-05,-3.7599897628747967e-05,-4.5416850766765834e-05,-3.613723737697411e-05,5.8667,7.0667
3.8359375,-1.7095056740672902e-05,-4.102197067063399e-05,-5.1274391114671524e-05,-3.808975082627602e-05,5.8667,7.0667
3.83984375,-1.8557716992446757e-05,-4.7369364216067726e-05,-4.687951101853969e-05,-3.662709057450215e-05,5.8667,7.0667
3.84375,-2.6857623987182393e-05,-3.857960402380405e-05,-4.3947291174181715e-05,-3.7599897628747967e-05,5.8667,7.0667
3.84765625,-3.0279697029068415e-05,-3.9062557880521835e-05,-4.883202446784159e-05,-4.00422642755779e-05,5.8667,7.0667
3.8515625,-2.832718357976651e-05,-4.492699756923778e-05,-4.687951101853969e-05,-3.7599897628747967e-05,5.8667,7.0667
3.85546875,-2.3932303483634667e-05,-4.00422642755779e-05,-4.5416850766765834e-05,-4.00422642755779e-05,5.8667,7.0667
3.859375,-2.2462743891050565e-05,-4.199477772487981e-05,-4.0532117473105954e-05,-4.5899804623483614e-05,5.8667,7.0667
3.86328125,-2.539496373540854e-05,-4.638965782101165e-05,-2.6857623987182393e-05,-4.4437144371709745e-05,5.8667,7.0667
3.8671875,-2.5884816932936573e-05,-4.7369364216067726e-05,-4.102197067063399e-05,-3.808975082627602e-05,5.8667,7.0667
3.87109375,-2.4415257340352453e-05,-4.5416850766765834e-05,-5.5669271210803366e-05,-4.345743797665368e-05,5.8667,7.0667
3.875,-2.8810137436484296e-05,-3.9062557880521835e-05,-4.150492452735177e-05,-4.5899804623483614e-05,5.8667,7.0667
3.87890625,-2.978984383154038e-05,-4.2484630922407846e-05,-4.102197067063399e-05,-4.2484630922407846e-05,5.8667,7.0667
3.8828125,-2.49051105378805e-05,-4.785231807278551e-05,-5.1274391114671524e-05,-4.3947291174181715e-05,5.8667,7.0667
3.88671875,-2.539496373540854e-05,-4.102197067063399e-05,-4.5899804623483614e-05,-3.5647384179446074e-05,5.8667,7.0667
3.890625,-2.29525970885786e-05,-3.320501753261614e-05,-2.6367770789654356e-05,-3.3694870730144175e-05,5.8667,7.0667
3.89453125,-2.1972890693522514e-05,-4.150492452735177e-05,-3.07626508857862e-05,-4.345743797665368e-05,5.8667,7.0667
3.8984375,-2.051023044174866e-05,-4.492699756923778e-05,-5.5669271210803366e-05,-4.297448411993589e-05,5.8667,7.0667
3.90234375,-1.953742338750284e-05,-4.199477772487981e-05,-5.419971161821925e-05,-4.2484630922407846e-05,5.8667,7.0667
3.90625,-2.051023044174866e-05,-4.492699756923778e-05,-5.322690456397342e-05,-4.3947291174181715e-05,5.8667,7.0667
3.91015625,-1.7584909938200936e-05,-4.345743797665368e-05,-5.517941801327532e-05,-4.0532117473105954e-05,5.8667,7.0667
3.9140625,-1.6115350345616817e-05,-3.857960402380405e-05,-5.029468471961544e-05,-3.174235728084227e-05,5.8667,7.0667
3.91796875,-1.6605203543144868e-05,-3.125250408331423e-05,-4.2484630922407846e-05,-2.832718357976651e-05,5.8667,7.0667
3.921875,-1.4652690093842962e-05,-4.4437144371709745e-05,-3.223221047837032e-05,-2.978984383154038e-05,5.8667,7.0667
3.92578125,-1.4162836896314928e-05,-5.371675776150146e-05,-3.5647384179446074e-05,-3.4674577125200244e-05,5.8667,7.0667
3.9296875,-1.172047024948499e-05,-5.1274391114671524e-05,-4.0532117473105954e-05,-3.223221047837032e-05,5.8667,7.0667
3.93359375,-1.4162836896314928e-05,-5.176424431219956e-05,-3.5647384179446074e-05,-2.7837330382238475e-05,5.8667,7.0667
3.9375,-1.8067863794918722e-05,-5.176424431219956e-05,-3.3694870730144175e-05,-3.125250408331423e-05,5.8667,7.0667
3.94140625,-1.6605203543144868e-05,-5.517941801327532e-05,-4.687951101853969e-05,-3.4674577125200244e-05,5.8667,7.0667
3.9453125,-2.2462743891050565e-05,-5.2737051366445385e-05,-6.103695836118103e-05,-3.07626508857862e-05,5.8667,7.0667
3.94921875,-2.734747718471044e-05,-4.980483152208741e-05,-5.176424431219956e-05,-2.8810137436484296e-05,5.8667,7.0667
3.953125,-2.6857623987182393e-05,-4.7369364216067726e-05,-5.859459171435109e-05,-3.515753098191803e-05,5.8667,7.0667
3.95703125,-3.223221047837032e-05,-4.492699756923778e-05,-4.980483152208741e-05,-3.515753098191803e-05,5.8667,7.0667
3.9609375,-2.8810137436484296e-05,-4.5416850766765834e-05,-5.61591244083314e-05,-3.4674577125200244e-05,5.8667,7.0667
3.96484375,-2.49051105378805e-05,-4.0532117473105954e-05,-5.5669271210803366e-05,-3.515753098191803e-05,5.8667,7.0667
3.96875,-2.929999063401233e-05,-3.07626508857862e-05,-3.7599897628747967e-05,-2.734747718471044e-05,5.8667,7.0667
3.97265625,-3.3694870730144175e-05,-3.0279697029068415e-05,-4.5416850766765834e-05,-2.051023044174866e-05,5.8667,7.0667
3.9765625,-3.223221047837032e-05,-3.320501753261614e-05,-3.808975082627602e-05,-2.6367770789654356e-05,5.8667,7.0667
3.98046875,-3.174235728084227e-05,-4.0532117473105954e-05,-4.5416850766765834e-05,-3.223221047837032e-05,5.8667,7.0667
3.984375,-3.125250408331423e-05,-4.199477772487981e-05,-4.5899804623483614e-05,-2.929999063401233e-05,5.8667,7.0667
3.98828125,-2.3442450286106633e-05,-3.271516433508809e-05,-2.929999063401233e-05,-2.734747718471044e-05,5.8667,7.0667
3.9921875,-2.148993683680473e-05,-3.857960402380405e-05,-3.515753098191803e-05,-3.223221047837032e-05,5.8667,7.0667
