timestamp,TP9,AF7,AF8,TP10,Valence,Arousal
0.0,0.0009995117,8.73975278553445e-05,0.00018014973000686656,1.3165255541313818e-05,4.2,3.6
0.00390625,0.0009995117,0.0001015544429205768,0.00014841871348134585,7.795391206225697e-06,4.2,3.6
0.0078125,0.000998993019922179,0.00010545979880064089,0.0001459778660563058,9.748069146257742e-06,4.2,3.6
0.01171875,0.000998016680952163,0.0001191285443808652,0.00017331535721675442,1.8046950391393927e-05,4.2,3.6
0.015625,-0.0009960641335271228,0.00011180600210574503,0.00015330040833142598,1.6094272451361885e-05,4.2,3.6
0.01953125,0.0009716555287617303,8.446851094529643e-05,0.00013426179841611355,1.7070611421377907e-05,4.2,3.6
0.0234375,0.000959939461121538,7.90986466102083e-05,0.00014256067966124974,1.6094272451361885e-05,4.2,3.6
0.02734375,0.0009784899015518424,8.73975278553445e-05,0.00015232406936140994,1.5117933481345863e-05,4.2,3.6
0.03125,0.0009609158000915541,8.983837528038453e-05,0.00014646603554131383,1.365342502632183e-05,4.2,3.6
0.03515625,0.0008080882406912338,0.00011082966313572902,0.00014451335760128176,1.0724408116273763e-05,4.2,3.6
0.0390625,0.0008393310877317464,9.130288373540858e-05,0.00012059305283588923,1.0724408116273763e-05,4.2,3.6
0.04296875,-0.000996552303012131,4.636078052185856e-05,0.00012254573077592128,1.1212577601281776e-05,4.2,3.6
0.046875,-0.0009916706081620507,7.275244330510416e-05,0.00014841871348134585,1.1212577601281776e-05,4.2,3.6
0.05078125,0.0009584749526665141,9.569640910048068e-05,0.0001459778660563058,1.1700747086289786e-05,4.2,3.6
0.0546875,0.0008994064449805447,9.472007013046466e-05,0.0001313327815060655,1.365342502632183e-05,4.2,3.6
0.05859375,0.0009579867831815061,7.47051212451362e-05,0.00013377362893110555,1.7070611421377907e-05,4.2,3.6
0.0625,0.0009677501728816663,5.417149228198674e-05,0.00013865532378118563,1.8535119876401938e-05,4.2,3.6
0.06640625,0.000959939461121538,5.66123397070268e-05,0.00013377362893110555,1.2188916571297797e-05,4.2,3.6
0.0703125,0.0007978366815060655,3.90382382467384e-05,0.00012156939180590525,1.1700747086289786e-05,4.2,3.6
0.07421875,0.0006591660371709773,3.0251187516594204e-05,8.544484991531244e-05,1.0724408116273763e-05,4.2,3.6
0.078125,0.0008935484111604485,4.050274670176243e-05,6.835891794003205e-05,9.259899661249731e-06,4.2,3.6
0.08203125,0.0009633566475165941,4.831345846189061e-05,8.78856973403525e-05,1.4141594511329842e-05,4.2,3.6
0.0859375,0.000865204070437171,4.050274670176243e-05,9.520823961547266e-05,1.6582441936369896e-05,4.2,3.6
0.08984375,0.000819804308331426,4.391993309681851e-05,6.640624000000002e-05,1.1700747086289786e-05,4.2,3.6
0.09375,0.0008573933586770427,5.417149228198674e-05,5.075430588693066e-05,4.866374296177632e-06,4.2,3.6
0.09765625,0.0008955010891004807,3.46447128816663e-05,4.9289797431906635e-05,7.795391206225697e-06,4.2,3.6
0.1015625,0.0009028236313756008,2.976301803158619e-05,5.71005091920348e-05,1.2188916571297797e-05,4.2,3.6
0.10546875,0.0009218622412909132,3.318020442664227e-05,5.075430588693066e-05,7.795391206225697e-06,4.2,3.6
0.109375,0.0008456772910368505,4.636078052185856e-05,4.4896272066834534e-05,3.401865841153599e-06,4.2,3.6
0.11328125,0.0007739163767406729,5.1730644856946685e-05,5.026613640192266e-05,1.2188916571297797e-05,4.2,3.6
0.1171875,0.000736815495880064,3.0251187516594204e-05,4.196725515678646e-05,1.8535119876401938e-05,4.2,3.6
0.12109375,0.0008022302068711375,1.9999628331425975e-05,3.806189927672238e-05,1.2677086056305808e-05,4.2,3.6
0.125,0.0009604276306065461,2.1952306271458016e-05,4.34317636118105e-05,1.1700747086289786e-05,4.2,3.6
0.12890625,0.0007661056649805448,1.755878090638592e-05,5.905318713206685e-05,2.1464136786450005e-05,4.2,3.6
0.1328125,0.0007309269514671549,2.7810340091554148e-05,7.568146021515222e-05,2.0975967301441994e-05,4.2,3.6
0.13671875,0.000915027868500801,2.1464136786450005e-05,7.47051212451362e-05,1.755878090638592e-05,4.2,3.6
0.140625,0.0009365073258411536,1.1212577601281776e-05,4.4896272066834534e-05,1.4629763996337851e-05,4.2,3.6
0.14453125,0.0008969655975555046,6.330882751201665e-06,1.4141594511329842e-05,8.283560691233709e-06,4.2,3.6
0.1484375,0.0008696281063950561,1.5117933481345863e-05,1.7070611421377907e-05,6.819052236209676e-06,4.2,3.6
0.15234375,0.0009789780710368506,2.7322170606546137e-05,3.1227526486610226e-05,1.3165255541313818e-05,4.2,3.6
0.15625,0.0009472470545113298,2.488132318150608e-05,1.1700747086289786e-05,1.365342502632183e-05,4.2,3.6
0.16015625,0.0008534880027969787,3.0251187516594204e-05,1.6582441936369896e-05,1.2677086056305808e-05,4.2,3.6
0.1640625,0.0007993011899610895,2.1464136786450005e-05,5.856501764705884e-05,1.8046950391393927e-05,4.2,3.6
0.16796875,0.0007617121396154726,2.488132318150608e-05,5.1730644856946685e-05,2.1952306271458016e-05,4.2,3.6
0.171875,0.0009203977328358892,2.976301803158619e-05,1.4629763996337851e-05,1.6582441936369896e-05,4.2,3.6
0.17578125,-0.0009926469471320668,1.8535119876401938e-05,2.913696356145588e-06,9.748069146257742e-06,4.2,3.6
0.1796875,0.0009872769522819866,2.3904984211490058e-05,4.391993309681851e-05,1.0236238631265752e-05,4.2,3.6
0.18359375,0.0009565222747264819,6.0029526102082876e-05,8.153949403524835e-05,2.1464136786450005e-05,4.2,3.6
0.1875,0.0009858124438269628,5.465966176699475e-05,6.689440948500802e-05,2.0487797816433986e-05,4.2,3.6
0.19140625,-0.0009945996250720988,3.0251187516594204e-05,5.8076848162050824e-05,1.3165255541313818e-05,4.2,3.6
0.1953125,0.000996552172497139,4.050274670176243e-05,5.758867867704282e-05,1.365342502632183e-05,4.2,3.6
0.19921875,-0.001,2.0487797816433986e-05,3.4156543396658294e-05,1.2677086056305808e-05,4.2,3.6
0.203125,0.0009995117,8.77173017624172e-06,2.292864524147404e-05,1.365342502632183e-05,4.2,3.6
0.20703125,0.0009995117,2.6345831636530114e-05,4.831345846189061e-05,1.2677086056305808e-05,4.2,3.6
0.2109375,0.0009995117,1.8535119876401938e-05,5.954135661707486e-05,1.2188916571297797e-05,4.2,3.6
0.21484375,0.0009995117,2.5857662151522106e-05,5.075430588693066e-05,1.1700747086289786e-05,4.2,3.6
0.21875,0.0009995117,3.610922133669034e-05,1.6094272451361885e-05,8.283560691233709e-06,4.2,3.6
0.22265625,0.0009995117,2.7810340091554148e-05,1.4491879011215552e-06,4.866374296177632e-06,4.2,3.6
0.2265625,0.0009995117,2.829850957656216e-05,4.5872611036850557e-05,6.330882751201665e-06,4.2,3.6
0.23046875,0.0009995117,4.636078052185856e-05,8.105132455024035e-05,1.1212577601281776e-05,4.2,3.6
0.234375,0.0009995117,4.391993309681851e-05,8.30040024902724e-05,1.5117933481345863e-05,4.2,3.6
0.23828125,0.0009995117,1.5606102966353874e-05,5.319515331197072e-05,1.1700747086289786e-05,4.2,3.6
0.2421875,0.0009995117,1.1700747086289786e-05,4.440810258182652e-05,1.1212577601281776e-05,4.2,3.6
0.24609375,0.0009995117,2.3416814726482047e-05,7.177610433508813e-05,1.7070611421377907e-05,4.2,3.6
0.25,0.000998016680952163,7.795391206225697e-06,6.295854301213094e-05,1.951145884641796e-05,4.2,3.6
0.25390625,-0.0009975286419821468,-1.2189047086289752e-05,4.196725515678646e-05,2.3904984211490058e-05,4.2,3.6
0.2578125,0.000989717799707027,1.951145884641796e-05,6.344671249713895e-05,2.3416814726482047e-05,4.2,3.6
0.26171875,0.0009789780710368506,5.71005091920348e-05,0.0001015544429205768,2.6834001121538125e-05,4.2,3.6
0.265625,-0.0009936232861020827,4.7337119491874584e-05,9.179105322041659e-05,3.0251187516594204e-05,4.2,3.6
0.26953125,0.0009428535291462577,3.171569597161824e-05,7.568146021515222e-05,1.8535119876401938e-05,4.2,3.6
0.2734375,0.0008383547487617304,4.34317636118105e-05,8.83738668253605e-05,1.1212577601281776e-05,4.2,3.6
0.27734375,0.0005263534266559853,2.0975967301441994e-05,5.319515331197072e-05,1.3165255541313818e-05,4.2,3.6
0.28125,0.00020751773176012819,-5.842843781185608e-06,4.34317636118105e-05,6.819052236209676e-06,4.2,3.6
0.28515625,0.00027976681554131377,-3.401996356145554e-06,5.270698382696271e-05,-9.748199661249696e-06,4.2,3.6
0.2890625,0.0002973409170016022,7.307221721217687e-06,4.7337119491874584e-05,-1.170087760128174e-05,4.2,3.6
0.29296875,0.0002485239685008011,4.636078052185856e-05,5.66123397070268e-05,-6.819182751201631e-06,4.2,3.6
0.296875,0.00015037139142137792,5.417149228198674e-05,5.71005091920348e-05,-1.072453863126572e-05,4.2,3.6
0.30078125,0.00010838881571068896,2.976301803158619e-05,5.856501764705884e-05,-1.4141725026321795e-05,4.2,3.6
0.3046875,0.00015330040833142598,2.878667906157017e-05,4.7337119491874584e-05,-1.560623348134583e-05,4.2,3.6
0.30859375,0.0002577991887159533,6.835891794003205e-05,8.593301940032045e-05,-2.4393284211490024e-05,4.2,3.6
0.3125,0.0004033042058411536,5.1730644856946685e-05,7.958681609521631e-05,-2.5857792666514058e-05,4.2,3.6
0.31640625,0.00018991311970702678,5.368332279697873e-05,6.393488198214696e-05,-1.804708090638588e-05,4.2,3.6
0.3203125,0.00021142308764019228,4.7825288976882595e-05,6.539939043717099e-05,-2.195243678644997e-05,4.2,3.6
0.32421875,0.0005341641384161136,3.7573729791714366e-05,6.933525691004809e-05,-2.146426730144196e-05,4.2,3.6
0.328125,0.0006645359015060654,8.349217197528039e-05,0.00010350712086060884,-1.999975884641793e-05,4.2,3.6
0.33203125,0.0007211635617669947,8.78856973403525e-05,0.00010204261240558482,-1.951158936140992e-05,4.2,3.6
0.3359375,0.000776357224165713,9.520823961547266e-05,9.667274807049669e-05,-1.804708090638588e-05,4.2,3.6
0.33984375,0.0009506642409063858,8.251583300526438e-05,0.00010985332416571298,-4.866504811169587e-06,4.2,3.6
0.34375,-0.0009960641335271228,8.495668043030443e-05,0.00013426179841611355,-3.890165841153565e-06,4.2,3.6
0.34765625,0.000994599494557107,9.227922270542459e-05,0.00013621447635614556,-7.307352236209642e-06,4.2,3.6
0.3515625,0.000998993019922179,8.495668043030443e-05,0.0001284037645960174,-3.890165841153565e-06,4.2,3.6
0.35546875,0.0009995117,8.642118888532846e-05,0.00012205756129091327,-4.866504811169587e-06,4.2,3.6
0.359375,0.0009995117,5.8076848162050824e-05,0.00011864037489585719,9.610184161135442e-07,4.2,3.6
0.36328125,0.0009995117,5.856501764705884e-05,0.00012352206974593728,4.378204811169621e-06,4.2,3.6
0.3671875,0.0009995117,8.642118888532846e-05,0.00013914349326619364,1.4491879011215552e-06,4.2,3.6
0.37109375,0.0009995117,0.00011327051056076907,0.00015281223884641796,4.378204811169621e-06,4.2,3.6
0.375,0.0009995117,7.958681609521631e-05,0.00012205756129091327,1.4491879011215552e-06,4.2,3.6
0.37890625,0.0009995117,1.6094272451361885e-05,9.374373116044863e-05,-8.771860691233675e-06,4.2,3.6
0.3828125,0.0009995117,5.758867867704282e-05,0.00012693925614099338,-9.61148931105499e-07,4.2,3.6
0.38671875,0.0009995117,8.30040024902724e-05,0.00014890688296635387,6.330882751201665e-06,4.2,3.6
0.390625,0.0009995117,7.616962970016024e-05,0.00013523813738612958,-1.44931841611351e-06,4.2,3.6
0.39453125,0.0009995117,7.128793485008013e-05,0.00011717586644083316,-3.401996356145554e-06,4.2,3.6
0.3984375,0.000998993019922179,4.245542464179448e-05,0.00011327051056076907,3.401865841153599e-06,4.2,3.6
0.40234375,0.000998504850437171,5.905318713206685e-05,0.00010692430725566493,6.330882751201665e-06,4.2,3.6
0.40625,-0.0009970404724971389,7.665779918516825e-05,0.0001015544429205768,7.795391206225697e-06,4.2,3.6
0.41015625,0.0009770253930968186,7.665779918516825e-05,0.00010399529034561686,1.0724408116273763e-05,4.2,3.6
0.4140625,0.0009804425794918746,7.665779918516825e-05,9.374373116044863e-05,1.1700747086289786e-05,4.2,3.6
0.41796875,-0.000996552303012131,5.71005091920348e-05,0.0001015544429205768,1.4141594511329842e-05,4.2,3.6
0.421875,0.000998016680952163,5.612417022201878e-05,9.227922270542459e-05,1.5606102966353874e-05,4.2,3.6
0.42578125,0.0009995117,5.1730644856946685e-05,9.764908704051272e-05,1.6582441936369896e-05,4.2,3.6
0.4296875,0.0009995117,4.294359412680248e-05,0.00010253078189059284,1.951145884641796e-05,4.2,3.6
0.43359375,0.0009995117,6.5887559922179e-05,0.00010057810395056078,2.1464136786450005e-05,4.2,3.6
0.4375,0.0009995117,7.763413815518427e-05,0.00010936515468070498,2.0975967301441994e-05,4.2,3.6
0.44140625,0.0009995117,9.130288373540858e-05,8.251583300526438e-05,1.6094272451361885e-05,4.2,3.6
0.4453125,0.0009995117,8.398034146028841e-05,8.056315506523234e-05,7.307221721217687e-06,4.2,3.6
0.44921875,0.0009995117,7.03115958800641e-05,8.30040024902724e-05,1.1700747086289786e-05,4.2,3.6
0.453125,0.0009995117,6.689440948500802e-05,6.640624000000002e-05,2.1464136786450005e-05,4.2,3.6
0.45703125,0.0009995117,2.878667906157017e-05,5.905318713206685e-05,2.1464136786450005e-05,4.2,3.6
0.4609375,0.0009995117,2.0487797816433986e-05,5.368332279697873e-05,2.3416814726482047e-05,4.2,3.6
0.46484375,0.0009995117,7.128793485008013e-05,6.393488198214696e-05,2.3416814726482047e-05,4.2,3.6
0.46875,0.0009995117,9.130288373540858e-05,7.958681609521631e-05,2.6345831636530114e-05,4.2,3.6
0.47265625,0.0009995117,7.079976536507211e-05,7.324061279011216e-05,2.3904984211490058e-05,4.2,3.6
0.4765625,0.0009995117,4.9289797431906635e-05,6.393488198214696e-05,2.1952306271458016e-05,4.2,3.6
0.48046875,-0.001,3.171569597161824e-05,6.491122095216298e-05,2.488132318150608e-05,4.2,3.6
0.484375,0.000996552172497139,3.220386545662624e-05,7.275244330510416e-05,2.3416814726482047e-05,4.2,3.6
0.48828125,-0.0009970404724971389,4.5872611036850557e-05,8.83738668253605e-05,2.0975967301441994e-05,4.2,3.6
0.4921875,0.0009867887827969787,2.439315369649807e-05,8.007498558022432e-05,2.9274848546578178e-05,4.2,3.6
0.49609375,0.0008901312247653924,2.5857662151522106e-05,6.982342639505609e-05,3.8550068761730395e-05,4.2,3.6
0.5,0.0008979419365255207,4.245542464179448e-05,6.442305146715498e-05,3.3668373911650276e-05,4.2,3.6
0.50390625,0.0007968603425360494,4.7825288976882595e-05,5.758867867704282e-05,3.4156543396658294e-05,4.2,3.6
0.5078125,0.0007196990533119707,7.568146021515222e-05,6.738257897001604e-05,3.46447128816663e-05,4.2,3.6
0.51171875,0.0005717531887617304,6.787074845502406e-05,7.90986466102083e-05,3.318020442664227e-05,4.2,3.6
0.515625,0.00012254573077592128,7.275244330510416e-05,9.325556167544062e-05,3.46447128816663e-05,4.2,3.6
0.51953125,-0.000290506674726482,9.423190064545664e-05,8.105132455024035e-05,3.171569597161824e-05,4.2,3.6
0.5234375,-0.00044089338670176234,1.755878090638592e-05,3.318020442664227e-05,3.220386545662624e-05,4.2,3.6
0.52734375,-0.000291971183181506,-8.771860691233675e-06,3.90382382467384e-05,3.46447128816663e-05,4.2,3.6
0.53125,-0.0002817196239963378,3.3668373911650276e-05,5.075430588693066e-05,2.439315369649807e-05,4.2,3.6
0.53515625,-0.0002939238611215381,3.7085560306706354e-05,9.259899661249731e-06,2.0975967301441994e-05,4.2,3.6
0.5390625,-0.00029245935266651406,5.075430588693066e-05,9.610184161135442e-07,2.2440475756466028e-05,4.2,3.6
0.54296875,-0.00021532857403524833,6.933525691004809e-05,1.5606102966353874e-05,1.8535119876401938e-05,4.2,3.6
0.546875,4.378204811169621e-06,6.442305146715498e-05,4.880162794689862e-05,2.3416814726482047e-05,4.2,3.6
0.55078125,0.00010497162931563287,5.758867867704282e-05,7.226427382009615e-05,2.829850957656216e-05,4.2,3.6
0.5546875,0.00020947040970016023,6.247037352712293e-05,4.1479085671778456e-05,3.220386545662624e-05,4.2,3.6
0.55859375,0.00018454325537193867,5.71005091920348e-05,2.2440475756466028e-05,3.269203494163426e-05,4.2,3.6
0.5625,0.00018844861125200276,5.71005091920348e-05,4.34317636118105e-05,3.171569597161824e-05,4.2,3.6
0.56640625,0.0003095451541268025,3.562105185168232e-05,4.196725515678646e-05,2.6345831636530114e-05,4.2,3.6
0.5703125,0.00032614291661707485,2.3904984211490058e-05,2.829850957656216e-05,3.318020442664227e-05,4.2,3.6
0.57421875,0.00030661613721675446,4.684895000686658e-05,1.4629763996337851e-05,3.4156543396658294e-05,4.2,3.6
0.578125,0.0002695152563561456,3.5132882366674316e-05,2.6345831636530114e-05,2.9274848546578178e-05,4.2,3.6
0.58203125,0.0002709797648111696,3.269203494163426e-05,3.659739082169834e-05,2.7322170606546137e-05,4.2,3.6
0.5859375,0.0003271192555870909,4.538444155184254e-05,5.270698382696271e-05,2.976301803158619e-05,4.2,3.6
0.58984375,0.0003823129179858091,4.9289797431906635e-05,7.372878227512018e-05,3.0251187516594204e-05,4.2,3.6
0.59375,0.0004384524087617304,5.856501764705884e-05,6.787074845502406e-05,3.0251187516594204e-05,4.2,3.6
0.59765625,0.0002802549850263218,4.294359412680248e-05,5.8076848162050824e-05,3.4156543396658294e-05,4.2,3.6
0.6015625,0.0003119860015518425,3.3668373911650276e-05,3.806189927672238e-05,3.3668373911650276e-05,4.2,3.6
0.60546875,0.00045309749331197066,4.245542464179448e-05,2.3904984211490058e-05,2.7322170606546137e-05,4.2,3.6
0.609375,0.0004579791881620508,2.5369492666514095e-05,3.4156543396658294e-05,2.5857662151522106e-05,4.2,3.6
0.61328125,0.00045651467970702676,1.755878090638592e-05,2.439315369649807e-05,2.829850957656216e-05,4.2,3.6
0.6171875,0.0003989106804760815,1.7070611421377907e-05,3.659739082169834e-05,3.1227526486610226e-05,4.2,3.6
0.62109375,0.00046826125794003205,2.3904984211490058e-05,4.050274670176243e-05,3.220386545662624e-05,4.2,3.6
0.625,0.00048534718991531244,3.220386545662624e-05,4.1479085671778456e-05,2.9274848546578178e-05,4.2,3.6
0.62890625,0.0004404050867017624,4.050274670176243e-05,7.714596867017625e-05,3.220386545662624e-05,4.2,3.6
0.6328125,0.00032419023867704284,2.7810340091554148e-05,5.319515331197072e-05,2.7810340091554148e-05,4.2,3.6
0.63671875,0.0003237020691920348,1.951145884641796e-05,3.90382382467384e-05,2.6345831636530114e-05,4.2,3.6
0.640625,0.0004384524087617304,1.9999628331425975e-05,4.977796691691464e-05,3.3668373911650276e-05,4.2,3.6
0.64453125,0.0004067213922362097,1.6582441936369896e-05,4.977796691691464e-05,3.220386545662624e-05,4.2,3.6
0.6484375,0.00045407383228198675,3.8550068761730395e-05,5.075430588693066e-05,3.3668373911650276e-05,4.2,3.6
0.65234375,0.0003002699339116503,1.3165255541313818e-05,5.2218814341954696e-05,2.7810340091554148e-05,4.2,3.6
0.65625,0.0002211864773403525,2.1952306271458016e-05,5.368332279697873e-05,2.3416814726482047e-05,4.2,3.6
0.66015625,0.00039256447717097735,2.3416814726482047e-05,2.976301803158619e-05,2.6834001121538125e-05,4.2,3.6
0.6640625,0.00040037518893110553,6.330882751201665e-06,3.8550068761730395e-05,2.9274848546578178e-05,4.2,3.6
0.66796875,0.000419413798846418,3.0739357001602215e-05,7.714596867017625e-05,3.46447128816663e-05,4.2,3.6
0.671875,0.0003725495282856489,3.610922133669034e-05,7.372878227512018e-05,3.269203494163426e-05,4.2,3.6
0.67578125,0.0003608334606454566,2.0975967301441994e-05,6.198220404211491e-05,3.0251187516594204e-05,4.2,3.6
0.6796875,0.00036034529116044865,3.890035326161609e-06,6.442305146715498e-05,3.562105185168232e-05,4.2,3.6
0.68359375,0.0004106267481162737,2.1464136786450005e-05,5.905318713206685e-05,3.562105185168232e-05,4.2,3.6
0.6875,0.0004960869185854887,3.5132882366674316e-05,8.935020579537654e-05,4.294359412680248e-05,4.2,3.6
0.69140625,0.00033447230845502405,2.7810340091554148e-05,9.472007013046466e-05,4.34317636118105e-05,4.2,3.6
0.6953125,0.0003989106804760815,-9.260030176241686e-06,3.7573729791714366e-05,2.9274848546578178e-05,4.2,3.6
0.69921875,0.0005307469520210575,1.937357386129566e-06,4.34317636118105e-05,3.562105185168232e-05,4.2,3.6
0.703125,0.00048583535940032043,2.878667906157017e-05,5.905318713206685e-05,4.0990916186770444e-05,4.2,3.6
0.70703125,0.0005146373590157931,8.77173017624172e-06,3.90382382467384e-05,4.001457721675442e-05,4.2,3.6
0.7109375,0.0005146373590157931,1.5606102966353874e-05,5.319515331197072e-05,3.562105185168232e-05,4.2,3.6
0.71484375,0.0005463683755413139,1.3165255541313818e-05,7.372878227512018e-05,3.46447128816663e-05,4.2,3.6
0.71875,0.0005483210534813458,3.7085560306706354e-05,7.47051212451362e-05,3.952640773174641e-05,4.2,3.6
0.72265625,0.0005600371211215381,4.636078052185856e-05,5.905318713206685e-05,3.8550068761730395e-05,4.2,3.6
0.7265625,0.00047509563073014425,1.902328936140995e-05,4.196725515678646e-05,3.3668373911650276e-05,4.2,3.6
0.73046875,0.00047411929176012816,1.4491879011215552e-06,4.050274670176243e-05,3.7573729791714366e-05,4.2,3.6
0.734375,0.0006723466132661937,1.4491879011215552e-06,5.368332279697873e-05,3.610922133669034e-05,4.2,3.6
0.73828125,0.0006865035283314259,1.951145884641796e-05,4.4896272066834534e-05,3.1227526486610226e-05,4.2,3.6
0.7421875,0.0006542843423208972,8.283560691233709e-06,3.269203494163426e-05,3.7085560306706354e-05,4.2,3.6
0.74609375,0.0006772283081162737,1.6094272451361885e-05,4.440810258182652e-05,4.001457721675442e-05,4.2,3.6
0.75,0.0007314151209521629,5.905318713206685e-05,5.66123397070268e-05,3.952640773174641e-05,4.2,3.6
0.75390625,0.0007162818669169146,2.3416814726482047e-05,9.748069146257742e-06,2.976301803158619e-05,4.2,3.6
0.7578125,0.0007221399007370107,-1.2677216571297761e-05,-3.122765700160218e-05,3.220386545662624e-05,4.2,3.6
0.76171875,0.0007739163767406729,6.330882751201665e-06,-1.755891142137787e-05,4.34317636118105e-05,4.2,3.6
0.765625,0.0007822152579858091,2.6345831636530114e-05,-1.560623348134583e-05,3.269203494163426e-05,4.2,3.6
0.76953125,0.0007636648175555047,1.6582441936369896e-05,-2.5857792666514058e-05,2.9274848546578178e-05,4.2,3.6
0.7734375,0.0007397445127901121,1.4629763996337851e-05,-1.9023419876401904e-05,3.659739082169834e-05,4.2,3.6
0.77734375,0.0007392563433051042,4.4896272066834534e-05,-2.2440606271457983e-05,3.1227526486610226e-05,4.2,3.6
0.78125,0.000779286241075761,6.330882751201665e-06,-7.421708227512015e-05,3.1227526486610226e-05,4.2,3.6
0.78515625,0.0007358391569100481,-2.683413163653008e-05,-0.0001030190818905928,3.318020442664227e-05,4.2,3.6
0.7890625,0.0008490944774319066,-4.72979446097488e-07,-8.202779403524831e-05,2.488132318150608e-05,4.2,3.6
0.79296875,0.0009794662405218585,-1.3165386056305774e-05,-9.130301425040053e-05,2.7322170606546137e-05,4.2,3.6
0.796875,0.0009047763093156329,-4.392006361181047e-05,-0.00012156952232089721,3.7085560306706354e-05,4.2,3.6
0.80078125,0.0008144344439963379,-2.146426730144196e-05,-0.0001249867087159533,4.294359412680248e-05,4.2,3.6
0.8046875,0.0008354257318516823,1.3165255541313818e-05,-0.00012254586129091324,4.245542464179448e-05,4.2,3.6
0.80859375,0.0009809307489768826,9.259899661249731e-06,-0.00010838894622568092,3.8550068761730395e-05,4.2,3.6
0.8125,0.0009628684780315861,1.8046950391393927e-05,-0.00010692443777065688,3.952640773174641e-05,4.2,3.6
0.81640625,0.0008696281063950561,8.77173017624172e-06,-0.00011961684438086517,3.8550068761730395e-05,4.2,3.6
0.8203125,0.0007695228513756009,-3.890165841153565e-06,-0.00011131796313572899,4.4896272066834534e-05,4.2,3.6
0.82421875,0.0008105290881162738,1.1700747086289786e-05,-0.00010838894622568092,4.050274670176243e-05,4.2,3.6
0.828125,0.0009892296302220188,8.77173017624172e-06,-0.0001079007767406729,3.46447128816663e-05,4.2,3.6
0.83203125,-0.0009902060997070267,3.890035326161609e-06,-0.00011864050541084913,2.7810340091554148e-05,4.2,3.6
0.8359375,0.0009755608846417944,-2.9138268711375426e-06,-0.00013670277635614557,2.976301803158619e-05,4.2,3.6
0.83984375,0.0009677501728816663,-1.8535250391393893e-05,-0.00014500165760128174,3.4156543396658294e-05,4.2,3.6
0.84375,0.000998504850437171,-5.842843781185608e-06,-0.00013279742047608145,3.269203494163426e-05,4.2,3.6
0.84765625,-0.0009989931504371709,1.7070611421377907e-05,-0.00011131796313572899,3.7085560306706354e-05,4.2,3.6
0.8515625,0.000998016680952163,1.5117933481345863e-05,-9.86255565255207e-05,3.5132882366674316e-05,4.2,3.6
0.85546875,0.0009995117,-1.2677216571297761e-05,-0.0001298684035660334,3.5132882366674316e-05,4.2,3.6
0.859375,0.0009995117,-8.771860691233675e-06,-0.00014207264069123369,3.269203494163426e-05,4.2,3.6
0.86328125,0.0009995117,1.4141594511329842e-05,-0.00011717599695582511,4.1479085671778456e-05,4.2,3.6
0.8671875,0.000998504850437171,2.292864524147404e-05,-8.739765837033644e-05,3.7573729791714366e-05,4.2,3.6
0.87109375,0.0009995117,1.0724408116273763e-05,-8.007511609521628e-05,3.7085560306706354e-05,4.2,3.6
0.875,-0.0009989931504371709,-4.866504811169587e-06,-9.179118373540854e-05,3.5132882366674316e-05,4.2,3.6
0.87890625,0.0009755608846417944,-3.122765700160218e-05,-0.00010594809880064086,3.318020442664227e-05,4.2,3.6
0.8828125,0.0009848361048569467,-2.2928775756465994e-05,-0.00010350725137560079,4.391993309681851e-05,4.2,3.6
0.88671875,-0.000996552303012131,2.913696356145588e-06,-7.372891279011213e-05,4.0990916186770444e-05,4.2,3.6
0.890625,0.000997528511467155,1.6582441936369896e-05,-9.179118373540854e-05,3.952640773174641e-05,4.2,3.6
0.89453125,0.0009995117,1.951145884641796e-05,-9.813738704051269e-05,3.90382382467384e-05,4.2,3.6
0.8984375,0.0009995117,1.1212577601281776e-05,-9.374386167544058e-05,3.610922133669034e-05,4.2,3.6
0.90234375,0.0009995117,1.0724408116273763e-05,-0.00010692443777065688,3.659739082169834e-05,4.2,3.6
0.90625,0.0009995117,-6.3310132661936195e-06,-8.739765837033644e-05,3.806189927672238e-05,4.2,3.6
0.91015625,0.0009995117,-1.4141725026321795e-05,-6.689453999999997e-05,3.952640773174641e-05,4.2,3.6
0.9140625,0.0009995117,-1.0236369146257707e-05,-7.470525176012816e-05,4.1479085671778456e-05,4.2,3.6
0.91796875,0.0009995117,-1.3165386056305774e-05,-0.00010009006498054473,4.001457721675442e-05,4.2,3.6
0.921875,0.0009995117,-2.9763148546578148e-05,-9.569653961547263e-05,4.1479085671778456e-05,4.2,3.6
0.92578125,0.0009995117,-3.122765700160218e-05,-8.056328558022428e-05,4.245542464179448e-05,4.2,3.6
0.9296875,0.0009995117,-1.4629894511329806e-05,-8.349230249027235e-05,4.1479085671778456e-05,4.2,3.6
0.93359375,0.0009995117,-2.488145369649804e-05,-8.642131940032042e-05,3.8550068761730395e-05,4.2,3.6
0.9375,0.0009995117,-6.835904845502402e-05,-9.03266752803845e-05,4.4896272066834534e-05,4.2,3.6
0.94140625,0.0009995117,-5.075443640192262e-05,-9.569653961547263e-05,5.71005091920348e-05,4.2,3.6
0.9453125,0.0009995117,6.330882751201665e-06,-7.421708227512015e-05,5.856501764705884e-05,4.2,3.6
0.94921875,0.0009995117,9.610184161135442e-07,-4.5872741551842505e-05,5.124247537193867e-05,4.2,3.6
0.953125,0.0009995117,-4.3431894126802455e-05,-6.34468430121309e-05,4.5872611036850557e-05,4.2,3.6
0.95703125,-0.000999481319922179,-7.665792970016021e-05,-8.446864146028837e-05,4.636078052185856e-05,4.2,3.6
0.9609375,0.0009941113250720988,-5.221894485694665e-05,-9.179118373540854e-05,3.659739082169834e-05,4.2,3.6
0.96484375,0.000998504850437171,-2.9763148546578148e-05,-9.618470910048064e-05,3.5132882366674316e-05,4.2,3.6
0.96875,-0.000998504980952163,-0.00010985345468070495,-0.0001337737594460975,4.831345846189061e-05,4.2,3.6
0.97265625,0.0007475552245502404,-0.00019430677558709083,-0.00018991325022201875,4.4896272066834534e-05,4.2,3.6
0.9765625,0.0006259705121904325,-0.00022460379425040053,-0.0002236274552803845,5.368332279697873e-05,4.2,3.6
0.98046875,0.0005878627817669948,-0.00025633481077592127,-0.000245595082105745,6.787074845502406e-05,4.2,3.6
0.984375,0.0004252718326665141,-0.0003173559964019226,-0.0003071044372167544,7.079976536507211e-05,4.2,3.6
0.98828125,0.0003657151554955367,-0.0003398423033051041,-0.00033691328639505604,6.884708742504007e-05,4.2,3.6
0.9921875,0.0003105214930968185,-0.00038231304850080104,-0.0003657152860105287,8.690935837033648e-05,4.2,3.6
0.99609375,0.0003061279677317464,-0.00043894070876173037,-0.00039842264150606545,0.00010008993446555277,4.2,3.6
1.0,0.00032565474713206686,-0.00042429562421149,-0.0003881710823208972,0.00012010488335088121,4.2,3.6
1.00390625,0.00032126122176699473,-0.0004325945054566262,-0.00038914742129091324,0.00013914349326619364,4.2,3.6
1.0078125,0.0001640401370016022,-0.000423319285241474,-0.0003637626080704967,0.00013230912047608147,4.2,3.6
1.01171875,3.806189927672238e-05,-0.00039500545511100935,-0.0003398423033051041,0.00013621447635614556,4.2,3.6
1.015625,3.1227526486610226e-05,-0.00036278626910048065,-0.00032858389455710685,0.00013230912047608147,4.2,3.6
1.01953125,-4.866504811169587e-06,-0.00038475389592584116,-0.00030612809824673835,0.00013621447635614556,4.2,3.6
1.0234375,-7.421708227512015e-05,-0.0003305365724971389,-0.00023680803137560082,0.00014353701863126575,4.2,3.6
1.02734375,-0.00015818223369649804,-0.00025682298026092926,-0.00017770901309681846,0.0001371908153261616,4.2,3.6
1.03125,-0.00014646616605630577,-0.00024803592953078505,-0.00017526816567177842,0.00013572630687113757,4.2,3.6
1.03515625,-0.00016404026751659417,-0.0001923540976470588,-0.00011034162416571295,0.00012645108665598537,4.2,3.6
1.0390625,-0.0001337737594460975,-0.00014451348811627372,-4.440823309681848e-05,0.00011815220541084917,4.2,3.6
1.04296875,-5.954148713206682e-05,-9.520837013046461e-05,-5.354674296177598e-06,0.00012156939180590525,4.2,3.6
1.046875,-7.795521721217652e-06,-5.221894485694665e-05,2.878667906157017e-05,0.00011766403592584118,4.2,3.6
1.05078125,5.8076848162050824e-05,-6.491135146715494e-05,3.562105185168232e-05,0.00011229417159075305,4.2,3.6
1.0546875,9.179105322041659e-05,-7.177623485008008e-05,5.8076848162050824e-05,9.862542601052873e-05,4.2,3.6
1.05859375,0.0001513477303913939,-1.9023419876401904e-05,9.911359549553675e-05,8.83738668253605e-05,4.2,3.6
1.0625,0.0003002699339116503,1.6582441936369896e-05,0.00011082966313572902,8.251583300526438e-05,4.2,3.6
1.06640625,0.0002929473916365301,3.171569597161824e-05,0.00011668769695582514,7.177610433508813e-05,4.2,3.6
1.0703125,0.000378895731590753,5.8076848162050824e-05,0.00013963166275120166,7.079976536507211e-05,4.2,3.6
1.07421875,0.0005429511891462578,6.982342639505609e-05,0.00014988322193636988,7.128793485008013e-05,4.2,3.6
1.078125,0.0005732176972167544,5.71005091920348e-05,0.00010692430725566493,6.10058650720989e-05,4.2,3.6
1.08203125,0.000600585698970016,7.324061279011216e-05,0.00012205756129091327,6.198220404211491e-05,4.2,3.6
1.0859375,0.0006762519691462578,0.00010301895137560084,0.00015525308627145802,6.491122095216298e-05,4.2,3.6
1.08984375,0.0007866087833508812,7.324061279011216e-05,0.00014793054399633786,5.368332279697873e-05,4.2,3.6
1.09375,0.0007690346818905929,3.3668373911650276e-05,0.0001313327815060655,4.4896272066834534e-05,4.2,3.6
1.09765625,0.0007866087833508812,3.90382382467384e-05,8.983837528038453e-05,4.391993309681851e-05,4.2,3.6
1.1015625,0.0008403074267017623,2.0975967301441994e-05,3.0251187516594204e-05,4.4896272066834534e-05,4.2,3.6
1.10546875,0.0009286966140810254,-1.2677216571297761e-05,-5.842843781185608e-06,5.417149228198674e-05,4.2,3.6
1.109375,-0.0009926469471320668,-7.372891279011213e-05,-6.393501249713892e-05,5.66123397070268e-05,4.2,3.6
1.11328125,0.000995575833527123,-0.00014890701348134583,-0.00014451348811627372,5.905318713206685e-05,4.2,3.6
1.1171875,0.000998993019922179,-0.00020019531999999999,-0.00019430677558709083,7.177610433508813e-05,4.2,3.6
1.12109375,0.0009995117,-0.00022948548910048063,-0.00022118660785534443,7.275244330510416e-05,4.2,3.6
1.125,0.0009995117,-0.0002377843703456168,-0.0002504767769558251,8.105132455024035e-05,4.2,3.6
1.12890625,0.0009995117,-0.0002602401666559853,-0.00026756270893110544,8.30040024902724e-05,4.2,3.6
1.1328125,0.0009995117,-0.00028416047142137784,-0.00027439708172121764,7.714596867017625e-05,4.2,3.6
1.13671875,0.0009995117,-0.0002768379291462577,-0.00030368725082169834,8.105132455024035e-05,4.2,3.6
1.140625,0.0009995117,-0.00030563992876173036,-0.0003197968438269627,8.446851094529643e-05,4.2,3.6
1.14453125,0.0009995117,-0.0003012464033966582,-0.00029831738648661017,8.78856973403525e-05,4.2,3.6
1.1484375,0.0009995117,-0.0002060533538200961,-0.0002412015567406729,8.78856973403525e-05,4.2,3.6
1.15234375,0.0009995117,-0.00016941013185168226,-0.00020361250639505606,8.007498558022432e-05,4.2,3.6
1.15625,0.0009995117,-0.00018014986052185852,-0.00020995870970016018,7.861047712520029e-05,4.2,3.6
1.16015625,0.0009995117,-0.00016501660648661018,-0.00021191138764019225,7.03115958800641e-05,4.2,3.6
1.1640625,0.0009995117,-0.00012059318335088118,-0.0001615994200915541,5.8076848162050824e-05,4.2,3.6
1.16796875,0.0009995117,-6.539952095216295e-05,-0.00013621460687113752,5.417149228198674e-05,4.2,3.6
1.171875,0.0009995117,-2.7810470606546103e-05,-0.00010887711571068892,5.270698382696271e-05,4.2,3.6
1.17578125,0.0009995117,-1.4141725026321795e-05,-6.637585992217897e-05,3.7085560306706354e-05,4.2,3.6
1.1796875,0.0009995117,-2.4393284211490024e-05,-7.421708227512015e-05,2.1464136786450005e-05,4.2,3.6
1.18359375,0.0009995117,2.913696356145588e-06,-5.954148713206682e-05,9.748069146257742e-06,4.2,3.6
1.1875,0.0009995117,5.319515331197072e-05,-1.2677216571297761e-05,2.4255268711375773e-06,4.2,3.6
1.19140625,0.0009995117,8.398034146028841e-05,1.0236238631265752e-05,1.4491879011215552e-06,4.2,3.6
1.1953125,0.0009995117,0.00010350712086060884,2.1464136786450005e-05,5.354543781185643e-06,4.2,3.6
1.19921875,0.0009995117,9.276739219043261e-05,1.9999628331425975e-05,-1.5320553902477717e-08,4.2,3.6
1.203125,0.0009995117,0.0001274274256260014,2.439315369649807e-05,-1.3165386056305774e-05,4.2,3.6
1.20703125,0.0009995117,0.00019088945867704282,6.393488198214696e-05,-1.609440296635384e-05,4.2,3.6
1.2109375,0.0009995117,0.00014890688296635387,6.5887559922179e-05,-2.097609781643395e-05,4.2,3.6
1.21484375,0.0009995117,9.423190064545664e-05,6.247037352712293e-05,-1.658257245136185e-05,4.2,3.6
1.21875,0.0009995117,0.00013865532378118563,7.812230764019227e-05,-1.951158936140992e-05,4.2,3.6
1.22265625,0.0009995117,0.00017917339103685055,8.544484991531244e-05,-1.560623348134583e-05,4.2,3.6
1.2265625,0.0009995117,0.0001894249502220188,9.325556167544062e-05,-1.999975884641793e-05,4.2,3.6
1.23046875,0.0009995117,0.00018454325537193867,0.00013182095099107348,-1.3165386056305774e-05,4.2,3.6
1.234375,0.0009995117,0.00015818210318150608,0.00012645108665598537,-9.61148931105499e-07,4.2,3.6
1.23828125,0.0009995117,0.00015281223884641796,8.251583300526438e-05,-4.3783353261615755e-06,4.2,3.6
1.2421875,0.0009995117,0.00017331535721675442,0.00010057810395056078,-1.951158936140992e-05,4.2,3.6
1.24609375,0.0009995117,0.00018259057743190662,0.0001313327815060655,-1.755891142137787e-05,4.2,3.6
1.25,0.0009995117,0.000199188339922179,0.00013084461202105745,-8.771860691233675e-06,4.2,3.6
1.25390625,0.0009995117,0.00020556505382009614,0.00012254573077592128,-8.283691206225664e-06,4.2,3.6
1.2578125,0.0009995117,0.00018893678073701075,0.00013084461202105745,-2.425657386129532e-06,4.2,3.6
1.26171875,0.0009995117,0.0001689218318516823,0.00013377362893110555,-9.260030176241686e-06,4.2,3.6
1.265625,0.0009995117,0.00015525308627145802,0.00013572630687113757,-1.937487901121521e-06,4.2,3.6
1.26953125,0.0009995117,0.00016501647597161822,0.00013084461202105745,1.937357386129566e-06,4.2,3.6
1.2734375,0.0009995117,0.00016648098442664225,0.00013182095099107348,-1.072453863126572e-05,4.2,3.6
1.27734375,0.0009995117,0.00017477986567177844,0.00014500152708628978,-4.3783353261615755e-06,4.2,3.6
1.28125,0.0009995117,0.00018405508588693065,0.00015720576421149007,6.330882751201665e-06,4.2,3.6
1.28515625,0.0009995117,0.0001454896965712978,0.00013767898481116962,1.937357386129566e-06,4.2,3.6
1.2890625,0.0009995117,0.00014402518811627377,0.00011864037489585719,2.913696356145588e-06,4.2,3.6
1.29296875,0.0009995117,0.00016257562854657816,0.00012498657820096134,5.354543781185643e-06,4.2,3.6
1.296875,0.0009995117,0.00015281223884641796,0.00011766403592584118,5.842713266193654e-06,4.2,3.6
1.30078125,0.0009995117,0.00014256067966124974,0.0001367026458411536,8.283560691233709e-06,4.2,3.6
1.3046875,0.0009995117,0.00015037139142137792,0.00014011983223620968,9.259899661249731e-06,4.2,3.6
1.30859375,0.0009995117,0.00014744237451132981,0.0001640401370016022,1.2677086056305808e-05,4.2,3.6
1.3125,0.0009995117,0.00013230912047608147,0.00018747227228198672,1.8046950391393927e-05,4.2,3.6
1.31640625,0.0009995117,0.0001284037645960174,0.00014060800172121767,1.2188916571297797e-05,4.2,3.6
1.3203125,0.0009995117,0.00014060800172121767,9.862542601052873e-05,1.1212577601281776e-05,4.2,3.6
1.32421875,0.0009995117,0.00014353701863126575,0.00010985332416571298,1.8535119876401938e-05,4.2,3.6
1.328125,0.0009995117,0.00013816715429617763,0.0001454896965712978,1.5117933481345863e-05,4.2,3.6
1.33203125,0.0009995117,0.00012889193408102543,0.00016648098442664225,1.8535119876401938e-05,4.2,3.6
1.3359375,0.0009995117,0.00010936515468070498,0.00012205756129091327,1.4629763996337851e-05,4.2,3.6
1.33984375,0.0009995117,8.446851094529643e-05,0.00010204261240558482,1.755878090638592e-05,4.2,3.6
1.34375,0.0009995117,0.00010448345983062488,0.00015037139142137792,2.7810340091554148e-05,4.2,3.6
1.34765625,0.0009995117,0.00013816715429617763,0.00015281223884641796,1.8046950391393927e-05,4.2,3.6
1.3515625,0.0009995117,0.00013377362893110555,0.00014207251017624172,1.5117933481345863e-05,4.2,3.6
1.35546875,0.0009995117,0.0001367026458411536,0.00012889193408102543,2.2440475756466028e-05,4.2,3.6
1.359375,0.0009995117,0.00014402518811627377,0.00012156939180590525,2.5369492666514095e-05,4.2,3.6
1.36328125,0.0009995117,0.00014646603554131383,0.00011815220541084917,2.2440475756466028e-05,4.2,3.6
1.3671875,0.0009995117,0.00013914349326619364,9.862542601052873e-05,2.5857662151522106e-05,4.2,3.6
1.37109375,0.0009995117,0.00012156939180590525,9.813725652552073e-05,2.7322170606546137e-05,4.2,3.6
1.375,0.0009995117,8.983837528038453e-05,9.667274807049669e-05,2.5857662151522106e-05,4.2,3.6
1.37890625,0.0009995117,7.324061279011216e-05,9.61845785854887e-05,2.829850957656216e-05,4.2,3.6
1.3828125,0.0009995117,8.73975278553445e-05,9.764908704051272e-05,2.3416814726482047e-05,4.2,3.6
1.38671875,0.0009995117,0.00010350712086060884,0.00010692430725566493,1.8535119876401938e-05,4.2,3.6
1.390625,0.0009995117,0.00012254573077592128,0.00011229417159075305,1.9999628331425975e-05,4.2,3.6
1.39453125,0.0009995117,0.00012010488335088121,9.032654476539255e-05,2.0975967301441994e-05,4.2,3.6
1.3984375,0.0009995117,9.813725652552073e-05,7.128793485008013e-05,1.5606102966353874e-05,4.2,3.6
1.40234375,0.0009995117,9.764908704051272e-05,9.764908704051272e-05,1.951145884641796e-05,4.2,3.6
1.40625,0.0009995117,0.00011375868004577707,0.00013426179841611355,3.318020442664227e-05,4.2,3.6
1.41015625,0.0009995117,0.00012596291717097735,0.0001371908153261616,3.4156543396658294e-05,4.2,3.6
1.4140625,0.0009995117,9.61845785854887e-05,0.00011082966313572902,2.488132318150608e-05,4.2,3.6
1.41796875,0.0009995117,7.90986466102083e-05,7.812230764019227e-05,2.3904984211490058e-05,4.2,3.6
1.421875,0.0009995117,9.227922270542459e-05,8.30040024902724e-05,2.976301803158619e-05,4.2,3.6
1.42578125,0.0009995117,0.00010008993446555277,9.179105322041659e-05,2.829850957656216e-05,4.2,3.6
1.4296875,0.0009995117,0.00010838881571068896,9.667274807049669e-05,2.6834001121538125e-05,4.2,3.6
1.43359375,0.0009995117,8.544484991531244e-05,8.78856973403525e-05,2.976301803158619e-05,4.2,3.6
1.4375,0.0009995117,5.905318713206685e-05,5.8076848162050824e-05,3.0251187516594204e-05,4.2,3.6
1.44140625,0.0009995117,6.149403455710691e-05,4.196725515678646e-05,2.7322170606546137e-05,4.2,3.6
1.4453125,0.0009995117,8.105132455024035e-05,6.539939043717099e-05,3.220386545662624e-05,4.2,3.6
1.44921875,0.000998504850437171,9.71609175555047e-05,8.886203631036852e-05,3.8550068761730395e-05,4.2,3.6
1.453125,-0.001,8.544484991531244e-05,7.372878227512018e-05,3.171569597161824e-05,4.2,3.6
1.45703125,0.000998504850437171,6.295854301213094e-05,4.880162794689862e-05,2.5857662151522106e-05,4.2,3.6
1.4609375,0.0009892296302220188,4.977796691691464e-05,4.880162794689862e-05,2.829850957656216e-05,4.2,3.6
1.46484375,0.000996552172497139,4.977796691691464e-05,6.10058650720989e-05,3.1227526486610226e-05,4.2,3.6
1.46875,-0.000999481319922179,5.514783125200276e-05,8.886203631036852e-05,3.90382382467384e-05,4.2,3.6
1.47265625,0.000998993019922179,0.00011131783262073704,0.00013182095099107348,3.610922133669034e-05,4.2,3.6
1.4765625,0.000998993019922179,9.911359549553675e-05,0.00010057810395056078,2.878667906157017e-05,4.2,3.6
1.48046875,0.0009970403419821468,2.878667906157017e-05,-3.401996356145554e-06,2.5369492666514095e-05,4.2,3.6
1.484375,0.000998993019922179,4.1479085671778456e-05,-4.72979446097488e-07,2.1952306271458016e-05,4.2,3.6
1.48828125,0.0009995117,1.2677086056305808e-05,3.562105185168232e-05,2.6345831636530114e-05,4.2,3.6
1.4921875,0.000998993019922179,-3.2692165456626215e-05,1.902328936140995e-05,2.976301803158619e-05,4.2,3.6
1.49609375,0.0009995117,-9.260030176241686e-06,-7.795521721217652e-06,2.439315369649807e-05,4.2,3.6
1.5,0.0009995117,-3.890165841153565e-06,-2.3905114726482013e-05,1.6094272451361885e-05,4.2,3.6
1.50390625,0.0009995117,-8.771860691233675e-06,-1.951158936140992e-05,1.3165255541313818e-05,4.2,3.6
1.5078125,0.0009995117,4.866374296177632e-06,-9.61148931105499e-07,1.2188916571297797e-05,4.2,3.6
1.51171875,0.0009995117,2.7322170606546137e-05,3.318020442664227e-05,1.5117933481345863e-05,4.2,3.6
1.515625,0.0009995117,2.0487797816433986e-05,3.4156543396658294e-05,1.7070611421377907e-05,4.2,3.6
1.51953125,0.0009995117,-1.0236369146257707e-05,-6.3310132661936195e-06,1.1212577601281776e-05,4.2,3.6
1.5234375,0.000998504850437171,1.8535119876401938e-05,1.0236238631265752e-05,1.2677086056305808e-05,4.2,3.6
1.52734375,0.000998504850437171,1.951145884641796e-05,4.0990916186770444e-05,1.6094272451361885e-05,4.2,3.6
1.53125,-0.0009960641335271228,5.842713266193654e-06,4.34317636118105e-05,1.755878090638592e-05,4.2,3.6
1.53515625,0.0009653093254566263,1.8046950391393927e-05,2.976301803158619e-05,2.292864524147404e-05,4.2,3.6
1.5390625,0.0009721436982467384,3.562105185168232e-05,5.354543781185643e-06,2.292864524147404e-05,4.2,3.6
1.54296875,-0.0009941114555870908,5.8076848162050824e-05,3.8550068761730395e-05,2.3416814726482047e-05,4.2,3.6
1.546875,0.000997528511467155,5.368332279697873e-05,6.539939043717099e-05,2.5857662151522106e-05,4.2,3.6
1.55078125,0.0009995117,4.1479085671778456e-05,6.442305146715498e-05,2.6345831636530114e-05,4.2,3.6
1.5546875,0.0009995117,4.391993309681851e-05,3.220386545662624e-05,2.6345831636530114e-05,4.2,3.6
1.55859375,0.0009995117,4.196725515678646e-05,1.9999628331425975e-05,2.829850957656216e-05,4.2,3.6
1.5625,0.0009941113250720988,5.124247537193867e-05,4.831345846189061e-05,3.220386545662624e-05,4.2,3.6
1.56640625,-0.0009887415912520027,4.050274670176243e-05,7.47051212451362e-05,3.5132882366674316e-05,4.2,3.6
1.5703125,0.0009594512916365302,3.952640773174641e-05,6.491122095216298e-05,3.220386545662624e-05,4.2,3.6
1.57421875,0.0009072171567406729,1.9999628331425975e-05,2.5857662151522106e-05,2.976301803158619e-05,4.2,3.6
1.578125,0.0009902059691920346,1.902328936140995e-05,1.902328936140995e-05,3.3668373911650276e-05,4.2,3.6
1.58203125,-0.0009945996250720988,6.149403455710691e-05,3.7573729791714366e-05,3.562105185168232e-05,4.2,3.6
1.5859375,0.0009950876640421149,4.34317636118105e-05,5.465966176699475e-05,3.8550068761730395e-05,4.2,3.6
1.58984375,0.0009941113250720988,3.952640773174641e-05,7.958681609521631e-05,3.7573729791714366e-05,4.2,3.6
1.59375,0.000994599494557107,4.5872611036850557e-05,6.10058650720989e-05,3.8550068761730395e-05,4.2,3.6
1.59765625,0.0009838597658869306,3.4156543396658294e-05,3.46447128816663e-05,3.220386545662624e-05,4.2,3.6
1.6015625,0.0009633566475165941,2.3904984211490058e-05,3.8550068761730395e-05,2.976301803158619e-05,4.2,3.6
1.60546875,0.0009848361048569467,3.610922133669034e-05,6.738257897001604e-05,4.1479085671778456e-05,4.2,3.6
1.609375,0.0009589631221515221,5.124247537193867e-05,7.324061279011216e-05,3.7085560306706354e-05,4.2,3.6
1.61328125,0.0008842731909452963,4.7825288976882595e-05,2.7810340091554148e-05,3.4156543396658294e-05,4.2,3.6
1.6171875,0.0008813441740352483,4.196725515678646e-05,2.5857662151522106e-05,4.196725515678646e-05,4.2,3.6
1.62109375,0.0009384600037811856,3.46447128816663e-05,3.46447128816663e-05,4.1479085671778456e-05,4.2,3.6
1.625,0.0009614039695765622,3.3668373911650276e-05,4.880162794689862e-05,3.5132882366674316e-05,4.2,3.6
1.62890625,0.0008344493928816662,4.1479085671778456e-05,7.51932907301442e-05,3.46447128816663e-05,4.2,3.6
1.6328125,0.0008266386811215382,4.391993309681851e-05,5.368332279697873e-05,3.806189927672238e-05,4.2,3.6
1.63671875,0.0009394363427512016,3.3668373911650276e-05,3.90382382467384e-05,3.5132882366674316e-05,4.2,3.6
1.640625,0.0009072171567406729,4.440810258182652e-05,3.220386545662624e-05,3.46447128816663e-05,4.2,3.6
1.64453125,0.0008740216317601282,4.4896272066834534e-05,3.90382382467384e-05,3.952640773174641e-05,4.2,3.6
1.6484375,0.0008969655975555046,5.71005091920348e-05,7.03115958800641e-05,3.90382382467384e-05,4.2,3.6
1.65234375,0.000909658004165713,6.0029526102082876e-05,7.372878227512018e-05,3.7085560306706354e-05,4.2,3.6
1.65625,0.0008388429182467384,3.171569597161824e-05,4.4896272066834534e-05,3.46447128816663e-05,4.2,3.6
1.66015625,0.0008129699355413138,2.6345831636530114e-05,3.171569597161824e-05,3.7573729791714366e-05,4.2,3.6
1.6640625,0.0007783099021057451,3.8550068761730395e-05,4.977796691691464e-05,3.46447128816663e-05,4.2,3.6
1.66796875,0.0007744045462256809,2.5857662151522106e-05,5.1730644856946685e-05,2.829850957656216e-05,4.2,3.6
1.671875,0.0008837850214602884,2.2440475756466028e-05,4.391993309681851e-05,3.0739357001602215e-05,4.2,3.6
1.67578125,0.0008642277314671549,3.171569597161824e-05,3.4156543396658294e-05,3.7085560306706354e-05,4.2,3.6
1.6796875,0.000824197833696498,2.9274848546578178e-05,3.610922133669034e-05,3.5132882366674316e-05,4.2,3.6
1.68359375,0.0008076000712062257,4.0990916186770444e-05,5.270698382696271e-05,3.659739082169834e-05,4.2,3.6
1.6875,0.0008588578671320669,4.34317636118105e-05,7.177610433508813e-05,3.8550068761730395e-05,4.2,3.6
1.69140625,0.0008759743097001602,4.7337119491874584e-05,4.5872611036850557e-05,2.7810340091554148e-05,4.2,3.6
1.6953125,0.0007690346818905929,4.050274670176243e-05,-3.401996356145554e-06,2.5369492666514095e-05,4.2,3.6
1.69921875,0.0007509724109452965,7.795391206225697e-06,-2.2928775756465994e-05,3.1227526486610226e-05,4.2,3.6
1.703125,0.0007617121396154726,-3.401996356145554e-06,3.401865841153599e-06,3.318020442664227e-05,4.2,3.6
1.70703125,0.000775380885195697,8.77173017624172e-06,5.319515331197072e-05,3.1227526486610226e-05,4.2,3.6
1.7109375,0.0007690346818905929,2.878667906157017e-05,4.4896272066834534e-05,3.4156543396658294e-05,4.2,3.6
1.71484375,0.0007846561054108492,5.026613640192266e-05,2.9274848546578178e-05,3.952640773174641e-05,4.2,3.6
1.71875,0.000776357224165713,2.2440475756466028e-05,2.1464136786450005e-05,3.7573729791714366e-05,4.2,3.6
1.72265625,0.0007446262076401923,1.8046950391393927e-05,1.1212577601281776e-05,3.7085560306706354e-05,4.2,3.6
1.7265625,0.000827615020091554,3.562105185168232e-05,2.976301803158619e-05,3.90382382467384e-05,4.2,3.6
1.73046875,0.000817363460906386,2.0487797816433986e-05,4.5872611036850557e-05,3.90382382467384e-05,4.2,3.6
1.734375,0.0007578067837354085,2.5857662151522106e-05,3.8550068761730395e-05,3.220386545662624e-05,4.2,3.6
1.73828125,0.0007021249518516823,2.439315369649807e-05,9.259899661249731e-06,3.7085560306706354e-05,4.2,3.6
1.7421875,0.0006230414952803845,2.3416814726482047e-05,1.7070611421377907e-05,4.4896272066834534e-05,4.2,3.6
1.74609375,0.0007680583429205768,2.976301803158619e-05,4.440810258182652e-05,4.0990916186770444e-05,4.2,3.6
1.75,0.0008559288502220188,2.0975967301441994e-05,2.7322170606546137e-05,3.4156543396658294e-05,4.2,3.6
1.75390625,0.000775380885195697,2.6345831636530114e-05,3.5132882366674316e-05,3.171569597161824e-05,4.2,3.6
1.7578125,0.0006782046470862898,1.6094272451361885e-05,4.391993309681851e-05,3.5132882366674316e-05,4.2,3.6
1.76171875,0.0006772283081162737,2.1464136786450005e-05,3.171569597161824e-05,3.659739082169834e-05,4.2,3.6
1.765625,0.0008564170197070268,4.050274670176243e-05,4.001457721675442e-05,3.7085560306706354e-05,4.2,3.6
1.76953125,0.0008715807843350881,3.5132882366674316e-05,5.075430588693066e-05,3.4156543396658294e-05,4.2,3.6
1.7734375,0.0008085764101762417,3.46447128816663e-05,5.319515331197072e-05,3.806189927672238e-05,4.2,3.6
1.77734375,0.0007373036653650721,1.755878090638592e-05,2.9274848546578178e-05,3.8550068761730395e-05,4.2,3.6
1.78125,0.0007250689176470588,7.795391206225697e-06,3.7573729791714366e-05,3.5132882366674316e-05,4.2,3.6
1.78515625,0.0008193161388464179,2.5857662151522106e-05,6.539939043717099e-05,3.7085560306706354e-05,4.2,3.6
1.7890625,0.0008417719351567865,3.610922133669034e-05,5.514783125200276e-05,3.46447128816663e-05,4.2,3.6
1.79296875,0.0007919786476859693,2.488132318150608e-05,4.9289797431906635e-05,3.0739357001602215e-05,4.2,3.6
1.796875,0.0007206753922819868,1.2677086056305808e-05,4.684895000686658e-05,2.878667906157017e-05,4.2,3.6
1.80078125,0.0007192108838269626,1.4629763996337851e-05,5.8076848162050824e-05,3.318020442664227e-05,4.2,3.6
1.8046875,0.0007514605804303044,2.878667906157017e-05,6.933525691004809e-05,3.7573729791714366e-05,4.2,3.6
1.80859375,0.0008315203759716182,5.319515331197072e-05,7.90986466102083e-05,3.8550068761730395e-05,4.2,3.6
1.8125,0.0008368902403067064,5.026613640192266e-05,7.324061279011216e-05,4.050274670176243e-05,4.2,3.6
1.81640625,0.0006371984103456168,2.6345831636530114e-05,4.831345846189061e-05,3.7573729791714366e-05,4.2,3.6
1.8203125,0.0007133528500068665,1.4141594511329842e-05,5.075430588693066e-05,3.318020442664227e-05,4.2,3.6
1.82421875,0.0008710926148500801,2.7322170606546137e-05,5.026613640192266e-05,3.220386545662624e-05,4.2,3.6
1.828125,0.0008305440370016022,4.831345846189061e-05,7.861047712520029e-05,3.318020442664227e-05,4.2,3.6
1.83203125,0.0007529250888853285,4.34317636118105e-05,8.642118888532846e-05,3.562105185168232e-05,4.2,3.6
1.8359375,0.0006982195959716182,2.6834001121538125e-05,4.7825288976882595e-05,3.1227526486610226e-05,4.2,3.6
1.83984375,0.0007578067837354085,1.9999628331425975e-05,3.269203494163426e-05,2.7322170606546137e-05,4.2,3.6
1.84375,0.000776357224165713,2.7810340091554148e-05,5.5636000737010774e-05,3.171569597161824e-05,4.2,3.6
1.84765625,0.0007548777668253604,4.294359412680248e-05,7.079976536507211e-05,3.1227526486610226e-05,4.2,3.6
1.8515625,0.0006938260706065461,4.880162794689862e-05,5.5636000737010774e-05,2.488132318150608e-05,4.2,3.6
1.85546875,0.0006855271893614099,3.4156543396658294e-05,5.758867867704282e-05,2.9274848546578178e-05,4.2,3.6
1.859375,0.0007768453936507209,3.5132882366674316e-05,5.8076848162050824e-05,2.878667906157017e-05,4.2,3.6
1.86328125,0.000777333563135729,3.659739082169834e-05,4.050274670176243e-05,2.2440475756466028e-05,4.2,3.6
1.8671875,0.0007685465124055848,2.878667906157017e-05,5.71005091920348e-05,2.488132318150608e-05,4.2,3.6
1.87109375,0.0006733229522362098,3.220386545662624e-05,7.47051212451362e-05,3.269203494163426e-05,4.2,3.6
1.875,0.0006196243088853284,9.259899661249731e-06,5.2218814341954696e-05,3.659739082169834e-05,4.2,3.6
1.87890625,0.0007084711551567864,9.748069146257742e-06,3.5132882366674316e-05,3.46447128816663e-05,4.2,3.6
1.8828125,0.0007504842414602884,3.46447128816663e-05,5.1730644856946685e-05,3.3668373911650276e-05,4.2,3.6
1.88671875,0.0007622003091004807,4.636078052185856e-05,7.275244330510416e-05,2.878667906157017e-05,4.2,3.6
1.890625,0.0007177463753719387,5.124247537193867e-05,6.738257897001604e-05,2.6834001121538125e-05,4.2,3.6
1.89453125,0.0006371984103456168,2.878667906157017e-05,6.10058650720989e-05,3.318020442664227e-05,4.2,3.6
1.8984375,0.0006196243088853284,3.4156543396658294e-05,7.275244330510416e-05,3.220386545662624e-05,4.2,3.6
1.90234375,0.0007162818669169146,3.3668373911650276e-05,5.71005091920348e-05,2.488132318150608e-05,4.2,3.6
1.90625,0.0007690346818905929,3.3668373911650276e-05,5.075430588693066e-05,2.5857662151522106e-05,4.2,3.6
1.91015625,0.0007172582058869307,4.440810258182652e-05,6.738257897001604e-05,2.488132318150608e-05,4.2,3.6
1.9140625,0.0006591660371709773,2.7810340091554148e-05,5.71005091920348e-05,2.0975967301441994e-05,4.2,3.6
1.91796875,0.0006513553254108491,4.245542464179448e-05,5.954135661707486e-05,2.7322170606546137e-05,4.2,3.6
1.921875,0.0007065184772167544,5.417149228198674e-05,6.393488198214696e-05,3.46447128816663e-05,4.2,3.6
1.92578125,0.0006801573250263217,3.318020442664227e-05,7.812230764019227e-05,3.46447128816663e-05,4.2,3.6
1.9296875,0.0005951853240421149,3.171569597161824e-05,8.78856973403525e-05,3.269203494163426e-05,4.2,3.6
1.93359375,0.000643056444165713,4.7825288976882595e-05,5.2218814341954696e-05,3.171569597161824e-05,4.2,3.6
1.9375,0.0006806454945113298,6.247037352712293e-05,6.247037352712293e-05,3.0739357001602215e-05,4.2,3.6
1.94140625,0.0006552606812909132,6.982342639505609e-05,8.83738668253605e-05,2.9274848546578178e-05,4.2,3.6
1.9453125,0.0006108372581551842,6.393488198214696e-05,8.544484991531244e-05,2.7322170606546137e-05,4.2,3.6
1.94921875,0.0006186479699153125,5.124247537193867e-05,6.10058650720989e-05,2.5369492666514095e-05,4.2,3.6
1.953125,0.0007148173584618906,2.5369492666514095e-05,6.0029526102082876e-05,2.6345831636530114e-05,4.2,3.6
1.95703125,0.0006791809860563059,8.283560691233709e-06,4.440810258182652e-05,2.6345831636530114e-05,4.2,3.6
1.9609375,0.0006645359015060654,2.6834001121538125e-05,2.5857662151522106e-05,2.878667906157017e-05,4.2,3.6
1.96484375,0.0006684412573861295,3.4156543396658294e-05,4.7825288976882595e-05,2.976301803158619e-05,4.2,3.6
1.96875,0.0006728347827512017,4.391993309681851e-05,5.1730644856946685e-05,2.0975967301441994e-05,4.2,3.6
1.97265625,0.0006371984103456168,3.318020442664227e-05,5.758867867704282e-05,2.2440475756466028e-05,4.2,3.6
1.9765625,0.0005986025104371709,8.283560691233709e-06,4.880162794689862e-05,3.318020442664227e-05,4.2,3.6
1.98046875,0.0005932326461020828,3.806189927672238e-05,4.196725515678646e-05,3.171569597161824e-05,4.2,3.6
1.984375,0.0005912799681620509,3.46447128816663e-05,7.616962970016024e-05,2.7810340091554148e-05,4.2,3.6
1.98828125,0.0005829810869169146,2.9274848546578178e-05,9.276739219043261e-05,2.7810340091554148e-05,4.2,3.6
1.9921875,0.0005873746122819867,4.831345846189061e-05,7.42169517601282e-05,3.0739357001602215e-05,4.2,3.6
1.99609375,0.0005893272902220187,3.171569597161824e-05,6.835891794003205e-05,3.171569597161824e-05,4.2,3.6
2.0,0.0005741940361867704,2.3416814726482047e-05,6.933525691004809e-05,3.3668373911650276e-05,4.2,3.6
2.00390625,0.0005883509512520028,4.684895000686658e-05,6.0029526102082876e-05,3.5132882366674316e-05,4.2,3.6
2.0078125,0.0006596542066559854,4.391993309681851e-05,5.71005091920348e-05,2.7810340091554148e-05,4.2,3.6
2.01171875,0.0006108372581551842,2.1952306271458016e-05,6.10058650720989e-05,3.1227526486610226e-05,4.2,3.6
2.015625,0.0005629661380315862,1.4629763996337851e-05,6.149403455710691e-05,3.659739082169834e-05,4.2,3.6
2.01953125,0.0005053621388006409,4.378204811169621e-06,6.933525691004809e-05,3.610922133669034e-05,4.2,3.6
2.0234375,0.0004384524087617304,3.610922133669034e-05,8.886203631036852e-05,4.001457721675442e-05,4.2,3.6
2.02734375,0.0005932326461020828,7.42169517601282e-05,8.544484991531244e-05,3.269203494163426e-05,4.2,3.6
2.03125,0.0006288995291004806,7.51932907301442e-05,5.319515331197072e-05,2.0975967301441994e-05,4.2,3.6
2.03515625,0.0005346523079011216,4.196725515678646e-05,3.7085560306706354e-05,1.902328936140995e-05,4.2,3.6
2.0390625,0.00043796423927672235,2.3416814726482047e-05,4.050274670176243e-05,1.951145884641796e-05,4.2,3.6
2.04296875,0.00046383722198214695,2.1464136786450005e-05,4.196725515678646e-05,2.2440475756466028e-05,4.2,3.6
2.046875,0.0005859101038269628,2.829850957656216e-05,6.10058650720989e-05,3.0739357001602215e-05,4.2,3.6
2.05078125,0.0005619897990615701,3.0739357001602215e-05,7.47051212451362e-05,3.3668373911650276e-05,4.2,3.6
2.0546875,0.0005478328839963378,3.7085560306706354e-05,5.514783125200276e-05,3.562105185168232e-05,4.2,3.6
2.05859375,0.0005053621388006409,5.026613640192266e-05,4.7825288976882595e-05,3.46447128816663e-05,4.2,3.6
2.0625,0.0005571081042114901,3.7573729791714366e-05,5.1730644856946685e-05,2.7810340091554148e-05,4.2,3.6
2.06640625,0.000600585698970016,4.0990916186770444e-05,8.78856973403525e-05,2.829850957656216e-05,4.2,3.6
2.0703125,0.0005863982733119706,4.636078052185856e-05,8.446851094529643e-05,3.220386545662624e-05,4.2,3.6
2.07421875,0.0005483210534813458,3.610922133669034e-05,7.079976536507211e-05,2.878667906157017e-05,4.2,3.6
2.078125,0.0004613963745571069,2.292864524147404e-05,7.861047712520029e-05,3.0251187516594204e-05,4.2,3.6
2.08203125,0.0004687494274250401,9.748069146257742e-06,5.514783125200276e-05,3.0739357001602215e-05,4.2,3.6
2.0859375,0.0005244007487159533,2.2440475756466028e-05,6.491122095216298e-05,2.976301803158619e-05,4.2,3.6
2.08984375,0.0005351404773861295,3.952640773174641e-05,7.812230764019227e-05,2.488132318150608e-05,4.2,3.6
2.09375,0.0005385576637811856,3.7085560306706354e-05,6.10058650720989e-05,2.292864524147404e-05,4.2,3.6
2.09765625,0.0004037923753261616,2.829850957656216e-05,5.66123397070268e-05,2.6834001121538125e-05,4.2,3.6
2.1015625,0.00043552339185168234,3.90382382467384e-05,6.198220404211491e-05,2.9274848546578178e-05,4.2,3.6
2.10546875,0.0005532027483314259,4.196725515678646e-05,7.665779918516825e-05,2.976301803158619e-05,4.2,3.6
2.109375,0.0005654069854566262,5.612417022201878e-05,9.569640910048068e-05,2.829850957656216e-05,4.2,3.6
2.11328125,0.0005175663759258411,3.318020442664227e-05,7.763413815518427e-05,3.0739357001602215e-05,4.2,3.6
2.1171875,0.0004535856627969787,3.171569597161824e-05,6.393488198214696e-05,2.829850957656216e-05,4.2,3.6
2.12109375,0.000511708342105745,4.440810258182652e-05,7.226427382009615e-05,2.6834001121538125e-05,4.2,3.6
2.125,0.0005224480707759213,2.7322170606546137e-05,8.495668043030443e-05,2.9274848546578178e-05,4.2,3.6
2.12890625,0.0004985277660105287,4.977796691691464e-05,8.690935837033648e-05,3.4156543396658294e-05,4.2,3.6
2.1328125,0.000421854646271458,5.758867867704282e-05,8.642118888532846e-05,3.7573729791714366e-05,4.2,3.6
2.13671875,0.00036962051137560086,4.636078052185856e-05,6.835891794003205e-05,3.5132882366674316e-05,4.2,3.6
2.140625,0.0005068266472556649,5.1730644856946685e-05,5.954135661707486e-05,3.7085560306706354e-05,4.2,3.6
2.14453125,0.0005390458332661936,4.538444155184254e-05,7.714596867017625e-05,3.7085560306706354e-05,4.2,3.6
2.1484375,0.0005146373590157931,5.5636000737010774e-05,9.61845785854887e-05,2.5857662151522106e-05,4.2,3.6
2.15234375,0.00045846735764705883,6.0029526102082876e-05,8.251583300526438e-05,2.6834001121538125e-05,4.2,3.6
2.15625,0.0004428459341268025,3.318020442664227e-05,7.079976536507211e-05,3.0251187516594204e-05,4.2,3.6
2.16015625,0.0004897407152803845,3.269203494163426e-05,8.73975278553445e-05,3.220386545662624e-05,4.2,3.6
2.1640625,0.0004501684764019226,4.440810258182652e-05,7.90986466102083e-05,3.318020442664227e-05,4.2,3.6
2.16796875,0.0004613963745571069,5.514783125200276e-05,7.665779918516825e-05,2.829850957656216e-05,4.2,3.6
2.171875,0.00045651467970702676,4.4896272066834534e-05,8.78856973403525e-05,2.7322170606546137e-05,4.2,3.6
2.17578125,0.0003950053245960174,9.748069146257742e-06,7.958681609521631e-05,2.6345831636530114e-05,4.2,3.6
2.1796875,0.000377919392620737,7.795391206225697e-06,6.051769558709088e-05,2.829850957656216e-05,4.2,3.6
2.18359375,0.00045163298485694663,4.0990916186770444e-05,6.689440948500802e-05,2.5857662151522106e-05,4.2,3.6
2.1875,0.0005253770876859694,7.47051212451362e-05,9.472007013046466e-05,2.5857662151522106e-05,4.2,3.6
2.19140625,0.0003588807827054246,6.491122095216298e-05,8.398034146028841e-05,2.7322170606546137e-05,4.2,3.6
2.1953125,0.00037401403674067294,4.050274670176243e-05,5.514783125200276e-05,1.9999628331425975e-05,4.2,3.6
2.19921875,0.0004780246476401923,5.124247537193867e-05,4.684895000686658e-05,1.9999628331425975e-05,4.2,3.6
2.203125,0.00048193000352025634,5.758867867704282e-05,5.612417022201878e-05,2.7322170606546137e-05,4.2,3.6
2.20703125,0.00046432539146715494,2.0975967301441994e-05,4.391993309681851e-05,1.755878090638592e-05,4.2,3.6
2.2109375,0.00041892562936140994,1.951145884641796e-05,4.5872611036850557e-05,1.365342502632183e-05,4.2,3.6
2.21484375,0.0004301535275165942,4.1479085671778456e-05,6.344671249713895e-05,2.292864524147404e-05,4.2,3.6
2.21875,0.0003954934940810254,3.7573729791714366e-05,5.66123397070268e-05,2.6834001121538125e-05,4.2,3.6
2.22265625,0.00040232786687113755,3.318020442664227e-05,6.295854301213094e-05,2.3416814726482047e-05,4.2,3.6
2.2265625,0.0003642506470405127,4.0990916186770444e-05,7.372878227512018e-05,2.1952306271458016e-05,4.2,3.6
2.23046875,0.0003359368169100481,4.050274670176243e-05,6.295854301213094e-05,2.439315369649807e-05,4.2,3.6
2.234375,0.00044382227309681845,2.6834001121538125e-05,4.831345846189061e-05,2.0975967301441994e-05,4.2,3.6
2.23828125,0.0004697257663950561,3.269203494163426e-05,4.001457721675442e-05,2.6345831636530114e-05,4.2,3.6
2.2421875,0.0004613963745571069,3.7085560306706354e-05,5.514783125200276e-05,2.292864524147404e-05,4.2,3.6
2.24609375,0.000464813560952163,3.610922133669034e-05,7.861047712520029e-05,2.0975967301441994e-05,4.2,3.6
2.25,0.0004526093238269627,5.5636000737010774e-05,8.73975278553445e-05,2.5857662151522106e-05,4.2,3.6
2.25390625,0.0004277126800915541,4.245542464179448e-05,7.324061279011216e-05,2.5369492666514095e-05,4.2,3.6
2.2578125,0.00040232786687113755,3.8550068761730395e-05,6.344671249713895e-05,2.2440475756466028e-05,4.2,3.6
2.26171875,0.00042039013781643397,3.7085560306706354e-05,5.954135661707486e-05,2.0975967301441994e-05,4.2,3.6
2.265625,0.00046383722198214695,3.0251187516594204e-05,6.640624000000002e-05,2.9274848546578178e-05,4.2,3.6
2.26953125,0.0004570028491920348,4.7825288976882595e-05,8.398034146028841e-05,3.46447128816663e-05,4.2,3.6
2.2734375,0.0004174611209063859,4.684895000686658e-05,6.442305146715498e-05,2.9274848546578178e-05,4.2,3.6
2.27734375,0.00042380732421149007,3.3668373911650276e-05,4.7825288976882595e-05,2.2440475756466028e-05,4.2,3.6
2.28125,0.0004955987491004806,3.8550068761730395e-05,4.880162794689862e-05,2.488132318150608e-05,4.2,3.6
2.28515625,0.0004526093238269627,3.562105185168232e-05,6.491122095216298e-05,2.9274848546578178e-05,4.2,3.6
2.2890625,0.0004877880373403525,3.1227526486610226e-05,7.03115958800641e-05,2.7322170606546137e-05,4.2,3.6
2.29296875,0.0005512500703913939,2.0975967301441994e-05,5.71005091920348e-05,2.292864524147404e-05,4.2,3.6
2.296875,0.0004902288847653926,1.0724408116273763e-05,3.8550068761730395e-05,2.878667906157017e-05,4.2,3.6
2.30078125,0.0004418695951567865,3.610922133669034e-05,4.196725515678646e-05,2.7810340091554148e-05,4.2,3.6
2.3046875,0.0004487039679468986,4.880162794689862e-05,6.640624000000002e-05,2.6834001121538125e-05,4.2,3.6
2.30859375,0.0005507619009063859,5.71005091920348e-05,8.83738668253605e-05,2.5369492666514095e-05,4.2,3.6
2.3125,0.0005175663759258411,4.5872611036850557e-05,7.90986466102083e-05,2.1464136786450005e-05,4.2,3.6
2.31640625,0.0004252718326665141,1.902328936140995e-05,4.001457721675442e-05,2.7810340091554148e-05,4.2,3.6
2.3203125,0.00037938390107576105,2.488132318150608e-05,4.001457721675442e-05,3.318020442664227e-05,4.2,3.6
2.32421875,0.0004116030870862898,2.1952306271458016e-05,4.684895000686658e-05,2.829850957656216e-05,4.2,3.6
2.328125,0.0005424630196612497,3.5132882366674316e-05,7.714596867017625e-05,2.7322170606546137e-05,4.2,3.6
2.33203125,0.0005248889182009614,5.8076848162050824e-05,7.616962970016024e-05,2.829850957656216e-05,4.2,3.6
2.3359375,0.00043601156133669033,2.0487797816433986e-05,1.6582441936369896e-05,2.292864524147404e-05,4.2,3.6
2.33984375,0.0003989106804760815,6.819052236209676e-06,2.6345831636530114e-05,2.9274848546578178e-05,4.2,3.6
2.34375,0.0004443104425818265,2.6345831636530114e-05,5.270698382696271e-05,3.806189927672238e-05,4.2,3.6
2.34765625,0.0004877880373403525,4.001457721675442e-05,6.787074845502406e-05,3.90382382467384e-05,4.2,3.6
2.3515625,0.00044479861206683455,3.610922133669034e-05,7.42169517601282e-05,3.46447128816663e-05,4.2,3.6
2.35546875,0.00040965040914625774,2.829850957656216e-05,6.884708742504007e-05,3.220386545662624e-05,4.2,3.6
2.359375,0.00038377742644083313,1.951145884641796e-05,5.1730644856946685e-05,2.976301803158619e-05,4.2,3.6
2.36328125,0.00040623322275120164,3.7573729791714366e-05,4.34317636118105e-05,2.5369492666514095e-05,4.2,3.6
2.3671875,0.0004589555271320668,5.954135661707486e-05,5.465966176699475e-05,2.2440475756466028e-05,4.2,3.6
2.37109375,0.00048534718991531244,4.294359412680248e-05,3.46447128816663e-05,2.3416814726482047e-05,4.2,3.6
2.375,0.0004912052237354085,3.0251187516594204e-05,2.2440475756466028e-05,2.9274848546578178e-05,4.2,3.6
2.37890625,0.00034374752867017625,2.488132318150608e-05,2.7322170606546137e-05,3.220386545662624e-05,4.2,3.6
2.3828125,0.00042380732421149007,2.0487797816433986e-05,3.0739357001602215e-05,3.220386545662624e-05,4.2,3.6
2.38671875,0.0005649188159716183,2.6345831636530114e-05,4.636078052185856e-05,2.7322170606546137e-05,4.2,3.6
2.390625,0.000508779325195697,3.7085560306706354e-05,4.831345846189061e-05,2.0975967301441994e-05,4.2,3.6
2.39453125,0.000420878307301442,2.7322170606546137e-05,4.831345846189061e-05,2.488132318150608e-05,4.2,3.6
2.3984375,0.0004091622396612497,2.829850957656216e-05,3.8550068761730395e-05,2.976301803158619e-05,4.2,3.6
2.40234375,0.0004955987491004806,5.417149228198674e-05,4.001457721675442e-05,2.976301803158619e-05,4.2,3.6
2.40625,0.0004999922744655527,4.391993309681851e-05,4.7337119491874584e-05,3.0251187516594204e-05,4.2,3.6
2.41015625,0.00046188454404211493,2.5857662151522106e-05,5.465966176699475e-05,2.976301803158619e-05,4.2,3.6
2.4140625,0.0003676678334355688,3.220386545662624e-05,5.8076848162050824e-05,3.318020442664227e-05,4.2,3.6
2.41796875,0.00040769773120622566,1.8046950391393927e-05,4.440810258182652e-05,3.1227526486610226e-05,4.2,3.6
2.421875,0.0005038976303456169,2.439315369649807e-05,4.391993309681851e-05,2.0487797816433986e-05,4.2,3.6
2.42578125,0.0005029212913756009,4.391993309681851e-05,5.856501764705884e-05,2.488132318150608e-05,4.2,3.6
2.4296875,0.0004980395965255207,6.933525691004809e-05,6.640624000000002e-05,2.976301803158619e-05,4.2,3.6
2.43359375,0.0003432593591851682,5.66123397070268e-05,5.319515331197072e-05,2.976301803158619e-05,4.2,3.6
2.4375,0.00032907193352712296,2.7810340091554148e-05,2.7322170606546137e-05,2.878667906157017e-05,4.2,3.6
2.44140625,0.0004721666138200961,3.90382382467384e-05,2.2440475756466028e-05,2.292864524147404e-05,4.2,3.6
2.4453125,0.00044723945949187455,3.5132882366674316e-05,4.050274670176243e-05,2.439315369649807e-05,4.2,3.6
2.44921875,0.0004037923753261616,3.220386545662624e-05,5.514783125200276e-05,3.0739357001602215e-05,4.2,3.6
2.453125,0.00031345051000686655,3.0739357001602215e-05,6.149403455710691e-05,3.562105185168232e-05,4.2,3.6
2.45703125,0.00025535834129091325,4.34317636118105e-05,4.7825288976882595e-05,2.6834001121538125e-05,4.2,3.6
2.4609375,0.00028806569678645,4.245542464179448e-05,6.198220404211491e-05,1.2677086056305808e-05,4.2,3.6
2.46484375,0.000376943053650721,4.440810258182652e-05,7.616962970016024e-05,1.2677086056305808e-05,4.2,3.6
2.46875,0.0003823129179858091,3.952640773174641e-05,7.763413815518427e-05,1.5606102966353874e-05,4.2,3.6
2.47265625,0.00019381847558709087,3.0251187516594204e-05,6.295854301213094e-05,2.2440475756466028e-05,4.2,3.6
2.4765625,0.0002309498670405127,2.6834001121538125e-05,3.562105185168232e-05,2.292864524147404e-05,4.2,3.6
2.48046875,0.00039646983305104144,3.220386545662624e-05,3.1227526486610226e-05,1.8046950391393927e-05,4.2,3.6
2.484375,0.000376454884165713,4.34317636118105e-05,4.977796691691464e-05,1.902328936140995e-05,4.2,3.6
2.48828125,0.0002953882390615702,4.196725515678646e-05,6.738257897001604e-05,2.0975967301441994e-05,4.2,3.6
2.4921875,0.00024217776519569695,6.10058650720989e-05,5.954135661707486e-05,2.3904984211490058e-05,4.2,3.6
2.49609375,0.0003193085438269627,5.319515331197072e-05,4.5872611036850557e-05,2.6834001121538125e-05,4.2,3.6
2.5,0.0003374013253650721,5.319515331197072e-05,5.368332279697873e-05,2.829850957656216e-05,4.2,3.6
2.50390625,0.0003193085438269627,5.66123397070268e-05,6.247037352712293e-05,2.5857662151522106e-05,4.2,3.6
2.5078125,0.0002700034258411536,4.391993309681851e-05,6.835891794003205e-05,2.2440475756466028e-05,4.2,3.6
2.51171875,0.00024071325674067292,1.2188916571297797e-05,5.368332279697873e-05,1.902328936140995e-05,4.2,3.6
2.515625,0.00034911739300526437,2.2440475756466028e-05,3.610922133669034e-05,2.3416814726482047e-05,4.2,3.6
2.51953125,0.00033004827249713894,5.514783125200276e-05,5.612417022201878e-05,2.5369492666514095e-05,4.2,3.6
2.5234375,0.0003295601030121309,5.026613640192266e-05,6.442305146715498e-05,1.951145884641796e-05,4.2,3.6
2.52734375,0.0003393540033051042,6.247037352712293e-05,6.884708742504007e-05,2.292864524147404e-05,4.2,3.6
2.53125,0.00030075810339665824,8.007498558022432e-05,7.128793485008013e-05,2.439315369649807e-05,4.2,3.6
2.53515625,0.0003119860015518425,7.568146021515222e-05,5.075430588693066e-05,2.3416814726482047e-05,4.2,3.6
2.5390625,0.0003193085438269627,4.050274670176243e-05,2.9274848546578178e-05,1.902328936140995e-05,4.2,3.6
2.54296875,0.00031003332361181045,4.196725515678646e-05,5.465966176699475e-05,2.3904984211490058e-05,4.2,3.6
2.546875,0.00031735586588693064,7.958681609521631e-05,8.642118888532846e-05,3.3668373911650276e-05,4.2,3.6
2.55078125,0.00030368712030670635,6.835891794003205e-05,7.51932907301442e-05,2.7810340091554148e-05,4.2,3.6
2.5546875,0.00026072820562600136,4.245542464179448e-05,6.393488198214696e-05,2.6345831636530114e-05,4.2,3.6
2.55859375,0.0002836721714213779,3.0739357001602215e-05,6.442305146715498e-05,2.829850957656216e-05,4.2,3.6
2.5625,0.000330536441982147,4.001457721675442e-05,7.42169517601282e-05,2.829850957656216e-05,4.2,3.6
2.56640625,0.000244618612620737,6.393488198214696e-05,7.177610433508813e-05,2.5857662151522106e-05,4.2,3.6
2.5703125,0.00031345051000686655,6.295854301213094e-05,6.198220404211491e-05,2.6834001121538125e-05,4.2,3.6
2.57421875,0.00038719461283588923,4.245542464179448e-05,4.7337119491874584e-05,3.0251187516594204e-05,4.2,3.6
2.578125,0.0002992935949416342,4.636078052185856e-05,2.292864524147404e-05,2.976301803158619e-05,4.2,3.6
2.58203125,0.0002695152563561456,4.7825288976882595e-05,3.3668373911650276e-05,3.1227526486610226e-05,4.2,3.6
2.5859375,0.00029001837472648206,4.1479085671778456e-05,5.71005091920348e-05,3.0739357001602215e-05,4.2,3.6
2.58984375,0.0003574162742504006,4.050274670176243e-05,6.5887559922179e-05,2.829850957656216e-05,4.2,3.6
2.59375,0.0002978290864866102,4.7825288976882595e-05,8.78856973403525e-05,2.7322170606546137e-05,4.2,3.6
2.59765625,0.00023583156189059282,5.2218814341954696e-05,5.368332279697873e-05,3.220386545662624e-05,4.2,3.6
2.6015625,0.0002080059012451362,4.245542464179448e-05,2.3416814726482047e-05,3.318020442664227e-05,4.2,3.6
2.60546875,0.00022558000270542458,4.684895000686658e-05,5.612417022201878e-05,2.829850957656216e-05,4.2,3.6
2.609375,0.0003471647150652323,4.001457721675442e-05,5.71005091920348e-05,2.7322170606546137e-05,4.2,3.6
2.61328125,0.00033886583382009613,3.659739082169834e-05,4.1479085671778456e-05,2.0975967301441994e-05,4.2,3.6
2.6171875,0.0003027107813366903,2.976301803158619e-05,3.220386545662624e-05,2.6345831636530114e-05,4.2,3.6
2.62109375,0.00027244427326619363,3.806189927672238e-05,2.3416814726482047e-05,3.220386545662624e-05,4.2,3.6
2.625,0.00029050654421149005,5.514783125200276e-05,2.5857662151522106e-05,2.878667906157017e-05,4.2,3.6
2.62890625,0.00034765288455024034,5.368332279697873e-05,4.684895000686658e-05,2.829850957656216e-05,4.2,3.6
2.6328125,0.00033788949485008015,5.1730644856946685e-05,6.442305146715498e-05,2.9274848546578178e-05,4.2,3.6
2.63671875,0.00030759247618677044,4.7825288976882595e-05,2.9274848546578178e-05,2.6345831636530114e-05,4.2,3.6
2.640625,0.00025926369717097734,5.8076848162050824e-05,2.0975967301441994e-05,2.2440475756466028e-05,4.2,3.6
2.64453125,0.00025340566335088123,6.442305146715498e-05,5.66123397070268e-05,2.7810340091554148e-05,4.2,3.6
2.6484375,0.00029831725597161823,7.275244330510416e-05,7.90986466102083e-05,2.7810340091554148e-05,4.2,3.6
2.65234375,0.0003310246114671549,5.758867867704282e-05,6.442305146715498e-05,2.5369492666514095e-05,4.2,3.6
2.65625,0.00029490006957656213,2.3416814726482047e-05,1.6094272451361885e-05,3.1227526486610226e-05,4.2,3.6
2.66015625,0.00015622942524147403,2.878667906157017e-05,1.8046950391393927e-05,3.610922133669034e-05,4.2,3.6
2.6640625,0.00024217776519569695,3.952640773174641e-05,3.4156543396658294e-05,3.806189927672238e-05,4.2,3.6
2.66796875,0.00038865912129091326,4.050274670176243e-05,4.538444155184254e-05,3.4156543396658294e-05,4.2,3.6
2.671875,0.0003598571216754406,4.7825288976882595e-05,4.538444155184254e-05,2.976301803158619e-05,4.2,3.6
2.67578125,0.0002778141376012818,3.8550068761730395e-05,3.806189927672238e-05,3.5132882366674316e-05,4.2,3.6
2.6796875,0.00021923379940032045,2.7810340091554148e-05,2.488132318150608e-05,3.610922133669034e-05,4.2,3.6
2.68359375,0.00028513667987640194,2.2440475756466028e-05,3.7085560306706354e-05,3.952640773174641e-05,4.2,3.6
2.6875,0.00033788949485008015,4.440810258182652e-05,5.465966176699475e-05,3.562105185168232e-05,4.2,3.6
2.69140625,0.00029001837472648206,6.10058650720989e-05,4.050274670176243e-05,3.220386545662624e-05,4.2,3.6
2.6953125,0.00021484027403524837,3.952640773174641e-05,4.294359412680248e-05,3.90382382467384e-05,4.2,3.6
2.69921875,0.00020165969794003205,3.562105185168232e-05,4.7825288976882595e-05,3.4156543396658294e-05,4.2,3.6
2.703125,0.00036132163013046463,4.831345846189061e-05,3.90382382467384e-05,3.171569597161824e-05,4.2,3.6
2.70703125,0.00039646983305104144,6.344671249713895e-05,3.8550068761730395e-05,3.171569597161824e-05,4.2,3.6
2.7109375,0.00033004827249713894,3.8550068761730395e-05,5.465966176699475e-05,2.7810340091554148e-05,4.2,3.6
2.71484375,0.0002543820023208972,6.330882751201665e-06,5.270698382696271e-05,3.0251187516594204e-05,4.2,3.6
2.71875,0.00029001837472648206,3.7085560306706354e-05,3.318020442664227e-05,2.6834001121538125e-05,4.2,3.6
2.72265625,0.00034423569815518424,6.491122095216298e-05,2.1464136786450005e-05,2.976301803158619e-05,4.2,3.6
2.7265625,0.0003271192555870909,6.787074845502406e-05,3.610922133669034e-05,3.220386545662624e-05,4.2,3.6
2.73046875,0.0003178440353719387,6.884708742504007e-05,4.684895000686658e-05,2.6345831636530114e-05,4.2,3.6
2.734375,0.0002753732901762417,4.636078052185856e-05,4.440810258182652e-05,3.220386545662624e-05,4.2,3.6
2.73828125,0.00026072820562600136,2.878667906157017e-05,2.5857662151522106e-05,3.3668373911650276e-05,4.2,3.6
2.7421875,0.0002695152563561456,2.0975967301441994e-05,1.2188916571297797e-05,3.0739357001602215e-05,4.2,3.6
2.74609375,0.0003119860015518425,1.8046950391393927e-05,2.7322170606546137e-05,2.7810340091554148e-05,4.2,3.6
2.75,0.00036278613858548866,8.77173017624172e-06,4.391993309681851e-05,3.46447128816663e-05,4.2,3.6
2.75390625,0.00023729607034561685,2.2440475756466028e-05,3.0251187516594204e-05,3.952640773174641e-05,4.2,3.6
2.7578125,0.0002397369177706569,4.7825288976882595e-05,3.7573729791714366e-05,2.6345831636530114e-05,4.2,3.6
2.76171875,0.0003618097996154727,5.026613640192266e-05,4.440810258182652e-05,3.0739357001602215e-05,4.2,3.6
2.765625,0.00037596671468070495,6.5887559922179e-05,5.124247537193867e-05,3.3668373911650276e-05,4.2,3.6
2.76953125,0.0003246784081620508,7.372878227512018e-05,8.78856973403525e-05,2.9274848546578178e-05,4.2,3.6
2.7734375,0.00026072820562600136,5.417149228198674e-05,8.446851094529643e-05,3.1227526486610226e-05,4.2,3.6
2.77734375,0.00032028488279697875,5.66123397070268e-05,5.465966176699475e-05,2.9274848546578178e-05,4.2,3.6
2.78125,0.0003139386794918746,4.636078052185856e-05,3.3668373911650276e-05,2.5857662151522106e-05,4.2,3.6
2.78515625,0.0002846485103913939,4.0990916186770444e-05,3.220386545662624e-05,2.829850957656216e-05,4.2,3.6
2.7890625,0.0002089822402151522,6.933525691004809e-05,3.952640773174641e-05,3.46447128816663e-05,4.2,3.6
2.79296875,0.00018503142485694669,5.465966176699475e-05,4.4896272066834534e-05,3.562105185168232e-05,4.2,3.6
2.796875,0.0003193085438269627,5.026613640192266e-05,5.2218814341954696e-05,2.976301803158619e-05,4.2,3.6
2.80078125,0.00034570020661020827,5.319515331197072e-05,5.612417022201878e-05,3.46447128816663e-05,4.2,3.6
2.8046875,0.0003486292235202564,6.149403455710691e-05,6.247037352712293e-05,3.7573729791714366e-05,4.2,3.6
2.80859375,0.00033447230845502405,6.149403455710691e-05,6.933525691004809e-05,3.7085560306706354e-05,4.2,3.6
2.8125,0.00032077305228198674,5.026613640192266e-05,8.30040024902724e-05,3.610922133669034e-05,4.2,3.6
2.81640625,0.0003119860015518425,3.3668373911650276e-05,6.0029526102082876e-05,3.171569597161824e-05,4.2,3.6
2.8203125,0.00027586145966124973,2.292864524147404e-05,4.196725515678646e-05,2.829850957656216e-05,4.2,3.6
2.82421875,0.0003061279677317464,3.659739082169834e-05,5.124247537193867e-05,3.0739357001602215e-05,4.2,3.6
2.828125,0.00031003332361181045,4.294359412680248e-05,5.417149228198674e-05,3.90382382467384e-05,4.2,3.6
2.83203125,0.00027976681554131377,5.612417022201878e-05,7.226427382009615e-05,3.3668373911650276e-05,4.2,3.6
2.8359375,0.000244618612620737,3.952640773174641e-05,6.689440948500802e-05,2.7810340091554148e-05,4.2,3.6
2.83984375,0.00026463356150606545,2.5369492666514095e-05,4.391993309681851e-05,2.878667906157017e-05,4.2,3.6
2.84375,0.0003549754268253605,4.440810258182652e-05,5.368332279697873e-05,3.806189927672238e-05,4.2,3.6
2.84765625,0.00023876057880064088,5.2218814341954696e-05,6.787074845502406e-05,3.7085560306706354e-05,4.2,3.6
2.8515625,0.00020507688433508815,5.417149228198674e-05,6.295854301213094e-05,3.0251187516594204e-05,4.2,3.6
2.85546875,0.00029831725597161823,3.8550068761730395e-05,6.689440948500802e-05,3.171569597161824e-05,4.2,3.6
2.859375,0.0003144268489768826,3.659739082169834e-05,7.372878227512018e-05,3.46447128816663e-05,4.2,3.6
2.86328125,0.00029978176442664226,5.71005091920348e-05,8.495668043030443e-05,3.318020442664227e-05,4.2,3.6
2.8671875,0.00026902708687113753,5.368332279697873e-05,9.520823961547266e-05,3.0251187516594204e-05,4.2,3.6
2.87109375,0.0002992935949416342,6.295854301213094e-05,8.983837528038453e-05,2.7322170606546137e-05,4.2,3.6
2.875,0.00026072820562600136,5.2218814341954696e-05,8.690935837033648e-05,3.0739357001602215e-05,4.2,3.6
2.87890625,0.0002221628163103685,5.075430588693066e-05,0.00010692430725566493,3.220386545662624e-05,4.2,3.6
2.8828125,0.00019970702000000003,5.905318713206685e-05,9.61845785854887e-05,3.5132882366674316e-05,4.2,3.6
2.88671875,0.0002119112571252003,5.270698382696271e-05,9.61845785854887e-05,3.5132882366674316e-05,4.2,3.6
2.890625,0.0003432593591851682,5.954135661707486e-05,0.00011375868004577707,2.976301803158619e-05,4.2,3.6
2.89453125,0.00032809559455710687,6.198220404211491e-05,9.71609175555047e-05,3.7085560306706354e-05,4.2,3.6
2.8984375,0.00027195610378118564,6.149403455710691e-05,9.374373116044863e-05,4.001457721675442e-05,4.2,3.6
2.90234375,0.00025145298541084916,6.539939043717099e-05,0.00010936515468070498,3.0739357001602215e-05,4.2,3.6
2.90625,0.00028513667987640194,8.349217197528039e-05,9.911359549553675e-05,3.806189927672238e-05,4.2,3.6
2.91015625,0.000287089357816434,8.007498558022432e-05,9.71609175555047e-05,3.3668373911650276e-05,4.2,3.6
2.9140625,0.00021728112146028838,5.758867867704282e-05,0.00010790064622568095,3.269203494163426e-05,4.2,3.6
2.91796875,0.0002221628163103685,4.684895000686658e-05,8.690935837033648e-05,4.001457721675442e-05,4.2,3.6
2.921875,0.00022850901961547266,6.933525691004809e-05,8.056315506523234e-05,3.1227526486610226e-05,4.2,3.6
2.92578125,0.00024608312107576104,8.251583300526438e-05,0.00010741247674067293,3.3668373911650276e-05,4.2,3.6
2.9296875,0.000244618612620737,6.539939043717099e-05,0.00010887698519569697,3.4156543396658294e-05,4.2,3.6
2.93359375,0.00025487017180590525,5.2218814341954696e-05,9.813725652552073e-05,3.659739082169834e-05,4.2,3.6
2.9375,0.0002778141376012818,4.001457721675442e-05,0.00010253078189059284,3.5132882366674316e-05,4.2,3.6
2.94140625,0.00016013478112153812,5.417149228198674e-05,0.00011815220541084917,2.829850957656216e-05,4.2,3.6
2.9453125,0.0002167929519752804,7.275244330510416e-05,0.0001010662734355688,3.806189927672238e-05,4.2,3.6
2.94921875,0.00031686769640192265,8.007498558022432e-05,9.667274807049669e-05,2.5369492666514095e-05,4.2,3.6
2.953125,0.00024559495159075305,8.153949403524835e-05,9.032654476539255e-05,2.1952306271458016e-05,4.2,3.6
2.95703125,0.00017868522155184253,5.5636000737010774e-05,8.398034146028841e-05,2.439315369649807e-05,4.2,3.6
2.9609375,0.00017477986567177844,2.3416814726482047e-05,8.690935837033648e-05,2.829850957656216e-05,4.2,3.6
2.96484375,0.00027927864605630583,3.1227526486610226e-05,8.83738668253605e-05,3.7573729791714366e-05,4.2,3.6
2.96875,0.00022069830785534448,4.5872611036850557e-05,8.886203631036852e-05,3.952640773174641e-05,4.2,3.6
2.97265625,0.00012449840871595332,3.269203494163426e-05,7.958681609521631e-05,3.7085560306706354e-05,4.2,3.6
2.9765625,0.00010594796828564891,1.755878090638592e-05,6.0029526102082876e-05,3.952640773174641e-05,4.2,3.6
2.98046875,0.0001596466116365301,4.636078052185856e-05,6.640624000000002e-05,3.171569597161824e-05,4.2,3.6
2.984375,0.00024413044313572902,7.177610433508813e-05,9.081471425040057e-05,2.3416814726482047e-05,4.2,3.6
2.98828125,0.00023192620601052873,6.393488198214696e-05,8.935020579537654e-05,2.5857662151522106e-05,4.2,3.6
2.9921875,0.0002392487482856489,6.442305146715498e-05,8.690935837033648e-05,2.7322170606546137e-05,4.2,3.6
2.99609375,0.00010545979880064089,5.270698382696271e-05,7.714596867017625e-05,3.0739357001602215e-05,4.2,3.6
3.0,5.465966176699475e-05,4.977796691691464e-05,4.9289797431906635e-05,2.7810340091554148e-05,4.2,3.6
3.00390625,0.00023387888395056078,6.835891794003205e-05,4.7825288976882595e-05,2.7322170606546137e-05,4.2,3.6
3.0078125,0.00023534339240558483,5.5636000737010774e-05,6.247037352712293e-05,2.6345831636530114e-05,4.2,3.6
3.01171875,0.000198700170437171,4.050274670176243e-05,7.372878227512018e-05,2.829850957656216e-05,4.2,3.6
3.015625,0.00014304884914625773,4.9289797431906635e-05,7.324061279011216e-05,3.806189927672238e-05,4.2,3.6
3.01953125,0.00012205756129091327,5.417149228198674e-05,5.66123397070268e-05,4.4896272066834534e-05,4.2,3.6
3.0234375,0.00016843366236667432,6.491122095216298e-05,5.2218814341954696e-05,4.34317636118105e-05,4.2,3.6
3.02734375,0.00019186579764705886,8.251583300526438e-05,6.393488198214696e-05,4.7337119491874584e-05,4.2,3.6
3.03125,0.00021532844352025636,6.442305146715498e-05,5.270698382696271e-05,5.075430588693066e-05,4.2,3.6
3.03515625,0.00010253078189059284,2.878667906157017e-05,4.001457721675442e-05,4.1479085671778456e-05,4.2,3.6
3.0390625,0.0001240102392309453,1.9999628331425975e-05,1.0236238631265752e-05,3.952640773174641e-05,4.2,3.6
3.04296875,0.00026268088356603343,-1.7070741936369862e-05,-1.7070741936369862e-05,3.7085560306706354e-05,4.2,3.6
3.046875,0.0002651217309910735,-2.4393284211490024e-05,1.7070611421377907e-05,4.245542464179448e-05,4.2,3.6
3.05078125,0.00020995857918516825,-3.1715826486610186e-05,-2.683413163653008e-05,4.5872611036850557e-05,4.2,3.6
3.0546875,0.00015330040833142598,-7.177623485008008e-05,-0.00011082979365072097,4.001457721675442e-05,4.2,3.6
3.05859375,0.0002084940707301442,-0.0001079007767406729,-0.00013719094584115356,3.0739357001602215e-05,4.2,3.6
3.0625,0.0002392487482856489,-0.00013133291202105743,-0.0001528123693614099,4.1479085671778456e-05,4.2,3.6
3.06640625,0.00021728112146028838,-0.00016599294545662622,-0.00018844874176699472,3.952640773174641e-05,4.2,3.6
3.0703125,0.0001894249502220188,-0.00021044687918516823,-0.00023094999755550466,4.0990916186770444e-05,4.2,3.6
3.07421875,0.00017380352670176243,-0.0002787906070862897,-0.0002822077934813458,4.880162794689862e-05,4.2,3.6
3.078125,0.0002729324427512017,-0.0003271193861020828,-0.00033691328639505604,4.7337119491874584e-05,4.2,3.6
3.08203125,0.0003105214930968185,-0.00031003345412680244,-0.0003515583709452964,6.539939043717099e-05,4.2,3.6
3.0859375,0.0002929473916365301,-0.00028855399678644997,-0.0003197968438269627,7.90986466102083e-05,4.2,3.6
3.08984375,0.0002787904765712978,-0.00028904216627145796,-0.0003129624710368505,8.642118888532846e-05,4.2,3.6
3.09375,0.0002787904765712978,-0.00028025511554131375,-0.0002997818949416342,7.714596867017625e-05,4.2,3.6
3.09765625,0.0002538938328358892,-0.00024803592953078505,-0.00026658636996108946,7.90986466102083e-05,4.2,3.6
3.1015625,0.00025828735820096135,-0.00021044687918516823,-0.0002407133872556649,9.130288373540858e-05,4.2,3.6
3.10546875,0.00027586145966124973,-0.00017673267412680245,-0.00018893691125200274,9.276739219043261e-05,4.2,3.6
3.109375,0.00020947040970016023,-0.00014890701348134583,-0.0001523241998764019,8.935020579537654e-05,4.2,3.6
3.11328125,0.00018747227228198672,-0.00012449853923094528,-0.00012059318335088118,7.47051212451362e-05,4.2,3.6
3.1171875,0.000155741255756466,-9.618470910048064e-05,-8.837399734035246e-05,7.03115958800641e-05,4.2,3.6
3.12109375,0.00020702956227512017,-4.050287721675439e-05,-8.300413300526435e-05,6.10058650720989e-05,4.2,3.6
3.125,0.00025340566335088123,-1.5118063996337817e-05,-5.6612470222018745e-05,5.1730644856946685e-05,4.2,3.6
3.12890625,8.349217197528039e-05,-2.9138268711375426e-06,-3.122765700160218e-05,5.075430588693066e-05,4.2,3.6
3.1328125,9.764908704051272e-05,2.1464136786450005e-05,-1.5118063996337817e-05,4.9289797431906635e-05,4.2,3.6
3.13671875,0.00021093491815518426,1.4141594511329842e-05,-9.61148931105499e-07,4.050274670176243e-05,4.2,3.6
3.140625,0.00015622942524147403,1.7070611421377907e-05,2.7322170606546137e-05,3.0739357001602215e-05,4.2,3.6
3.14453125,9.276739219043261e-05,4.4896272066834534e-05,4.34317636118105e-05,2.2440475756466028e-05,4.2,3.6
3.1484375,0.00011375868004577707,7.763413815518427e-05,5.758867867704282e-05,2.829850957656216e-05,4.2,3.6
3.15234375,0.00015232406936140994,0.00010545979880064089,0.0001010662734355688,4.050274670176243e-05,4.2,3.6
3.15625,0.00011082966313572902,9.667274807049669e-05,9.862542601052873e-05,2.976301803158619e-05,4.2,3.6
3.16015625,6.787074845502406e-05,8.78856973403525e-05,9.130288373540858e-05,1.9999628331425975e-05,4.2,3.6
3.1640625,3.952640773174641e-05,0.00011424684953078509,0.00011424684953078509,2.292864524147404e-05,4.2,3.6
3.16796875,6.344671249713895e-05,0.00013426179841611355,0.00011619952747081714,2.2440475756466028e-05,4.2,3.6
3.171875,0.00016111112009155413,0.00014207251017624172,0.00010448345983062488,1.902328936140995e-05,4.2,3.6
3.17578125,0.00015378857781643397,0.00013377362893110555,9.911359549553675e-05,1.951145884641796e-05,4.2,3.6
3.1796875,9.61845785854887e-05,0.0001284037645960174,0.00010741247674067293,1.4141594511329842e-05,4.2,3.6
3.18359375,7.275244330510416e-05,0.00013279728996108952,0.00012352206974593728,3.401865841153599e-06,4.2,3.6
3.1875,9.71609175555047e-05,0.00013767898481116962,0.00011668769695582514,2.913696356145588e-06,4.2,3.6
3.19140625,8.056315506523234e-05,0.00012938010356603342,0.00012059305283588923,4.866374296177632e-06,4.2,3.6
3.1953125,8.446851094529643e-05,0.00013474996790112154,0.00012254573077592128,9.748069146257742e-06,4.2,3.6
3.19921875,6.393488198214696e-05,0.00013426179841611355,0.00010741247674067293,3.890035326161609e-06,4.2,3.6
3.203125,5.2218814341954696e-05,0.0001313327815060655,0.00011522318850080111,4.378204811169621e-06,4.2,3.6
3.20703125,8.73975278553445e-05,0.0001332854594460975,0.00012205756129091327,8.77173017624172e-06,4.2,3.6
3.2109375,7.47051212451362e-05,0.00012693925614099338,0.000110341493650721,1.0236238631265752e-05,4.2,3.6
3.21484375,8.544484991531244e-05,0.00012059305283588923,0.0001010662734355688,9.259899661249731e-06,4.2,3.6
3.21875,0.0001332854594460975,0.0001279155951110094,9.179105322041659e-05,8.283560691233709e-06,4.2,3.6
3.22265625,3.1227526486610226e-05,0.00011619952747081714,9.374373116044863e-05,1.0724408116273763e-05,4.2,3.6
3.2265625,7.616962970016024e-05,0.00012693925614099338,0.00011229417159075305,8.283560691233709e-06,4.2,3.6
3.23046875,0.0001855195943419547,0.00014256067966124974,0.0001367026458411536,1.365342502632183e-05,4.2,3.6
3.234375,0.00011229417159075305,0.00010497162931563287,0.00010497162931563287,9.610184161135442e-07,4.2,3.6
3.23828125,2.3416814726482047e-05,0.00010008993446555277,8.349217197528039e-05,-2.9138268711375426e-06,4.2,3.6
3.2421875,5.2218814341954696e-05,0.00010204261240558482,9.276739219043261e-05,1.3165255541313818e-05,4.2,3.6
3.24609375,0.00019772383146715496,0.00011082966313572902,9.130288373540858e-05,9.259899661249731e-06,4.2,3.6
3.25,0.0001689218318516823,0.0001313327815060655,0.00011327051056076907,4.378204811169621e-06,4.2,3.6
3.25390625,9.032654476539255e-05,0.00010497162931563287,0.00010253078189059284,1.902328936140995e-05,4.2,3.6
3.2578125,1.4629763996337851e-05,9.520823961547266e-05,8.105132455024035e-05,1.365342502632183e-05,4.2,3.6
3.26171875,3.4156543396658294e-05,9.960176498054477e-05,8.202766352025636e-05,1.3165255541313818e-05,4.2,3.6
3.265625,0.00019235396713206685,9.179105322041659e-05,9.130288373540858e-05,3.4156543396658294e-05,4.2,3.6
3.26953125,0.00018210240794689863,0.00011131783262073704,9.667274807049669e-05,5.842713266193654e-06,4.2,3.6
3.2734375,0.00014256067966124974,0.00011229417159075305,9.032654476539255e-05,-1.0236369146257707e-05,4.2,3.6
3.27734375,9.960176498054477e-05,8.78856973403525e-05,6.5887559922179e-05,7.795391206225697e-06,4.2,3.6
3.28125,0.00013230912047608147,0.00011131783262073704,7.177610433508813e-05,2.913696356145588e-06,4.2,3.6
3.28515625,0.0001894249502220188,0.0001454896965712978,0.00010253078189059284,4.866374296177632e-06,4.2,3.6
3.2890625,0.00017380352670176243,0.0001230339002609293,9.71609175555047e-05,8.77173017624172e-06,4.2,3.6
3.29296875,0.00016501647597161822,8.495668043030443e-05,8.544484991531244e-05,1.0236238631265752e-05,4.2,3.6
3.296875,0.00010643613777065691,7.812230764019227e-05,7.372878227512018e-05,1.9999628331425975e-05,4.2,3.6
3.30078125,8.056315506523234e-05,8.056315506523234e-05,7.372878227512018e-05,2.878667906157017e-05,4.2,3.6
3.3046875,0.00013035644253604946,8.544484991531244e-05,6.5887559922179e-05,3.4156543396658294e-05,4.2,3.6
3.30859375,0.00019235396713206685,7.51932907301442e-05,6.640624000000002e-05,1.0236238631265752e-05,4.2,3.6
3.3125,0.00019674749249713893,7.079976536507211e-05,6.933525691004809e-05,7.307221721217687e-06,4.2,3.6
3.31640625,4.636078052185856e-05,6.835891794003205e-05,6.738257897001604e-05,1.902328936140995e-05,4.2,3.6
3.3203125,0.00010692430725566493,6.835891794003205e-05,8.544484991531244e-05,1.365342502632183e-05,4.2,3.6
3.32421875,0.00023583156189059282,8.105132455024035e-05,7.958681609521631e-05,1.8535119876401938e-05,4.2,3.6
3.328125,0.00021874562991531246,6.393488198214696e-05,7.958681609521631e-05,2.0487797816433986e-05,4.2,3.6
3.33203125,0.00015525308627145802,6.247037352712293e-05,6.689440948500802e-05,2.9274848546578178e-05,4.2,3.6
3.3359375,8.73975278553445e-05,8.83738668253605e-05,6.344671249713895e-05,2.9274848546578178e-05,4.2,3.6
3.33984375,0.00016257562854657816,7.861047712520029e-05,7.177610433508813e-05,1.6582441936369896e-05,4.2,3.6
3.34375,0.00017087450979171435,6.738257897001604e-05,5.417149228198674e-05,2.878667906157017e-05,4.2,3.6
3.34765625,0.00014793054399633786,6.689440948500802e-05,4.684895000686658e-05,2.7810340091554148e-05,4.2,3.6
3.3515625,9.276739219043261e-05,6.344671249713895e-05,3.659739082169834e-05,2.878667906157017e-05,4.2,3.6
3.35546875,4.880162794689862e-05,6.442305146715498e-05,3.7573729791714366e-05,3.562105185168232e-05,4.2,3.6
3.359375,0.00016452830648661023,5.465966176699475e-05,3.3668373911650276e-05,1.3165255541313818e-05,4.2,3.6
3.36328125,0.000199188339922179,5.954135661707486e-05,1.5606102966353874e-05,1.5117933481345863e-05,4.2,3.6
3.3671875,0.00020117152845502406,7.128793485008013e-05,2.6834001121538125e-05,1.7070611421377907e-05,4.2,3.6
3.37109375,0.00011571135798580912,5.270698382696271e-05,4.5872611036850557e-05,2.3904984211490058e-05,4.2,3.6
3.375,5.612417022201878e-05,4.440810258182652e-05,4.001457721675442e-05,3.1227526486610226e-05,4.2,3.6
3.37890625,9.130288373540858e-05,6.0029526102082876e-05,2.6345831636530114e-05,2.0975967301441994e-05,4.2,3.6
3.3828125,9.667274807049669e-05,6.640624000000002e-05,3.269203494163426e-05,2.7810340091554148e-05,4.2,3.6
3.38671875,0.00011571135798580912,5.026613640192266e-05,3.90382382467384e-05,3.4156543396658294e-05,4.2,3.6
3.390625,6.5887559922179e-05,5.71005091920348e-05,5.075430588693066e-05,2.0487797816433986e-05,4.2,3.6
3.39453125,3.562105185168232e-05,7.51932907301442e-05,4.7337119491874584e-05,1.755878090638592e-05,4.2,3.6
3.3984375,2.5857662151522106e-05,2.9274848546578178e-05,6.819052236209676e-06,2.829850957656216e-05,4.2,3.6
3.40234375,7.079976536507211e-05,-9.61148931105499e-07,-5.354674296177598e-06,3.220386545662624e-05,4.2,3.6
3.40625,0.00013230912047608147,1.8535119876401938e-05,6.819052236209676e-06,3.0251187516594204e-05,4.2,3.6
3.41015625,-1.0236369146257707e-05,2.0975967301441994e-05,-9.61148931105499e-07,2.7322170606546137e-05,4.2,3.6
3.4140625,-6.819182751201631e-06,9.259899661249731e-06,-1.44931841611351e-06,1.902328936140995e-05,4.2,3.6
3.41796875,0.00010643613777065691,-1.5320553902477717e-08,-1.072453863126572e-05,1.5117933481345863e-05,4.2,3.6
3.421875,0.00010057810395056078,-4.866504811169587e-06,-3.366850442664224e-05,2.7810340091554148e-05,4.2,3.6
3.42578125,9.032654476539255e-05,2.976301803158619e-05,-5.842843781185608e-06,2.0975967301441994e-05,4.2,3.6
3.4296875,4.4896272066834534e-05,5.026613640192266e-05,2.292864524147404e-05,4.378204811169621e-06,4.2,3.6
3.43359375,7.714596867017625e-05,4.001457721675442e-05,1.902328936140995e-05,1.6094272451361885e-05,4.2,3.6
3.4375,7.568146021515222e-05,3.1227526486610226e-05,2.2440475756466028e-05,2.0975967301441994e-05,4.2,3.6
3.44140625,4.391993309681851e-05,3.0251187516594204e-05,1.902328936140995e-05,2.1464136786450005e-05,4.2,3.6
3.4453125,3.3668373911650276e-05,5.8076848162050824e-05,1.9999628331425975e-05,2.0487797816433986e-05,4.2,3.6
3.44921875,3.890035326161609e-06,4.636078052185856e-05,1.0236238631265752e-05,2.6834001121538125e-05,4.2,3.6
3.453125,0.0001191285443808652,2.0975967301441994e-05,4.378204811169621e-06,1.5606102966353874e-05,4.2,3.6
3.45703125,0.00011961671386587322,2.0487797816433986e-05,3.890035326161609e-06,1.1212577601281776e-05,4.2,3.6
3.4609375,9.520823961547266e-05,2.5369492666514095e-05,-3.401996356145554e-06,1.3165255541313818e-05,4.2,3.6
3.46484375,7.861047712520029e-05,2.6834001121538125e-05,1.5117933481345863e-05,2.488132318150608e-05,4.2,3.6
3.46875,7.177610433508813e-05,3.269203494163426e-05,1.6582441936369896e-05,3.220386545662624e-05,4.2,3.6
3.47265625,0.00011522318850080111,3.3668373911650276e-05,9.259899661249731e-06,1.5606102966353874e-05,4.2,3.6
3.4765625,6.393488198214696e-05,2.292864524147404e-05,-4.72979446097488e-07,3.562105185168232e-05,4.2,3.6
3.48046875,4.440810258182652e-05,3.4156543396658294e-05,7.795391206225697e-06,3.220386545662624e-05,4.2,3.6
3.484375,6.295854301213094e-05,4.391993309681851e-05,2.0975967301441994e-05,-4.3783353261615755e-06,4.2,3.6
3.48828125,7.03115958800641e-05,4.636078052185856e-05,3.1227526486610226e-05,1.0236238631265752e-05,4.2,3.6
3.4921875,5.5636000737010774e-05,5.368332279697873e-05,3.0251187516594204e-05,1.8535119876401938e-05,4.2,3.6
3.49609375,3.1227526486610226e-05,2.2440475756466028e-05,1.1700747086289786e-05,4.001457721675442e-05,4.2,3.6
3.5,6.933525691004809e-05,1.951145884641796e-05,1.6582441936369896e-05,2.878667906157017e-05,4.2,3.6
3.50390625,3.562105185168232e-05,4.440810258182652e-05,1.6582441936369896e-05,2.913696356145588e-06,4.2,3.6
3.5078125,6.198220404211491e-05,4.0990916186770444e-05,1.1212577601281776e-05,1.755878090638592e-05,4.2,3.6
3.51171875,0.00016257562854657816,3.659739082169834e-05,1.8046950391393927e-05,5.354543781185643e-06,4.2,3.6
3.515625,0.00011571135798580912,1.6582441936369896e-05,2.913696356145588e-06,1.5117933481345863e-05,4.2,3.6
3.51953125,7.079976536507211e-05,2.7322170606546137e-05,-4.72979446097488e-07,2.878667906157017e-05,4.2,3.6
3.5234375,3.659739082169834e-05,3.171569597161824e-05,4.7284893110553325e-07,3.0251187516594204e-05,4.2,3.6
3.52734375,9.520823961547266e-05,2.6834001121538125e-05,1.6582441936369896e-05,2.7810340091554148e-05,4.2,3.6
3.53125,9.569640910048068e-05,2.878667906157017e-05,3.171569597161824e-05,1.7070611421377907e-05,4.2,3.6
3.53515625,4.050274670176243e-05,3.318020442664227e-05,1.9999628331425975e-05,3.890035326161609e-06,4.2,3.6
3.5390625,-2.425657386129532e-06,2.7322170606546137e-05,1.951145884641796e-05,2.7810340091554148e-05,4.2,3.6
3.54296875,7.307221721217687e-06,7.307221721217687e-06,4.866374296177632e-06,3.8550068761730395e-05,4.2,3.6
3.546875,0.0001313327815060655,1.6582441936369896e-05,4.378204811169621e-06,6.330882751201665e-06,4.2,3.6
3.55078125,0.0001816142384618906,4.196725515678646e-05,1.2188916571297797e-05,1.2188916571297797e-05,4.2,3.6
3.5546875,0.00012645108665598537,4.001457721675442e-05,1.902328936140995e-05,1.1700747086289786e-05,4.2,3.6
3.55859375,4.977796691691464e-05,1.6582441936369896e-05,3.401865841153599e-06,3.0251187516594204e-05,4.2,3.6
3.5625,0.00012986827305104144,1.4629763996337851e-05,-2.2440606271457983e-05,5.1730644856946685e-05,4.2,3.6
3.56640625,0.00018503142485694669,2.5369492666514095e-05,1.5606102966353874e-05,2.0487797816433986e-05,4.2,3.6
3.5703125,0.00012352206974593728,2.6834001121538125e-05,2.878667906157017e-05,1.5606102966353874e-05,4.2,3.6
3.57421875,7.958681609521631e-05,2.6345831636530114e-05,1.2677086056305808e-05,9.748069146257742e-06,4.2,3.6
3.578125,6.149403455710691e-05,3.171569597161824e-05,1.4491879011215552e-06,2.7322170606546137e-05,4.2,3.6
3.58203125,7.51932907301442e-05,3.269203494163426e-05,1.0724408116273763e-05,2.5857662151522106e-05,4.2,3.6
3.5859375,0.00012205756129091327,3.1227526486610226e-05,1.4629763996337851e-05,1.5606102966353874e-05,4.2,3.6
3.58984375,0.0001596466116365301,3.171569597161824e-05,-2.9138268711375426e-06,3.5132882366674316e-05,4.2,3.6
3.59375,0.00015476491678645,3.806189927672238e-05,1.951145884641796e-05,2.7810340091554148e-05,4.2,3.6
3.59765625,3.890035326161609e-06,1.5606102966353874e-05,1.5606102966353874e-05,3.3668373911650276e-05,4.2,3.6
3.6015625,3.562105185168232e-05,1.5117933481345863e-05,-1.2677216571297761e-05,4.196725515678646e-05,4.2,3.6
3.60546875,0.00018259057743190662,4.196725515678646e-05,-9.260030176241686e-06,2.292864524147404e-05,4.2,3.6
3.609375,0.00017477986567177844,4.34317636118105e-05,2.292864524147404e-05,1.6582441936369896e-05,4.2,3.6
3.61328125,9.032654476539255e-05,2.7322170606546137e-05,2.5857662151522106e-05,2.7810340091554148e-05,4.2,3.6
3.6171875,6.344671249713895e-05,1.8535119876401938e-05,-6.819182751201631e-06,3.5132882366674316e-05,4.2,3.6
3.62109375,0.00012889193408102543,1.365342502632183e-05,-2.8786809576562122e-05,3.7085560306706354e-05,4.2,3.6
3.625,0.0001332854594460975,1.5606102966353874e-05,-8.771860691233675e-06,1.1700747086289786e-05,4.2,3.6
3.62890625,0.00014060800172121767,3.220386545662624e-05,1.8046950391393927e-05,2.4255268711375773e-06,4.2,3.6
3.6328125,6.689440948500802e-05,4.245542464179448e-05,1.937357386129566e-06,3.8550068761730395e-05,4.2,3.6
3.63671875,-3.401996356145554e-06,4.050274670176243e-05,-4.3783353261615755e-06,3.5132882366674316e-05,4.2,3.6
3.640625,0.00013621447635614556,2.3416814726482047e-05,-5.842843781185608e-06,4.7825288976882595e-05,4.2,3.6
3.64453125,0.0001860077638269627,3.659739082169834e-05,2.4255268711375773e-06,3.318020442664227e-05,4.2,3.6
3.6484375,0.00015183589987640195,4.9289797431906635e-05,2.5857662151522106e-05,-8.771860691233675e-06,4.2,3.6
3.65234375,0.00012547474768596933,4.050274670176243e-05,2.1464136786450005e-05,1.5606102966353874e-05,4.2,3.6
3.65625,0.0001284037645960174,3.3668373911650276e-05,2.7810340091554148e-05,2.439315369649807e-05,4.2,3.6
3.66015625,9.71609175555047e-05,2.3416814726482047e-05,7.795391206225697e-06,3.5132882366674316e-05,4.2,3.6
3.6640625,7.616962970016024e-05,2.6345831636530114e-05,-2.9138268711375426e-06,3.5132882366674316e-05,4.2,3.6
3.66796875,0.00014500152708628978,2.5369492666514095e-05,1.1700747086289786e-05,1.755878090638592e-05,4.2,3.6
3.671875,0.00010594796828564891,2.488132318150608e-05,-6.3310132661936195e-06,1.951145884641796e-05,4.2,3.6
3.67578125,7.177610433508813e-05,2.488132318150608e-05,-2.488145369649804e-05,1.5606102966353874e-05,4.2,3.6
3.6796875,7.714596867017625e-05,3.220386545662624e-05,-4.866504811169587e-06,2.829850957656216e-05,4.2,3.6
3.68359375,0.00014304884914625773,2.488132318150608e-05,3.401865841153599e-06,9.259899661249731e-06,4.2,3.6
3.6875,0.00023339071446555276,1.0236238631265752e-05,1.5606102966353874e-05,4.7284893110553325e-07,4.2,3.6
3.69140625,0.00011375868004577707,4.378204811169621e-06,-1.121270811627373e-05,3.4156543396658294e-05,4.2,3.6
3.6953125,0.00013084461202105745,1.1700747086289786e-05,-4.7825419491874556e-05,3.562105185168232e-05,4.2,3.6
3.69921875,0.0002617045445960174,2.829850957656216e-05,-8.056328558022428e-05,5.465966176699475e-05,4.2,3.6
3.703125,0.00024120142622568094,5.612417022201878e-05,-3.401996356145554e-06,-6.819182751201631e-06,4.2,3.6
3.70703125,0.0002080059012451362,6.344671249713895e-05,2.7810340091554148e-05,-9.260030176241686e-06,4.2,3.6
3.7109375,0.00018698410279697873,5.758867867704282e-05,-1.072453863126572e-05,2.292864524147404e-05,4.2,3.6
3.71484375,0.0002250918332204166,5.1730644856946685e-05,1.0724408116273763e-05,-1.7070741936369862e-05,4.2,3.6
3.71875,0.00011766403592584118,-6.819182751201631e-06,-0.00014011996275120161,4.7825288976882595e-05,4.2,3.6
3.72265625,9.227922270542459e-05,-4.866504811169587e-06,-3.9038368761730354e-05,4.440810258182652e-05,4.2,3.6
3.7265625,0.00010887698519569697,4.831345846189061e-05,0.00013426179841611355,-3.5133012881666264e-05,4.2,3.6
3.73046875,7.372878227512018e-05,2.439315369649807e-05,7.307221721217687e-06,3.1227526486610226e-05,4.2,3.6
3.734375,0.00017331535721675442,-1.3165386056305774e-05,-0.00025731114974593725,5.026613640192266e-05,4.2,3.6
3.73828125,0.00017380352670176243,5.5636000737010774e-05,-3.708569082169831e-05,-6.491135146715494e-05,4.2,3.6
3.7421875,0.00015037139142137792,8.983837528038453e-05,0.00024559495159075305,-6.491135146715494e-05,4.2,3.6
3.74609375,0.00011473501901579311,1.7070611421377907e-05,-0.00013328558996108947,4.050274670176243e-05,4.2,3.6
3.75,0.00010399529034561686,-1.2677216571297761e-05,-0.00034960569300526435,6.0029526102082876e-05,4.2,3.6
3.75390625,0.00013963166275120166,2.0975967301441994e-05,-5.954148713206682e-05,-2.0487928331425938e-05,4.2,3.6
3.7578125,0.00011327051056076907,5.856501764705884e-05,0.00022069830785534448,-6.247050404211488e-05,4.2,3.6
3.76171875,0.00010790064622568095,4.391993309681851e-05,0.00017624437412680247,-4.72979446097488e-07,4.2,3.6
3.765625,9.423190064545664e-05,4.684895000686658e-05,0.00010790064622568095,5.842713266193654e-06,4.2,3.6
3.76953125,9.71609175555047e-05,6.835891794003205e-05,0.00017380352670176243,-3.5133012881666264e-05,4.2,3.6
3.7734375,8.495668043030443e-05,2.0975967301441994e-05,0.0001947948145571069,4.196725515678646e-05,4.2,3.6
3.77734375,7.03115958800641e-05,2.3416814726482047e-05,7.226427382009615e-05,4.1479085671778456e-05,4.2,3.6
3.78125,7.812230764019227e-05,2.3416814726482047e-05,-2.9138268711375426e-06,7.47051212451362e-05,4.2,3.6
3.78515625,6.819052236209676e-06,-1.44931841611351e-06,-0.00013182108150606544,8.495668043030443e-05,4.2,3.6
3.7890625,0.00010253078189059284,6.539939043717099e-05,3.659739082169834e-05,-5.563613125200272e-05,4.2,3.6
3.79296875,0.00019333030610208288,7.03115958800641e-05,0.0002802549850263218,-3.562118236667428e-05,4.2,3.6
3.796875,0.00011766403592584118,2.5369492666514095e-05,0.00010545979880064089,6.051769558709088e-05,4.2,3.6
3.80078125,4.977796691691464e-05,-1.609440296635384e-05,-5.270711434195466e-05,7.616962970016024e-05,4.2,3.6
3.8046875,3.8550068761730395e-05,-9.260030176241686e-06,-4.831358897688256e-05,1.1212577601281776e-05,4.2,3.6
3.80859375,0.00014646603554131383,2.292864524147404e-05,4.1479085671778456e-05,-7.795521721217652e-06,4.2,3.6
3.8125,0.00010008993446555277,2.0975967301441994e-05,5.417149228198674e-05,8.283560691233709e-06,4.2,3.6
3.81640625,1.755878090638592e-05,6.330882751201665e-06,-1.5320553902477717e-08,1.6094272451361885e-05,4.2,3.6
3.8203125,2.1464136786450005e-05,1.6582441936369896e-05,2.976301803158619e-05,3.0251187516594204e-05,4.2,3.6
3.82421875,2.9274848546578178e-05,4.440810258182652e-05,7.90986466102083e-05,4.0990916186770444e-05,4.2,3.6
3.828125,0.00015525308627145802,5.1730644856946685e-05,8.349217197528039e-05,3.0251187516594204e-05,4.2,3.6
3.83203125,0.0001689218318516823,3.562105185168232e-05,5.954135661707486e-05,2.878667906157017e-05,4.2,3.6
3.8359375,7.51932907301442e-05,9.259899661249731e-06,1.7070611421377907e-05,3.659739082169834e-05,4.2,3.6
3.83984375,8.544484991531244e-05,-6.819182751201631e-06,-4.866504811169587e-06,4.880162794689862e-05,4.2,3.6
3.84375,0.0001415843406912337,1.0236238631265752e-05,9.748069146257742e-06,3.562105185168232e-05,4.2,3.6
3.84765625,0.00016843366236667432,3.318020442664227e-05,2.439315369649807e-05,3.171569597161824e-05,4.2,3.6
3.8515625,0.00012938010356603342,2.292864524147404e-05,1.2677086056305808e-05,3.1227526486610226e-05,4.2,3.6
3.85546875,8.153949403524835e-05,8.77173017624172e-06,-1.072453863126572e-05,3.4156543396658294e-05,4.2,3.6
3.859375,6.933525691004809e-05,1.951145884641796e-05,-1.658257245136185e-05,4.050274670176243e-05,4.2,3.6
3.86328125,9.813725652552073e-05,1.755878090638592e-05,-1.44931841611351e-06,3.610922133669034e-05,4.2,3.6
3.8671875,0.00011864037489585719,1.5117933481345863e-05,1.1700747086289786e-05,3.269203494163426e-05,4.2,3.6
3.87109375,0.0001718508487617304,1.8535119876401938e-05,2.5857662151522106e-05,3.8550068761730395e-05,4.2,3.6
3.875,0.000198700170437171,1.6582441936369896e-05,2.1952306271458016e-05,3.90382382467384e-05,4.2,3.6
3.87890625,7.275244330510416e-05,1.937357386129566e-06,-4.3783353261615755e-06,3.220386545662624e-05,4.2,3.6
3.8828125,0.00013523813738612958,-1.951158936140992e-05,-1.951158936140992e-05,3.318020442664227e-05,4.2,3.6
3.88671875,0.00023241437549553672,-3.1715826486610186e-05,-2.146426730144196e-05,3.318020442664227e-05,4.2,3.6
3.890625,0.0001816142384618906,-1.4629894511329806e-05,-1.2189047086289752e-05,3.7085560306706354e-05,4.2,3.6
3.89453125,0.00011717586644083316,-4.72979446097488e-07,-1.2189047086289752e-05,4.001457721675442e-05,4.2,3.6
3.8984375,0.00011522318850080111,8.283560691233709e-06,-1.9023419876401904e-05,4.440810258182652e-05,4.2,3.6
3.90234375,0.00021386393506523234,1.5606102966353874e-05,-2.2440606271457983e-05,4.538444155184254e-05,4.2,3.6
3.90625,0.00021923379940032045,1.755878090638592e-05,-2.146426730144196e-05,4.1479085671778456e-05,4.2,3.6
3.91015625,0.00016843366236667432,7.795391206225697e-06,-2.9763148546578148e-05,4.34317636118105e-05,4.2,3.6
3.9140625,0.00010985332416571298,-1.3165386056305774e-05,-3.562118236667428e-05,4.1479085671778456e-05,4.2,3.6
3.91796875,2.829850957656216e-05,1.5606102966353874e-05,-3.9526538246738366e-05,4.245542464179448e-05,4.2,3.6
3.921875,0.0001596466116365301,2.6345831636530114e-05,-5.4171622796978696e-05,4.4896272066834534e-05,4.2,3.6
3.92578125,0.0002787904765712978,1.4141594511329842e-05,-3.757386030670632e-05,4.34317636118105e-05,4.2,3.6
3.9296875,0.00024168959571068896,2.439315369649807e-05,-8.283691206225664e-06,4.001457721675442e-05,4.2,3.6
3.93359375,0.00017917339103685055,2.9274848546578178e-05,-1.5118063996337817e-05,4.1479085671778456e-05,4.2,3.6
3.9375,0.0001679454928816663,2.0487797816433986e-05,-3.9526538246738366e-05,4.050274670176243e-05,4.2,3.6
3.94140625,0.00019674749249713893,1.365342502632183e-05,-2.3905114726482013e-05,4.294359412680248e-05,4.2,3.6
3.9453125,0.0002202101383703365,1.6094272451361885e-05,-1.3653555541313785e-05,3.806189927672238e-05,4.2,3.6
3.94921875,0.0002202101383703365,6.330882751201665e-06,1.4491879011215552e-06,3.5132882366674316e-05,4.2,3.6
3.953125,0.00017917339103685055,6.819052236209676e-06,-1.44931841611351e-06,3.90382382467384e-05,4.2,3.6
3.95703125,0.00017819705206683454,4.378204811169621e-06,-1.9023419876401904e-05,3.952640773174641e-05,4.2,3.6
3.9609375,0.00017673254361181052,-5.354674296177598e-06,-3.22039959716182e-05,4.001457721675442e-05,4.2,3.6
3.96484375,0.00022948535858548867,-4.72979446097488e-07,-2.3905114726482013e-05,4.196725515678646e-05,4.2,3.6
3.96875,0.00027049159532616156,9.610184161135442e-07,6.330882751201665e-06,4.1479085671778456e-05,4.2,3.6
3.97265625,0.00014304884914625773,1.4629763996337851e-05,-1.0236369146257707e-05,3.7085560306706354e-05,4.2,3.6
3.9765625,0.00016989817082169834,1.8046950391393927e-05,-5.842843781185608e-06,4.001457721675442e-05,4.2,3.6
3.98046875,0.0002729324427512017,1.4629763996337851e-05,1.4141594511329842e-05,3.952640773174641e-05,4.2,3.6
3.984375,0.00030905698464179447,1.951145884641796e-05,2.5857662151522106e-05,4.440810258182652e-05,4.2,3.6
3.98828125,0.00023680790086060886,1.902328936140995e-05,3.5132882366674316e-05,4.5872611036850557e-05,4.2,3.6
3.9921875,0.00019186579764705886,2.7322170606546137e-05,4.538444155184254e-05,3.659739082169834e-05,4.2,3.6
3.99609375,0.00027830230708628974,2.7810340091554148e-05,5.075430588693066e-05,3.7085560306706354e-05,4.2,3.6
4.0,0.00023534339240558483,1.937357386129566e-06,2.9274848546578178e-05,4.196725515678646e-05,4.2,3.6
4.00390625,0.0002163047824902724,-7.795521721217652e-06,-1.5320553902477717e-08,3.7573729791714366e-05,4.2,3.6
4.0078125,0.0001816142384618906,1.0724408116273763e-05,2.6345831636530114e-05,2.5369492666514095e-05,4.2,3.6
4.01171875,0.00016257562854657816,2.2440475756466028e-05,6.393488198214696e-05,2.976301803158619e-05,4.2,3.6
4.015625,0.0002953882390615702,1.3165255541313818e-05,4.294359412680248e-05,3.952640773174641e-05,4.2,3.6
4.01953125,0.00029636457803158616,2.3904984211490058e-05,1.5117933481345863e-05,4.245542464179448e-05,4.2,3.6
4.0234375,0.0002675625784161135,3.318020442664227e-05,8.283560691233709e-06,4.245542464179448e-05,4.2,3.6
4.02734375,0.0002504766464408331,1.7070611421377907e-05,2.1464136786450005e-05,4.294359412680248e-05,4.2,3.6
4.03125,0.00024608312107576104,1.365342502632183e-05,3.1227526486610226e-05,3.7573729791714366e-05,4.2,3.6
4.03515625,0.00024950030747081714,9.259899661249731e-06,5.5636000737010774e-05,3.318020442664227e-05,4.2,3.6
4.0390625,0.00023143803652552074,8.283560691233709e-06,6.149403455710691e-05,3.659739082169834e-05,4.2,3.6
4.04296875,0.00026902708687113753,1.8046950391393927e-05,4.001457721675442e-05,4.294359412680248e-05,4.2,3.6
4.046875,0.0002490121379858091,2.7322170606546137e-05,5.026613640192266e-05,3.952640773174641e-05,4.2,3.6
4.05078125,0.0002343670534355688,3.3668373911650276e-05,5.905318713206685e-05,3.952640773174641e-05,4.2,3.6
4.0546875,0.00021386393506523234,3.806189927672238e-05,4.9289797431906635e-05,4.050274670176243e-05,4.2,3.6
4.05859375,0.00025877552768596934,2.3416814726482047e-05,4.196725515678646e-05,3.8550068761730395e-05,4.2,3.6
4.0625,0.000330536441982147,1.3165255541313818e-05,1.8046950391393927e-05,3.5132882366674316e-05,4.2,3.6
4.06640625,0.00030905698464179447,2.7810340091554148e-05,3.0739357001602215e-05,3.8550068761730395e-05,4.2,3.6
4.0703125,0.0003393540033051042,5.354543781185643e-06,4.440810258182652e-05,3.806189927672238e-05,4.2,3.6
4.07421875,0.0002978290864866102,-9.748199661249696e-06,3.318020442664227e-05,3.0251187516594204e-05,4.2,3.6
4.078125,0.000287577527301442,1.1700747086289786e-05,2.2440475756466028e-05,3.269203494163426e-05,4.2,3.6
4.08203125,0.0002670744089311055,2.0975967301441994e-05,2.3416814726482047e-05,3.659739082169834e-05,4.2,3.6
4.0859375,0.0002660980699610895,3.269203494163426e-05,4.636078052185856e-05,3.1227526486610226e-05,4.2,3.6
4.08984375,0.0003432593591851682,4.880162794689862e-05,6.393488198214696e-05,2.976301803158619e-05,4.2,3.6
4.09375,0.00030905698464179447,3.269203494163426e-05,5.71005091920348e-05,3.4156543396658294e-05,4.2,3.6
4.09765625,0.00027049159532616156,2.1952306271458016e-05,3.8550068761730395e-05,3.3668373911650276e-05,4.2,3.6
4.1015625,0.00026365722253604947,1.8046950391393927e-05,1.8046950391393927e-05,3.171569597161824e-05,4.2,3.6
4.10546875,0.0003105214930968185,3.220386545662624e-05,3.171569597161824e-05,2.6834001121538125e-05,4.2,3.6
4.109375,0.0003364249863950561,4.245542464179448e-05,4.684895000686658e-05,2.439315369649807e-05,4.2,3.6
4.11328125,0.00028806569678645,-1.44931841611351e-06,2.2440475756466028e-05,2.7810340091554148e-05,4.2,3.6
4.1171875,0.00031247417103685057,-1.2677216571297761e-05,2.913696356145588e-06,3.46447128816663e-05,4.2,3.6
4.12109375,0.00025584651077592124,5.842713266193654e-06,1.4629763996337851e-05,3.806189927672238e-05,4.2,3.6
4.125,0.00019674749249713893,2.1464136786450005e-05,3.269203494163426e-05,3.7085560306706354e-05,4.2,3.6
4.12890625,0.0003413066812451362,1.7070611421377907e-05,2.488132318150608e-05,3.806189927672238e-05,4.2,3.6
4.1328125,0.00037010868086060885,8.283560691233709e-06,2.0975967301441994e-05,3.7573729791714366e-05,4.2,3.6
4.13671875,0.00031735586588693064,2.1952306271458016e-05,2.7810340091554148e-05,3.562105185168232e-05,4.2,3.6
4.140625,0.0002485239685008011,1.8046950391393927e-05,1.902328936140995e-05,3.3668373911650276e-05,4.2,3.6
4.14453125,0.000287577527301442,1.6582441936369896e-05,1.755878090638592e-05,3.90382382467384e-05,4.2,3.6
4.1484375,0.00037059685034561684,2.292864524147404e-05,3.659739082169834e-05,3.562105185168232e-05,4.2,3.6
4.15234375,0.00038328925695582514,1.2677086056305808e-05,4.0990916186770444e-05,2.9274848546578178e-05,4.2,3.6
4.15625,0.00039451715511100937,1.2677086056305808e-05,1.4629763996337851e-05,2.9274848546578178e-05,4.2,3.6
4.16015625,0.0003246784081620508,1.4629763996337851e-05,6.330882751201665e-06,2.0975967301441994e-05,4.2,3.6
4.1640625,0.0004086740701762417,-1.2189047086289752e-05,2.292864524147404e-05,2.5857662151522106e-05,4.2,3.6
4.16796875,0.0004491921374319066,-6.3310132661936195e-06,3.7085560306706354e-05,3.220386545662624e-05,4.2,3.6
4.171875,0.0003842655959258412,1.1700747086289786e-05,3.5132882366674316e-05,3.269203494163426e-05,4.2,3.6
4.17578125,0.0003276074250720989,1.8046950391393927e-05,2.6834001121538125e-05,3.8550068761730395e-05,4.2,3.6
4.1796875,0.00021776929094529643,9.748069146257742e-06,3.0251187516594204e-05,4.294359412680248e-05,4.2,3.6
4.18359375,0.00032907193352712296,1.8046950391393927e-05,3.3668373911650276e-05,3.562105185168232e-05,4.2,3.6
4.1875,0.00042820084957656215,2.3904984211490058e-05,4.245542464179448e-05,3.610922133669034e-05,4.2,3.6
4.19140625,0.00033691315588006406,1.755878090638592e-05,4.7337119491874584e-05,3.46447128816663e-05,4.2,3.6
4.1953125,0.0002753732901762417,-1.44931841611351e-06,2.976301803158619e-05,2.9274848546578178e-05,4.2,3.6
4.19921875,0.00024608312107576104,-4.866504811169587e-06,1.5606102966353874e-05,3.5132882366674316e-05,4.2,3.6
4.203125,0.0003364249863950561,1.937357386129566e-06,8.77173017624172e-06,4.050274670176243e-05,4.2,3.6
4.20703125,0.00038280108747081715,1.755878090638592e-05,2.3416814726482047e-05,3.952640773174641e-05,4.2,3.6
4.2109375,0.0003413066812451362,2.5857662151522106e-05,2.1464136786450005e-05,3.4156543396658294e-05,4.2,3.6
4.21484375,0.00026072820562600136,1.755878090638592e-05,1.1212577601281776e-05,3.4156543396658294e-05,4.2,3.6
4.21875,0.0002670744089311055,1.8046950391393927e-05,2.6345831636530114e-05,3.1227526486610226e-05,4.2,3.6
4.22265625,0.0003119860015518425,1.937357386129566e-06,3.3668373911650276e-05,2.7322170606546137e-05,4.2,3.6
4.2265625,0.0002968527475165942,2.913696356145588e-06,3.5132882366674316e-05,2.829850957656216e-05,4.2,3.6
4.23046875,0.000289530205241474,2.1464136786450005e-05,2.829850957656216e-05,3.7085560306706354e-05,4.2,3.6
4.234375,0.00024559495159075305,7.795391206225697e-06,2.5857662151522106e-05,3.3668373911650276e-05,4.2,3.6
4.23828125,0.0002202101383703365,-8.283691206225664e-06,2.439315369649807e-05,1.755878090638592e-05,4.2,3.6
4.2421875,0.0002685389173861296,5.354543781185643e-06,1.2677086056305808e-05,2.6834001121538125e-05,4.2,3.6
4.24609375,0.00029587640854657817,1.0236238631265752e-05,1.0724408116273763e-05,3.0739357001602215e-05,4.2,3.6
4.25,0.00033248911992217895,2.488132318150608e-05,1.902328936140995e-05,2.2440475756466028e-05,4.2,3.6
4.25390625,0.0002123994266102083,1.8046950391393927e-05,2.0975967301441994e-05,2.6345831636530114e-05,4.2,3.6
4.2578125,0.0002163047824902724,-8.771860691233675e-06,7.307221721217687e-06,2.488132318150608e-05,4.2,3.6
4.26171875,0.00036132163013046463,6.330882751201665e-06,6.819052236209676e-06,2.0975967301441994e-05,4.2,3.6
4.265625,0.00032174939125200277,1.5606102966353874e-05,1.6582441936369896e-05,2.2440475756466028e-05,4.2,3.6
4.26953125,0.0002651217309910735,9.610184161135442e-07,2.878667906157017e-05,2.6834001121538125e-05,4.2,3.6
4.2734375,0.00024608312107576104,8.283560691233709e-06,2.5369492666514095e-05,2.2440475756466028e-05,4.2,3.6
4.27734375,0.0002660980699610895,1.9999628331425975e-05,-3.401996356145554e-06,2.7810340091554148e-05,4.2,3.6
4.28125,0.00023290254498054477,1.4629763996337851e-05,1.937357386129566e-06,2.6345831636530114e-05,4.2,3.6
4.28515625,0.0002343670534355688,2.5369492666514095e-05,2.878667906157017e-05,1.6582441936369896e-05,4.2,3.6
4.2890625,0.00022899718910048068,1.3165255541313818e-05,4.636078052185856e-05,2.6834001121538125e-05,4.2,3.6
4.29296875,0.0002041005453650721,2.439315369649807e-05,3.562105185168232e-05,3.0251187516594204e-05,4.2,3.6
4.296875,0.00029490006957656213,4.294359412680248e-05,1.6582441936369896e-05,2.9274848546578178e-05,4.2,3.6
4.30078125,0.0003408185117601282,2.7810340091554148e-05,3.610922133669034e-05,3.46447128816663e-05,4.2,3.6
4.3046875,0.0003119860015518425,3.90382382467384e-05,3.562105185168232e-05,3.7085560306706354e-05,4.2,3.6
4.30859375,0.00030417528979171434,3.562105185168232e-05,3.610922133669034e-05,2.878667906157017e-05,4.2,3.6
4.3125,0.0003452120371252003,2.5369492666514095e-05,4.1479085671778456e-05,2.976301803158619e-05,4.2,3.6
4.31640625,0.000377919392620737,1.4141594511329842e-05,3.401865841153599e-06,3.0739357001602215e-05,4.2,3.6
4.3203125,0.0003959816635660334,-9.61148931105499e-07,-8.771860691233675e-06,2.3416814726482047e-05,4.2,3.6
4.32421875,0.00045602651022201877,4.866374296177632e-06,5.842713266193654e-06,2.878667906157017e-05,4.2,3.6
4.328125,0.0004990159354955367,1.902328936140995e-05,2.6834001121538125e-05,2.9274848546578178e-05,4.2,3.6
4.33203125,0.000512684681075761,2.3416814726482047e-05,3.171569597161824e-05,2.7810340091554148e-05,4.2,3.6
4.3359375,0.0005678478328816663,8.283560691233709e-06,1.365342502632183e-05,3.220386545662624e-05,4.2,3.6
4.33984375,0.0006396392577706569,-1.5320553902477717e-08,2.913696356145588e-06,2.439315369649807e-05,4.2,3.6
4.34375,0.0006513553254108491,1.8046950391393927e-05,1.755878090638592e-05,2.488132318150608e-05,4.2,3.6
4.34765625,0.0005751703751567865,2.9274848546578178e-05,4.7825288976882595e-05,3.610922133669034e-05,4.2,3.6
4.3515625,0.0006020502074250401,3.90382382467384e-05,4.636078052185856e-05,2.9274848546578178e-05,4.2,3.6
4.35546875,0.0006542843423208972,3.4156543396658294e-05,3.610922133669034e-05,2.7322170606546137e-05,4.2,3.6
4.359375,0.0006445209526207371,1.6094272451361885e-05,1.8046950391393927e-05,3.8550068761730395e-05,4.2,3.6
4.36328125,0.0006474499695307851,1.0236238631265752e-05,-1.44931841611351e-06,3.171569597161824e-05,4.2,3.6
4.3671875,0.0006498908169558251,1.951145884641796e-05,3.3668373911650276e-05,2.0975967301441994e-05,4.2,3.6
4.37109375,0.0006835745114213778,2.1464136786450005e-05,4.0990916186770444e-05,3.46447128816663e-05,4.2,3.6
4.375,0.0006577015287159533,2.3416814726482047e-05,1.4141594511329842e-05,5.5636000737010774e-05,4.2,3.6
4.37890625,0.0006323167154955367,2.0975967301441994e-05,1.8535119876401938e-05,5.514783125200276e-05,4.2,3.6
4.3828125,0.0006064437327901122,3.401865841153599e-06,1.937357386129566e-06,3.4156543396658294e-05,4.2,3.6
4.38671875,0.0006157189530052645,-9.260030176241686e-06,-1.5118063996337817e-05,2.7322170606546137e-05,4.2,3.6
4.390625,0.0007118883415518425,-1.072453863126572e-05,-1.9023419876401904e-05,2.3416814726482047e-05,4.2,3.6
4.39453125,0.0007070066467017624,-4.636091103685052e-05,-4.7825419491874556e-05,2.9274848546578178e-05,4.2,3.6
