timestamp,TP9,AF7,AF8,TP10,Valence,Arousal
0.0,-9.770953536278312e-06,-1.0258832021057444e-05,-8.795196566720064e-06,-2.2462864843213536e-05,4.3333,3.1333
0.00390625,-1.2210345960173939e-05,-5.5179006134126784e-05,-4.199214563973448e-05,-3.516184685282672e-05,4.3333,3.1333
0.0078125,-4.150426715495536e-05,-6.640728198672464e-05,-6.934162359807735e-05,-5.029315058365758e-05,4.3333,3.1333
0.01171875,-5.371537067978941e-05,-4.834163664454107e-05,-5.273961371023116e-05,-5.3227492195010284e-05,4.3333,3.1333
0.015625,-3.0275991302357502e-05,-4.541436573586632e-05,-4.395073028152894e-05,-4.834163664454107e-05,4.3333,3.1333
0.01953125,-1.4161859899290447e-05,-3.808911776150147e-05,-4.199214563973448e-05,-3.955275321583885e-05,4.3333,3.1333
0.0234375,-2.5885084939345373e-05,-5.6642641588464164e-05,-3.467396836804759e-05,-3.9064874731059725e-05,4.3333,3.1333
0.02734375,-3.418608988326847e-05,-5.761839855802242e-05,-3.516184685282672e-05,-3.808911776150147e-05,4.3333,3.1333
0.03125,-3.516184685282672e-05,-1.6608323025864023e-05,-2.002347241931791e-05,-2.930023433279925e-05,4.3333,3.1333
0.03515625,-2.978811281757838e-05,1.4156304325932723e-05,-1.2698224444953069e-05,-2.4414378782330046e-05,4.3333,3.1333
0.0390625,-4.736587967498282e-05,-1.123458899061569e-05,-1.3673981414511317e-05,-3.516184685282672e-05,4.3333,3.1333
0.04296875,-7.568404390020597e-05,-2.5885084939345373e-05,-1.3673981414511317e-05,-3.711336079194322e-05,4.3333,3.1333
0.046875,-5.176385674067291e-05,4.815653467612862e-07,-1.5625495353627827e-05,-3.173962675669488e-05,4.3333,3.1333
0.05078125,-7.324490409704722e-06,2.4401499885557453e-06,-2.3438621812771783e-05,-4.05285101853971e-05,4.3333,3.1333
0.0546875,-1.4699485923552232e-06,-3.9093410162508485e-06,-2.2462864843213536e-05,-4.7853758159761945e-05,4.3333,3.1333
0.05859375,-2.930023433279925e-05,-4.004063170061798e-05,-1.8071958480201403e-05,-3.613760382238497e-05,4.3333,3.1333
0.0625,-3.173962675669488e-05,-6.0064861684596004e-05,-1.6608323025864023e-05,-3.125174827191576e-05,4.3333,3.1333
0.06640625,-1.8559836964980533e-05,-4.297497331197069e-05,-2.1974986358434406e-05,-3.711336079194322e-05,4.3333,3.1333
0.0703125,-1.7584079995422283e-05,-2.4414378782330046e-05,-2.148710787365529e-05,-3.66254823071641e-05,4.3333,3.1333
0.07421875,-2.978811281757838e-05,-3.421462531471718e-06,-2.2950743327992666e-05,-3.711336079194322e-05,4.3333,3.1333
0.078125,-4.297497331197069e-05,-2.7836598878461883e-05,-1.6608323025864023e-05,-3.369821139848934e-05,4.3333,3.1333
0.08203125,-3.9064874731059725e-05,-4.150426715495536e-05,-1.123458899061569e-05,-3.808911776150147e-05,4.3333,3.1333
0.0859375,-2.099922938887616e-05,-1.8559836964980533e-05,-2.978811281757838e-05,-4.9317393614099325e-05,4.3333,3.1333
0.08984375,-1.123458899061569e-05,-2.3926500297550916e-05,-3.2227505241474006e-05,-4.639012270542457e-05,4.3333,3.1333
0.09375,-1.2210345960173939e-05,-1.7096201510643153e-05,-3.2227505241474006e-05,-4.4438608766308065e-05,4.3333,3.1333
0.09765625,-2.148710787365529e-05,-4.397219501029966e-06,-2.7836598878461883e-05,-4.199214563973448e-05,4.3333,3.1333
0.1015625,-3.0275991302357502e-05,-1.6608323025864023e-05,-3.418608988326847e-05,-3.467396836804759e-05,4.3333,3.1333
0.10546875,-2.8812355848020133e-05,-2.8324477363241e-05,-3.613760382238497e-05,-3.418608988326847e-05,4.3333,3.1333
0.109375,-2.7348720393682753e-05,-1.7584079995422283e-05,-2.3926500297550916e-05,-3.173962675669488e-05,4.3333,3.1333
0.11328125,-4.88295151293202e-05,-2.3926500297550916e-05,-2.148710787365529e-05,-3.173962675669488e-05,4.3333,3.1333
0.1171875,-5.8594155527580664e-05,-1.7584079995422283e-05,-2.002347241931791e-05,-4.248709482719156e-05,4.3333,3.1333
0.12109375,-5.6642641588464164e-05,1.9522715037766144e-06,-1.3186102929732185e-05,-2.7836598878461883e-05,4.3333,3.1333
0.125,-3.418608988326847e-05,-3.2227505241474006e-05,-2.6860841908903623e-05,-2.4909327969787126e-05,4.3333,3.1333
0.12890625,7.318934836346997e-06,-4.639012270542457e-05,-3.85769962462806e-05,-5.176385674067291e-05,4.3333,3.1333
0.1328125,4.815653467612862e-07,-3.467396836804759e-05,-4.004063170061798e-05,-5.615476310368504e-05,4.3333,3.1333
0.13671875,-1.3673981414511317e-05,-2.2462864843213536e-05,-3.711336079194322e-05,-4.88295151293202e-05,4.3333,3.1333
0.140625,-6.348733440146475e-06,-2.4909327969787126e-05,-3.9064874731059725e-05,-3.613760382238497e-05,4.3333,3.1333
0.14453125,-2.0511350904097026e-05,-5.3227492195010284e-05,-3.516184685282672e-05,-3.5649725337605846e-05,4.3333,3.1333
0.1484375,-3.467396836804759e-05,-3.66254823071641e-05,-4.68780011902037e-05,-4.1016388670176225e-05,4.3333,3.1333
0.15234375,-3.173962675669488e-05,6.34317786678875e-06,-4.4438608766308065e-05,-3.760123927672235e-05,4.3333,3.1333
0.15625,-4.004063170061798e-05,-3.421462531471718e-06,-2.099922938887616e-05,-3.85769962462806e-05,4.3333,3.1333
0.16015625,-3.2227505241474006e-05,-4.05285101853971e-05,-2.4414378782330046e-05,-3.66254823071641e-05,4.3333,3.1333
0.1640625,-2.930023433279925e-05,-6.299213259327076e-05,-4.05285101853971e-05,-4.346285179674981e-05,4.3333,3.1333
0.16796875,-3.320326221103226e-05,-4.9317393614099325e-05,-5.225173522545204e-05,-3.955275321583885e-05,4.3333,3.1333
0.171875,-3.467396836804759e-05,-3.5649725337605846e-05,-4.248709482719156e-05,-3.369821139848934e-05,4.3333,3.1333
0.17578125,-5.4691127649347664e-05,-2.2462864843213536e-05,-3.808911776150147e-05,-3.808911776150147e-05,4.3333,3.1333
0.1796875,-4.541436573586632e-05,-2.5885084939345373e-05,-3.076386978713663e-05,-4.05285101853971e-05,4.3333,3.1333
0.18359375,-4.346285179674981e-05,-3.076386978713663e-05,-2.8812355848020133e-05,-3.808911776150147e-05,4.3333,3.1333
0.1875,-4.150426715495536e-05,-2.6372963424124506e-05,-3.467396836804759e-05,-3.760123927672235e-05,4.3333,3.1333
0.19140625,-1.5625495353627827e-05,-2.7836598878461883e-05,-1.9047715449759663e-05,-5.127597825589378e-05,4.3333,3.1333
0.1953125,4.879542412451372e-06,-3.125174827191576e-05,-2.2950743327992666e-05,-4.88295151293202e-05,4.3333,3.1333
0.19921875,4.815653467612862e-07,-4.736587967498282e-05,-3.955275321583885e-05,-4.004063170061798e-05,4.3333,3.1333
0.203125,-1.5137616868848695e-05,-7.42204084458686e-05,-4.346285179674981e-05,-3.2227505241474006e-05,4.3333,3.1333
0.20703125,-1.6608323025864023e-05,-6.885374511329822e-05,-5.029315058365758e-05,-2.4414378782330046e-05,4.3333,3.1333
0.2109375,-1.6113373838406943e-05,-4.05285101853971e-05,-3.516184685282672e-05,-3.0275991302357502e-05,4.3333,3.1333
0.21484375,-2.2950743327992666e-05,-1.7096201510643153e-05,-2.002347241931791e-05,-3.2227505241474006e-05,4.3333,3.1333
0.21875,-4.590224422064544e-05,-2.2950743327992666e-05,-3.0275991302357502e-05,-2.6372963424124506e-05,4.3333,3.1333
0.22265625,-6.0064861684596004e-05,-4.346285179674981e-05,-3.467396836804759e-05,-2.930023433279925e-05,4.3333,3.1333
0.2265625,-4.199214563973448e-05,-3.760123927672235e-05,-3.418608988326847e-05,-3.320326221103226e-05,4.3333,3.1333
0.23046875,-4.395073028152894e-05,-8.795196566720064e-06,-3.5649725337605846e-05,-3.320326221103226e-05,4.3333,3.1333
0.234375,-5.8594155527580664e-05,-1.0258832021057444e-05,-2.978811281757838e-05,-3.467396836804759e-05,4.3333,3.1333
0.23828125,-5.420324916456854e-05,-3.467396836804759e-05,-2.8324477363241e-05,-3.467396836804759e-05,4.3333,3.1333
0.2421875,-1.2210345960173939e-05,-3.5649725337605846e-05,-4.199214563973448e-05,-3.955275321583885e-05,4.3333,3.1333
0.24609375,2.245730926985581e-05,-6.640728198672464e-05,-4.199214563973448e-05,-5.078809977111466e-05,4.3333,3.1333
0.25,1.513206129549097e-05,-6.250425410849164e-05,-3.369821139848934e-05,-5.566688461890592e-05,4.3333,3.1333
0.25390625,-2.8324477363241e-05,-3.760123927672235e-05,-5.176385674067291e-05,-4.68780011902037e-05,4.3333,3.1333
0.2578125,-3.2227505241474006e-05,-4.88295151293202e-05,-4.68780011902037e-05,-4.199214563973448e-05,4.3333,3.1333
0.26171875,-4.941916227969614e-07,-5.8106277042801544e-05,-3.516184685282672e-05,-4.05285101853971e-05,4.3333,3.1333
0.265625,-6.313138017844721e-09,-6.104061865415426e-05,-5.3227492195010284e-05,-4.590224422064544e-05,4.3333,3.1333
0.26953125,-2.002347241931791e-05,-1.074671050583656e-05,-5.713052007324329e-05,-4.395073028152894e-05,4.3333,3.1333
0.2734375,-6.982950208285648e-05,2.0017916845960187e-05,-2.978811281757838e-05,-2.8812355848020133e-05,4.3333,3.1333
0.27734375,-7.22688945067521e-05,-2.7836598878461883e-05,-1.7584079995422283e-05,-3.467396836804759e-05,4.3333,3.1333
0.28125,-1.4699485923552232e-06,-5.5179006134126784e-05,-2.3926500297550916e-05,-3.613760382238497e-05,4.3333,3.1333
0.28515625,1.7571453719386594e-05,-4.4438608766308065e-05,-3.2227505241474006e-05,-2.7836598878461883e-05,4.3333,3.1333
0.2890625,-2.3438621812771783e-05,-5.029315058365758e-05,-5.4691127649347664e-05,-3.418608988326847e-05,4.3333,3.1333
0.29296875,-3.173962675669488e-05,-5.5179006134126784e-05,-5.615476310368504e-05,-3.760123927672235e-05,4.3333,3.1333
0.296875,-1.4649738384069563e-05,-4.150426715495536e-05,-5.3227492195010284e-05,-3.955275321583885e-05,4.3333,3.1333
0.30078125,-1.8559836964980533e-05,-5.615476310368504e-05,-4.9317393614099325e-05,-3.808911776150147e-05,4.3333,3.1333
0.3046875,-1.7584079995422283e-05,-6.396788956282902e-05,-3.271538372625313e-05,-2.978811281757838e-05,4.3333,3.1333
0.30859375,-2.3438621812771783e-05,-2.5885084939345373e-05,-4.590224422064544e-05,-2.978811281757838e-05,4.3333,3.1333
0.3125,-6.982950208285648e-05,2.2945187754634944e-05,-5.029315058365758e-05,-2.5885084939345373e-05,4.3333,3.1333
0.31640625,-7.129313753719386e-05,-9.820701075760923e-07,-3.66254823071641e-05,-2.4414378782330046e-05,4.3333,3.1333
0.3203125,-3.808911776150147e-05,-5.566688461890592e-05,-3.760123927672235e-05,-3.66254823071641e-05,4.3333,3.1333
0.32421875,-1.95782707713434e-06,-6.982950208285648e-05,-4.736587967498282e-05,-4.1016388670176225e-05,4.3333,3.1333
0.328125,2.0505795330739317e-05,-6.0064861684596004e-05,-5.8594155527580664e-05,-3.9064874731059725e-05,4.3333,3.1333
0.33203125,-1.3186102929732185e-05,-3.418608988326847e-05,-4.7853758159761945e-05,-3.711336079194322e-05,4.3333,3.1333
0.3359375,-4.590224422064544e-05,-2.978811281757838e-05,-3.0275991302357502e-05,-2.6860841908903623e-05,4.3333,3.1333
0.33984375,-4.4438608766308065e-05,-4.248709482719156e-05,-3.808911776150147e-05,-2.5397206454566243e-05,4.3333,3.1333
0.34375,-3.516184685282672e-05,-5.6642641588464164e-05,-4.492648725108719e-05,-4.736587967498282e-05,4.3333,3.1333
0.34765625,-2.930023433279925e-05,-5.5179006134126784e-05,-6.055274016937513e-05,-5.225173522545204e-05,4.3333,3.1333
0.3515625,-1.4649738384069563e-05,-1.2210345960173939e-05,-3.173962675669488e-05,-3.2227505241474006e-05,4.3333,3.1333
0.35546875,-6.348733440146475e-06,6.831056351567881e-06,-8.795196566720064e-06,-2.8324477363241e-05,4.3333,3.1333
0.359375,-3.2227505241474006e-05,-2.148710787365529e-05,-3.66254823071641e-05,-4.346285179674981e-05,4.3333,3.1333
0.36328125,-4.590224422064544e-05,-5.225173522545204e-05,-4.346285179674981e-05,-4.639012270542457e-05,4.3333,3.1333
0.3671875,-2.978811281757838e-05,-3.369821139848934e-05,-3.808911776150147e-05,-5.127597825589378e-05,4.3333,3.1333
0.37109375,-2.2462864843213536e-05,-1.0258832021057444e-05,-3.173962675669488e-05,-4.9317393614099325e-05,4.3333,3.1333
0.375,-2.6372963424124506e-05,-3.2227505241474006e-05,-4.9805272098878444e-05,-4.736587967498282e-05,4.3333,3.1333
0.37890625,-2.1974986358434406e-05,-4.834163664454107e-05,-6.738303895628289e-05,-5.127597825589378e-05,4.3333,3.1333
0.3828125,-3.516184685282672e-05,-4.297497331197069e-05,-5.420324916456854e-05,-4.150426715495536e-05,4.3333,3.1333
0.38671875,-4.05285101853971e-05,-4.88295151293202e-05,-4.004063170061798e-05,-3.5649725337605846e-05,4.3333,3.1333
0.390625,-2.4909327969787126e-05,-2.2462864843213536e-05,-3.0275991302357502e-05,-3.125174827191576e-05,4.3333,3.1333
0.39453125,-2.3926500297550916e-05,-1.6113373838406943e-05,-1.2210345960173939e-05,-3.173962675669488e-05,4.3333,3.1333
0.3984375,-1.95782707713434e-06,-3.760123927672235e-05,-1.5625495353627827e-05,-4.248709482719156e-05,4.3333,3.1333
0.40234375,1.0741154932478835e-05,-6.445576804760813e-05,-4.9317393614099325e-05,-5.6642641588464164e-05,4.3333,3.1333
0.40625,-1.074671050583656e-05,-5.957698319981688e-05,-6.055274016937513e-05,-4.05285101853971e-05,4.3333,3.1333
0.41015625,-1.0258832021057444e-05,-4.05285101853971e-05,-6.20163756237125e-05,-3.320326221103226e-05,4.3333,3.1333
0.4140625,-2.2462864843213536e-05,-1.8559836964980533e-05,-4.88295151293202e-05,-3.613760382238497e-05,4.3333,3.1333
0.41796875,-4.9317393614099325e-05,-4.941916227969614e-07,-3.125174827191576e-05,-3.711336079194322e-05,4.3333,3.1333
0.421875,-4.004063170061798e-05,-1.123458899061569e-05,-2.099922938887616e-05,-3.516184685282672e-05,4.3333,3.1333
0.42578125,-4.9317393614099325e-05,-2.148710787365529e-05,7.318934836346997e-06,-1.8559836964980533e-05,4.3333,3.1333
0.4296875,-4.834163664454107e-05,-2.002347241931791e-05,-1.1722467475394807e-05,-2.930023433279925e-05,4.3333,3.1333
0.43359375,-1.123458899061569e-05,3.415906958113993e-06,-4.297497331197069e-05,-4.4438608766308065e-05,4.3333,3.1333
0.4375,-1.4699485923552232e-06,-1.1722467475394807e-05,-5.90820340123598e-05,-5.225173522545204e-05,4.3333,3.1333
0.44140625,-8.795196566720064e-06,-5.615476310368504e-05,-6.445576804760813e-05,-5.078809977111466e-05,4.3333,3.1333
0.4453125,-3.076386978713663e-05,-5.029315058365758e-05,-3.808911776150147e-05,-3.467396836804759e-05,4.3333,3.1333
0.44921875,-2.978811281757838e-05,-2.5885084939345373e-05,-3.173962675669488e-05,-2.8324477363241e-05,4.3333,3.1333
0.453125,-2.2462864843213536e-05,-2.2462864843213536e-05,-2.7348720393682753e-05,-3.9064874731059725e-05,4.3333,3.1333
0.45703125,-4.248709482719156e-05,-5.029315058365758e-05,-1.8559836964980533e-05,-3.955275321583885e-05,4.3333,3.1333
0.4609375,-5.3227492195010284e-05,-5.957698319981688e-05,-2.2950743327992666e-05,-2.8324477363241e-05,4.3333,3.1333
0.46484375,-4.4438608766308065e-05,-5.078809977111466e-05,-2.1974986358434406e-05,-1.6113373838406943e-05,4.3333,3.1333
0.46875,-1.8071958480201403e-05,-5.225173522545204e-05,-2.7348720393682753e-05,-3.076386978713663e-05,4.3333,3.1333
0.47265625,-3.421462531471718e-06,-3.5649725337605846e-05,-3.125174827191576e-05,-4.1016388670176225e-05,4.3333,3.1333
0.4765625,-1.95782707713434e-06,-3.711336079194322e-05,-4.4438608766308065e-05,-4.004063170061798e-05,4.3333,3.1333
0.48046875,-2.978811281757838e-05,-3.2227505241474006e-05,-2.978811281757838e-05,-4.492648725108719e-05,4.3333,3.1333
0.484375,-6.787798814373997e-05,-2.1974986358434406e-05,-1.7584079995422283e-05,-4.492648725108719e-05,4.3333,3.1333
0.48828125,-5.176385674067291e-05,-3.66254823071641e-05,-3.613760382238497e-05,-5.127597825589378e-05,4.3333,3.1333
0.4921875,-2.7348720393682753e-05,-3.125174827191576e-05,-3.125174827191576e-05,-4.68780011902037e-05,4.3333,3.1333
0.49609375,-2.978811281757838e-05,-1.8559836964980533e-05,-1.4649738384069563e-05,-3.418608988326847e-05,4.3333,3.1333
0.5,-4.199214563973448e-05,-3.955275321583885e-05,-2.5885084939345373e-05,-3.711336079194322e-05,4.3333,3.1333
0.50390625,-3.955275321583885e-05,-8.594363348592354e-05,-4.88295151293202e-05,-5.5179006134126784e-05,4.3333,3.1333
0.5078125,-1.9047715449759663e-05,-6.885374511329822e-05,-3.418608988326847e-05,-5.6642641588464164e-05,4.3333,3.1333
0.51171875,-3.5649725337605846e-05,-2.4414378782330046e-05,-3.955275321583885e-05,-5.078809977111466e-05,4.3333,3.1333
0.515625,-4.297497331197069e-05,-2.933584046692587e-06,-3.85769962462806e-05,-3.0275991302357502e-05,4.3333,3.1333
0.51953125,-7.324490409704722e-06,-5.860854955367344e-06,4.391663927672254e-06,-6.836611924925606e-06,4.3333,3.1333
0.5234375,-4.590224422064544e-05,-2.148710787365529e-05,-7.324490409704722e-06,-1.8559836964980533e-05,4.3333,3.1333
0.52734375,-8.49678765163653e-05,-2.6372963424124506e-05,-4.736587967498282e-05,-3.66254823071641e-05,4.3333,3.1333
0.53125,-4.9805272098878444e-05,-3.320326221103226e-05,-4.9805272098878444e-05,-3.66254823071641e-05,4.3333,3.1333
0.53515625,-3.418608988326847e-05,-4.1016388670176225e-05,-4.9805272098878444e-05,-4.199214563973448e-05,4.3333,3.1333
0.5390625,-1.2210345960173939e-05,-7.22688945067521e-05,-6.640728198672464e-05,-5.371537067978941e-05,4.3333,3.1333
0.54296875,-1.7584079995422283e-05,-7.910626399633781e-05,-5.8106277042801544e-05,-4.395073028152894e-05,4.3333,3.1333
0.546875,-3.85769962462806e-05,-3.467396836804759e-05,-3.66254823071641e-05,-3.467396836804759e-05,4.3333,3.1333
0.55078125,-3.320326221103226e-05,-8.795196566720064e-06,-2.7836598878461883e-05,-2.6860841908903623e-05,4.3333,3.1333
0.5546875,-1.5625495353627827e-05,-2.3926500297550916e-05,-2.148710787365529e-05,-9.283075051499182e-06,4.3333,3.1333
0.55859375,-5.860854955367344e-06,-2.930023433279925e-05,-2.933584046692587e-06,-9.283075051499182e-06,4.3333,3.1333
0.5625,-6.104061865415426e-05,-5.6642641588464164e-05,-2.148710787365529e-05,-2.4414378782330046e-05,4.3333,3.1333
0.56640625,-7.715475005722132e-05,-6.83658666285191e-05,-6.20163756237125e-05,-4.492648725108719e-05,4.3333,3.1333
0.5703125,-2.8812355848020133e-05,-5.761839855802242e-05,-6.83658666285191e-05,-4.88295151293202e-05,4.3333,3.1333
0.57421875,1.2692668871595345e-05,-4.9805272098878444e-05,-6.787798814373997e-05,-3.613760382238497e-05,4.3333,3.1333
0.578125,2.0017916845960187e-05,-6.104061865415426e-05,-5.761839855802242e-05,-3.125174827191576e-05,4.3333,3.1333
0.58203125,-3.66254823071641e-05,-7.519616541542686e-05,-5.371537067978941e-05,-4.1016388670176225e-05,4.3333,3.1333
0.5859375,-6.299213259327076e-05,-3.0275991302357502e-05,-2.099922938887616e-05,-1.6608323025864023e-05,4.3333,3.1333
0.58984375,-2.0511350904097026e-05,-1.5625495353627827e-05,-1.1722467475394807e-05,-1.1722467475394807e-05,4.3333,3.1333
0.59375,-2.2950743327992666e-05,-5.225173522545204e-05,-5.273961371023116e-05,-4.590224422064544e-05,4.3333,3.1333
0.59765625,-3.2227505241474006e-05,-4.05285101853971e-05,-4.248709482719156e-05,-3.955275321583885e-05,4.3333,3.1333
0.6015625,-3.516184685282672e-05,-3.711336079194322e-05,-4.05285101853971e-05,-2.0511350904097026e-05,4.3333,3.1333
0.60546875,-3.613760382238497e-05,-6.934162359807735e-05,-6.885374511329822e-05,-2.8812355848020133e-05,4.3333,3.1333
0.609375,-4.7853758159761945e-05,-5.273961371023116e-05,-7.129313753719386e-05,-3.418608988326847e-05,4.3333,3.1333
0.61328125,-5.8106277042801544e-05,-4.199214563973448e-05,-4.639012270542457e-05,-3.516184685282672e-05,4.3333,3.1333
0.6171875,-3.711336079194322e-05,-5.8594155527580664e-05,-4.199214563973448e-05,-3.66254823071641e-05,4.3333,3.1333
0.62109375,-4.346285179674981e-05,-4.7853758159761945e-05,-3.711336079194322e-05,-2.4909327969787126e-05,4.3333,3.1333
0.625,-4.004063170061798e-05,-2.7836598878461883e-05,-2.978811281757838e-05,-1.953559393453878e-05,4.3333,3.1333
0.62890625,-2.0511350904097026e-05,-4.004063170061798e-05,-5.420324916456854e-05,-2.6372963424124506e-05,4.3333,3.1333
0.6328125,-3.076386978713663e-05,-4.9317393614099325e-05,-3.760123927672235e-05,-2.6860841908903623e-05,4.3333,3.1333
0.63671875,-5.6642641588464164e-05,-3.760123927672235e-05,-2.3926500297550916e-05,-3.320326221103226e-05,4.3333,3.1333
0.640625,-4.1016388670176225e-05,-8.056989945067519e-05,-8.008202096589608e-05,-4.834163664454107e-05,4.3333,3.1333
0.64453125,6.34317786678875e-06,-0.00010546584357976653,-7.275677299153124e-05,-4.9317393614099325e-05,4.3333,3.1333
0.6484375,1.9530038361181054e-05,-6.689516047150376e-05,-6.348001107804988e-05,-4.199214563973448e-05,4.3333,3.1333
0.65234375,-2.148710787365529e-05,-3.418608988326847e-05,-6.348001107804988e-05,-1.953559393453878e-05,4.3333,3.1333
0.65625,-5.078809977111466e-05,-3.271538372625313e-05,-4.88295151293202e-05,-1.2210345960173939e-05,4.3333,3.1333
0.66015625,-4.4438608766308065e-05,-5.371537067978941e-05,-4.05285101853971e-05,-2.7836598878461883e-05,4.3333,3.1333
0.6640625,-2.7836598878461883e-05,-6.54315250171664e-05,-2.978811281757838e-05,-2.7348720393682753e-05,4.3333,3.1333
0.66796875,-2.8812355848020133e-05,-4.05285101853971e-05,-5.713052007324329e-05,-4.199214563973448e-05,4.3333,3.1333
0.671875,-3.711336079194322e-05,-2.3926500297550916e-05,-7.324465147631035e-05,-4.9805272098878444e-05,4.3333,3.1333
0.67578125,-4.346285179674981e-05,-8.307318081940934e-06,-4.68780011902037e-05,-2.2950743327992666e-05,4.3333,3.1333
0.6796875,-3.9064874731059725e-05,4.879542412451372e-06,-1.5137616868848695e-05,-9.820701075760923e-07,4.3333,3.1333
0.68359375,-3.5649725337605846e-05,-2.002347241931791e-05,-1.2210345960173939e-05,-1.3186102929732185e-05,4.3333,3.1333
0.6875,-5.127597825589378e-05,-2.6372963424124506e-05,-3.808911776150147e-05,-3.2227505241474006e-05,4.3333,3.1333
0.69140625,-3.320326221103226e-05,-1.5625495353627827e-05,-2.4909327969787126e-05,-2.2462864843213536e-05,4.3333,3.1333
0.6953125,-1.074671050583656e-05,-2.5885084939345373e-05,-2.002347241931791e-05,-1.3186102929732185e-05,4.3333,3.1333
0.69921875,-1.1722467475394807e-05,-2.5885084939345373e-05,-4.395073028152894e-05,-2.002347241931791e-05,4.3333,3.1333
0.703125,-1.074671050583656e-05,-5.078809977111466e-05,-5.3227492195010284e-05,-3.808911776150147e-05,4.3333,3.1333
0.70703125,-1.5625495353627827e-05,-7.959414248111695e-05,-6.299213259327076e-05,-4.492648725108719e-05,4.3333,3.1333
0.7109375,-1.953559393453878e-05,-6.494364653238726e-05,-8.105777793545432e-05,-4.395073028152894e-05,4.3333,3.1333
0.71484375,-1.8559836964980533e-05,-3.467396836804759e-05,-4.395073028152894e-05,-3.076386978713663e-05,4.3333,3.1333
0.71875,-1.3186102929732185e-05,-2.5885084939345373e-05,-1.123458899061569e-05,-8.795196566720064e-06,4.3333,3.1333
0.72265625,-9.283075051499182e-06,-3.271538372625313e-05,-4.248709482719156e-05,-1.4649738384069563e-05,4.3333,3.1333
0.7265625,-4.397219501029966e-06,-3.173962675669488e-05,-6.250425410849164e-05,-2.8812355848020133e-05,4.3333,3.1333
0.73046875,-1.2210345960173939e-05,-6.738303895628289e-05,-7.324465147631035e-05,-3.5649725337605846e-05,4.3333,3.1333
0.734375,-2.002347241931791e-05,-7.764262854200044e-05,-8.740726894026092e-05,-3.5649725337605846e-05,4.3333,3.1333
0.73828125,4.815653467612862e-07,-6.152849713893338e-05,-8.691939045548179e-05,-2.8324477363241e-05,4.3333,3.1333
0.7421875,1.513206129549097e-05,-9.131029681849391e-05,-9.521332469672693e-05,-3.955275321583885e-05,4.3333,3.1333
0.74609375,2.2945187754634944e-05,-0.00010351432964065001,-0.00011132745609979399,-4.297497331197069e-05,4.3333,3.1333
0.75,1.7571453719386594e-05,-9.423756772716867e-05,-0.00013818198487067977,-4.05285101853971e-05,4.3333,3.1333
0.75390625,5.367420897230502e-06,-0.00011669411943236437,-0.00014745874678416112,-4.199214563973448e-05,4.3333,3.1333
0.7578125,9.270448775463506e-06,-0.00011815775488670175,-0.00014159713426413367,-3.66254823071641e-05,4.3333,3.1333
0.76171875,4.003507612726025e-05,-0.00013134461538109405,-0.00013524764325932706,-2.7836598878461883e-05,4.3333,3.1333
0.765625,6.786536186770427e-05,-0.00017919206040283817,-0.00014745874678416112,-2.1974986358434406e-05,4.3333,3.1333
0.76953125,4.052295461203937e-05,-0.0001660122706111238,-0.00015038601769283588,-2.5397206454566243e-05,4.3333,3.1333
0.7734375,6.0052235408560335e-05,-0.00012939310144197757,-0.0001259708813458457,-2.2950743327992666e-05,4.3333,3.1333
0.77734375,9.179261972991531e-05,-0.00016161429354543373,-0.00016308499970244905,-3.760123927672235e-05,4.3333,3.1333
0.78125,6.786536186770427e-05,-0.0001909152854428931,-0.0001660122706111238,-3.85769962462806e-05,4.3333,3.1333
0.78515625,6.298657701991302e-05,-0.00016454863515678644,-0.0001274345168001831,-2.002347241931791e-05,4.3333,3.1333
0.7890625,7.323909590295263e-05,-0.00015331328860151064,-0.00014452440517280843,-3.271538372625313e-05,4.3333,3.1333
0.79296875,4.443305319295035e-05,-0.00016259712121766994,-0.00016942742000457768,-6.982950208285648e-05,4.3333,3.1333
0.796875,-7.324490409704722e-06,-0.00015233753163195236,-0.0001660122706111238,-9.082241833371479e-05,4.3333,3.1333
0.80078125,-1.5625495353627827e-05,-0.00014403652668802926,-0.0001464829898146029,-9.521332469672693e-05,4.3333,3.1333
0.8046875,1.6107818265049218e-05,-0.0001240193674067292,-0.00012255573195239184,-7.910626399633781e-05,4.3333,3.1333
0.80859375,1.7083575234607478e-05,-9.27739322728313e-05,-0.00010595372206454564,-5.273961371023116e-05,4.3333,3.1333
0.8125,8.294691805905258e-06,-5.761839855802242e-05,-9.570120318150605e-05,-4.736587967498282e-05,4.3333,3.1333
0.81640625,7.806813321126128e-06,-4.736587967498282e-05,-6.152849713893338e-05,-2.8812355848020133e-05,4.3333,3.1333
0.8203125,-1.2210345960173939e-05,-6.104061865415426e-05,-2.0511350904097026e-05,-1.123458899061569e-05,4.3333,3.1333
0.82421875,-3.760123927672235e-05,-8.398504884412908e-05,-5.029315058365758e-05,-3.66254823071641e-05,4.3333,3.1333
0.828125,-5.761839855802242e-05,-9.082241833371479e-05,-7.373252996108948e-05,-5.566688461890592e-05,4.3333,3.1333
0.83203125,-5.8594155527580664e-05,-4.346285179674981e-05,-2.3438621812771783e-05,-4.736587967498282e-05,4.3333,3.1333
0.8359375,-5.8106277042801544e-05,-1.4699485923552232e-06,1.2692668871595345e-05,-3.516184685282672e-05,4.3333,3.1333
0.83984375,-4.834163664454107e-05,1.4156304325932723e-05,1.4156304325932723e-05,-2.930023433279925e-05,4.3333,3.1333
0.84375,-2.4909327969787126e-05,2.440882320897232e-05,1.6595696749828348e-05,-2.002347241931791e-05,4.3333,3.1333
0.84765625,-3.613760382238497e-05,1.0741154932478835e-05,3.5644169764248116e-05,-1.074671050583656e-05,4.3333,3.1333
0.8515625,-4.834163664454107e-05,-5.860854955367344e-06,1.6107818265049218e-05,-3.125174827191576e-05,4.3333,3.1333
0.85546875,-7.617192238498511e-05,-1.6113373838406943e-05,-1.7584079995422283e-05,-6.934162359807735e-05,4.3333,3.1333
0.859375,-0.0001137668485236896,-3.955275321583885e-05,-3.9064874731059725e-05,-7.764262854200044e-05,4.3333,3.1333
0.86328125,-0.00010351432964065001,-5.566688461890592e-05,-3.076386978713663e-05,-4.9805272098878444e-05,4.3333,3.1333
0.8671875,-7.275677299153124e-05,-2.3438621812771783e-05,1.0741154932478835e-05,-2.6860841908903623e-05,4.3333,3.1333
0.87109375,-5.761839855802242e-05,-7.324490409704722e-06,1.464393018997498e-06,-3.0275991302357502e-05,4.3333,3.1333
0.875,-4.395073028152894e-05,2.1481552300297564e-05,2.9782557244220653e-05,-4.885097985809097e-06,4.3333,3.1333
0.87890625,-3.516184685282672e-05,2.0505795330739317e-05,4.1010833096818516e-05,-2.933584046692587e-06,4.3333,3.1333
0.8828125,-7.178101602197298e-05,-1.3673981414511317e-05,-8.307318081940934e-06,-4.1016388670176225e-05,4.3333,3.1333
0.88671875,-0.00010253857267109177,-1.5137616868848695e-05,-1.074671050583656e-05,-4.590224422064544e-05,4.3333,3.1333
0.890625,-0.00010253857267109177,1.9522715037766144e-06,1.7571453719386594e-05,-1.953559393453878e-05,4.3333,3.1333
0.89453125,-8.740726894026092e-05,8.294691805905258e-06,2.9782557244220653e-05,-3.421462531471718e-06,4.3333,3.1333
0.8984375,-8.300929187457084e-05,1.9530038361181054e-05,1.7571453719386594e-05,-6.348733440146475e-06,4.3333,3.1333
0.90234375,-0.00010985674994277865,1.2204790386816213e-05,1.464418281071184e-05,-9.283075051499182e-06,4.3333,3.1333
0.90625,-8.105777793545432e-05,1.3180547356374475e-05,1.3668425841153591e-05,-1.1722467475394807e-05,4.3333,3.1333
0.91015625,-2.7836598878461883e-05,5.367420897230502e-06,1.1716911902037096e-05,-3.125174827191576e-05,4.3333,3.1333
0.9140625,-4.7853758159761945e-05,-9.770953536278312e-06,-2.148710787365529e-05,-6.0064861684596004e-05,4.3333,3.1333
0.91796875,-8.300929187457084e-05,-2.6372963424124506e-05,-2.8812355848020133e-05,-4.150426715495536e-05,4.3333,3.1333
0.921875,-7.617192238498511e-05,-4.9805272098878444e-05,-5.860854955367344e-06,-1.074671050583656e-05,4.3333,3.1333
0.92578125,-6.934162359807735e-05,-1.3673981414511317e-05,2.2945187754634944e-05,1.464393018997498e-06,4.3333,3.1333
0.9296875,-8.49678765163653e-05,7.806813321126128e-06,9.76514534218367e-07,-1.074671050583656e-05,4.3333,3.1333
0.93359375,-8.691939045548179e-05,1.8554281391622808e-05,-1.6608323025864023e-05,-2.148710787365529e-05,4.3333,3.1333
0.9375,-3.2227505241474006e-05,3.9547197642481136e-05,1.4156304325932723e-05,5.855299382009619e-06,4.3333,3.1333
0.94140625,5.367420897230502e-06,-4.397219501029966e-06,1.56199397802701e-05,6.34317786678875e-06,4.3333,3.1333
0.9453125,-4.150426715495536e-05,-3.955275321583885e-05,-7.324490409704722e-06,-2.7348720393682753e-05,4.3333,3.1333
0.94921875,-7.764262854200044e-05,-1.7584079995422283e-05,-7.324490409704722e-06,-2.8324477363241e-05,4.3333,3.1333
0.953125,-7.666687157244219e-05,-7.324490409704722e-06,-1.2698224444953069e-05,-1.953559393453878e-05,4.3333,3.1333
0.95703125,-5.566688461890592e-05,-2.4414378782330046e-05,-2.1974986358434406e-05,-3.271538372625313e-05,4.3333,3.1333
0.9609375,-5.3227492195010284e-05,-3.9064874731059725e-05,-1.8071958480201403e-05,-3.85769962462806e-05,4.3333,3.1333
0.96484375,-6.640728198672464e-05,-3.808911776150147e-05,6.831056351567881e-06,-2.2462864843213536e-05,4.3333,3.1333
0.96875,-6.348001107804988e-05,-1.5137616868848695e-05,7.806813321126128e-06,-1.4161859899290447e-05,4.3333,3.1333
0.97265625,-6.445576804760813e-05,1.6107818265049218e-05,-4.885097985809097e-06,-2.4457055619134707e-06,4.3333,3.1333
0.9765625,-7.03173805676356e-05,1.7083575234607478e-05,1.464418281071184e-05,8.782570290684375e-06,4.3333,3.1333
0.98046875,-5.029315058365758e-05,-1.5625495353627827e-05,8.294691805905258e-06,-1.074671050583656e-05,4.3333,3.1333
0.984375,-3.467396836804759e-05,-3.711336079194322e-05,-1.4161859899290447e-05,-3.760123927672235e-05,4.3333,3.1333
0.98828125,-4.199214563973448e-05,-4.541436573586632e-05,-3.955275321583885e-05,-5.3227492195010284e-05,4.3333,3.1333
0.9921875,-4.346285179674981e-05,-1.1722467475394807e-05,-3.711336079194322e-05,-3.9064874731059725e-05,4.3333,3.1333
0.99609375,-4.4438608766308065e-05,-1.4699485923552232e-06,-2.099922938887616e-05,-3.320326221103226e-05,4.3333,3.1333
1.0,-4.4438608766308065e-05,-4.248709482719156e-05,-2.8324477363241e-05,-4.7853758159761945e-05,4.3333,3.1333
1.00390625,-2.6860841908903623e-05,-6.885374511329822e-05,-4.004063170061798e-05,-4.248709482719156e-05,4.3333,3.1333
1.0078125,-3.85769962462806e-05,-4.834163664454107e-05,-3.271538372625313e-05,-2.4909327969787126e-05,4.3333,3.1333
1.01171875,-6.104061865415426e-05,4.879542412451372e-06,-6.348733440146475e-06,-1.1722467475394807e-05,4.3333,3.1333
1.015625,-4.541436573586632e-05,1.464418281071184e-05,4.815653467612862e-07,-9.770953536278312e-06,4.3333,3.1333
1.01953125,-2.7836598878461883e-05,-1.4161859899290447e-05,-7.819439597161804e-06,-1.3186102929732185e-05,4.3333,3.1333
1.0234375,-4.541436573586632e-05,-3.076386978713663e-05,-2.6860841908903623e-05,-1.953559393453878e-05,4.3333,3.1333
1.02734375,-7.764262854200044e-05,-3.760123927672235e-05,-2.148710787365529e-05,-2.8324477363241e-05,4.3333,3.1333
1.03125,-6.591940350194551e-05,-2.2950743327992666e-05,-1.123458899061569e-05,-2.930023433279925e-05,4.3333,3.1333
1.03515625,-4.346285179674981e-05,-5.860854955367344e-06,-2.3926500297550916e-05,-3.85769962462806e-05,4.3333,3.1333
1.0390625,-2.4414378782330046e-05,-1.8071958480201403e-05,-3.85769962462806e-05,-3.320326221103226e-05,4.3333,3.1333
1.04296875,-1.5625495353627827e-05,-5.225173522545204e-05,-2.7836598878461883e-05,-2.6860841908903623e-05,4.3333,3.1333
1.046875,-3.85769962462806e-05,-4.05285101853971e-05,-1.4649738384069563e-05,-3.0275991302357502e-05,4.3333,3.1333
1.05078125,-3.5649725337605846e-05,-7.324490409704722e-06,-2.4457055619134707e-06,-2.6372963424124506e-05,4.3333,3.1333
1.0546875,-2.8812355848020133e-05,2.4401499885557453e-06,2.4401499885557453e-06,-2.5397206454566243e-05,4.3333,3.1333
1.05859375,-4.834163664454107e-05,-2.0511350904097026e-05,-2.6372963424124506e-05,-3.613760382238497e-05,4.3333,3.1333
1.0625,-8.691939045548179e-05,-4.9317393614099325e-05,-4.05285101853971e-05,-3.271538372625313e-05,4.3333,3.1333
1.06640625,-9.374968924238955e-05,-2.6372963424124506e-05,-9.770953536278312e-06,-1.4161859899290447e-05,4.3333,3.1333
1.0703125,-4.736587967498282e-05,-1.8071958480201403e-05,4.815653467612862e-07,-1.7584079995422283e-05,4.3333,3.1333
1.07421875,-6.313138017844721e-09,-5.273961371023116e-05,-2.148710787365529e-05,-3.516184685282672e-05,4.3333,3.1333
1.078125,9.765397962920588e-06,-4.150426715495536e-05,-2.930023433279925e-05,-3.271538372625313e-05,4.3333,3.1333
1.08203125,-1.95782707713434e-06,-3.369821139848934e-05,-2.099922938887616e-05,-2.8812355848020133e-05,4.3333,3.1333
1.0859375,-2.3438621812771783e-05,-4.736587967498282e-05,-2.8812355848020133e-05,-3.0275991302357502e-05,4.3333,3.1333
1.08984375,-5.957698319981688e-05,-3.369821139848934e-05,-3.369821139848934e-05,-3.320326221103226e-05,4.3333,3.1333
1.09375,-5.029315058365758e-05,-2.3926500297550916e-05,-1.953559393453878e-05,-3.808911776150147e-05,4.3333,3.1333
1.09765625,-2.978811281757838e-05,-3.271538372625313e-05,-2.2462864843213536e-05,-3.467396836804759e-05,4.3333,3.1333
1.1015625,-7.666687157244219e-05,-3.076386978713663e-05,-1.2210345960173939e-05,-2.4414378782330046e-05,4.3333,3.1333
1.10546875,-9.374968924238955e-05,-2.978811281757838e-05,-1.5137616868848695e-05,-2.4909327969787126e-05,4.3333,3.1333
1.109375,-3.418608988326847e-05,-2.2462864843213536e-05,-3.9064874731059725e-05,-4.199214563973448e-05,4.3333,3.1333
1.11328125,-4.885097985809097e-06,-9.770953536278312e-06,-1.7096201510643153e-05,-4.9805272098878444e-05,4.3333,3.1333
1.1171875,-7.324490409704722e-06,-1.1722467475394807e-05,-8.307318081940934e-06,-4.199214563973448e-05,4.3333,3.1333
1.12109375,-2.930023433279925e-05,-2.1974986358434406e-05,-1.5625495353627827e-05,-3.613760382238497e-05,4.3333,3.1333
1.125,-3.0275991302357502e-05,-4.68780011902037e-05,-2.2950743327992666e-05,-3.369821139848934e-05,4.3333,3.1333
1.12890625,-1.5625495353627827e-05,-4.68780011902037e-05,-5.420324916456854e-05,-3.808911776150147e-05,4.3333,3.1333
1.1328125,-2.3438621812771783e-05,-2.6860841908903623e-05,-5.127597825589378e-05,-4.834163664454107e-05,4.3333,3.1333
1.13671875,-3.613760382238497e-05,-3.66254823071641e-05,-4.4438608766308065e-05,-5.5179006134126784e-05,4.3333,3.1333
1.140625,-6.055274016937513e-05,-5.713052007324329e-05,-4.736587967498282e-05,-4.05285101853971e-05,4.3333,3.1333
1.14453125,-5.957698319981688e-05,-5.4691127649347664e-05,-3.173962675669488e-05,-1.7096201510643153e-05,4.3333,3.1333
1.1484375,-2.8812355848020133e-05,-2.8324477363241e-05,-1.7584079995422283e-05,-1.5137616868848695e-05,4.3333,3.1333
1.15234375,-3.418608988326847e-05,-5.860854955367344e-06,-2.7836598878461883e-05,-1.9047715449759663e-05,4.3333,3.1333
1.15625,-3.369821139848934e-05,-1.2210345960173939e-05,-3.271538372625313e-05,-1.4649738384069563e-05,4.3333,3.1333
1.16015625,-4.885097985809097e-06,-1.7584079995422283e-05,-1.074671050583656e-05,-1.3673981414511317e-05,4.3333,3.1333
1.1640625,-3.421462531471718e-06,-4.346285179674981e-05,-3.271538372625313e-05,-2.5885084939345373e-05,4.3333,3.1333
1.16796875,-2.978811281757838e-05,-4.834163664454107e-05,-4.7853758159761945e-05,-3.66254823071641e-05,4.3333,3.1333
1.171875,-6.787798814373997e-05,-1.7096201510643153e-05,-2.6860841908903623e-05,-2.930023433279925e-05,4.3333,3.1333
1.17578125,-6.54315250171664e-05,-2.4909327969787126e-05,-1.6113373838406943e-05,-3.613760382238497e-05,4.3333,3.1333
1.1796875,-3.467396836804759e-05,-4.05285101853971e-05,-3.613760382238497e-05,-5.029315058365758e-05,4.3333,3.1333
1.18359375,-3.613760382238497e-05,-5.4691127649347664e-05,-3.955275321583885e-05,-4.395073028152894e-05,4.3333,3.1333
1.1875,-2.002347241931791e-05,-2.2462864843213536e-05,4.391663927672254e-06,-8.307318081940934e-06,4.3333,3.1333
1.19140625,-1.7584079995422283e-05,-1.6113373838406943e-05,1.9522715037766144e-06,9.76514534218367e-07,4.3333,3.1333
1.1953125,-1.7096201510643153e-05,-5.4691127649347664e-05,-4.297497331197069e-05,-3.320326221103226e-05,4.3333,3.1333
1.19921875,-1.95782707713434e-06,-4.9317393614099325e-05,-4.9805272098878444e-05,-4.590224422064544e-05,4.3333,3.1333
1.203125,-2.4414378782330046e-05,-5.566688461890592e-05,-4.736587967498282e-05,-4.590224422064544e-05,4.3333,3.1333
1.20703125,-6.250425410849164e-05,-4.736587967498282e-05,-1.3673981414511317e-05,-4.004063170061798e-05,4.3333,3.1333
1.2109375,-6.152849713893338e-05,-3.9093410162508485e-06,1.1716911902037096e-05,-2.7836598878461883e-05,4.3333,3.1333
1.21484375,-5.420324916456854e-05,-7.324490409704722e-06,-4.4438608766308065e-05,-3.173962675669488e-05,4.3333,3.1333
1.21875,-7.275677299153124e-05,-5.176385674067291e-05,-4.9317393614099325e-05,-4.395073028152894e-05,4.3333,3.1333
1.22265625,-5.176385674067291e-05,-2.2950743327992666e-05,-1.4649738384069563e-05,-3.125174827191576e-05,4.3333,3.1333
1.2265625,-2.3926500297550916e-05,-7.324490409704722e-06,-7.324490409704722e-06,-1.5137616868848695e-05,4.3333,3.1333
1.23046875,-8.307318081940934e-06,-2.8324477363241e-05,-1.2210345960173939e-05,-2.8812355848020133e-05,4.3333,3.1333
1.234375,4.815653467612862e-07,-3.271538372625313e-05,-3.2227505241474006e-05,-4.639012270542457e-05,4.3333,3.1333
1.23828125,-1.3186102929732185e-05,-4.736587967498282e-05,-2.5397206454566243e-05,-5.615476310368504e-05,4.3333,3.1333
1.2421875,-1.9047715449759663e-05,-7.813050702677957e-05,-2.7836598878461883e-05,-5.176385674067291e-05,4.3333,3.1333
1.24609375,-3.271538372625313e-05,-0.00010351432964065001,-4.346285179674981e-05,-4.150426715495536e-05,4.3333,3.1333
1.25,-5.761839855802242e-05,-6.934162359807735e-05,-3.613760382238497e-05,-3.271538372625313e-05,4.3333,3.1333
1.25390625,-6.787798814373997e-05,-2.099922938887616e-05,-1.4649738384069563e-05,-2.1974986358434406e-05,4.3333,3.1333
1.2578125,-6.934162359807735e-05,-1.8559836964980533e-05,-7.819439597161804e-06,-2.148710787365529e-05,4.3333,3.1333
1.26171875,-6.104061865415426e-05,-1.1722467475394807e-05,-2.6860841908903623e-05,-2.8324477363241e-05,4.3333,3.1333
1.265625,-2.930023433279925e-05,-2.2462864843213536e-05,-3.0275991302357502e-05,-2.6372963424124506e-05,4.3333,3.1333
1.26953125,-2.099922938887616e-05,-6.689516047150376e-05,-4.4438608766308065e-05,-3.076386978713663e-05,4.3333,3.1333
1.2734375,-3.125174827191576e-05,-7.275677299153124e-05,-6.299213259327076e-05,-4.150426715495536e-05,4.3333,3.1333
1.27734375,-1.8071958480201403e-05,-5.4691127649347664e-05,-5.176385674067291e-05,-3.9064874731059725e-05,4.3333,3.1333
1.28125,-1.123458899061569e-05,-4.199214563973448e-05,-4.590224422064544e-05,-4.1016388670176225e-05,4.3333,3.1333
1.28515625,-2.7836598878461883e-05,-6.055274016937513e-05,-4.9317393614099325e-05,-4.7853758159761945e-05,4.3333,3.1333
1.2890625,-3.076386978713663e-05,-5.761839855802242e-05,-5.6642641588464164e-05,-4.7853758159761945e-05,4.3333,3.1333
1.29296875,-4.150426715495536e-05,-4.150426715495536e-05,-7.178101602197298e-05,-5.8106277042801544e-05,4.3333,3.1333
1.296875,-5.90820340123598e-05,-4.05285101853971e-05,-3.9064874731059725e-05,-4.9317393614099325e-05,4.3333,3.1333
1.30078125,-5.273961371023116e-05,-5.029315058365758e-05,-3.5649725337605846e-05,-4.297497331197069e-05,4.3333,3.1333
1.3046875,-3.955275321583885e-05,-6.348001107804988e-05,-4.7853758159761945e-05,-4.88295151293202e-05,4.3333,3.1333
1.30859375,-3.808911776150147e-05,-3.173962675669488e-05,-2.4414378782330046e-05,-4.05285101853971e-05,4.3333,3.1333
1.3125,-4.199214563973448e-05,5.855299382009619e-06,-1.953559393453878e-05,-3.9064874731059725e-05,4.3333,3.1333
1.31640625,-1.4649738384069563e-05,3.9037854428931235e-06,-5.078809977111466e-05,-5.176385674067291e-05,4.3333,3.1333
1.3203125,-1.2698224444953069e-05,-3.760123927672235e-05,-5.273961371023116e-05,-5.420324916456854e-05,4.3333,3.1333
1.32421875,-3.9064874731059725e-05,-4.492648725108719e-05,-2.099922938887616e-05,-3.125174827191576e-05,4.3333,3.1333
1.328125,-5.6642641588464164e-05,-2.5885084939345373e-05,-1.7096201510643153e-05,-2.2462864843213536e-05,4.3333,3.1333
1.33203125,-7.324465147631035e-05,-1.4161859899290447e-05,-3.076386978713663e-05,-3.808911776150147e-05,4.3333,3.1333
1.3359375,-3.955275321583885e-05,-1.2210345960173939e-05,-1.9047715449759663e-05,-3.467396836804759e-05,4.3333,3.1333
1.33984375,-1.4649738384069563e-05,-4.9805272098878444e-05,-3.0275991302357502e-05,-4.4438608766308065e-05,4.3333,3.1333
1.34375,-5.8106277042801544e-05,-6.250425410849164e-05,-3.760123927672235e-05,-5.3227492195010284e-05,4.3333,3.1333
1.34765625,-5.029315058365758e-05,-4.150426715495536e-05,-4.346285179674981e-05,-4.590224422064544e-05,4.3333,3.1333
1.3515625,-3.9093410162508485e-06,-5.8594155527580664e-05,-7.275677299153124e-05,-5.078809977111466e-05,4.3333,3.1333
1.35546875,-8.795196566720064e-06,-4.88295151293202e-05,-5.127597825589378e-05,-4.346285179674981e-05,4.3333,3.1333
1.359375,-2.7836598878461883e-05,-3.516184685282672e-05,-2.7348720393682753e-05,-3.125174827191576e-05,4.3333,3.1333
1.36328125,-3.076386978713663e-05,-4.541436573586632e-05,-5.078809977111466e-05,-4.395073028152894e-05,4.3333,3.1333
1.3671875,-6.20163756237125e-05,-2.1974986358434406e-05,-5.371537067978941e-05,-3.955275321583885e-05,4.3333,3.1333
1.37109375,-6.982950208285648e-05,-1.5137616868848695e-05,-1.8559836964980533e-05,-3.2227505241474006e-05,4.3333,3.1333
1.375,-3.613760382238497e-05,-2.6372963424124506e-05,-5.860854955367344e-06,-3.760123927672235e-05,4.3333,3.1333
1.37890625,-1.7096201510643153e-05,-2.5397206454566243e-05,-2.7348720393682753e-05,-3.320326221103226e-05,4.3333,3.1333
1.3828125,-3.955275321583885e-05,-4.492648725108719e-05,-3.9064874731059725e-05,-4.150426715495536e-05,4.3333,3.1333
1.38671875,-4.4438608766308065e-05,-3.711336079194322e-05,-4.541436573586632e-05,-5.078809977111466e-05,4.3333,3.1333
1.390625,-2.978811281757838e-05,-1.3673981414511317e-05,-4.395073028152894e-05,-4.9317393614099325e-05,4.3333,3.1333
1.39453125,-8.545575500114441e-05,-1.4699485923552232e-06,-3.173962675669488e-05,-4.004063170061798e-05,4.3333,3.1333
1.3984375,-8.008202096589608e-05,3.415906958113993e-06,-2.1974986358434406e-05,-3.85769962462806e-05,4.3333,3.1333
1.40234375,1.3180547356374475e-05,-3.955275321583885e-05,-4.05285101853971e-05,-4.248709482719156e-05,4.3333,3.1333
1.40625,3.759568370336461e-05,-6.640728198672464e-05,-4.1016388670176225e-05,-3.125174827191576e-05,4.3333,3.1333
1.41015625,6.831056351567881e-06,-4.395073028152894e-05,-4.248709482719156e-05,-3.516184685282672e-05,4.3333,3.1333
1.4140625,-2.6860841908903623e-05,-3.320326221103226e-05,-5.713052007324329e-05,-4.7853758159761945e-05,4.3333,3.1333
1.41796875,-3.0275991302357502e-05,-3.418608988326847e-05,-5.273961371023116e-05,-3.9064874731059725e-05,4.3333,3.1333
1.421875,-2.0511350904097026e-05,-4.639012270542457e-05,-4.395073028152894e-05,-2.4414378782330046e-05,4.3333,3.1333
1.42578125,-2.5885084939345373e-05,-3.955275321583885e-05,-3.418608988326847e-05,-2.2462864843213536e-05,4.3333,3.1333
1.4296875,-3.418608988326847e-05,-3.9093410162508485e-06,-2.5397206454566243e-05,-1.6113373838406943e-05,4.3333,3.1333
1.43359375,-8.545575500114441e-05,1.7083575234607478e-05,-1.123458899061569e-05,-1.7584079995422283e-05,4.3333,3.1333
1.4375,-0.00010644160054932477,-3.421462531471718e-06,-2.2950743327992666e-05,-3.467396836804759e-05,4.3333,3.1333
1.44140625,-6.787798814373997e-05,-3.173962675669488e-05,-4.346285179674981e-05,-3.271538372625313e-05,4.3333,3.1333
1.4453125,-1.953559393453878e-05,-2.3926500297550916e-05,-2.7836598878461883e-05,-1.7096201510643153e-05,4.3333,3.1333
1.44921875,2.2945187754634944e-05,-3.173962675669488e-05,-1.8559836964980533e-05,-2.3926500297550916e-05,4.3333,3.1333
1.453125,1.3180547356374475e-05,-3.85769962462806e-05,-3.369821139848934e-05,-3.760123927672235e-05,4.3333,3.1333
1.45703125,-1.7584079995422283e-05,-1.953559393453878e-05,-2.5397206454566243e-05,-2.8812355848020133e-05,4.3333,3.1333
1.4609375,-2.1974986358434406e-05,-5.6642641588464164e-05,-3.320326221103226e-05,-3.955275321583885e-05,4.3333,3.1333
1.46484375,-3.369821139848934e-05,-7.813050702677957e-05,-5.615476310368504e-05,-5.615476310368504e-05,4.3333,3.1333
1.46875,-4.004063170061798e-05,-3.613760382238497e-05,-5.566688461890592e-05,-3.85769962462806e-05,4.3333,3.1333
1.47265625,-6.0064861684596004e-05,5.855299382009619e-06,-3.369821139848934e-05,-2.3438621812771783e-05,4.3333,3.1333
1.4765625,-9.960423105973905e-05,7.318934836346997e-06,-2.6372963424124506e-05,-2.8324477363241e-05,4.3333,3.1333
1.48046875,-7.275677299153124e-05,-3.467396836804759e-05,-3.369821139848934e-05,-3.711336079194322e-05,4.3333,3.1333
1.484375,-1.2210345960173939e-05,-5.8594155527580664e-05,-3.9064874731059725e-05,-4.248709482719156e-05,4.3333,3.1333
1.48828125,1.0253276447699718e-05,-5.5179006134126784e-05,-4.1016388670176225e-05,-4.199214563973448e-05,4.3333,3.1333
1.4921875,2.928028473334876e-06,-3.516184685282672e-05,-4.248709482719156e-05,-3.760123927672235e-05,4.3333,3.1333
1.49609375,-1.2210345960173939e-05,-5.860854955367344e-06,-2.8812355848020133e-05,-3.0275991302357502e-05,4.3333,3.1333
1.5,-2.930023433279925e-05,-2.8324477363241e-05,-3.516184685282672e-05,-3.418608988326847e-05,4.3333,3.1333
1.50390625,-3.271538372625313e-05,-5.4691127649347664e-05,-4.590224422064544e-05,-4.1016388670176225e-05,4.3333,3.1333
1.5078125,-4.248709482719156e-05,-3.9064874731059725e-05,-2.3438621812771783e-05,-2.6372963424124506e-05,4.3333,3.1333
1.51171875,-4.639012270542457e-05,-1.6608323025864023e-05,-1.6608323025864023e-05,-1.4161859899290447e-05,4.3333,3.1333
1.515625,-6.250425410849164e-05,-2.933584046692587e-06,-2.3438621812771783e-05,-1.9047715449759663e-05,4.3333,3.1333
1.51953125,-0.0001030264511558709,-1.5137616868848695e-05,-3.125174827191576e-05,-3.0275991302357502e-05,4.3333,3.1333
1.5234375,-8.740726894026092e-05,-2.2462864843213536e-05,-3.369821139848934e-05,-2.6372963424124506e-05,4.3333,3.1333
1.52734375,-2.6860841908903623e-05,-1.6113373838406943e-05,-1.6608323025864023e-05,-5.860854955367344e-06,4.3333,3.1333
1.53125,-4.397219501029966e-06,-1.953559393453878e-05,-2.148710787365529e-05,-2.002347241931791e-05,4.3333,3.1333
1.53515625,1.464393018997498e-06,-9.770953536278312e-06,-4.297497331197069e-05,-5.176385674067291e-05,4.3333,3.1333
1.5390625,-1.95782707713434e-06,-3.2227505241474006e-05,-3.418608988326847e-05,-4.541436573586632e-05,4.3333,3.1333
1.54296875,-1.5137616868848695e-05,-6.787798814373997e-05,-4.9317393614099325e-05,-3.808911776150147e-05,4.3333,3.1333
1.546875,-2.2950743327992666e-05,-7.764262854200044e-05,-7.764262854200044e-05,-5.566688461890592e-05,4.3333,3.1333
1.55078125,-2.930023433279925e-05,-5.5179006134126784e-05,-5.371537067978941e-05,-3.85769962462806e-05,4.3333,3.1333
1.5546875,-4.150426715495536e-05,-2.7836598878461883e-05,-3.613760382238497e-05,-2.7836598878461883e-05,4.3333,3.1333
1.55859375,-7.86183855115587e-05,-4.9805272098878444e-05,-4.4438608766308065e-05,-4.541436573586632e-05,4.3333,3.1333
1.5625,-9.911635257495993e-05,-5.5179006134126784e-05,-2.978811281757838e-05,-3.613760382238497e-05,4.3333,3.1333
1.56640625,-4.05285101853971e-05,-3.2227505241474006e-05,-2.6860841908903623e-05,-2.2950743327992666e-05,4.3333,3.1333
1.5703125,-3.9093410162508485e-06,-3.808911776150147e-05,-4.590224422064544e-05,-3.66254823071641e-05,4.3333,3.1333
1.57421875,-3.271538372625313e-05,-2.8324477363241e-05,-5.127597825589378e-05,-5.029315058365758e-05,4.3333,3.1333
1.578125,-3.2227505241474006e-05,-2.2462864843213536e-05,-3.808911776150147e-05,-4.150426715495536e-05,4.3333,3.1333
1.58203125,-2.930023433279925e-05,-6.250425410849164e-05,-1.4161859899290447e-05,-3.66254823071641e-05,4.3333,3.1333
1.5859375,-6.20163756237125e-05,-4.541436573586632e-05,-1.0258832021057444e-05,-3.955275321583885e-05,4.3333,3.1333
1.58984375,-4.834163664454107e-05,-4.590224422064544e-05,-4.639012270542457e-05,-4.297497331197069e-05,4.3333,3.1333
1.59375,-9.283075051499182e-06,-6.934162359807735e-05,-5.615476310368504e-05,-5.225173522545204e-05,4.3333,3.1333
1.59765625,-1.8071958480201403e-05,-4.004063170061798e-05,-3.760123927672235e-05,-5.3227492195010284e-05,4.3333,3.1333
1.6015625,-3.125174827191576e-05,-2.099922938887616e-05,-1.953559393453878e-05,-3.9064874731059725e-05,4.3333,3.1333
1.60546875,-3.2227505241474006e-05,-3.271538372625313e-05,-2.5397206454566243e-05,-4.1016388670176225e-05,4.3333,3.1333
1.609375,-5.3227492195010284e-05,-4.395073028152894e-05,-4.590224422064544e-05,-5.176385674067291e-05,4.3333,3.1333
1.61328125,-4.4438608766308065e-05,-3.711336079194322e-05,-4.541436573586632e-05,-5.8106277042801544e-05,4.3333,3.1333
1.6171875,-1.8559836964980533e-05,-4.834163664454107e-05,-4.7853758159761945e-05,-5.4691127649347664e-05,4.3333,3.1333
1.62109375,-3.076386978713663e-05,-5.957698319981688e-05,-3.076386978713663e-05,-4.150426715495536e-05,4.3333,3.1333
1.625,-3.955275321583885e-05,-4.1016388670176225e-05,-3.5649725337605846e-05,-4.150426715495536e-05,4.3333,3.1333
1.62890625,-3.076386978713663e-05,-4.639012270542457e-05,-4.395073028152894e-05,-4.9805272098878444e-05,4.3333,3.1333
1.6328125,-4.395073028152894e-05,-6.396788956282902e-05,-3.955275321583885e-05,-5.078809977111466e-05,4.3333,3.1333
1.63671875,-5.761839855802242e-05,-5.5179006134126784e-05,-4.7853758159761945e-05,-4.492648725108719e-05,4.3333,3.1333
1.640625,-8.398504884412908e-05,-6.396788956282902e-05,-5.273961371023116e-05,-4.395073028152894e-05,4.3333,3.1333
1.64453125,-9.472544621194779e-05,-4.05285101853971e-05,-4.492648725108719e-05,-2.930023433279925e-05,4.3333,3.1333
1.6484375,-3.711336079194322e-05,-2.1974986358434406e-05,-2.2950743327992666e-05,-2.5397206454566243e-05,4.3333,3.1333
1.65234375,-3.9093410162508485e-06,-6.348001107804988e-05,-3.369821139848934e-05,-5.029315058365758e-05,4.3333,3.1333
1.65625,-1.8559836964980533e-05,-6.494364653238726e-05,-3.808911776150147e-05,-4.541436573586632e-05,4.3333,3.1333
1.66015625,-3.516184685282672e-05,-6.152849713893338e-05,-4.248709482719156e-05,-3.9064874731059725e-05,4.3333,3.1333
1.6640625,-4.297497331197069e-05,-6.787798814373997e-05,-4.639012270542457e-05,-5.078809977111466e-05,4.3333,3.1333
1.66796875,-3.418608988326847e-05,-5.176385674067291e-05,-5.176385674067291e-05,-5.3227492195010284e-05,4.3333,3.1333
1.671875,-2.5885084939345373e-05,-2.8324477363241e-05,-5.761839855802242e-05,-4.541436573586632e-05,4.3333,3.1333
1.67578125,-5.713052007324329e-05,-2.7348720393682753e-05,-2.6372963424124506e-05,-2.6372963424124506e-05,4.3333,3.1333
1.6796875,-6.640728198672464e-05,-5.078809977111466e-05,-2.8324477363241e-05,-2.6372963424124506e-05,4.3333,3.1333
1.68359375,-5.615476310368504e-05,-6.494364653238726e-05,-4.4438608766308065e-05,-4.590224422064544e-05,4.3333,3.1333
1.6875,-6.348001107804988e-05,-6.396788956282902e-05,-4.736587967498282e-05,-5.127597825589378e-05,4.3333,3.1333
1.69140625,-6.640728198672464e-05,-3.271538372625313e-05,-3.9064874731059725e-05,-4.541436573586632e-05,4.3333,3.1333
1.6953125,-4.150426715495536e-05,-3.173962675669488e-05,-2.8324477363241e-05,-2.930023433279925e-05,4.3333,3.1333
1.69921875,-1.3186102929732185e-05,-4.199214563973448e-05,-2.5397206454566243e-05,-2.978811281757838e-05,4.3333,3.1333
1.703125,-2.4909327969787126e-05,-4.395073028152894e-05,-3.369821139848934e-05,-3.173962675669488e-05,4.3333,3.1333
1.70703125,-3.0275991302357502e-05,-5.176385674067291e-05,-3.955275321583885e-05,-3.076386978713663e-05,4.3333,3.1333
1.7109375,-4.4438608766308065e-05,-3.9064874731059725e-05,-3.467396836804759e-05,-3.955275321583885e-05,4.3333,3.1333
1.71484375,-7.715475005722132e-05,-1.6113373838406943e-05,-2.6372963424124506e-05,-4.199214563973448e-05,4.3333,3.1333
1.71875,-5.566688461890592e-05,-3.516184685282672e-05,-4.1016388670176225e-05,-4.199214563973448e-05,4.3333,3.1333
1.72265625,-3.2227505241474006e-05,-6.20163756237125e-05,-3.5649725337605846e-05,-5.029315058365758e-05,4.3333,3.1333
1.7265625,-2.5885084939345373e-05,-8.838302590981917e-05,-3.9064874731059725e-05,-6.348001107804988e-05,4.3333,3.1333
1.73046875,-8.795196566720064e-06,-9.27739322728313e-05,-7.470828693064773e-05,-6.250425410849164e-05,4.3333,3.1333
1.734375,-2.099922938887616e-05,-6.494364653238726e-05,-4.736587967498282e-05,-5.078809977111466e-05,4.3333,3.1333
1.73828125,-3.66254823071641e-05,-4.541436573586632e-05,-3.271538372625313e-05,-3.711336079194322e-05,4.3333,3.1333
1.7421875,-3.808911776150147e-05,-3.418608988326847e-05,-2.2950743327992666e-05,-2.148710787365529e-05,4.3333,3.1333
1.74609375,-5.127597825589378e-05,-3.516184685282672e-05,-1.074671050583656e-05,-2.148710787365529e-05,4.3333,3.1333
1.75,-6.0064861684596004e-05,-1.3186102929732185e-05,-1.6113373838406943e-05,-7.819439597161804e-06,4.3333,3.1333
1.75390625,-2.7348720393682753e-05,1.0253276447699718e-05,-2.6372963424124506e-05,-1.8071958480201403e-05,4.3333,3.1333
1.7578125,-2.2950743327992666e-05,-2.4414378782330046e-05,-6.445576804760813e-05,-5.615476310368504e-05,4.3333,3.1333
1.76171875,-5.5179006134126784e-05,-3.711336079194322e-05,-4.68780011902037e-05,-5.273961371023116e-05,4.3333,3.1333
1.765625,-7.080525905241473e-05,-2.930023433279925e-05,-2.7836598878461883e-05,-4.395073028152894e-05,4.3333,3.1333
1.76953125,-5.127597825589378e-05,-9.820701075760923e-07,-4.150426715495536e-05,-4.199214563973448e-05,4.3333,3.1333
1.7734375,-2.099922938887616e-05,1.1229033417257966e-05,-3.369821139848934e-05,-3.955275321583885e-05,4.3333,3.1333
1.77734375,-1.95782707713434e-06,-1.3673981414511317e-05,-2.0511350904097026e-05,-3.711336079194322e-05,4.3333,3.1333
1.78125,-6.348733440146475e-06,-5.029315058365758e-05,-2.8812355848020133e-05,-3.955275321583885e-05,4.3333,3.1333
1.78515625,-3.125174827191576e-05,-4.834163664454107e-05,-4.199214563973448e-05,-4.4438608766308065e-05,4.3333,3.1333
1.7890625,-6.104061865415426e-05,4.815653467612862e-07,-1.8071958480201403e-05,-4.1016388670176225e-05,4.3333,3.1333
1.79296875,-4.834163664454107e-05,-3.421462531471718e-06,-2.4909327969787126e-05,-4.248709482719156e-05,4.3333,3.1333
1.796875,-2.7348720393682753e-05,-5.615476310368504e-05,-5.713052007324329e-05,-5.90820340123598e-05,4.3333,3.1333
1.80078125,-4.492648725108719e-05,-6.934162359807735e-05,-5.6642641588464164e-05,-6.0064861684596004e-05,4.3333,3.1333
1.8046875,-4.492648725108719e-05,-5.6642641588464164e-05,-4.88295151293202e-05,-5.127597825589378e-05,4.3333,3.1333
1.80859375,-3.0275991302357502e-05,-3.2227505241474006e-05,-3.66254823071641e-05,-5.078809977111466e-05,4.3333,3.1333
1.8125,-4.248709482719156e-05,-1.3673981414511317e-05,-2.7348720393682753e-05,-4.004063170061798e-05,4.3333,3.1333
1.81640625,-4.297497331197069e-05,-7.324490409704722e-06,-1.953559393453878e-05,-3.320326221103226e-05,4.3333,3.1333
1.8203125,-2.6860841908903623e-05,-1.7584079995422283e-05,-9.770953536278312e-06,-3.369821139848934e-05,4.3333,3.1333
1.82421875,-3.125174827191576e-05,-3.85769962462806e-05,-1.4161859899290447e-05,-2.978811281757838e-05,4.3333,3.1333
1.828125,-3.613760382238497e-05,-7.819439597161804e-06,-2.5397206454566243e-05,-4.346285179674981e-05,4.3333,3.1333
1.83203125,-3.711336079194322e-05,2.4896701693751437e-05,-2.2950743327992666e-05,-5.078809977111466e-05,4.3333,3.1333
1.8359375,-3.85769962462806e-05,4.815653467612862e-07,-2.0511350904097026e-05,-2.4414378782330046e-05,4.3333,3.1333
1.83984375,-1.6608323025864023e-05,-1.3673981414511317e-05,-1.5137616868848695e-05,-2.3438621812771783e-05,4.3333,3.1333
1.84375,-2.5885084939345373e-05,-3.9064874731059725e-05,-1.5625495353627827e-05,-4.7853758159761945e-05,4.3333,3.1333
1.84765625,-3.369821139848934e-05,-3.2227505241474006e-05,-2.8812355848020133e-05,-5.3227492195010284e-05,4.3333,3.1333
1.8515625,-2.5397206454566243e-05,3.9037854428931235e-06,-2.5885084939345373e-05,-4.346285179674981e-05,4.3333,3.1333
1.85546875,-3.125174827191576e-05,2.4401499885557453e-06,-3.5649725337605846e-05,-4.4438608766308065e-05,4.3333,3.1333
1.859375,-3.516184685282672e-05,-2.4909327969787126e-05,-3.5649725337605846e-05,-4.9317393614099325e-05,4.3333,3.1333
1.86328125,-4.834163664454107e-05,-3.0275991302357502e-05,-9.283075051499182e-06,-3.369821139848934e-05,4.3333,3.1333
1.8671875,-4.639012270542457e-05,-1.8071958480201403e-05,-9.283075051499182e-06,-2.6372963424124506e-05,4.3333,3.1333
1.87109375,-2.930023433279925e-05,-1.4649738384069563e-05,-1.3673981414511317e-05,-3.2227505241474006e-05,4.3333,3.1333
1.875,-5.3227492195010284e-05,3.415906958113993e-06,-1.7096201510643153e-05,-3.271538372625313e-05,4.3333,3.1333
1.87890625,-5.761839855802242e-05,5.855299382009619e-06,-2.3926500297550916e-05,-3.320326221103226e-05,4.3333,3.1333
1.8828125,-2.3438621812771783e-05,-1.1722467475394807e-05,-2.3926500297550916e-05,-1.5625495353627827e-05,4.3333,3.1333
1.88671875,-1.3673981414511317e-05,-5.3729764705882276e-06,-3.369821139848934e-05,-1.5625495353627827e-05,4.3333,3.1333
1.890625,-3.125174827191576e-05,-2.2462864843213536e-05,-5.8594155527580664e-05,-5.029315058365758e-05,4.3333,3.1333
1.89453125,-2.6860841908903623e-05,-5.420324916456854e-05,-5.761839855802242e-05,-6.152849713893338e-05,4.3333,3.1333
1.8984375,-8.795196566720064e-06,-2.4909327969787126e-05,-1.1722467475394807e-05,-4.297497331197069e-05,4.3333,3.1333
1.90234375,-1.3673981414511317e-05,-1.3673981414511317e-05,-5.3729764705882276e-06,-3.760123927672235e-05,4.3333,3.1333
1.90625,-3.516184685282672e-05,-4.88295151293202e-05,-4.05285101853971e-05,-5.3227492195010284e-05,4.3333,3.1333
1.91015625,-7.275677299153124e-05,-3.125174827191576e-05,-3.66254823071641e-05,-5.957698319981688e-05,4.3333,3.1333
1.9140625,-7.86183855115587e-05,-1.5137616868848695e-05,-8.795196566720064e-06,-4.834163664454107e-05,4.3333,3.1333
1.91796875,-4.7853758159761945e-05,-1.1722467475394807e-05,-9.283075051499182e-06,-4.150426715495536e-05,4.3333,3.1333
1.921875,-2.4457055619134707e-06,-3.369821139848934e-05,-3.418608988326847e-05,-4.297497331197069e-05,4.3333,3.1333
1.92578125,-3.9093410162508485e-06,-6.445576804760813e-05,-3.9064874731059725e-05,-4.05285101853971e-05,4.3333,3.1333
1.9296875,-3.418608988326847e-05,-3.173962675669488e-05,-1.5137616868848695e-05,-3.467396836804759e-05,4.3333,3.1333
1.93359375,-3.173962675669488e-05,-5.860854955367344e-06,-1.3673981414511317e-05,-4.346285179674981e-05,4.3333,3.1333
1.9375,-2.099922938887616e-05,-7.324490409704722e-06,-1.953559393453878e-05,-3.66254823071641e-05,4.3333,3.1333
1.94140625,-2.933584046692587e-06,-1.9047715449759663e-05,-1.2698224444953069e-05,-2.3438621812771783e-05,4.3333,3.1333
1.9453125,-3.421462531471718e-06,-2.002347241931791e-05,-2.4414378782330046e-05,-3.711336079194322e-05,4.3333,3.1333
1.94921875,-2.3438621812771783e-05,-9.283075051499182e-06,-3.125174827191576e-05,-4.4438608766308065e-05,4.3333,3.1333
1.953125,-3.66254823071641e-05,-1.2698224444953069e-05,-1.7096201510643153e-05,-3.613760382238497e-05,4.3333,3.1333
1.95703125,-5.8594155527580664e-05,-1.3186102929732185e-05,-7.324490409704722e-06,-3.2227505241474006e-05,4.3333,3.1333
1.9609375,-6.591940350194551e-05,-2.3926500297550916e-05,-2.6860841908903623e-05,-3.711336079194322e-05,4.3333,3.1333
1.96484375,-4.9805272098878444e-05,-5.8594155527580664e-05,-5.957698319981688e-05,-3.9064874731059725e-05,4.3333,3.1333
1.96875,-2.2950743327992666e-05,-5.4691127649347664e-05,-4.346285179674981e-05,-3.320326221103226e-05,4.3333,3.1333
1.97265625,-1.3673981414511317e-05,-2.978811281757838e-05,-4.297497331197069e-05,-3.760123927672235e-05,4.3333,3.1333
1.9765625,-4.4438608766308065e-05,-3.516184685282672e-05,-5.176385674067291e-05,-4.590224422064544e-05,4.3333,3.1333
1.98046875,-6.0064861684596004e-05,-3.271538372625313e-05,-3.467396836804759e-05,-3.760123927672235e-05,4.3333,3.1333
1.984375,-2.002347241931791e-05,-4.346285179674981e-05,-3.467396836804759e-05,-3.173962675669488e-05,4.3333,3.1333
1.98828125,-1.95782707713434e-06,-4.4438608766308065e-05,-5.3227492195010284e-05,-3.173962675669488e-05,4.3333,3.1333
1.9921875,-3.613760382238497e-05,-3.125174827191576e-05,-3.5649725337605846e-05,-3.125174827191576e-05,4.3333,3.1333
1.99609375,-3.516184685282672e-05,-4.150426715495536e-05,-1.3673981414511317e-05,-3.760123927672235e-05,4.3333,3.1333
2.0,-3.076386978713663e-05,-4.4438608766308065e-05,-3.613760382238497e-05,-3.955275321583885e-05,4.3333,3.1333
2.00390625,-2.3438621812771783e-05,-5.420324916456854e-05,-6.20163756237125e-05,-4.492648725108719e-05,4.3333,3.1333
2.0078125,-1.4649738384069563e-05,-5.127597825589378e-05,-4.9317393614099325e-05,-4.9805272098878444e-05,4.3333,3.1333
2.01171875,-7.819439597161804e-06,-3.0275991302357502e-05,-2.5885084939345373e-05,-3.2227505241474006e-05,4.3333,3.1333
2.015625,-1.0258832021057444e-05,-2.0511350904097026e-05,-3.320326221103226e-05,-3.613760382238497e-05,4.3333,3.1333
2.01953125,-6.20163756237125e-05,-2.3926500297550916e-05,-3.467396836804759e-05,-3.9064874731059725e-05,4.3333,3.1333
2.0234375,-8.691939045548179e-05,-4.7853758159761945e-05,-4.004063170061798e-05,-3.369821139848934e-05,4.3333,3.1333
2.02734375,-3.760123927672235e-05,-3.85769962462806e-05,-3.173962675669488e-05,-4.199214563973448e-05,4.3333,3.1333
2.03125,-5.860854955367344e-06,-2.002347241931791e-05,-3.418608988326847e-05,-3.711336079194322e-05,4.3333,3.1333
2.03515625,-6.836611924925606e-06,-2.2950743327992666e-05,-3.173962675669488e-05,-2.2950743327992666e-05,4.3333,3.1333
2.0390625,-2.3438621812771783e-05,-8.307318081940934e-06,-1.9047715449759663e-05,-3.516184685282672e-05,4.3333,3.1333
2.04296875,-3.760123927672235e-05,-4.248709482719156e-05,-3.2227505241474006e-05,-5.273961371023116e-05,4.3333,3.1333
2.046875,-3.516184685282672e-05,-6.299213259327076e-05,-3.173962675669488e-05,-5.127597825589378e-05,4.3333,3.1333
2.05078125,-2.4457055619134707e-06,-4.004063170061798e-05,-2.2462864843213536e-05,-3.467396836804759e-05,4.3333,3.1333
2.0546875,1.7571453719386594e-05,-3.711336079194322e-05,-1.7584079995422283e-05,-2.978811281757838e-05,4.3333,3.1333
2.05859375,-7.324490409704722e-06,-3.271538372625313e-05,-9.770953536278312e-06,-2.6372963424124506e-05,4.3333,3.1333
2.0625,-4.395073028152894e-05,-4.9317393614099325e-05,-5.3729764705882276e-06,-1.953559393453878e-05,4.3333,3.1333
2.06640625,-6.20163756237125e-05,-5.4691127649347664e-05,-2.1974986358434406e-05,-2.8812355848020133e-05,4.3333,3.1333
2.0703125,-7.324465147631035e-05,-2.8812355848020133e-05,-2.4414378782330046e-05,-2.7348720393682753e-05,4.3333,3.1333
2.07421875,-5.225173522545204e-05,-2.5885084939345373e-05,-8.307318081940934e-06,-2.3926500297550916e-05,4.3333,3.1333
2.078125,1.9522715037766144e-06,-3.271538372625313e-05,-1.9047715449759663e-05,-3.613760382238497e-05,4.3333,3.1333
2.08203125,2.0017916845960187e-05,-4.9317393614099325e-05,-3.955275321583885e-05,-4.346285179674981e-05,4.3333,3.1333
2.0859375,5.367420897230502e-06,-7.764262854200044e-05,-3.85769962462806e-05,-4.88295151293202e-05,4.3333,3.1333
2.08984375,-3.808911776150147e-05,-5.420324916456854e-05,-4.9317393614099325e-05,-5.4691127649347664e-05,4.3333,3.1333
2.09375,-7.275677299153124e-05,-3.5649725337605846e-05,-4.9317393614099325e-05,-5.3227492195010284e-05,4.3333,3.1333
2.09765625,-6.494364653238726e-05,-3.613760382238497e-05,-3.369821139848934e-05,-4.541436573586632e-05,4.3333,3.1333
2.1015625,-5.5179006134126784e-05,-5.566688461890592e-05,-2.6860841908903623e-05,-3.9064874731059725e-05,4.3333,3.1333
2.10546875,-2.8812355848020133e-05,-6.934162359807735e-05,-3.173962675669488e-05,-3.9064874731059725e-05,4.3333,3.1333
2.109375,-1.2210345960173939e-05,-3.5649725337605846e-05,-4.492648725108719e-05,-4.05285101853971e-05,4.3333,3.1333
2.11328125,-6.348733440146475e-06,-2.2950743327992666e-05,-4.88295151293202e-05,-4.199214563973448e-05,4.3333,3.1333
2.1171875,4.879542412451372e-06,-3.369821139848934e-05,-3.0275991302357502e-05,-3.613760382238497e-05,4.3333,3.1333
2.12109375,-5.3729764705882276e-06,-6.104061865415426e-05,-3.85769962462806e-05,-3.85769962462806e-05,4.3333,3.1333
2.125,-2.7836598878461883e-05,-6.494364653238726e-05,-6.20163756237125e-05,-4.834163664454107e-05,4.3333,3.1333
2.12890625,-3.66254823071641e-05,-3.808911776150147e-05,-3.760123927672235e-05,-4.9317393614099325e-05,4.3333,3.1333
2.1328125,-5.615476310368504e-05,-2.3926500297550916e-05,-2.7348720393682753e-05,-4.834163664454107e-05,4.3333,3.1333
2.13671875,-7.42204084458686e-05,-2.933584046692587e-06,-2.0511350904097026e-05,-1.953559393453878e-05,4.3333,3.1333
2.140625,-3.076386978713663e-05,-1.8071958480201403e-05,-1.2698224444953069e-05,-6.313138017844721e-09,4.3333,3.1333
2.14453125,5.367420897230502e-06,-7.03173805676356e-05,-2.002347241931791e-05,-2.099922938887616e-05,4.3333,3.1333
2.1484375,-4.941916227969614e-07,-6.20163756237125e-05,-1.3673981414511317e-05,-2.6860841908903623e-05,4.3333,3.1333
2.15234375,-2.002347241931791e-05,-3.760123927672235e-05,-2.6372963424124506e-05,-4.1016388670176225e-05,4.3333,3.1333
2.15625,-2.4909327969787126e-05,-4.7853758159761945e-05,-5.273961371023116e-05,-5.761839855802242e-05,4.3333,3.1333
2.16015625,-2.1974986358434406e-05,-6.591940350194551e-05,-5.3227492195010284e-05,-4.639012270542457e-05,4.3333,3.1333
2.1640625,-3.418608988326847e-05,-7.03173805676356e-05,-3.85769962462806e-05,-4.395073028152894e-05,4.3333,3.1333
2.16796875,-4.4438608766308065e-05,-5.615476310368504e-05,-3.0275991302357502e-05,-4.7853758159761945e-05,4.3333,3.1333
2.171875,-5.176385674067291e-05,-2.6372963424124506e-05,-2.5397206454566243e-05,-4.68780011902037e-05,4.3333,3.1333
2.17578125,-7.080525905241473e-05,-1.5137616868848695e-05,-2.7836598878461883e-05,-3.9064874731059725e-05,4.3333,3.1333
2.1796875,-6.445576804760813e-05,-1.953559393453878e-05,-2.5397206454566243e-05,-2.1974986358434406e-05,4.3333,3.1333
2.18359375,-3.418608988326847e-05,-3.516184685282672e-05,-1.2698224444953069e-05,-2.5885084939345373e-05,4.3333,3.1333
2.1875,-5.3729764705882276e-06,-4.297497331197069e-05,-2.0511350904097026e-05,-4.004063170061798e-05,4.3333,3.1333
2.19140625,-3.421462531471718e-06,-2.5397206454566243e-05,-1.7584079995422283e-05,-3.9064874731059725e-05,4.3333,3.1333
2.1953125,-1.8559836964980533e-05,-8.795196566720064e-06,-1.6113373838406943e-05,-3.955275321583885e-05,4.3333,3.1333
2.19921875,-7.324490409704722e-06,4.815653467612862e-07,-1.6608323025864023e-05,-2.3926500297550916e-05,4.3333,3.1333
2.203125,-2.1974986358434406e-05,-2.0511350904097026e-05,-1.0258832021057444e-05,-1.2698224444953069e-05,4.3333,3.1333
2.20703125,-5.5179006134126784e-05,-3.076386978713663e-05,-9.770953536278312e-06,-3.271538372625313e-05,4.3333,3.1333
2.2109375,-2.2950743327992666e-05,-1.9047715449759663e-05,-1.7096201510643153e-05,-4.297497331197069e-05,4.3333,3.1333
2.21484375,-1.8071958480201403e-05,-1.8559836964980533e-05,-3.85769962462806e-05,-5.566688461890592e-05,4.3333,3.1333
2.21875,-3.369821139848934e-05,-1.1722467475394807e-05,-3.85769962462806e-05,-5.566688461890592e-05,4.3333,3.1333
2.22265625,-1.4649738384069563e-05,-3.516184685282672e-05,-3.0275991302357502e-05,-3.760123927672235e-05,4.3333,3.1333
2.2265625,-3.0275991302357502e-05,-8.008202096589608e-05,-3.418608988326847e-05,-4.4438608766308065e-05,4.3333,3.1333
2.23046875,-4.9805272098878444e-05,-6.934162359807735e-05,-2.3926500297550916e-05,-4.541436573586632e-05,4.3333,3.1333
2.234375,-2.2950743327992666e-05,-4.1016388670176225e-05,-2.2462864843213536e-05,-5.127597825589378e-05,4.3333,3.1333
2.23828125,-6.836611924925606e-06,-4.68780011902037e-05,-3.173962675669488e-05,-5.273961371023116e-05,4.3333,3.1333
2.2421875,-2.3926500297550916e-05,-4.7853758159761945e-05,-4.9317393614099325e-05,-4.1016388670176225e-05,4.3333,3.1333
2.24609375,-1.6608323025864023e-05,-5.078809977111466e-05,-4.639012270542457e-05,-3.320326221103226e-05,4.3333,3.1333
2.25,-1.3186102929732185e-05,-6.104061865415426e-05,-2.3438621812771783e-05,-2.930023433279925e-05,4.3333,3.1333
2.25390625,-4.1016388670176225e-05,-4.7853758159761945e-05,-1.5137616868848695e-05,-3.808911776150147e-05,4.3333,3.1333
2.2578125,-5.225173522545204e-05,-5.029315058365758e-05,-2.7348720393682753e-05,-3.85769962462806e-05,4.3333,3.1333
2.26171875,-5.225173522545204e-05,-6.396788956282902e-05,-3.418608988326847e-05,-3.9064874731059725e-05,4.3333,3.1333
2.265625,-6.055274016937513e-05,-6.640728198672464e-05,-4.05285101853971e-05,-4.639012270542457e-05,4.3333,3.1333
2.26953125,-2.148710787365529e-05,-5.029315058365758e-05,-3.418608988326847e-05,-3.2227505241474006e-05,4.3333,3.1333
2.2734375,-8.795196566720064e-06,-3.760123927672235e-05,-3.0275991302357502e-05,-2.6372963424124506e-05,4.3333,3.1333
2.27734375,-3.125174827191576e-05,-4.4438608766308065e-05,-3.271538372625313e-05,-3.711336079194322e-05,4.3333,3.1333
2.28125,-4.150426715495536e-05,-5.176385674067291e-05,-2.148710787365529e-05,-4.150426715495536e-05,4.3333,3.1333
2.28515625,-3.467396836804759e-05,-7.617192238498511e-05,-2.7836598878461883e-05,-5.176385674067291e-05,4.3333,3.1333
2.2890625,-1.4161859899290447e-05,-8.447292732890822e-05,-4.150426715495536e-05,-4.541436573586632e-05,4.3333,3.1333
2.29296875,-9.770953536278312e-06,-5.8594155527580664e-05,-6.494364653238726e-05,-5.078809977111466e-05,4.3333,3.1333
2.296875,-9.770953536278312e-06,-2.5885084939345373e-05,-5.078809977111466e-05,-4.7853758159761945e-05,4.3333,3.1333
2.30078125,-7.819439597161804e-06,-2.2950743327992666e-05,-3.076386978713663e-05,-4.395073028152894e-05,4.3333,3.1333
2.3046875,-1.2210345960173939e-05,-4.395073028152894e-05,-4.4438608766308065e-05,-5.957698319981688e-05,4.3333,3.1333
2.30859375,-2.933584046692587e-06,-2.7348720393682753e-05,-3.271538372625313e-05,-4.68780011902037e-05,4.3333,3.1333
2.3125,-2.6860841908903623e-05,8.294691805905258e-06,-2.7836598878461883e-05,-3.418608988326847e-05,4.3333,3.1333
2.31640625,-5.4691127649347664e-05,5.855299382009619e-06,-3.66254823071641e-05,-4.05285101853971e-05,4.3333,3.1333
2.3203125,-5.8106277042801544e-05,-4.1016388670176225e-05,-3.320326221103226e-05,-3.320326221103226e-05,4.3333,3.1333
2.32421875,-5.6642641588464164e-05,-5.078809977111466e-05,-5.225173522545204e-05,-3.613760382238497e-05,4.3333,3.1333
2.328125,-3.2227505241474006e-05,-3.760123927672235e-05,-5.420324916456854e-05,-4.834163664454107e-05,4.3333,3.1333
2.33203125,-1.0258832021057444e-05,-9.283075051499182e-06,-2.7836598878461883e-05,-4.297497331197069e-05,4.3333,3.1333
2.3359375,6.34317786678875e-06,1.1229033417257966e-05,-3.076386978713663e-05,-4.346285179674981e-05,4.3333,3.1333
2.33984375,1.9522715037766144e-06,8.294691805905258e-06,-4.492648725108719e-05,-4.346285179674981e-05,4.3333,3.1333
2.34375,-2.8812355848020133e-05,-6.836611924925606e-06,-4.736587967498282e-05,-3.320326221103226e-05,4.3333,3.1333
2.34765625,-3.760123927672235e-05,-1.0258832021057444e-05,-3.808911776150147e-05,-3.467396836804759e-05,4.3333,3.1333
2.3515625,-2.1974986358434406e-05,1.4156304325932723e-05,-2.3438621812771783e-05,-4.395073028152894e-05,4.3333,3.1333
2.35546875,-1.4649738384069563e-05,4.879542412451372e-06,-1.2698224444953069e-05,-3.369821139848934e-05,4.3333,3.1333
2.359375,-2.3926500297550916e-05,-2.3438621812771783e-05,-2.2462864843213536e-05,-3.369821139848934e-05,4.3333,3.1333
2.36328125,-2.930023433279925e-05,-8.795196566720064e-06,-3.711336079194322e-05,-3.955275321583885e-05,4.3333,3.1333
2.3671875,-2.002347241931791e-05,2.1969430785076694e-05,-2.099922938887616e-05,-2.4909327969787126e-05,4.3333,3.1333
2.37109375,-2.0511350904097026e-05,-2.4457055619134707e-06,-1.4161859899290447e-05,-3.369821139848934e-05,4.3333,3.1333
2.375,-3.711336079194322e-05,-3.369821139848934e-05,-3.0275991302357502e-05,-4.736587967498282e-05,4.3333,3.1333
2.37890625,-3.076386978713663e-05,-3.369821139848934e-05,-2.978811281757838e-05,-4.297497331197069e-05,4.3333,3.1333
2.3828125,-2.3926500297550916e-05,-3.613760382238497e-05,-2.5885084939345373e-05,-4.492648725108719e-05,4.3333,3.1333
2.38671875,-4.834163664454107e-05,-4.297497331197069e-05,-1.8071958480201403e-05,-4.9805272098878444e-05,4.3333,3.1333
2.390625,-2.2462864843213536e-05,-2.099922938887616e-05,-2.8812355848020133e-05,-4.199214563973448e-05,4.3333,3.1333
2.39453125,2.928028473334876e-06,-3.421462531471718e-06,-3.2227505241474006e-05,-2.978811281757838e-05,4.3333,3.1333
2.3984375,-2.5885084939345373e-05,-9.770953536278312e-06,-3.173962675669488e-05,-3.5649725337605846e-05,4.3333,3.1333
2.40234375,-4.736587967498282e-05,-4.248709482719156e-05,-2.7348720393682753e-05,-5.566688461890592e-05,4.3333,3.1333
2.40625,-2.978811281757838e-05,-3.711336079194322e-05,-1.7096201510643153e-05,-5.225173522545204e-05,4.3333,3.1333
2.41015625,-1.3673981414511317e-05,-1.8559836964980533e-05,-3.076386978713663e-05,-4.199214563973448e-05,4.3333,3.1333
2.4140625,-2.002347241931791e-05,-2.7348720393682753e-05,-3.516184685282672e-05,-5.3227492195010284e-05,4.3333,3.1333
2.41796875,-1.2698224444953069e-05,-2.5885084939345373e-05,-2.8812355848020133e-05,-4.736587967498282e-05,4.3333,3.1333
2.421875,-3.9093410162508485e-06,-3.516184685282672e-05,-3.2227505241474006e-05,-3.613760382238497e-05,4.3333,3.1333
2.42578125,-1.9047715449759663e-05,-3.613760382238497e-05,-4.492648725108719e-05,-4.9317393614099325e-05,4.3333,3.1333
2.4296875,-2.5397206454566243e-05,-8.795196566720064e-06,-3.66254823071641e-05,-5.078809977111466e-05,4.3333,3.1333
2.43359375,-1.6608323025864023e-05,1.6107818265049218e-05,-1.953559393453878e-05,-4.88295151293202e-05,4.3333,3.1333
2.4375,-2.002347241931791e-05,-1.8071958480201403e-05,-2.1974986358434406e-05,-4.395073028152894e-05,4.3333,3.1333
2.44140625,-2.6860841908903623e-05,-6.54315250171664e-05,-3.125174827191576e-05,-4.150426715495536e-05,4.3333,3.1333
2.4453125,-3.125174827191576e-05,-3.9064874731059725e-05,-3.173962675669488e-05,-4.004063170061798e-05,4.3333,3.1333
2.44921875,-3.808911776150147e-05,-3.125174827191576e-05,-3.516184685282672e-05,-3.613760382238497e-05,4.3333,3.1333
2.453125,-2.2950743327992666e-05,-2.099922938887616e-05,-3.173962675669488e-05,-4.639012270542457e-05,4.3333,3.1333
2.45703125,-1.4649738384069563e-05,-6.313138017844721e-09,-4.004063170061798e-05,-5.371537067978941e-05,4.3333,3.1333
2.4609375,-2.0511350904097026e-05,-4.248709482719156e-05,-3.271538372625313e-05,-3.711336079194322e-05,4.3333,3.1333
2.46484375,-3.320326221103226e-05,-6.445576804760813e-05,-1.5625495353627827e-05,-3.467396836804759e-05,4.3333,3.1333
2.46875,-2.978811281757838e-05,-2.7836598878461883e-05,-1.4649738384069563e-05,-3.2227505241474006e-05,4.3333,3.1333
2.47265625,-1.953559393453878e-05,9.76514534218367e-07,-2.5885084939345373e-05,-2.8324477363241e-05,4.3333,3.1333
2.4765625,-3.467396836804759e-05,-2.0511350904097026e-05,-2.978811281757838e-05,-5.225173522545204e-05,4.3333,3.1333
2.48046875,-4.1016388670176225e-05,-5.225173522545204e-05,-2.5397206454566243e-05,-5.90820340123598e-05,4.3333,3.1333
2.484375,-1.5625495353627827e-05,-6.152849713893338e-05,-4.1016388670176225e-05,-4.199214563973448e-05,4.3333,3.1333
2.48828125,2.8318921789883277e-05,-2.930023433279925e-05,-3.467396836804759e-05,-3.173962675669488e-05,4.3333,3.1333
2.4921875,4.879542412451372e-06,-2.002347241931791e-05,-3.125174827191576e-05,-3.173962675669488e-05,4.3333,3.1333
2.49609375,-3.516184685282672e-05,-3.2227505241474006e-05,-4.248709482719156e-05,-3.369821139848934e-05,4.3333,3.1333
2.5,-2.6372963424124506e-05,-3.760123927672235e-05,-5.225173522545204e-05,-3.613760382238497e-05,4.3333,3.1333
2.50390625,-1.9047715449759663e-05,-3.369821139848934e-05,-4.248709482719156e-05,-4.150426715495536e-05,4.3333,3.1333
2.5078125,-5.860854955367344e-06,-2.6372963424124506e-05,-4.541436573586632e-05,-5.127597825589378e-05,4.3333,3.1333
2.51171875,-2.6372963424124506e-05,-4.736587967498282e-05,-4.395073028152894e-05,-4.68780011902037e-05,4.3333,3.1333
2.515625,-7.275677299153124e-05,-2.978811281757838e-05,-1.2210345960173939e-05,-3.760123927672235e-05,4.3333,3.1333
2.51953125,-6.982950208285648e-05,-2.7836598878461883e-05,-2.2462864843213536e-05,-3.711336079194322e-05,4.3333,3.1333
2.5234375,-2.7348720393682753e-05,-5.615476310368504e-05,-3.2227505241474006e-05,-3.320326221103226e-05,4.3333,3.1333
2.52734375,1.1229033417257966e-05,-4.248709482719156e-05,-2.8324477363241e-05,-4.395073028152894e-05,4.3333,3.1333
2.53125,2.1481552300297564e-05,-4.004063170061798e-05,-4.639012270542457e-05,-5.225173522545204e-05,4.3333,3.1333
2.53515625,1.6107818265049218e-05,-2.7836598878461883e-05,-3.808911776150147e-05,-3.760123927672235e-05,4.3333,3.1333
2.5390625,-2.933584046692587e-06,-3.5649725337605846e-05,-2.978811281757838e-05,-3.760123927672235e-05,4.3333,3.1333
2.54296875,-3.418608988326847e-05,-5.5179006134126784e-05,-4.395073028152894e-05,-5.127597825589378e-05,4.3333,3.1333
2.546875,-3.516184685282672e-05,-5.127597825589378e-05,-2.8812355848020133e-05,-5.176385674067291e-05,4.3333,3.1333
2.55078125,-3.516184685282672e-05,-2.5397206454566243e-05,-2.8324477363241e-05,-4.150426715495536e-05,4.3333,3.1333
2.5546875,-5.5179006134126784e-05,8.782570290684375e-06,-3.711336079194322e-05,-3.467396836804759e-05,4.3333,3.1333
2.55859375,-4.68780011902037e-05,-2.4909327969787126e-05,-2.6860841908903623e-05,-3.516184685282672e-05,4.3333,3.1333
2.5625,-3.711336079194322e-05,-6.591940350194551e-05,-4.541436573586632e-05,-5.90820340123598e-05,4.3333,3.1333
2.56640625,-2.3926500297550916e-05,-6.640728198672464e-05,-7.22688945067521e-05,-6.152849713893338e-05,4.3333,3.1333
2.5703125,-2.5885084939345373e-05,-2.7348720393682753e-05,-5.5179006134126784e-05,-4.736587967498282e-05,4.3333,3.1333
2.57421875,-2.7348720393682753e-05,-1.4161859899290447e-05,-3.66254823071641e-05,-4.492648725108719e-05,4.3333,3.1333
2.578125,-2.3926500297550916e-05,-4.9317393614099325e-05,-4.9805272098878444e-05,-4.9805272098878444e-05,4.3333,3.1333
2.58203125,-3.5649725337605846e-05,-5.176385674067291e-05,-5.4691127649347664e-05,-5.566688461890592e-05,4.3333,3.1333
2.5859375,-1.3673981414511317e-05,-4.248709482719156e-05,-4.9805272098878444e-05,-4.68780011902037e-05,4.3333,3.1333
2.58984375,2.4401499885557453e-06,-4.004063170061798e-05,-3.711336079194322e-05,-3.320326221103226e-05,4.3333,3.1333
2.59375,-2.5397206454566243e-05,-2.7348720393682753e-05,-2.5885084939345373e-05,-2.6860841908903623e-05,4.3333,3.1333
2.59765625,-5.6642641588464164e-05,-3.467396836804759e-05,-2.4414378782330046e-05,-3.418608988326847e-05,4.3333,3.1333
2.6015625,-3.760123927672235e-05,-3.076386978713663e-05,-1.5625495353627827e-05,-3.613760382238497e-05,4.3333,3.1333
2.60546875,-1.8071958480201403e-05,-2.978811281757838e-05,-1.2698224444953069e-05,-3.2227505241474006e-05,4.3333,3.1333
2.609375,-3.418608988326847e-05,-2.0511350904097026e-05,-3.711336079194322e-05,-4.68780011902037e-05,4.3333,3.1333
2.61328125,-2.0511350904097026e-05,-1.074671050583656e-05,-5.371537067978941e-05,-5.8106277042801544e-05,4.3333,3.1333
2.6171875,3.9037854428931235e-06,-2.002347241931791e-05,-4.395073028152894e-05,-4.297497331197069e-05,4.3333,3.1333
2.62109375,1.9522715037766144e-06,-2.8812355848020133e-05,-2.8324477363241e-05,-2.4414378782330046e-05,4.3333,3.1333
2.625,-1.5625495353627827e-05,-3.955275321583885e-05,-3.85769962462806e-05,-3.760123927672235e-05,4.3333,3.1333
2.62890625,-4.004063170061798e-05,-3.9064874731059725e-05,-5.225173522545204e-05,-4.4438608766308065e-05,4.3333,3.1333
2.6328125,-4.05285101853971e-05,-2.6372963424124506e-05,-4.492648725108719e-05,-4.05285101853971e-05,4.3333,3.1333
2.63671875,-4.68780011902037e-05,-2.5885084939345373e-05,-5.127597825589378e-05,-5.90820340123598e-05,4.3333,3.1333
2.640625,-6.20163756237125e-05,-4.7853758159761945e-05,-5.420324916456854e-05,-5.957698319981688e-05,4.3333,3.1333
2.64453125,-3.0275991302357502e-05,-4.590224422064544e-05,-5.6642641588464164e-05,-5.225173522545204e-05,4.3333,3.1333
2.6484375,-5.860854955367344e-06,-3.418608988326847e-05,-6.104061865415426e-05,-4.639012270542457e-05,4.3333,3.1333
2.65234375,-2.0511350904097026e-05,-3.66254823071641e-05,-4.7853758159761945e-05,-3.9064874731059725e-05,4.3333,3.1333
2.65625,-1.2698224444953069e-05,-3.66254823071641e-05,-2.978811281757838e-05,-3.516184685282672e-05,4.3333,3.1333
2.66015625,-1.0258832021057444e-05,-3.516184685282672e-05,-1.7096201510643153e-05,-2.3926500297550916e-05,4.3333,3.1333
2.6640625,-1.7096201510643153e-05,-3.808911776150147e-05,-4.199214563973448e-05,-2.7836598878461883e-05,4.3333,3.1333
2.66796875,-1.074671050583656e-05,-4.736587967498282e-05,-6.738303895628289e-05,-4.9317393614099325e-05,4.3333,3.1333
2.671875,-4.346285179674981e-05,-3.613760382238497e-05,-6.0064861684596004e-05,-5.420324916456854e-05,4.3333,3.1333
2.67578125,-4.590224422064544e-05,-1.5625495353627827e-05,-3.808911776150147e-05,-3.271538372625313e-05,4.3333,3.1333
2.6796875,-2.1974986358434406e-05,-2.5397206454566243e-05,-3.613760382238497e-05,-2.0511350904097026e-05,4.3333,3.1333
2.68359375,-5.3729764705882276e-06,-5.566688461890592e-05,-5.420324916456854e-05,-3.320326221103226e-05,4.3333,3.1333
2.6875,-2.933584046692587e-06,-7.666687157244219e-05,-5.713052007324329e-05,-4.346285179674981e-05,4.3333,3.1333
2.69140625,-2.930023433279925e-05,-5.127597825589378e-05,-5.127597825589378e-05,-4.297497331197069e-05,4.3333,3.1333
2.6953125,-2.8324477363241e-05,-2.4909327969787126e-05,-4.88295151293202e-05,-3.760123927672235e-05,4.3333,3.1333
2.69921875,-5.860854955367344e-06,-2.978811281757838e-05,-4.150426715495536e-05,-3.516184685282672e-05,4.3333,3.1333
2.703125,-4.941916227969614e-07,-4.4438608766308065e-05,-1.8071958480201403e-05,-2.978811281757838e-05,4.3333,3.1333
2.70703125,-1.4649738384069563e-05,-3.85769962462806e-05,-3.271538372625313e-05,-2.930023433279925e-05,4.3333,3.1333
2.7109375,-3.0275991302357502e-05,-2.0511350904097026e-05,-5.176385674067291e-05,-3.369821139848934e-05,4.3333,3.1333
2.71484375,-2.5885084939345373e-05,-2.099922938887616e-05,-2.978811281757838e-05,-2.3438621812771783e-05,4.3333,3.1333
2.71875,-1.2698224444953069e-05,-4.395073028152894e-05,-3.613760382238497e-05,-2.6372963424124506e-05,4.3333,3.1333
2.72265625,-1.6608323025864023e-05,-4.492648725108719e-05,-4.346285179674981e-05,-4.541436573586632e-05,4.3333,3.1333
2.7265625,-3.271538372625313e-05,-2.002347241931791e-05,-4.492648725108719e-05,-4.346285179674981e-05,4.3333,3.1333
2.73046875,-5.225173522545204e-05,-1.123458899061569e-05,-3.516184685282672e-05,-3.5649725337605846e-05,4.3333,3.1333
2.734375,-4.736587967498282e-05,-2.1974986358434406e-05,-6.836611924925606e-06,-2.148710787365529e-05,4.3333,3.1333
2.73828125,-2.930023433279925e-05,-4.736587967498282e-05,-9.770953536278312e-06,-1.9047715449759663e-05,4.3333,3.1333
2.7421875,-5.615476310368504e-05,-4.68780011902037e-05,-3.2227505241474006e-05,-2.6860841908903623e-05,4.3333,3.1333
2.74609375,-5.5179006134126784e-05,-3.5649725337605846e-05,-4.492648725108719e-05,-2.8324477363241e-05,4.3333,3.1333
2.75,-8.307318081940934e-06,-2.3438621812771783e-05,-4.9805272098878444e-05,-4.346285179674981e-05,4.3333,3.1333
2.75390625,3.9037854428931235e-06,-4.492648725108719e-05,-4.68780011902037e-05,-4.639012270542457e-05,4.3333,3.1333
2.7578125,-6.313138017844721e-09,-6.20163756237125e-05,-4.05285101853971e-05,-3.85769962462806e-05,4.3333,3.1333
2.76171875,-1.9047715449759663e-05,-5.273961371023116e-05,-3.2227505241474006e-05,-3.516184685282672e-05,4.3333,3.1333
2.765625,-4.834163664454107e-05,-4.736587967498282e-05,-3.0275991302357502e-05,-2.5397206454566243e-05,4.3333,3.1333
2.76953125,-6.250425410849164e-05,-4.004063170061798e-05,-2.002347241931791e-05,-1.953559393453878e-05,4.3333,3.1333
2.7734375,-6.055274016937513e-05,-3.808911776150147e-05,-2.099922938887616e-05,-2.8324477363241e-05,4.3333,3.1333
2.77734375,-3.85769962462806e-05,-2.6860841908903623e-05,-2.7836598878461883e-05,-2.930023433279925e-05,4.3333,3.1333
2.78125,-2.002347241931791e-05,-2.4414378782330046e-05,-2.0511350904097026e-05,-2.5885084939345373e-05,4.3333,3.1333
2.78515625,-2.148710787365529e-05,-3.418608988326847e-05,-2.5885084939345373e-05,-3.173962675669488e-05,4.3333,3.1333
2.7890625,-1.7584079995422283e-05,-4.346285179674981e-05,-2.6372963424124506e-05,-3.5649725337605846e-05,4.3333,3.1333
2.79296875,-2.5397206454566243e-05,-2.2950743327992666e-05,-2.002347241931791e-05,-4.4438608766308065e-05,4.3333,3.1333
2.796875,-1.4649738384069563e-05,6.34317786678875e-06,-2.5397206454566243e-05,-3.760123927672235e-05,4.3333,3.1333
2.80078125,-3.9093410162508485e-06,1.1229033417257966e-05,-2.148710787365529e-05,-3.516184685282672e-05,4.3333,3.1333
2.8046875,-1.2210345960173939e-05,-3.66254823071641e-05,-2.148710787365529e-05,-4.7853758159761945e-05,4.3333,3.1333
2.80859375,-3.421462531471718e-06,-6.54315250171664e-05,-2.002347241931791e-05,-4.248709482719156e-05,4.3333,3.1333
2.8125,-2.6860841908903623e-05,-2.2462864843213536e-05,-2.7348720393682753e-05,-4.492648725108719e-05,4.3333,3.1333
2.81640625,-5.713052007324329e-05,-4.885097985809097e-06,-3.5649725337605846e-05,-3.9064874731059725e-05,4.3333,3.1333
2.8203125,-5.127597825589378e-05,-4.004063170061798e-05,-2.7836598878461883e-05,-3.076386978713663e-05,4.3333,3.1333
2.82421875,-2.4909327969787126e-05,-6.54315250171664e-05,-1.953559393453878e-05,-3.808911776150147e-05,4.3333,3.1333
2.828125,6.34317786678875e-06,-5.078809977111466e-05,-2.3926500297550916e-05,-3.955275321583885e-05,4.3333,3.1333
2.83203125,2.928028473334876e-06,-1.123458899061569e-05,-3.173962675669488e-05,-3.271538372625313e-05,4.3333,3.1333
2.8359375,-1.3673981414511317e-05,-3.9093410162508485e-06,-2.8812355848020133e-05,-2.8324477363241e-05,4.3333,3.1333
2.83984375,-2.099922938887616e-05,-9.283075051499182e-06,-3.9064874731059725e-05,-2.7836598878461883e-05,4.3333,3.1333
2.84375,-4.590224422064544e-05,-6.313138017844721e-09,-2.6860841908903623e-05,-3.0275991302357502e-05,4.3333,3.1333
2.84765625,-5.078809977111466e-05,1.2692668871595345e-05,-2.099922938887616e-05,-3.369821139848934e-05,4.3333,3.1333
2.8515625,-3.0275991302357502e-05,5.37098151064317e-05,-2.6372963424124506e-05,-3.0275991302357502e-05,4.3333,3.1333
2.85546875,-2.930023433279925e-05,7.812495145342185e-05,-1.7584079995422283e-05,-3.0275991302357502e-05,4.3333,3.1333
2.859375,-5.713052007324329e-05,4.687244561684596e-05,-2.5885084939345373e-05,-3.369821139848934e-05,4.3333,3.1333
2.86328125,-6.348001107804988e-05,1.6107818265049218e-05,-2.6372963424124506e-05,-2.5397206454566243e-05,4.3333,3.1333
2.8671875,-3.125174827191576e-05,1.513206129549097e-05,-2.978811281757838e-05,-2.4909327969787126e-05,4.3333,3.1333
2.87109375,1.0253276447699718e-05,5.5661329045548195e-05,-4.05285101853971e-05,-4.004063170061798e-05,4.3333,3.1333
2.875,2.7831043305104157e-05,8.74017133669032e-05,-2.3926500297550916e-05,-4.004063170061798e-05,4.3333,3.1333
2.87890625,1.1229033417257966e-05,7.323909590295263e-05,-2.5885084939345373e-05,-3.711336079194322e-05,4.3333,3.1333
2.8828125,-2.6372963424124506e-05,2.5384580178530567e-05,-2.3438621812771783e-05,-3.711336079194322e-05,4.3333,3.1333
2.88671875,-3.418608988326847e-05,4.492093167772947e-05,-1.4649738384069563e-05,-3.613760382238497e-05,4.3333,3.1333
2.890625,-8.307318081940934e-06,7.226333893339438e-05,-5.860854955367344e-06,-3.173962675669488e-05,4.3333,3.1333
2.89453125,-7.819439597161804e-06,6.054011389333945e-05,-5.3729764705882276e-06,-2.5397206454566243e-05,4.3333,3.1333
2.8984375,-2.099922938887616e-05,4.882395955596249e-05,-9.770953536278312e-06,-2.930023433279925e-05,4.3333,3.1333
2.90234375,-2.5885084939345373e-05,4.003507612726025e-05,-1.3673981414511317e-05,-3.125174827191576e-05,4.3333,3.1333
2.90625,-3.418608988326847e-05,4.882395955596249e-05,-1.123458899061569e-05,-2.099922938887616e-05,4.3333,3.1333
2.91015625,-3.320326221103226e-05,4.003507612726025e-05,-2.3438621812771783e-05,-2.4414378782330046e-05,4.3333,3.1333
2.9140625,-2.148710787365529e-05,5.4685572075989935e-05,-3.760123927672235e-05,-3.125174827191576e-05,4.3333,3.1333
2.91796875,-2.2950743327992666e-05,5.7124964499885575e-05,-2.8812355848020133e-05,-3.125174827191576e-05,4.3333,3.1333
2.921875,-4.150426715495536e-05,4.003507612726025e-05,-3.5649725337605846e-05,-3.0275991302357502e-05,4.3333,3.1333
2.92578125,-4.4438608766308065e-05,2.58724586633097e-05,-3.760123927672235e-05,-3.076386978713663e-05,4.3333,3.1333
2.9296875,-3.0275991302357502e-05,3.9547197642481136e-05,-2.8324477363241e-05,-3.516184685282672e-05,4.3333,3.1333
2.93359375,-1.6608323025864023e-05,6.20108200503548e-05,-2.6860841908903623e-05,-3.271538372625313e-05,4.3333,3.1333
2.9375,4.391663927672254e-06,5.4685572075989935e-05,-3.320326221103226e-05,-3.173962675669488e-05,4.3333,3.1333
2.94140625,1.2204790386816213e-05,5.1751230464637215e-05,-3.808911776150147e-05,-3.076386978713663e-05,4.3333,3.1333
2.9453125,-6.348733440146475e-06,3.905931915770199e-05,-3.076386978713663e-05,-3.0275991302357502e-05,4.3333,3.1333
2.94921875,-2.3438621812771783e-05,8.782570290684375e-06,-3.2227505241474006e-05,-3.808911776150147e-05,4.3333,3.1333
2.953125,-3.711336079194322e-05,3.0270435728999783e-05,-3.760123927672235e-05,-3.5649725337605846e-05,4.3333,3.1333
2.95703125,-3.66254823071641e-05,6.0052235408560335e-05,-3.0275991302357502e-05,-2.8324477363241e-05,4.3333,3.1333
2.9609375,-5.3227492195010284e-05,4.345022552071412e-05,-2.7836598878461883e-05,-3.125174827191576e-05,4.3333,3.1333
2.96484375,-4.492648725108719e-05,1.3668425841153591e-05,-3.2227505241474006e-05,-2.8812355848020133e-05,4.3333,3.1333
2.96875,-1.8071958480201403e-05,3.270982815289541e-05,-3.9064874731059725e-05,-3.271538372625313e-05,4.3333,3.1333
2.97265625,-1.5625495353627827e-05,7.128758196383614e-05,-3.760123927672235e-05,-4.395073028152894e-05,4.3333,3.1333
2.9765625,-1.0258832021057444e-05,4.736032410162511e-05,-2.2462864843213536e-05,-4.395073028152894e-05,4.3333,3.1333
2.98046875,-3.9093410162508485e-06,5.855299382009619e-06,-1.5625495353627827e-05,-3.5649725337605846e-05,4.3333,3.1333
2.984375,-2.2950743327992666e-05,-1.2210345960173939e-05,-3.125174827191576e-05,-3.320326221103226e-05,4.3333,3.1333
2.98828125,-3.808911776150147e-05,1.8554281391622808e-05,-4.4438608766308065e-05,-4.395073028152894e-05,4.3333,3.1333
2.9921875,-3.418608988326847e-05,3.0270435728999783e-05,-3.955275321583885e-05,-4.590224422064544e-05,4.3333,3.1333
2.99609375,-2.002347241931791e-05,2.0505795330739317e-05,-3.66254823071641e-05,-4.150426715495536e-05,4.3333,3.1333
3.0,-1.7584079995422283e-05,1.9042159876401938e-05,-2.6372963424124506e-05,-3.66254823071641e-05,4.3333,3.1333
3.00390625,-5.078809977111466e-05,5.367420897230502e-06,-3.5649725337605846e-05,-3.760123927672235e-05,4.3333,3.1333
3.0078125,-4.150426715495536e-05,1.513206129549097e-05,-5.713052007324329e-05,-4.395073028152894e-05,4.3333,3.1333
3.01171875,-2.148710787365529e-05,4.492093167772947e-05,-4.150426715495536e-05,-4.05285101853971e-05,4.3333,3.1333
3.015625,-3.076386978713663e-05,1.2204790386816213e-05,-1.8071958480201403e-05,-3.613760382238497e-05,4.3333,3.1333
3.01953125,-3.076386978713663e-05,-1.5625495353627827e-05,-3.85769962462806e-05,-3.467396836804759e-05,4.3333,3.1333
3.0234375,-4.541436573586632e-05,4.391663927672254e-06,-5.176385674067291e-05,-3.173962675669488e-05,4.3333,3.1333
3.02734375,-5.127597825589378e-05,2.6855286335545897e-05,-4.541436573586632e-05,-3.0275991302357502e-05,4.3333,3.1333
3.03125,-4.297497331197069e-05,3.759568370336461e-05,-4.834163664454107e-05,-2.7348720393682753e-05,4.3333,3.1333
3.03515625,-3.271538372625313e-05,5.855299382009619e-06,-5.225173522545204e-05,-3.076386978713663e-05,4.3333,3.1333
3.0390625,-1.5137616868848695e-05,-2.002347241931791e-05,-3.0275991302357502e-05,-4.199214563973448e-05,4.3333,3.1333
3.04296875,-3.9093410162508485e-06,5.855299382009619e-06,7.318934836346997e-06,-3.076386978713663e-05,4.3333,3.1333
3.046875,-4.397219501029966e-06,9.270448775463506e-06,3.270982815289541e-05,-4.397219501029966e-06,4.3333,3.1333
3.05078125,-1.3673981414511317e-05,1.2204790386816213e-05,-5.860854955367344e-06,-5.860854955367344e-06,4.3333,3.1333
3.0546875,-2.3438621812771783e-05,8.294691805905258e-06,-7.03173805676356e-05,-2.148710787365529e-05,4.3333,3.1333
3.05859375,-3.5649725337605846e-05,-4.346285179674981e-05,-7.666687157244219e-05,-1.5625495353627827e-05,4.3333,3.1333
3.0625,-5.713052007324329e-05,-6.83658666285191e-05,-6.250425410849164e-05,-1.4699485923552232e-06,4.3333,3.1333
3.06640625,-0.00011425472700846875,-7.470828693064773e-05,-5.371537067978941e-05,7.806813321126128e-06,4.3333,3.1333
3.0703125,-0.0001254830028610666,-6.640728198672464e-05,-6.250425410849164e-05,4.879542412451372e-06,4.3333,3.1333
3.07421875,-6.494364653238726e-05,-4.88295151293202e-05,-7.813050702677957e-05,-2.4457055619134707e-06,4.3333,3.1333
3.078125,-1.8559836964980533e-05,-5.225173522545204e-05,-8.447292732890822e-05,-1.1722467475394807e-05,4.3333,3.1333
3.08203125,-1.8559836964980533e-05,-9.131029681849391e-05,-8.398504884412908e-05,-2.148710787365529e-05,4.3333,3.1333
3.0859375,-3.955275321583885e-05,-9.326181075761042e-05,-7.22688945067521e-05,-1.2698224444953069e-05,4.3333,3.1333
3.08984375,-4.395073028152894e-05,-4.492648725108719e-05,-6.445576804760813e-05,-8.307318081940934e-06,4.3333,3.1333
3.09375,-3.9064874731059725e-05,-2.3438621812771783e-05,-4.9805272098878444e-05,-7.819439597161804e-06,4.3333,3.1333
3.09765625,-3.2227505241474006e-05,-2.3438621812771783e-05,-4.05285101853971e-05,-5.860854955367344e-06,4.3333,3.1333
3.1015625,-3.076386978713663e-05,-3.760123927672235e-05,-3.85769962462806e-05,-9.770953536278312e-06,4.3333,3.1333
3.10546875,-6.104061865415426e-05,-4.4438608766308065e-05,-4.7853758159761945e-05,-2.3438621812771783e-05,4.3333,3.1333
3.109375,-7.666687157244219e-05,-3.85769962462806e-05,-4.1016388670176225e-05,-2.7836598878461883e-05,4.3333,3.1333
3.11328125,-6.152849713893338e-05,-1.2698224444953069e-05,-2.6860841908903623e-05,-1.5625495353627827e-05,4.3333,3.1333
3.1171875,-7.22688945067521e-05,7.806813321126128e-06,-1.7584079995422283e-05,-1.123458899061569e-05,4.3333,3.1333
3.12109375,-7.129313753719386e-05,-1.6113373838406943e-05,-1.8071958480201403e-05,-1.7096201510643153e-05,4.3333,3.1333
3.125,-4.590224422064544e-05,-4.639012270542457e-05,-3.173962675669488e-05,-2.5885084939345373e-05,4.3333,3.1333
3.12890625,-3.711336079194322e-05,-6.885374511329822e-05,-3.808911776150147e-05,-2.6372963424124506e-05,4.3333,3.1333
3.1328125,-3.369821139848934e-05,-5.273961371023116e-05,-4.150426715495536e-05,-1.6113373838406943e-05,4.3333,3.1333
3.13671875,-1.7096201510643153e-05,-8.307318081940934e-06,-4.004063170061798e-05,-1.7584079995422283e-05,4.3333,3.1333
3.140625,-2.1974986358434406e-05,-1.3186102929732185e-05,-3.2227505241474006e-05,-2.3926500297550916e-05,4.3333,3.1333
3.14453125,-3.9064874731059725e-05,-5.225173522545204e-05,-2.8324477363241e-05,-2.6372963424124506e-05,4.3333,3.1333
3.1484375,-3.9064874731059725e-05,-5.5179006134126784e-05,-3.125174827191576e-05,-2.5397206454566243e-05,4.3333,3.1333
3.15234375,-2.148710787365529e-05,-3.613760382238497e-05,-2.4414378782330046e-05,-2.1974986358434406e-05,4.3333,3.1333
3.15625,1.464393018997498e-06,-1.7096201510643153e-05,-1.8071958480201403e-05,-1.1722467475394807e-05,4.3333,3.1333
3.16015625,-8.795196566720064e-06,-2.3926500297550916e-05,-2.5397206454566243e-05,-1.3673981414511317e-05,4.3333,3.1333
3.1640625,-3.613760382238497e-05,-3.613760382238497e-05,-2.5397206454566243e-05,-2.3926500297550916e-05,4.3333,3.1333
3.16796875,-2.930023433279925e-05,-3.320326221103226e-05,-2.099922938887616e-05,-2.6860841908903623e-05,4.3333,3.1333
3.171875,-2.099922938887616e-05,-8.795196566720064e-06,-1.5625495353627827e-05,-3.173962675669488e-05,4.3333,3.1333
3.17578125,-2.5885084939345373e-05,-1.0258832021057444e-05,-2.5397206454566243e-05,-3.5649725337605846e-05,4.3333,3.1333
3.1796875,-4.395073028152894e-05,-2.6372963424124506e-05,-4.1016388670176225e-05,-3.66254823071641e-05,4.3333,3.1333
3.18359375,-6.445576804760813e-05,-3.2227505241474006e-05,-3.467396836804759e-05,-3.369821139848934e-05,4.3333,3.1333
3.1875,-3.5649725337605846e-05,-2.5885084939345373e-05,-3.320326221103226e-05,-3.613760382238497e-05,4.3333,3.1333
3.19140625,1.464393018997498e-06,-1.953559393453878e-05,-2.8324477363241e-05,-3.369821139848934e-05,4.3333,3.1333
3.1953125,-6.348733440146475e-06,-2.5885084939345373e-05,-3.271538372625313e-05,-2.7348720393682753e-05,4.3333,3.1333
3.19921875,-3.467396836804759e-05,-3.418608988326847e-05,-2.4909327969787126e-05,-2.099922938887616e-05,4.3333,3.1333
3.203125,-2.8812355848020133e-05,-4.68780011902037e-05,-9.283075051499182e-06,-2.148710787365529e-05,4.3333,3.1333
3.20703125,-1.4649738384069563e-05,-5.3227492195010284e-05,-1.8559836964980533e-05,-3.271538372625313e-05,4.3333,3.1333
3.2109375,-1.3673981414511317e-05,-4.05285101853971e-05,-4.834163664454107e-05,-3.711336079194322e-05,4.3333,3.1333
3.21484375,-1.6113373838406943e-05,-2.5885084939345373e-05,-5.078809977111466e-05,-3.808911776150147e-05,4.3333,3.1333
3.21875,-1.6113373838406943e-05,-1.1722467475394807e-05,-2.5397206454566243e-05,-3.5649725337605846e-05,4.3333,3.1333
3.22265625,-2.8812355848020133e-05,-2.6860841908903623e-05,-2.7836598878461883e-05,-3.125174827191576e-05,4.3333,3.1333
3.2265625,-4.834163664454107e-05,-4.199214563973448e-05,-2.7836598878461883e-05,-2.6860841908903623e-05,4.3333,3.1333
3.23046875,-5.225173522545204e-05,-4.541436573586632e-05,-1.8071958480201403e-05,-2.3926500297550916e-05,4.3333,3.1333
3.234375,-4.297497331197069e-05,-3.369821139848934e-05,-3.711336079194322e-05,-3.173962675669488e-05,4.3333,3.1333
3.23828125,-2.3926500297550916e-05,-3.369821139848934e-05,-4.68780011902037e-05,-3.66254823071641e-05,4.3333,3.1333
3.2421875,-3.711336079194322e-05,-5.761839855802242e-05,-3.9064874731059725e-05,-3.173962675669488e-05,4.3333,3.1333
3.24609375,-5.761839855802242e-05,-4.297497331197069e-05,-3.5649725337605846e-05,-3.076386978713663e-05,4.3333,3.1333
3.25,-4.150426715495536e-05,-2.7836598878461883e-05,-3.760123927672235e-05,-3.369821139848934e-05,4.3333,3.1333
3.25390625,1.464393018997498e-06,-5.860854955367344e-06,-2.5397206454566243e-05,-3.173962675669488e-05,4.3333,3.1333
3.2578125,1.2692668871595345e-05,4.815653467612862e-07,-2.3926500297550916e-05,-2.8812355848020133e-05,4.3333,3.1333
3.26171875,-1.123458899061569e-05,-5.127597825589378e-05,-4.7853758159761945e-05,-3.955275321583885e-05,4.3333,3.1333
3.265625,-4.248709482719156e-05,-6.787798814373997e-05,-4.590224422064544e-05,-4.68780011902037e-05,4.3333,3.1333
3.26953125,-6.348001107804988e-05,-4.736587967498282e-05,-2.4414378782330046e-05,-4.736587967498282e-05,4.3333,3.1333
3.2734375,-4.492648725108719e-05,-3.076386978713663e-05,-1.9047715449759663e-05,-4.834163664454107e-05,4.3333,3.1333
3.27734375,-1.3186102929732185e-05,-2.6860841908903623e-05,-2.5885084939345373e-05,-3.760123927672235e-05,4.3333,3.1333
3.28125,-2.148710787365529e-05,-3.808911776150147e-05,-1.4161859899290447e-05,-2.8324477363241e-05,4.3333,3.1333
3.28515625,-2.930023433279925e-05,-5.078809977111466e-05,-1.6608323025864023e-05,-3.85769962462806e-05,4.3333,3.1333
3.2890625,-1.3673981414511317e-05,-3.613760382238497e-05,-2.4414378782330046e-05,-5.5179006134126784e-05,4.3333,3.1333
3.29296875,-2.8812355848020133e-05,-2.2950743327992666e-05,-2.099922938887616e-05,-5.371537067978941e-05,4.3333,3.1333
3.296875,-5.5179006134126784e-05,-2.8324477363241e-05,-2.7348720393682753e-05,-3.760123927672235e-05,4.3333,3.1333
3.30078125,-6.591940350194551e-05,-2.4414378782330046e-05,-2.1974986358434406e-05,-4.199214563973448e-05,4.3333,3.1333
3.3046875,-3.173962675669488e-05,9.270448775463506e-06,-1.1722467475394807e-05,-5.127597825589378e-05,4.3333,3.1333
3.30859375,4.815653467612862e-07,1.8066402906843678e-05,-6.313138017844721e-09,-3.271538372625313e-05,4.3333,3.1333
3.3125,-1.8071958480201403e-05,-1.123458899061569e-05,-1.4161859899290447e-05,-1.8071958480201403e-05,4.3333,3.1333
3.31640625,-3.173962675669488e-05,-5.957698319981688e-05,-9.033453984893568e-05,-2.1974986358434406e-05,4.3333,3.1333
3.3203125,-4.150426715495536e-05,-0.00010497796509498739,-0.00011181533458457311,-2.7836598878461883e-05,4.3333,3.1333
3.32421875,-5.3227492195010284e-05,-0.00012060421801327533,-0.00011864563337148086,-1.953559393453878e-05,4.3333,3.1333
3.328125,-7.373252996108948e-05,-0.00013085673689631493,-0.0001655243921263447,4.879542412451372e-06,4.3333,3.1333
3.33203125,-7.715475005722132e-05,-0.00011815775488670175,-0.00016942742000457768,1.9042159876401938e-05,4.3333,3.1333
3.3359375,-3.66254823071641e-05,-0.00015966277960631722,-0.00017675266797894255,1.0253276447699718e-05,4.3333,3.1333
3.33984375,-3.125174827191576e-05,-0.0002675758438773174,-0.0002055657813916228,1.464418281071184e-05,4.3333,3.1333
3.34375,-4.590224422064544e-05,-0.0002783162412451362,-0.0002265586976424811,4.443305319295035e-05,4.3333,3.1333
3.34765625,-3.418608988326847e-05,-0.0002666000869077592,-0.00022802233309681847,4.736032410162511e-05,4.3333,3.1333
3.3515625,-2.5397206454566243e-05,-0.0002753889703364614,-0.00023437182410162506,3.905931915770199e-05,4.3333,3.1333
3.35546875,-3.369821139848934e-05,-0.00027490109185168227,-0.00027880411972991534,3.0270435728999783e-05,4.3333,3.1333
3.359375,-8.740726894026092e-05,-0.0002949182511329824,-0.00030273137759212633,2.1481552300297564e-05,4.3333,3.1333
3.36328125,-0.0001137668485236896,-0.000309568747081712,-0.00028612936770428015,3.8083562188143756e-05,4.3333,3.1333
3.3671875,-6.982950208285648e-05,-0.00029247885870908673,-0.0002666000869077592,3.0270435728999783e-05,4.3333,3.1333
3.37109375,-3.808911776150147e-05,-0.0002900323955825131,-0.00026611220842298004,2.7343164820325027e-05,4.3333,3.1333
3.375,-3.711336079194322e-05,-0.00029784552204165706,-0.0002763647273060197,3.319770663767454e-05,4.3333,3.1333
3.37890625,-7.373252996108948e-05,-0.0002495101985351339,-0.0002495101985351339,5.028759501029986e-05,4.3333,3.1333
3.3828125,-9.765271712062255e-05,-0.00025097383398947127,-0.00022020920663767452,9.423201215381095e-05,4.3333,3.1333
3.38671875,-0.00010497796509498739,-0.0002602505959029526,-0.0002158183002746624,7.714212378118563e-05,4.3333,3.1333
3.390625,-9.86284740901808e-05,-0.0002138667863355459,-0.0001962819487754635,5.6149207530327315e-05,4.3333,3.1333
3.39453125,-6.83658666285191e-05,-0.0002163061787594415,-0.00018602942989242387,4.833608107118334e-05,4.3333,3.1333
3.3984375,-7.275677299153124e-05,-0.00020360719674982833,-0.00016503651364156556,-5.860854955367344e-06,4.3333,3.1333
3.40234375,-0.00011034462842755778,-0.00020507790290684365,-0.0001660122706111238,-3.467396836804759e-05,4.3333,3.1333
3.40625,-0.00013671834941634238,-0.00019189104241245134,-0.0001342718862897688,-2.8324477363241e-05,4.3333,3.1333
3.41015625,-0.00012450724589150835,-0.00012157997498283359,-9.179817530327306e-05,-1.9047715449759663e-05,4.3333,3.1333
3.4140625,-0.00010204362348363469,-0.00010741735751888302,-9.86284740901808e-05,-5.3729764705882276e-06,4.3333,3.1333
3.41796875,-0.00010790523600366215,-0.0001220678534676127,-9.326181075761042e-05,-2.4414378782330046e-05,4.3333,3.1333
3.421875,-0.00012060421801327533,-0.0001132789700389105,-6.54315250171664e-05,-4.346285179674981e-05,4.3333,3.1333
3.42578125,-0.00012157997498283359,-8.838302590981917e-05,-4.150426715495536e-05,-4.834163664454107e-05,4.3333,3.1333
3.4296875,-9.033453984893568e-05,-7.42204084458686e-05,-3.418608988326847e-05,-5.176385674067291e-05,4.3333,3.1333
3.43359375,-6.494364653238726e-05,-5.273961371023116e-05,-1.1722467475394807e-05,-5.3227492195010284e-05,4.3333,3.1333
3.4375,-7.373252996108948e-05,-3.711336079194322e-05,-3.421462531471718e-06,-4.88295151293202e-05,4.3333,3.1333
3.44140625,-6.640728198672464e-05,-4.541436573586632e-05,-1.2210345960173939e-05,-5.615476310368504e-05,4.3333,3.1333
3.4453125,-3.711336079194322e-05,-3.955275321583885e-05,-1.4699485923552232e-06,-7.617192238498511e-05,4.3333,3.1333
3.44921875,-2.3438621812771783e-05,-2.099922938887616e-05,1.1229033417257966e-05,-7.715475005722132e-05,4.3333,3.1333
3.453125,-2.148710787365529e-05,5.855299382009619e-06,2.4401499885557453e-06,-7.129313753719386e-05,4.3333,3.1333
3.45703125,-2.6860841908903623e-05,1.56199397802701e-05,1.9042159876401938e-05,-7.129313753719386e-05,4.3333,3.1333
3.4609375,-2.8324477363241e-05,-4.05285101853971e-05,3.270982815289541e-05,-7.470828693064773e-05,4.3333,3.1333
3.46484375,-1.1722467475394807e-05,-6.54315250171664e-05,1.8554281391622808e-05,-7.373252996108948e-05,4.3333,3.1333
3.46875,-7.819439597161804e-06,-2.6860841908903623e-05,2.9782557244220653e-05,-6.445576804760813e-05,4.3333,3.1333
3.47265625,-4.492648725108719e-05,3.415906958113993e-06,3.613204824902726e-05,-6.396788956282902e-05,4.3333,3.1333
3.4765625,-6.348001107804988e-05,2.4401499885557453e-06,2.7343164820325027e-05,-7.470828693064773e-05,4.3333,3.1333
3.48046875,-4.199214563973448e-05,-1.2210345960173939e-05,1.7571453719386594e-05,-8.447292732890822e-05,4.3333,3.1333
3.484375,-1.3186102929732185e-05,-2.5885084939345373e-05,5.367420897230502e-06,-8.643151197070266e-05,4.3333,3.1333
3.48828125,3.415906958113993e-06,-1.4649738384069563e-05,2.4401499885557453e-06,-7.568404390020597e-05,4.3333,3.1333
3.4921875,-9.820701075760923e-07,4.391663927672254e-06,-7.819439597161804e-06,-7.715475005722132e-05,4.3333,3.1333
3.49609375,-4.397219501029966e-06,-4.397219501029966e-06,4.391663927672254e-06,-7.42204084458686e-05,4.3333,3.1333
3.5,-3.421462531471718e-06,-1.8559836964980533e-05,2.5384580178530567e-05,-6.934162359807735e-05,4.3333,3.1333
3.50390625,-5.3729764705882276e-06,-3.173962675669488e-05,1.3180547356374475e-05,-8.008202096589608e-05,4.3333,3.1333
3.5078125,-1.95782707713434e-06,-2.4909327969787126e-05,-3.421462531471718e-06,-7.910626399633781e-05,4.3333,3.1333
3.51171875,8.782570290684375e-06,6.831056351567881e-06,1.9522715037766144e-06,-7.275677299153124e-05,4.3333,3.1333
3.515625,-4.397219501029966e-06,2.7343164820325027e-05,1.3668425841153591e-05,-6.787798814373997e-05,4.3333,3.1333
3.51953125,-2.978811281757838e-05,-1.953559393453878e-05,7.806813321126128e-06,-6.982950208285648e-05,4.3333,3.1333
3.5234375,-2.5885084939345373e-05,-4.248709482719156e-05,1.464393018997498e-06,-7.86183855115587e-05,4.3333,3.1333
3.52734375,-1.5625495353627827e-05,-5.3729764705882276e-06,1.464418281071184e-05,-7.470828693064773e-05,4.3333,3.1333
3.53125,-1.8071958480201403e-05,-4.941916227969614e-07,2.1969430785076694e-05,-7.666687157244219e-05,4.3333,3.1333
3.53515625,-2.6860841908903623e-05,-1.074671050583656e-05,6.34317786678875e-06,-9.033453984893568e-05,4.3333,3.1333
3.5390625,-4.150426715495536e-05,-1.2698224444953069e-05,1.1229033417257966e-05,-8.105777793545432e-05,4.3333,3.1333
3.54296875,-3.173962675669488e-05,-1.1722467475394807e-05,-5.860854955367344e-06,-5.5179006134126784e-05,4.3333,3.1333
3.546875,-8.307318081940934e-06,-2.1974986358434406e-05,-6.836611924925606e-06,-5.127597825589378e-05,4.3333,3.1333
3.55078125,9.76514534218367e-07,-1.5137616868848695e-05,9.270448775463506e-06,-5.566688461890592e-05,4.3333,3.1333
3.5546875,2.4401499885557453e-06,-3.421462531471718e-06,-1.5625495353627827e-05,-4.736587967498282e-05,4.3333,3.1333
3.55859375,-4.941916227969614e-07,-2.4457055619134707e-06,-1.9047715449759663e-05,-3.467396836804759e-05,4.3333,3.1333
3.5625,-5.3729764705882276e-06,-1.8559836964980533e-05,-2.4909327969787126e-05,-4.248709482719156e-05,4.3333,3.1333
3.56640625,-6.836611924925606e-06,-3.9064874731059725e-05,-3.173962675669488e-05,-5.176385674067291e-05,4.3333,3.1333
3.5703125,-3.2227505241474006e-05,-1.8559836964980533e-05,-1.6608323025864023e-05,-5.127597825589378e-05,4.3333,3.1333
3.57421875,-6.20163756237125e-05,1.6595696749828348e-05,-2.4457055619134707e-06,-5.176385674067291e-05,4.3333,3.1333
3.578125,-1.7584079995422283e-05,6.34317786678875e-06,-8.307318081940934e-06,-5.4691127649347664e-05,4.3333,3.1333
3.58203125,1.6107818265049218e-05,-2.7836598878461883e-05,-4.885097985809097e-06,-4.88295151293202e-05,4.3333,3.1333
3.5859375,-9.283075051499182e-06,-2.7348720393682753e-05,-9.283075051499182e-06,-4.4438608766308065e-05,4.3333,3.1333
3.58984375,-4.199214563973448e-05,-7.324490409704722e-06,-8.307318081940934e-06,-5.078809977111466e-05,4.3333,3.1333
3.59375,-2.7348720393682753e-05,-6.313138017844721e-09,1.9522715037766144e-06,-4.736587967498282e-05,4.3333,3.1333
3.59765625,2.1481552300297564e-05,-1.9047715449759663e-05,-7.819439597161804e-06,-4.736587967498282e-05,4.3333,3.1333
3.6015625,1.6107818265049218e-05,-4.492648725108719e-05,-2.3926500297550916e-05,-5.176385674067291e-05,4.3333,3.1333
3.60546875,-3.369821139848934e-05,-2.8812355848020133e-05,-1.2210345960173939e-05,-3.369821139848934e-05,4.3333,3.1333
3.609375,-5.761839855802242e-05,6.831056351567881e-06,-1.2210345960173939e-05,-3.418608988326847e-05,4.3333,3.1333
3.61328125,-3.2227505241474006e-05,3.9037854428931235e-06,-3.2227505241474006e-05,-4.68780011902037e-05,4.3333,3.1333
3.6171875,-1.074671050583656e-05,-1.5625495353627827e-05,-1.6113373838406943e-05,-5.078809977111466e-05,4.3333,3.1333
3.62109375,-1.3673981414511317e-05,-3.516184685282672e-05,-1.2210345960173939e-05,-5.273961371023116e-05,4.3333,3.1333
3.625,-1.2210345960173939e-05,-2.7348720393682753e-05,-3.9064874731059725e-05,-4.9805272098878444e-05,4.3333,3.1333
3.62890625,1.464393018997498e-06,-1.9047715449759663e-05,-2.8812355848020133e-05,-4.9317393614099325e-05,4.3333,3.1333
3.6328125,-2.4414378782330046e-05,-1.9047715449759663e-05,-1.4161859899290447e-05,-5.176385674067291e-05,4.3333,3.1333
3.63671875,-6.885374511329822e-05,2.0505795330739317e-05,-9.283075051499182e-06,-4.150426715495536e-05,4.3333,3.1333
3.640625,-8.25214133897917e-05,1.2204790386816213e-05,-4.885097985809097e-06,-2.4909327969787126e-05,4.3333,3.1333
3.64453125,-4.9805272098878444e-05,-1.3673981414511317e-05,-7.819439597161804e-06,-3.320326221103226e-05,4.3333,3.1333
3.6484375,4.391663927672254e-06,-2.930023433279925e-05,-2.8324477363241e-05,-4.9805272098878444e-05,4.3333,3.1333
3.65234375,-6.313138017844721e-09,-1.0258832021057444e-05,-3.0275991302357502e-05,-4.834163664454107e-05,4.3333,3.1333
3.65625,-3.760123927672235e-05,7.806813321126128e-06,-2.2462864843213536e-05,-4.7853758159761945e-05,4.3333,3.1333
3.66015625,-2.8812355848020133e-05,9.765397962920588e-06,-1.4649738384069563e-05,-3.711336079194322e-05,4.3333,3.1333
3.6640625,-4.397219501029966e-06,-1.9047715449759663e-05,-4.397219501029966e-06,-3.320326221103226e-05,4.3333,3.1333
3.66796875,-1.3186102929732185e-05,-5.371537067978941e-05,-2.1974986358434406e-05,-3.613760382238497e-05,4.3333,3.1333
3.671875,-7.819439597161804e-06,1.9522715037766144e-06,-2.2950743327992666e-05,-3.173962675669488e-05,4.3333,3.1333
3.67578125,-1.4649738384069563e-05,1.2204790386816213e-05,-1.2698224444953069e-05,-3.516184685282672e-05,4.3333,3.1333
3.6796875,-4.297497331197069e-05,-6.313138017844721e-09,-6.313138017844721e-09,-2.4909327969787126e-05,4.3333,3.1333
3.68359375,-2.0511350904097026e-05,-2.933584046692587e-06,-1.9047715449759663e-05,-3.0275991302357502e-05,4.3333,3.1333
3.6875,7.318934836346997e-06,-3.125174827191576e-05,-5.615476310368504e-05,-4.248709482719156e-05,4.3333,3.1333
3.69140625,4.391663927672254e-06,-2.7348720393682753e-05,-6.0064861684596004e-05,-4.004063170061798e-05,4.3333,3.1333
3.6953125,-1.2698224444953069e-05,-1.4699485923552232e-06,-4.7853758159761945e-05,-3.9064874731059725e-05,4.3333,3.1333
3.69921875,-2.4414378782330046e-05,4.391663927672254e-06,-2.4414378782330046e-05,-3.467396836804759e-05,4.3333,3.1333
3.703125,-1.953559393453878e-05,-1.0258832021057444e-05,-1.8559836964980533e-05,-4.297497331197069e-05,4.3333,3.1333
3.70703125,-1.3673981414511317e-05,-1.2210345960173939e-05,-2.0511350904097026e-05,-4.9805272098878444e-05,4.3333,3.1333
3.7109375,-8.307318081940934e-06,3.270982815289541e-05,-1.5137616868848695e-05,-4.492648725108719e-05,4.3333,3.1333
3.71484375,4.391663927672254e-06,4.736032410162511e-05,-1.2210345960173939e-05,-4.9317393614099325e-05,4.3333,3.1333
3.71875,2.392094472419319e-05,1.9530038361181054e-05,-9.820701075760923e-07,-5.3227492195010284e-05,4.3333,3.1333
3.72265625,2.6855286335545897e-05,-4.941916227969614e-07,-9.770953536278312e-06,-4.88295151293202e-05,4.3333,3.1333
3.7265625,2.0017916845960187e-05,1.7571453719386594e-05,-7.819439597161804e-06,-4.9805272098878444e-05,4.3333,3.1333
3.73046875,2.2945187754634944e-05,4.638456713206685e-05,7.318934836346997e-06,-6.0064861684596004e-05,4.3333,3.1333
3.734375,2.8806800274662407e-05,6.298657701991302e-05,2.928028473334876e-06,-6.445576804760813e-05,4.3333,3.1333
3.73828125,2.392094472419319e-05,6.982394650949876e-05,2.4401499885557453e-06,-6.640728198672464e-05,4.3333,3.1333
3.7421875,2.1969430785076694e-05,7.031182499427789e-05,2.7831043305104157e-05,-6.640728198672464e-05,4.3333,3.1333
3.74609375,3.417346360723279e-05,6.835324035248343e-05,2.1481552300297564e-05,-7.22688945067521e-05,4.3333,3.1333
3.75,1.7571453719386594e-05,6.298657701991302e-05,4.815653467612862e-07,-7.910626399633781e-05,4.3333,3.1333
3.75390625,6.831056351567881e-06,7.226333893339438e-05,1.9530038361181054e-05,-8.105777793545432e-05,4.3333,3.1333
3.7578125,2.5384580178530567e-05,7.421485287251087e-05,3.2221949668116276e-05,-8.789514742504004e-05,4.3333,3.1333
3.76171875,-4.941916227969614e-07,6.688960489814605e-05,4.296234703593501e-05,-8.838302590981917e-05,4.3333,3.1333
3.765625,6.34317786678875e-06,6.542596944380867e-05,3.3685585122453656e-05,-7.86183855115587e-05,4.3333,3.1333
3.76953125,4.1010833096818516e-05,5.1751230464637215e-05,2.440882320897232e-05,-7.470828693064773e-05,4.3333,3.1333
3.7734375,3.8571440672922876e-05,4.149871158159763e-05,2.7343164820325027e-05,-7.519616541542686e-05,4.3333,3.1333
3.77734375,4.540881016250858e-05,4.882395955596249e-05,3.9037854428931235e-06,-7.666687157244219e-05,4.3333,3.1333
3.78125,5.223910894941636e-05,3.319770663767454e-05,-1.8071958480201403e-05,-7.373252996108948e-05,4.3333,3.1333
3.78515625,4.296234703593501e-05,1.1229033417257966e-05,-7.819439597161804e-06,-6.787798814373997e-05,4.3333,3.1333
3.7890625,1.1229033417257966e-05,2.440882320897232e-05,7.318934836346997e-06,-6.152849713893338e-05,4.3333,3.1333
3.79296875,-9.820701075760923e-07,3.7107805218585496e-05,-1.9047715449759663e-05,-5.615476310368504e-05,4.3333,3.1333
3.796875,-2.099922938887616e-05,2.7831043305104157e-05,-3.320326221103226e-05,-5.90820340123598e-05,4.3333,3.1333
3.80078125,-4.9317393614099325e-05,-1.3186102929732185e-05,-2.099922938887616e-05,-6.104061865415426e-05,4.3333,3.1333
3.8046875,-2.930023433279925e-05,-1.6113373838406943e-05,-4.1016388670176225e-05,-7.080525905241473e-05,4.3333,3.1333
3.80859375,-2.7836598878461883e-05,5.855299382009619e-06,-5.176385674067291e-05,-7.715475005722132e-05,4.3333,3.1333
3.8125,-2.930023433279925e-05,-4.397219501029966e-06,-6.689516047150376e-05,-7.86183855115587e-05,4.3333,3.1333
3.81640625,7.318934836346997e-06,-3.320326221103226e-05,-6.494364653238726e-05,-7.324465147631035e-05,4.3333,3.1333
3.8203125,2.440882320897232e-05,-5.127597825589378e-05,-6.104061865415426e-05,-6.591940350194551e-05,4.3333,3.1333
3.82421875,-2.4457055619134707e-06,-6.0064861684596004e-05,-6.885374511329822e-05,-7.03173805676356e-05,4.3333,3.1333
3.828125,-1.1722467475394807e-05,-3.808911776150147e-05,-6.299213259327076e-05,-7.178101602197298e-05,4.3333,3.1333
3.83203125,-1.5137616868848695e-05,-6.836611924925606e-06,-6.396788956282902e-05,-7.275677299153124e-05,4.3333,3.1333
3.8359375,-3.369821139848934e-05,-3.516184685282672e-05,-6.934162359807735e-05,-7.03173805676356e-05,4.3333,3.1333
3.83984375,-3.125174827191576e-05,-6.934162359807735e-05,-5.8594155527580664e-05,-6.445576804760813e-05,4.3333,3.1333
3.84375,-3.9064874731059725e-05,-7.813050702677957e-05,-5.713052007324329e-05,-7.715475005722132e-05,4.3333,3.1333
3.84765625,-5.761839855802242e-05,-7.42204084458686e-05,-5.957698319981688e-05,-7.86183855115587e-05,4.3333,3.1333
3.8515625,-6.055274016937513e-05,-5.371537067978941e-05,-4.88295151293202e-05,-6.591940350194551e-05,4.3333,3.1333
3.85546875,-7.080525905241473e-05,-3.85769962462806e-05,-5.371537067978941e-05,-6.640728198672464e-05,4.3333,3.1333
3.859375,-7.470828693064773e-05,-5.3227492195010284e-05,-6.104061865415426e-05,-6.934162359807735e-05,4.3333,3.1333
3.86328125,-5.615476310368504e-05,-7.275677299153124e-05,-7.03173805676356e-05,-6.494364653238726e-05,4.3333,3.1333
3.8671875,-5.225173522545204e-05,-6.494364653238726e-05,-6.591940350194551e-05,-6.299213259327076e-05,4.3333,3.1333
3.87109375,-5.078809977111466e-05,-4.590224422064544e-05,-6.640728198672464e-05,-7.22688945067521e-05,4.3333,3.1333
3.875,-3.125174827191576e-05,-5.078809977111466e-05,-9.326181075761042e-05,-8.056989945067519e-05,4.3333,3.1333
3.87890625,-3.760123927672235e-05,-5.225173522545204e-05,-8.984666136415655e-05,-7.910626399633781e-05,4.3333,3.1333
3.8828125,-5.420324916456854e-05,-5.4691127649347664e-05,-7.42204084458686e-05,-7.080525905241473e-05,4.3333,3.1333
3.88671875,-4.199214563973448e-05,-8.154565642023346e-05,-6.982950208285648e-05,-6.591940350194551e-05,4.3333,3.1333
3.890625,-5.127597825589378e-05,-9.374968924238955e-05,-6.104061865415426e-05,-6.787798814373997e-05,4.3333,3.1333
3.89453125,-6.591940350194551e-05,-8.594363348592354e-05,-5.8594155527580664e-05,-6.299213259327076e-05,4.3333,3.1333
3.8984375,-6.689516047150376e-05,-5.029315058365758e-05,-5.029315058365758e-05,-5.8106277042801544e-05,4.3333,3.1333
3.90234375,-7.129313753719386e-05,-4.05285101853971e-05,-5.3227492195010284e-05,-6.787798814373997e-05,4.3333,3.1333
3.90625,-4.736587967498282e-05,-4.492648725108719e-05,-6.83658666285191e-05,-7.373252996108948e-05,4.3333,3.1333
3.91015625,-4.248709482719156e-05,-6.54315250171664e-05,-6.54315250171664e-05,-7.617192238498511e-05,4.3333,3.1333
3.9140625,-6.250425410849164e-05,-7.324465147631035e-05,-5.4691127649347664e-05,-7.22688945067521e-05,4.3333,3.1333
3.91796875,-4.834163664454107e-05,-6.055274016937513e-05,-6.299213259327076e-05,-6.934162359807735e-05,4.3333,3.1333
3.921875,-4.541436573586632e-05,-4.68780011902037e-05,-4.834163664454107e-05,-6.250425410849164e-05,4.3333,3.1333
3.92578125,-7.617192238498511e-05,-3.418608988326847e-05,-4.590224422064544e-05,-6.299213259327076e-05,4.3333,3.1333
3.9296875,-6.445576804760813e-05,-2.6860841908903623e-05,-6.885374511329822e-05,-7.178101602197298e-05,4.3333,3.1333
3.93359375,-3.808911776150147e-05,-3.2227505241474006e-05,-7.617192238498511e-05,-7.519616541542686e-05,4.3333,3.1333
3.9375,-3.5649725337605846e-05,-5.615476310368504e-05,-6.640728198672464e-05,-7.470828693064773e-05,4.3333,3.1333
3.94140625,-6.640728198672464e-05,-6.982950208285648e-05,-4.639012270542457e-05,-7.03173805676356e-05,4.3333,3.1333
3.9453125,-8.594363348592354e-05,-6.250425410849164e-05,-4.590224422064544e-05,-5.90820340123598e-05,4.3333,3.1333
3.94921875,-4.9805272098878444e-05,-6.20163756237125e-05,-5.90820340123598e-05,-5.761839855802242e-05,4.3333,3.1333
3.953125,-2.5885084939345373e-05,-4.736587967498282e-05,-5.761839855802242e-05,-6.348001107804988e-05,4.3333,3.1333
3.95703125,-4.297497331197069e-05,-2.978811281757838e-05,-4.736587967498282e-05,-5.566688461890592e-05,4.3333,3.1333
3.9609375,-6.83658666285191e-05,-4.248709482719156e-05,-4.395073028152894e-05,-5.761839855802242e-05,4.3333,3.1333
3.96484375,-5.761839855802242e-05,-7.568404390020597e-05,-4.68780011902037e-05,-6.640728198672464e-05,4.3333,3.1333
3.96875,-3.955275321583885e-05,-6.934162359807735e-05,-5.8106277042801544e-05,-6.152849713893338e-05,4.3333,3.1333
3.97265625,-5.127597825589378e-05,-2.4909327969787126e-05,-4.9805272098878444e-05,-4.834163664454107e-05,4.3333,3.1333
3.9765625,-6.152849713893338e-05,1.7571453719386594e-05,-3.076386978713663e-05,-4.248709482719156e-05,4.3333,3.1333
3.98046875,-4.4438608766308065e-05,1.7083575234607478e-05,6.34317786678875e-06,-4.88295151293202e-05,4.3333,3.1333
3.984375,-5.029315058365758e-05,-4.9805272098878444e-05,-8.307318081940934e-06,-4.4438608766308065e-05,4.3333,3.1333
3.98828125,-8.49678765163653e-05,-5.127597825589378e-05,-4.639012270542457e-05,-2.978811281757838e-05,4.3333,3.1333
3.9921875,-0.00010253857267109177,-1.1722467475394807e-05,-4.4438608766308065e-05,-2.3438621812771783e-05,4.3333,3.1333
3.99609375,-0.00012939310144197757,-9.033453984893568e-05,-7.910626399633781e-05,-4.7853758159761945e-05,4.3333,3.1333
4.0,-9.131029681849391e-05,-0.00017138600464637214,-0.00011083957761501486,-6.20163756237125e-05,4.3333,3.1333
4.00390625,-3.516184685282672e-05,-0.00018554155140764476,-0.00014745874678416112,-2.8812355848020133e-05,4.3333,3.1333
