timestamp,TP9,AF7,AF8,TP10,Valence,Arousal
0.0,-2.73335535591668e-05,3.4266183337148702e-06,7.814040970473853e-06,-2.6353213702601605e-05,6.4667,4.0
0.00390625,-4.393504654001674e-05,2.9444839780270653e-06,1.3197874608987617e-05,-2.0503316853589637e-05,6.4667,4.0
0.0078125,-4.539752075226973e-05,-8.787452010376085e-06,-2.439349660486712e-06,-2.538894499122601e-05,6.4667,4.0
0.01171875,-3.8567284046692565e-05,-1.1230266079194265e-05,-1.0732060578316875e-05,-3.075670748455019e-05,6.4667,4.0
0.015625,-2.929423327229719e-05,-9.75172072175168e-06,-1.7080162928206248e-05,-3.075670748455019e-05,6.4667,4.0
0.01953125,-2.2447925421530426e-05,-1.2194534790569875e-05,-2.685141920347901e-05,-2.8313893415731994e-05,6.4667,4.0
0.0234375,-3.7586944190127365e-05,-5.364298084992697e-06,-1.513555436026546e-05,-1.7080162928206248e-05,6.4667,4.0
0.02734375,-4.7358200465400115e-05,-1.171240043488207e-05,-8.28924650949868e-06,-1.7562297283894054e-05,6.4667,4.0
0.03125,-4.980101453421831e-05,-2.5871079346913815e-05,-7.308906652933487e-06,-2.929423327229719e-05,6.4667,4.0
0.03515625,-4.930280903334092e-05,-3.319952155336838e-05,-3.660660433356217e-05,-2.4890739490348622e-05,6.4667,4.0
0.0390625,-3.9049418402380354e-05,-2.5871079346913815e-05,-4.247257232776374e-05,-2.538894499122601e-05,6.4667,4.0
0.04296875,-3.4163790264743975e-05,-1.4155214503700264e-05,-1.4637348859388055e-05,-3.075670748455019e-05,6.4667,4.0
0.046875,-2.9776367627984994e-05,-1.2194534790569875e-05,-1.171240043488207e-05,-3.02585019836728e-05,6.4667,4.0
0.05078125,-3.8567284046692565e-05,-1.9040842641336638e-05,-1.8542637140459247e-05,-3.319952155336838e-05,6.4667,4.0
0.0546875,-4.539752075226973e-05,-2.0985451209277427e-05,-3.173704734111539e-05,-3.7586944190127365e-05,6.4667,4.0
0.05859375,-3.02585019836728e-05,-2.148365671015483e-05,-2.2447925421530426e-05,-3.1238841840238e-05,6.4667,4.0
0.0625,-3.319952155336838e-05,-1.2692740291447265e-05,-2.538894499122601e-05,-2.148365671015483e-05,6.4667,4.0
0.06640625,-4.393504654001674e-05,-6.344637941557891e-06,-1.4155214503700264e-05,-2.73335535591668e-05,6.4667,4.0
0.0703125,-4.491538639658193e-05,-1.171240043488207e-05,-1.0732060578316875e-05,-3.173704734111539e-05,6.4667,4.0
0.07421875,-4.539752075226973e-05,-9.75172072175168e-06,-1.317487464713507e-05,-3.221918169680319e-05,6.4667,4.0
0.078125,-3.5642335622186566e-05,-1.9040842641336638e-05,-2.87960277714198e-05,-3.8085149691004755e-05,6.4667,4.0
0.08203125,-1.171240043488207e-05,-4.443325204089413e-05,-7.42130840772106e-05,-4.784033482108792e-05,6.4667,4.0
0.0859375,-6.344637941557891e-06,-5.711338559548329e-05,-7.713803250171659e-05,-4.101009811551074e-05,6.4667,4.0
0.08984375,-2.0005111352712233e-05,-6.542216765850305e-05,-8.154152628366518e-05,-4.101009811551074e-05,6.4667,4.0
0.09375,-2.6353213702601605e-05,-9.275918562600133e-05,-9.66644739070725e-05,-5.32080973144121e-05,6.4667,4.0
0.09765625,-3.9049418402380354e-05,-0.00010497325597009228,-0.00012351935751888298,-5.370630281528949e-05,6.4667,4.0
0.1015625,-3.612446997787437e-05,-0.00010449112161440447,-0.0001440422099259937,-5.5650911383230295e-05,6.4667,4.0
0.10546875,-2.8313893415731994e-05,-0.00011180349267566944,-0.00013280847943846795,-5.8093725452048485e-05,6.4667,4.0
0.109375,-3.9049418402380354e-05,-0.00011766946066987103,-0.00013036566536964977,-5.22438286030365e-05,6.4667,4.0
0.11328125,-3.612446997787437e-05,-0.00011815159502555883,-0.00012059440909437702,-4.7358200465400115e-05,6.4667,4.0
0.1171875,-2.73335535591668e-05,-0.00010595359582665747,-9.862515362020289e-05,-4.589572625314713e-05,6.4667,4.0
0.12109375,-4.247257232776374e-05,-8.983423720149534e-05,-8.935210284580753e-05,-5.0283148889906114e-05,6.4667,4.0
0.125,-5.32080973144121e-05,-7.958084657053479e-05,-9.910728797589069e-05,-4.930280903334092e-05,6.4667,4.0
0.12890625,-4.980101453421831e-05,-6.786498172732123e-05,-8.641108327611195e-05,-4.393504654001674e-05,6.4667,4.0
0.1328125,-3.9049418402380354e-05,-6.494003330281523e-05,-5.907406530861368e-05,-3.270131605249098e-05,6.4667,4.0
0.13671875,-3.4163790264743975e-05,-7.37148785763332e-05,-5.614911688410768e-05,-3.173704734111539e-05,6.4667,4.0
0.140625,-3.02585019836728e-05,-6.444182780193784e-05,-6.444182780193784e-05,-4.002975825894555e-05,6.4667,4.0
0.14453125,-3.7586944190127365e-05,-3.7586944190127365e-05,-7.37148785763332e-05,-4.3452912184328936e-05,6.4667,4.0
0.1484375,-6.297935358968484e-05,-3.5642335622186566e-05,-6.834711608300904e-05,-4.101009811551074e-05,6.4667,4.0
0.15234375,-4.051189261463335e-05,-5.370630281528949e-05,-6.005440516517888e-05,-4.149223247119854e-05,6.4667,4.0
0.15625,-4.882163729304892e-06,-5.1745623102159096e-05,-7.46952184328984e-05,-5.614911688410768e-05,6.4667,4.0
0.16015625,-6.344637941557891e-06,-3.368165590905617e-05,-6.444182780193784e-05,-5.32080973144121e-05,6.4667,4.0
0.1640625,-2.4890739490348622e-05,-3.4661995765621366e-05,-4.539752075226973e-05,-3.660660433356217e-05,6.4667,4.0
0.16796875,-4.833854032196531e-05,-4.1990437972075934e-05,-4.930280903334092e-05,-3.319952155336838e-05,6.4667,4.0
0.171875,-3.5144130121309175e-05,-4.051189261463335e-05,-6.542216765850305e-05,-3.8567284046692565e-05,6.4667,4.0
0.17578125,-1.2194534790569875e-05,-4.1990437972075934e-05,-6.884532158388643e-05,-4.491538639658193e-05,6.4667,4.0
0.1796875,-1.513555436026546e-05,-4.002975825894555e-05,-4.539752075226973e-05,-4.930280903334092e-05,6.4667,4.0
0.18359375,-4.247257232776374e-05,-3.9049418402380354e-05,-3.8567284046692565e-05,-4.7358200465400115e-05,6.4667,4.0
0.1875,-4.7358200465400115e-05,-2.538894499122601e-05,-4.980101453421831e-05,-4.101009811551074e-05,6.4667,4.0
0.19140625,-2.538894499122601e-05,-2.4408605134660816e-05,-3.173704734111539e-05,-3.5642335622186566e-05,6.4667,4.0
0.1953125,-1.4637348859388055e-05,-3.5642335622186566e-05,-1.561768871595325e-05,-3.9049418402380354e-05,6.4667,4.0
0.19921875,-1.7080162928206248e-05,-3.173704734111539e-05,-3.660660433356217e-05,-4.443325204089413e-05,6.4667,4.0
0.203125,-2.1965791065842623e-05,-2.538894499122601e-05,-3.173704734111539e-05,-3.7586944190127365e-05,6.4667,4.0
0.20703125,-3.173704734111539e-05,-2.0985451209277427e-05,-2.4408605134660816e-05,-2.73335535591668e-05,6.4667,4.0
0.2109375,-5.711338559548329e-05,-2.6353213702601605e-05,-3.368165590905617e-05,-1.9522976997024444e-05,6.4667,4.0
0.21484375,-4.7358200465400115e-05,-2.148365671015483e-05,-3.710480983443956e-05,-2.8313893415731994e-05,6.4667,4.0
0.21875,-2.2447925421530426e-05,-2.4890739490348622e-05,-4.491538639658193e-05,-4.3452912184328936e-05,6.4667,4.0
0.22265625,-1.7080162928206248e-05,-2.7831759060044205e-05,-3.7586944190127365e-05,-3.4163790264743975e-05,6.4667,4.0
0.2265625,-2.5871079346913815e-05,-7.308906652933487e-06,-2.4408605134660816e-05,-2.73335535591668e-05,6.4667,4.0
0.23046875,-2.9776367627984994e-05,-2.148365671015483e-05,-3.319952155336838e-05,-3.221918169680319e-05,6.4667,4.0
0.234375,-2.8313893415731994e-05,-3.7586944190127365e-05,-4.051189261463335e-05,-3.02585019836728e-05,6.4667,4.0
0.23828125,-4.149223247119854e-05,-2.8313893415731994e-05,-3.660660433356217e-05,-2.3428265278095623e-05,6.4667,4.0
0.2421875,-3.612446997787437e-05,-3.4661995765621366e-05,-3.221918169680319e-05,-2.0985451209277427e-05,6.4667,4.0
0.24609375,-2.148365671015483e-05,-2.87960277714198e-05,-3.4163790264743975e-05,-1.8542637140459247e-05,6.4667,4.0
0.25,-2.1965791065842623e-05,-2.685141920347901e-05,-3.173704734111539e-05,-2.0005111352712233e-05,6.4667,4.0
0.25390625,-2.685141920347901e-05,-4.3452912184328936e-05,-2.3428265278095623e-05,-2.538894499122601e-05,6.4667,4.0
0.2578125,-3.5642335622186566e-05,-4.002975825894555e-05,-3.221918169680319e-05,-2.685141920347901e-05,6.4667,4.0
0.26171875,-3.7586944190127365e-05,-2.9776367627984994e-05,-4.589572625314713e-05,-2.7831759060044205e-05,6.4667,4.0
0.265625,-2.538894499122601e-05,-2.0005111352712233e-05,-3.5642335622186566e-05,-2.0503316853589637e-05,6.4667,4.0
0.26953125,-2.538894499122601e-05,-2.1965791065842623e-05,-3.612446997787437e-05,-1.6099823071641055e-05,6.4667,4.0
0.2734375,-5.614911688410768e-05,-3.270131605249098e-05,-5.0283148889906114e-05,-2.148365671015483e-05,6.4667,4.0
0.27734375,-4.784033482108792e-05,-2.3428265278095623e-05,-4.101009811551074e-05,-2.4890739490348622e-05,6.4667,4.0
0.28125,-6.344637941557891e-06,-7.807112153810891e-06,-2.7831759060044205e-05,-1.513555436026546e-05,6.4667,4.0
0.28515625,-5.846432440680502e-06,-2.3910399633783425e-05,-3.221918169680319e-05,-1.561768871595325e-05,6.4667,4.0
0.2890625,-2.9776367627984994e-05,-4.2954706683451546e-05,-3.368165590905617e-05,-9.75172072175168e-06,6.4667,4.0
0.29296875,-5.614911688410768e-05,-4.051189261463335e-05,-2.2447925421530426e-05,-2.9214840161745027e-06,6.4667,4.0
0.296875,-3.8567284046692565e-05,-2.148365671015483e-05,-1.2194534790569875e-05,-6.8267722972456965e-06,6.4667,4.0
0.30078125,-1.1230266079194265e-05,-4.1990437972075934e-05,-5.468664267185468e-05,-1.941144159609308e-06,6.4667,4.0
0.3046875,-1.9040842641336638e-05,-7.958084657053479e-05,-8.983423720149534e-05,-8.787452010376085e-06,6.4667,4.0
0.30859375,-3.5642335622186566e-05,-8.056118642709998e-05,-8.544681456473636e-05,-2.0005111352712233e-05,6.4667,4.0
0.3125,-4.589572625314713e-05,-6.542216765850305e-05,-7.665589814602879e-05,-1.365700900282286e-05,6.4667,4.0
0.31640625,-3.5642335622186566e-05,-8.837176298924234e-05,-9.520199969481953e-05,-2.538894499122601e-05,6.4667,4.0
0.3203125,-2.3428265278095623e-05,-0.00010545539032578008,-0.00012205688330663,-2.3428265278095623e-05,6.4667,4.0
0.32421875,-4.882067467765311e-05,-8.837176298924234e-05,-9.66644739070725e-05,-4.882163729304892e-06,6.4667,4.0
0.328125,-6.103474502174407e-05,-7.909871221484697e-05,-8.690928877698933e-05,-9.269586366063876e-06,6.4667,4.0
0.33203125,-3.270131605249098e-05,-6.688464187075604e-05,-7.32327442206454e-05,-8.28924650949868e-06,6.4667,4.0
0.3359375,-2.148365671015483e-05,-7.225240436408021e-05,-6.884532158388643e-05,-7.308906652933487e-06,6.4667,4.0
0.33984375,-2.2447925421530426e-05,-7.713803250171659e-05,-8.348613485160598e-05,-1.0732060578316875e-05,6.4667,4.0
0.34375,-2.4408605134660816e-05,-6.151687937743185e-05,-7.61576926451514e-05,-1.1230266079194265e-05,6.4667,4.0
0.34765625,-3.368165590905617e-05,-6.249721923399704e-05,-7.225240436408021e-05,-1.8060502784771445e-05,6.4667,4.0
0.3515625,-4.930280903334092e-05,-5.907406530861368e-05,-6.590430201419085e-05,-1.0732060578316875e-05,6.4667,4.0
0.35546875,-5.32080973144121e-05,-5.32080973144121e-05,-6.444182780193784e-05,-6.8267722972456965e-06,6.4667,4.0
0.359375,-2.929423327229719e-05,-5.0283148889906114e-05,-5.2725962958724296e-05,-1.4155214503700264e-05,6.4667,4.0
0.36328125,-9.269586366063876e-06,-4.637786060883492e-05,-3.8085149691004755e-05,-1.317487464713507e-05,6.4667,4.0
0.3671875,-1.2692740291447265e-05,-5.0283148889906114e-05,-5.2725962958724296e-05,-1.1230266079194265e-05,6.4667,4.0
0.37109375,-2.73335535591668e-05,-3.7586944190127365e-05,-5.711338559548329e-05,-4.882163729304892e-06,6.4667,4.0
0.375,-2.1965791065842623e-05,-2.685141920347901e-05,-5.0283148889906114e-05,-1.941144159609308e-06,6.4667,4.0
0.37890625,-2.4408605134660816e-05,-2.5871079346913815e-05,-4.7358200465400115e-05,5.016699092088714e-07,6.4667,4.0
0.3828125,-2.6353213702601605e-05,-3.368165590905617e-05,-5.370630281528949e-05,-1.4590098039215176e-06,6.4667,4.0
0.38671875,-1.6099823071641055e-05,-3.9049418402380354e-05,-5.32080973144121e-05,-9.75172072175168e-06,6.4667,4.0
0.390625,-1.9040842641336638e-05,-1.9040842641336638e-05,-4.3452912184328936e-05,-9.75172072175168e-06,6.4667,4.0
0.39453125,-1.513555436026546e-05,-1.024992622262907e-05,-4.539752075226973e-05,-1.941144159609308e-06,6.4667,4.0
0.3984375,-2.0005111352712233e-05,-2.6353213702601605e-05,-4.930280903334092e-05,-5.846432440680502e-06,6.4667,4.0
0.40234375,-3.612446997787437e-05,-2.5871079346913815e-05,-3.612446997787437e-05,-4.383958228427502e-06,6.4667,4.0
0.40625,-2.7831759060044205e-05,-4.882163729304892e-06,-2.1965791065842623e-05,-2.9214840161745027e-06,6.4667,4.0
0.41015625,-1.9040842641336638e-05,-1.8542637140459247e-05,-4.051189261463335e-05,5.016699092088714e-07,6.4667,4.0
0.4140625,-1.1230266079194265e-05,-2.3428265278095623e-05,-5.0283148889906114e-05,1.0256855039292034e-05,6.4667,4.0
0.41796875,7.33190661478605e-06,-1.8060502784771445e-05,-2.7831759060044205e-05,1.3680008964675422e-05,6.4667,4.0
0.421875,-1.024992622262907e-05,-2.4408605134660816e-05,-3.02585019836728e-05,1.1719329251545034e-05,6.4667,4.0
0.42578125,-4.443325204089413e-05,-1.9522976997024444e-05,-4.980101453421831e-05,2.9444839780270653e-06,6.4667,4.0
0.4296875,-2.9776367627984994e-05,-2.73335535591668e-05,-3.8567284046692565e-05,3.4266183337148702e-06,6.4667,4.0
0.43359375,-2.4408605134660816e-05,-3.5144130121309175e-05,-2.5871079346913815e-05,1.416214332036322e-05,6.4667,4.0
0.4375,-4.6859994964522725e-05,-3.1238841840238e-05,-3.4661995765621366e-05,1.7103162890058804e-05,6.4667,4.0
0.44140625,-3.7586944190127365e-05,-1.8542637140459247e-05,-4.393504654001674e-05,5.86943240253305e-06,6.4667,4.0
0.4453125,-8.787452010376085e-06,-7.807112153810891e-06,-2.6353213702601605e-05,3.90875268940266e-06,6.4667,4.0
0.44921875,-1.171240043488207e-05,-2.3428265278095623e-05,-2.929423327229719e-05,1.3197874608987617e-05,6.4667,4.0
0.453125,-3.612446997787437e-05,-3.8567284046692565e-05,-4.1990437972075934e-05,9.774720683604243e-06,6.4667,4.0
0.45703125,-3.4163790264743975e-05,-3.4661995765621366e-05,-4.784033482108792e-05,7.814040970473853e-06,6.4667,4.0
0.4609375,-1.2692740291447265e-05,-2.9776367627984994e-05,-6.444182780193784e-05,8.794380827039048e-06,6.4667,4.0
0.46484375,-1.0732060578316875e-05,-2.2946130922407816e-05,-4.051189261463335e-05,1.465938620584481e-06,6.4667,4.0
0.46875,-1.365700900282286e-05,-2.1965791065842623e-05,-2.4408605134660816e-05,-3.901823872739698e-06,6.4667,4.0
0.47265625,-1.8542637140459247e-05,-2.148365671015483e-05,-2.0503316853589637e-05,-5.364298084992697e-06,6.4667,4.0
0.4765625,-4.149223247119854e-05,-3.075670748455019e-05,-4.784033482108792e-05,-1.2692740291447265e-05,6.4667,4.0
0.48046875,-4.3452912184328936e-05,-4.589572625314713e-05,-6.542216765850305e-05,-9.75172072175168e-06,6.4667,4.0
0.484375,-3.368165590905617e-05,-3.7586944190127365e-05,-5.126348874647131e-05,4.889092545967855e-06,6.4667,4.0
0.48828125,-2.9776367627984994e-05,-1.513555436026546e-05,-4.833854032196531e-05,-4.786699473563232e-07,6.4667,4.0
0.4921875,-2.8313893415731994e-05,-3.1238841840238e-05,-4.002975825894555e-05,-3.4036183718623077e-06,6.4667,4.0
0.49609375,-2.7831759060044205e-05,-4.1990437972075934e-05,-4.247257232776374e-05,1.964144121461871e-06,6.4667,4.0
0.5,-2.4408605134660816e-05,-2.4408605134660816e-05,-4.1990437972075934e-05,8.312246471351244e-06,6.4667,4.0
0.50390625,-3.612446997787437e-05,-1.8060502784771445e-05,-3.8085149691004755e-05,6.351566758220855e-06,6.4667,4.0
0.5078125,-5.5650911383230295e-05,-1.171240043488207e-05,-2.0005111352712233e-05,-9.608043030441137e-07,6.4667,4.0
0.51171875,-4.882067467765311e-05,-2.685141920347901e-05,-2.2946130922407816e-05,-2.439349660486712e-06,6.4667,4.0
0.515625,-4.149223247119854e-05,-5.663125123979549e-05,-4.393504654001674e-05,-4.882163729304892e-06,6.4667,4.0
0.51953125,-3.221918169680319e-05,-4.101009811551074e-05,-2.0503316853589637e-05,-9.608043030441137e-07,6.4667,4.0
0.5234375,-1.317487464713507e-05,-2.8313893415731994e-05,-3.710480983443956e-05,-9.75172072175168e-06,6.4667,4.0
0.52734375,-7.308906652933487e-06,-9.75172072175168e-06,-2.73335535591668e-05,-1.1230266079194265e-05,6.4667,4.0
0.53125,9.838042648966763e-07,5.37122690165566e-06,-1.2692740291447265e-05,3.46440833148165e-09,6.4667,4.0
0.53515625,-1.0732060578316875e-05,-5.1745623102159096e-05,-8.983423720149534e-05,3.46440833148165e-09,6.4667,4.0
0.5390625,-4.784033482108792e-05,-9.618233955138473e-05,-0.00011376417238879983,2.4462784771496757e-06,6.4667,4.0
0.54296875,-5.8093725452048485e-05,-8.348613485160598e-05,-7.567555828946359e-05,4.406958190280065e-06,6.4667,4.0
0.546875,-4.637786060883492e-05,-7.909871221484697e-05,-8.592894892042414e-05,-1.0732060578316875e-05,6.4667,4.0
0.55078125,-3.9049418402380354e-05,-9.66644739070725e-05,-0.00010887854425116347,-1.1230266079194265e-05,6.4667,4.0
0.5546875,-4.6859994964522725e-05,-0.00010399291611352708,-0.0001015501020447089,5.016699092088714e-07,6.4667,4.0
0.55859375,-7.32327442206454e-05,-0.00010595359582665747,-0.00010058583333333327,2.4462784771496757e-06,6.4667,4.0
0.5625,-8.983423720149534e-05,-0.00010301257625696189,-0.00011376417238879983,-4.882163729304892e-06,6.4667,4.0
0.56640625,-6.297935358968484e-05,-8.494860906385895e-05,-9.570020519569692e-05,-4.786699473563232e-07,6.4667,4.0
0.5703125,-2.73335535591668e-05,-8.056118642709998e-05,-8.641108327611195e-05,6.849772259098244e-06,6.4667,4.0
0.57421875,-5.364298084992697e-06,-8.837176298924234e-05,-0.00010253044190127409,-3.901823872739698e-06,6.4667,4.0
0.578125,-7.308906652933487e-06,-9.081457705806053e-05,-9.325739112687872e-05,-1.365700900282286e-05,6.4667,4.0
0.58203125,-2.3910399633783425e-05,-7.37148785763332e-05,-8.202366063935298e-05,-1.4637348859388055e-05,6.4667,4.0
0.5859375,-2.7831759060044205e-05,-5.370630281528949e-05,-6.736677622644384e-05,-9.269586366063876e-06,6.4667,4.0
0.58984375,-3.02585019836728e-05,-5.1745623102159096e-05,-6.297935358968484e-05,-8.787452010376085e-06,6.4667,4.0
0.59375,-3.7586944190127365e-05,-6.005440516517888e-05,-6.736677622644384e-05,-1.2692740291447265e-05,6.4667,4.0
0.59765625,-4.7358200465400115e-05,-7.763623800259398e-05,-5.614911688410768e-05,-5.846432440680502e-06,6.4667,4.0
0.6015625,-5.0283148889906114e-05,-7.519342393377579e-05,-6.005440516517888e-05,-3.4036183718623077e-06,6.4667,4.0
0.60546875,-5.907406530861368e-05,-5.32080973144121e-05,-6.199901373311965e-05,-1.4637348859388055e-05,6.4667,4.0
0.609375,-9.179491691462572e-05,-4.002975825894555e-05,-5.22438286030365e-05,-1.513555436026546e-05,6.4667,4.0
0.61328125,-0.00010058583333333327,-3.368165590905617e-05,-5.468664267185468e-05,-9.75172072175168e-06,6.4667,4.0
0.6171875,-5.711338559548329e-05,-5.1745623102159096e-05,-5.32080973144121e-05,-1.4637348859388055e-05,6.4667,4.0
0.62109375,-1.4155214503700264e-05,-7.177027000839242e-05,-4.637786060883492e-05,-1.513555436026546e-05,6.4667,4.0
0.625,1.1237194895857236e-05,-6.151687937743185e-05,-6.444182780193784e-05,-2.0005111352712233e-05,6.4667,4.0
0.62890625,1.564068867780581e-05,-5.0283148889906114e-05,-7.811837235828178e-05,-2.685141920347901e-05,6.4667,4.0
0.6328125,-5.846432440680502e-06,-5.07652832455939e-05,-6.103474502174407e-05,-3.173704734111539e-05,6.4667,4.0
0.63671875,-2.538894499122601e-05,-4.784033482108792e-05,-5.1745623102159096e-05,-3.221918169680319e-05,6.4667,4.0
0.640625,-3.02585019836728e-05,-3.612446997787437e-05,-4.2954706683451546e-05,-2.6353213702601605e-05,6.4667,4.0
0.64453125,-3.9049418402380354e-05,-2.6353213702601605e-05,-3.660660433356217e-05,-2.0005111352712233e-05,6.4667,4.0
0.6484375,-4.247257232776374e-05,-2.5871079346913815e-05,-4.443325204089413e-05,-1.513555436026546e-05,6.4667,4.0
0.65234375,-4.393504654001674e-05,-2.148365671015483e-05,-4.6859994964522725e-05,-1.561768871595325e-05,6.4667,4.0
0.65625,-5.32080973144121e-05,-2.148365671015483e-05,-4.3452912184328936e-05,-2.4408605134660816e-05,6.4667,4.0
0.66015625,-4.051189261463335e-05,-2.0005111352712233e-05,-4.393504654001674e-05,-2.4890739490348622e-05,6.4667,4.0
0.6640625,-3.075670748455019e-05,-2.0005111352712233e-05,-5.07652832455939e-05,-2.3910399633783425e-05,6.4667,4.0
0.66796875,-3.5642335622186566e-05,-4.101009811551074e-05,-5.370630281528949e-05,-2.4408605134660816e-05,6.4667,4.0
0.671875,-5.126348874647131e-05,-2.8313893415731994e-05,-2.0985451209277427e-05,-1.9522976997024444e-05,6.4667,4.0
0.67578125,-4.491538639658193e-05,-1.317487464713507e-05,-1.513555436026546e-05,-2.0005111352712233e-05,6.4667,4.0
0.6796875,-2.9776367627984994e-05,-2.6353213702601605e-05,-5.5650911383230295e-05,-2.87960277714198e-05,6.4667,4.0
0.68359375,-3.5144130121309175e-05,-3.368165590905617e-05,-5.9556199664301454e-05,-4.1990437972075934e-05,6.4667,4.0
0.6875,-3.660660433356217e-05,-1.4637348859388055e-05,-2.87960277714198e-05,-4.930280903334092e-05,6.4667,4.0
0.69140625,-3.075670748455019e-05,5.37122690165566e-06,-1.513555436026546e-05,-5.0283148889906114e-05,6.4667,4.0
0.6953125,-2.4890739490348622e-05,-5.364298084992697e-06,-2.5871079346913815e-05,-5.8093725452048485e-05,6.4667,4.0
0.69921875,-1.7080162928206248e-05,2.0028111314564796e-05,-1.6099823071641055e-05,-6.249721923399704e-05,6.4667,4.0
0.703125,-1.561768871595325e-05,3.809207850766772e-05,1.964144121461871e-06,-6.005440516517888e-05,6.4667,4.0
0.70703125,-3.612446997787437e-05,3.5649264438849524e-05,1.1719329251545034e-05,-5.5650911383230295e-05,6.4667,4.0
0.7109375,-3.660660433356217e-05,3.859028400854511e-05,1.7103162890058804e-05,-4.980101453421831e-05,6.4667,4.0
0.71484375,-1.9522976997024444e-05,3.2242181658655736e-05,2.6376213664454168e-05,-4.637786060883492e-05,6.4667,4.0
0.71875,-2.5871079346913815e-05,3.466892458228434e-05,2.0028111314564796e-05,-4.393504654001674e-05,6.4667,4.0
0.72265625,-2.8313893415731994e-05,2.930116208896016e-05,1.0755060540169438e-05,-4.149223247119854e-05,6.4667,4.0
0.7265625,-1.2692740291447265e-05,2.7356553521019364e-05,1.3197874608987617e-05,-4.491538639658193e-05,6.4667,4.0
0.73046875,-2.0503316853589637e-05,2.979936758983755e-05,7.33190661478605e-06,-4.247257232776374e-05,6.4667,4.0
0.734375,-2.7831759060044205e-05,3.0281501945525346e-05,1.4660348821240617e-05,-4.393504654001674e-05,6.4667,4.0
0.73828125,-2.8313893415731994e-05,3.4186790226596535e-05,1.90477714579996e-05,-4.637786060883492e-05,6.4667,4.0
0.7421875,-4.930280903334092e-05,2.5894079308766365e-05,3.4266183337148702e-06,-3.221918169680319e-05,6.4667,4.0
0.74609375,-5.8093725452048485e-05,1.5142483176928414e-05,-9.269586366063876e-06,-2.2946130922407816e-05,6.4667,4.0
0.75,-2.538894499122601e-05,3.4266183337148702e-06,-8.787452010376085e-06,-3.4163790264743975e-05,6.4667,4.0
0.75390625,-8.28924650949868e-06,-9.75172072175168e-06,-2.1965791065842623e-05,-4.393504654001674e-05,6.4667,4.0
0.7578125,-2.148365671015483e-05,-9.75172072175168e-06,-2.1965791065842623e-05,-3.612446997787437e-05,6.4667,4.0
0.76171875,-2.685141920347901e-05,-4.786699473563232e-07,-2.0503316853589637e-05,-3.5642335622186566e-05,6.4667,4.0
0.765625,-1.1230266079194265e-05,1.465938620584481e-06,-2.3428265278095623e-05,-4.002975825894555e-05,6.4667,4.0
0.76953125,-1.9040842641336638e-05,-6.344637941557891e-06,-1.2194534790569875e-05,-3.8567284046692565e-05,6.4667,4.0
0.7734375,-3.173704734111539e-05,-7.807112153810891e-06,-2.148365671015483e-05,-3.612446997787437e-05,6.4667,4.0
0.77734375,-2.2447925421530426e-05,-1.561768871595325e-05,-2.73335535591668e-05,-3.7586944190127365e-05,6.4667,4.0
0.78125,-1.2194534790569875e-05,-2.2946130922407816e-05,-3.270131605249098e-05,-3.660660433356217e-05,6.4667,4.0
0.78515625,-4.882163729304892e-06,-1.024992622262907e-05,-3.710480983443956e-05,-3.954762390325776e-05,6.4667,4.0
0.7890625,-1.8060502784771445e-05,-7.308906652933487e-06,-2.73335535591668e-05,-4.443325204089413e-05,6.4667,4.0
0.79296875,-2.73335535591668e-05,-4.882163729304892e-06,-2.0985451209277427e-05,-3.4163790264743975e-05,6.4667,4.0
0.796875,-3.4661995765621366e-05,-1.365700900282286e-05,-3.1238841840238e-05,-1.9040842641336638e-05,6.4667,4.0
0.80078125,-3.1238841840238e-05,-9.269586366063876e-06,-2.9776367627984994e-05,-1.8542637140459247e-05,6.4667,4.0
0.8046875,-1.171240043488207e-05,-6.8267722972456965e-06,-2.538894499122601e-05,-2.2447925421530426e-05,6.4667,4.0
0.80859375,-7.308906652933487e-06,-1.171240043488207e-05,-2.4408605134660816e-05,-2.3428265278095623e-05,6.4667,4.0
0.8125,4.889092545967855e-06,-1.317487464713507e-05,-2.5871079346913815e-05,-2.3910399633783425e-05,6.4667,4.0
0.81640625,-4.882163729304892e-06,-2.87960277714198e-05,-2.7831759060044205e-05,-2.538894499122601e-05,6.4667,4.0
0.8203125,-2.3910399633783425e-05,-1.8060502784771445e-05,-2.9776367627984994e-05,-2.7831759060044205e-05,6.4667,4.0
0.82421875,-2.87960277714198e-05,-2.2447925421530426e-05,-2.7831759060044205e-05,-2.8313893415731994e-05,6.4667,4.0
0.828125,-4.491538639658193e-05,-3.173704734111539e-05,-2.3910399633783425e-05,-2.3910399633783425e-05,6.4667,4.0
0.83203125,-4.589572625314713e-05,-1.4155214503700264e-05,-2.2447925421530426e-05,-2.9776367627984994e-05,6.4667,4.0
0.8359375,-2.685141920347901e-05,-2.929423327229719e-05,-3.612446997787437e-05,-4.051189261463335e-05,6.4667,4.0
0.83984375,-1.171240043488207e-05,-4.3452912184328936e-05,-4.980101453421831e-05,-3.8085149691004755e-05,6.4667,4.0
0.84375,-2.2946130922407816e-05,-2.8313893415731994e-05,-4.393504654001674e-05,-4.149223247119854e-05,6.4667,4.0
0.84765625,-3.319952155336838e-05,-2.2447925421530426e-05,-4.2954706683451546e-05,-3.954762390325776e-05,6.4667,4.0
0.8515625,-1.2692740291447265e-05,-2.4890739490348622e-05,-3.710480983443956e-05,-3.221918169680319e-05,6.4667,4.0
0.85546875,-2.9214840161745027e-06,-3.075670748455019e-05,-3.9049418402380354e-05,-3.8567284046692565e-05,6.4667,4.0
0.859375,-2.0985451209277427e-05,-3.4163790264743975e-05,-4.101009811551074e-05,-3.5144130121309175e-05,6.4667,4.0
0.86328125,-5.8093725452048485e-05,-2.2946130922407816e-05,-4.1990437972075934e-05,-2.4890739490348622e-05,6.4667,4.0
0.8671875,-6.542216765850305e-05,-2.7831759060044205e-05,-4.2954706683451546e-05,-3.1238841840238e-05,6.4667,4.0
0.87109375,-4.784033482108792e-05,-4.1990437972075934e-05,-2.929423327229719e-05,-3.8085149691004755e-05,6.4667,4.0
0.875,-2.6353213702601605e-05,-4.101009811551074e-05,-4.149223247119854e-05,-3.1238841840238e-05,6.4667,4.0
0.87890625,-1.171240043488207e-05,-3.660660433356217e-05,-5.2725962958724296e-05,-2.148365671015483e-05,6.4667,4.0
0.8828125,-1.8060502784771445e-05,-3.075670748455019e-05,-4.443325204089413e-05,-2.4890739490348622e-05,6.4667,4.0
0.88671875,-2.2946130922407816e-05,-2.3428265278095623e-05,-4.589572625314713e-05,-3.270131605249098e-05,6.4667,4.0
0.890625,-1.9522976997024444e-05,-3.5144130121309175e-05,-4.539752075226973e-05,-3.075670748455019e-05,6.4667,4.0
0.89453125,-2.538894499122601e-05,-4.589572625314713e-05,-4.443325204089413e-05,-2.9776367627984994e-05,6.4667,4.0
0.8984375,-3.4661995765621366e-05,-3.221918169680319e-05,-3.8567284046692565e-05,-2.685141920347901e-05,6.4667,4.0
0.90234375,-3.270131605249098e-05,-2.0985451209277427e-05,-2.0503316853589637e-05,-2.0503316853589637e-05,6.4667,4.0
0.90625,-3.5144130121309175e-05,-3.075670748455019e-05,-4.2954706683451546e-05,-2.4890739490348622e-05,6.4667,4.0
0.91015625,-2.4408605134660816e-05,-4.491538639658193e-05,-6.542216765850305e-05,-2.6353213702601605e-05,6.4667,4.0
0.9140625,-5.846432440680502e-06,-4.930280903334092e-05,-4.980101453421831e-05,-2.929423327229719e-05,6.4667,4.0
0.91796875,-1.561768871595325e-05,-3.4163790264743975e-05,-3.1238841840238e-05,-3.7586944190127365e-05,6.4667,4.0
0.921875,-4.980101453421831e-05,-3.1238841840238e-05,-3.612446997787437e-05,-3.270131605249098e-05,6.4667,4.0
0.92578125,-4.7358200465400115e-05,-3.368165590905617e-05,-5.711338559548329e-05,-2.9776367627984994e-05,6.4667,4.0
0.9296875,-1.024992622262907e-05,-3.075670748455019e-05,-4.7358200465400115e-05,-2.9776367627984994e-05,6.4667,4.0
0.93359375,-1.024992622262907e-05,-4.784033482108792e-05,-5.0283148889906114e-05,-3.02585019836728e-05,6.4667,4.0
0.9375,-3.954762390325776e-05,-4.539752075226973e-05,-4.980101453421831e-05,-2.7831759060044205e-05,6.4667,4.0
0.94140625,-7.078993015182723e-05,-3.4661995765621366e-05,-4.2954706683451546e-05,-2.4890739490348622e-05,6.4667,4.0
0.9453125,-5.9556199664301454e-05,-3.4163790264743975e-05,-4.149223247119854e-05,-2.685141920347901e-05,6.4667,4.0
0.94921875,-2.148365671015483e-05,-3.7586944190127365e-05,-4.393504654001674e-05,-2.87960277714198e-05,6.4667,4.0
0.953125,-1.1230266079194265e-05,-4.637786060883492e-05,-4.930280903334092e-05,-2.929423327229719e-05,6.4667,4.0
0.95703125,-3.02585019836728e-05,-4.980101453421831e-05,-3.9049418402380354e-05,-3.1238841840238e-05,6.4667,4.0
0.9609375,-4.3452912184328936e-05,-4.1990437972075934e-05,-3.7586944190127365e-05,-3.660660433356217e-05,6.4667,4.0
0.96484375,-3.710480983443956e-05,-4.393504654001674e-05,-5.761159109636068e-05,-4.589572625314713e-05,6.4667,4.0
0.96875,-5.711338559548329e-05,-5.2725962958724296e-05,-5.907406530861368e-05,-4.589572625314713e-05,6.4667,4.0
0.97265625,-6.103474502174407e-05,-5.07652832455939e-05,-4.3452912184328936e-05,-3.660660433356217e-05,6.4667,4.0
0.9765625,-4.393504654001674e-05,-4.980101453421831e-05,-4.443325204089413e-05,-2.685141920347901e-05,6.4667,4.0
0.98046875,-2.9776367627984994e-05,-5.22438286030365e-05,-6.103474502174407e-05,-2.5871079346913815e-05,6.4667,4.0
0.984375,-1.941144159609308e-06,-4.7358200465400115e-05,-6.932745593957423e-05,-3.612446997787437e-05,6.4667,4.0
0.98828125,-1.4590098039215176e-06,-4.7358200465400115e-05,-5.5650911383230295e-05,-3.221918169680319e-05,6.4667,4.0
0.9921875,-2.3428265278095623e-05,-4.589572625314713e-05,-4.3452912184328936e-05,-2.148365671015483e-05,6.4667,4.0
0.99609375,-3.710480983443956e-05,-4.3452912184328936e-05,-6.005440516517888e-05,-1.7562297283894054e-05,6.4667,4.0
1.0,-2.4890739490348622e-05,-4.2954706683451546e-05,-6.786498172732123e-05,-2.3428265278095623e-05,6.4667,4.0
1.00390625,-2.4408605134660816e-05,-2.7831759060044205e-05,-6.199901373311965e-05,-3.075670748455019e-05,6.4667,4.0
1.0078125,-5.418843717097729e-05,-2.4890739490348622e-05,-5.1745623102159096e-05,-3.173704734111539e-05,6.4667,4.0
1.01171875,-6.0536539520866654e-05,-4.784033482108792e-05,-5.907406530861368e-05,-3.7586944190127365e-05,6.4667,4.0
1.015625,-4.393504654001674e-05,-5.5650911383230295e-05,-5.32080973144121e-05,-3.368165590905617e-05,6.4667,4.0
1.01953125,-2.73335535591668e-05,-5.126348874647131e-05,-4.393504654001674e-05,-2.3428265278095623e-05,6.4667,4.0
1.0234375,-2.87960277714198e-05,-5.126348874647131e-05,-5.22438286030365e-05,-2.929423327229719e-05,6.4667,4.0
1.02734375,-3.4661995765621366e-05,-4.3452912184328936e-05,-4.7358200465400115e-05,-3.4163790264743975e-05,6.4667,4.0
1.03125,-3.8085149691004755e-05,-4.589572625314713e-05,-5.126348874647131e-05,-3.319952155336838e-05,6.4667,4.0
1.03515625,-4.833854032196531e-05,-6.249721923399704e-05,-6.199901373311965e-05,-3.319952155336838e-05,6.4667,4.0
1.0390625,-5.907406530861368e-05,-6.151687937743185e-05,-6.834711608300904e-05,-3.7586944190127365e-05,6.4667,4.0
1.04296875,-5.1745623102159096e-05,-5.1745623102159096e-05,-6.542216765850305e-05,-3.8085149691004755e-05,6.4667,4.0
1.046875,-4.002975825894555e-05,-5.0283148889906114e-05,-5.711338559548329e-05,-3.5642335622186566e-05,6.4667,4.0
1.05078125,-3.612446997787437e-05,-5.8591930952925875e-05,-5.907406530861368e-05,-3.8567284046692565e-05,6.4667,4.0
1.0546875,-2.2447925421530426e-05,-6.932745593957423e-05,-6.640250751506824e-05,-3.4163790264743975e-05,6.4667,4.0
1.05859375,-3.4661995765621366e-05,-6.590430201419085e-05,-6.297935358968484e-05,-3.5144130121309175e-05,6.4667,4.0
1.0625,-6.640250751506824e-05,-5.126348874647131e-05,-5.5168777027542486e-05,-3.319952155336838e-05,6.4667,4.0
1.06640625,-5.0283148889906114e-05,-4.882067467765311e-05,-5.22438286030365e-05,-2.8313893415731994e-05,6.4667,4.0
1.0703125,-1.9522976997024444e-05,-5.761159109636068e-05,-6.005440516517888e-05,-3.221918169680319e-05,6.4667,4.0
1.07421875,-1.317487464713507e-05,-5.5168777027542486e-05,-6.542216765850305e-05,-3.173704734111539e-05,6.4667,4.0
1.078125,-8.787452010376085e-06,-5.0283148889906114e-05,-6.249721923399704e-05,-2.148365671015483e-05,6.4667,4.0
1.08203125,-3.02585019836728e-05,-4.637786060883492e-05,-5.663125123979549e-05,-1.8060502784771445e-05,6.4667,4.0
1.0859375,-6.542216765850305e-05,-4.2954706683451546e-05,-4.7358200465400115e-05,-2.3910399633783425e-05,6.4667,4.0
1.08984375,-5.126348874647131e-05,-4.149223247119854e-05,-4.589572625314713e-05,-3.02585019836728e-05,6.4667,4.0
1.09375,-2.2447925421530426e-05,-5.126348874647131e-05,-6.199901373311965e-05,-3.7586944190127365e-05,6.4667,4.0
1.09765625,-2.73335535591668e-05,-5.9556199664301454e-05,-6.395969344625004e-05,-3.8085149691004755e-05,6.4667,4.0
1.1015625,-6.103474502174407e-05,-5.07652832455939e-05,-5.32080973144121e-05,-2.9776367627984994e-05,6.4667,4.0
1.10546875,-5.126348874647131e-05,-4.784033482108792e-05,-5.468664267185468e-05,-2.8313893415731994e-05,6.4667,4.0
1.109375,5.37122690165566e-06,-5.32080973144121e-05,-4.589572625314713e-05,-3.075670748455019e-05,6.4667,4.0
1.11328125,2.9444839780270653e-06,-6.0536539520866654e-05,-4.589572625314713e-05,-2.7831759060044205e-05,6.4667,4.0
1.1171875,-3.5642335622186566e-05,-5.8591930952925875e-05,-5.126348874647131e-05,-2.73335535591668e-05,6.4667,4.0
1.12109375,-3.612446997787437e-05,-3.368165590905617e-05,-4.443325204089413e-05,-2.6353213702601605e-05,6.4667,4.0
1.125,-2.5871079346913815e-05,-3.8085149691004755e-05,-3.8567284046692565e-05,-2.73335535591668e-05,6.4667,4.0
1.12890625,-1.2194534790569875e-05,-7.177027000839242e-05,-5.663125123979549e-05,-3.7586944190127365e-05,6.4667,4.0
1.1328125,-8.787452010376085e-06,-7.42130840772106e-05,-7.61576926451514e-05,-4.784033482108792e-05,6.4667,4.0
1.13671875,-3.4661995765621366e-05,-4.002975825894555e-05,-4.980101453421831e-05,-3.7586944190127365e-05,6.4667,4.0
1.140625,-4.491538639658193e-05,-3.173704734111539e-05,-4.882067467765311e-05,-2.5871079346913815e-05,6.4667,4.0
1.14453125,-5.22438286030365e-05,-3.954762390325776e-05,-5.22438286030365e-05,-3.221918169680319e-05,6.4667,4.0
1.1484375,-5.126348874647131e-05,-3.7586944190127365e-05,-5.07652832455939e-05,-2.929423327229719e-05,6.4667,4.0
1.15234375,-3.8567284046692565e-05,-3.8567284046692565e-05,-4.637786060883492e-05,-1.8542637140459247e-05,6.4667,4.0
1.15625,-3.9049418402380354e-05,-3.5642335622186566e-05,-3.9049418402380354e-05,-1.513555436026546e-05,6.4667,4.0
1.16015625,-4.930280903334092e-05,-3.4661995765621366e-05,-5.1745623102159096e-05,-1.9040842641336638e-05,6.4667,4.0
1.1640625,-3.4163790264743975e-05,-4.882067467765311e-05,-5.126348874647131e-05,-3.1238841840238e-05,6.4667,4.0
1.16796875,-1.8060502784771445e-05,-4.2954706683451546e-05,-4.589572625314713e-05,-3.4163790264743975e-05,6.4667,4.0
1.171875,-3.270131605249098e-05,-4.1990437972075934e-05,-4.539752075226973e-05,-3.5144130121309175e-05,6.4667,4.0
1.17578125,-4.930280903334092e-05,-5.5168777027542486e-05,-5.126348874647131e-05,-3.5642335622186566e-05,6.4667,4.0
1.1796875,-4.149223247119854e-05,-5.711338559548329e-05,-5.5168777027542486e-05,-3.221918169680319e-05,6.4667,4.0
1.18359375,-1.8542637140459247e-05,-5.32080973144121e-05,-5.5168777027542486e-05,-3.1238841840238e-05,6.4667,4.0
1.1875,-3.660660433356217e-05,-4.2954706683451546e-05,-5.761159109636068e-05,-3.1238841840238e-05,6.4667,4.0
1.19140625,-4.930280903334092e-05,-4.491538639658193e-05,-6.395969344625004e-05,-3.5642335622186566e-05,6.4667,4.0
1.1953125,-2.6353213702601605e-05,-5.761159109636068e-05,-6.249721923399704e-05,-3.368165590905617e-05,6.4667,4.0
1.19921875,-1.4155214503700264e-05,-5.5168777027542486e-05,-3.5642335622186566e-05,-2.929423327229719e-05,6.4667,4.0
1.203125,-4.882163729304892e-06,-4.443325204089413e-05,-4.149223247119854e-05,-3.4661995765621366e-05,6.4667,4.0
1.20703125,-1.1230266079194265e-05,-3.710480983443956e-05,-5.468664267185468e-05,-2.685141920347901e-05,6.4667,4.0
1.2109375,-2.73335535591668e-05,-4.784033482108792e-05,-4.637786060883492e-05,-2.0005111352712233e-05,6.4667,4.0
1.21484375,-3.7586944190127365e-05,-4.980101453421831e-05,-5.0283148889906114e-05,-2.148365671015483e-05,6.4667,4.0
1.21875,-2.9776367627984994e-05,-3.02585019836728e-05,-3.710480983443956e-05,-2.0005111352712233e-05,6.4667,4.0
1.22265625,-2.73335535591668e-05,-2.1965791065842623e-05,-3.270131605249098e-05,-2.3910399633783425e-05,6.4667,4.0
1.2265625,-3.9049418402380354e-05,-3.8085149691004755e-05,-4.393504654001674e-05,-1.9522976997024444e-05,6.4667,4.0
1.23046875,-4.491538639658193e-05,-6.444182780193784e-05,-5.5168777027542486e-05,-1.4637348859388055e-05,6.4667,4.0
1.234375,-4.247257232776374e-05,-7.713803250171659e-05,-8.300400049591817e-05,-2.3910399633783425e-05,6.4667,4.0
1.23828125,-4.589572625314713e-05,-9.373952548256654e-05,-8.788962863355454e-05,-2.0503316853589637e-05,6.4667,4.0
1.2421875,-5.126348874647131e-05,-0.00010595359582665747,-0.00010058583333333327,-1.0732060578316875e-05,6.4667,4.0
1.24609375,-2.8313893415731994e-05,-0.00011570878095674064,-0.00011718732631418322,-1.2194534790569875e-05,6.4667,4.0
1.25,-1.9040842641336638e-05,-0.00012499790287632558,-0.00012986745986877238,-6.8267722972456965e-06,6.4667,4.0
1.25390625,-1.7080162928206248e-05,-0.0001484296325627527,-0.00015525986926832988,9.838042648966763e-07,6.4667,4.0
1.2578125,-7.807112153810891e-06,-0.0001972537716487373,-0.00018602004116121155,5.016699092088714e-07,6.4667,4.0
1.26171875,-2.3428265278095623e-05,-0.00020946784199282824,-0.0002001947912184329,-1.4590098039215176e-06,6.4667,4.0
1.265625,-3.660660433356217e-05,-0.00021435347013046464,-0.0002216658411917296,3.4266183337148702e-06,6.4667,4.0
1.26953125,-3.7586944190127365e-05,-0.0002582919810788128,-0.00026708289749752034,9.838042648966763e-07,6.4667,4.0
1.2734375,-2.148365671015483e-05,-0.00030321083188372623,-0.0003090767998779278,-4.882163729304892e-06,6.4667,4.0
1.27734375,1.964144121461871e-06,-0.000310057139734493,-0.0003193301905088884,-1.024992622262907e-05,6.4667,4.0
1.28125,-1.4590098039215176e-06,-0.00030223049202716105,-0.00031786771629663534,-1.024992622262907e-05,6.4667,4.0
1.28515625,-1.365700900282286e-05,-0.0003061518514534218,-0.0003383744975585565,-7.308906652933487e-06,6.4667,4.0
1.2890625,-1.9522976997024444e-05,-0.00031688737644007016,-0.00034422439440756847,-1.365700900282286e-05,6.4667,4.0
1.29296875,-2.2447925421530426e-05,-0.00032177300457770656,-0.00034081731162737466,-1.2692740291447265e-05,6.4667,4.0
1.296875,-1.1230266079194265e-05,-0.000314444562371252,-0.0003359316834897383,-9.269586366063876e-06,6.4667,4.0
1.30078125,2.4462784771496757e-06,-0.00030419117174029146,-0.0003266586327153429,-1.8060502784771445e-05,6.4667,4.0
1.3046875,6.849772259098244e-06,-0.0002783166279850461,-0.0003056536459525444,-1.2692740291447265e-05,6.4667,4.0
1.30859375,1.2699669108110229e-05,-0.00025390455844205383,-0.0002895503584725719,-1.1230266079194265e-05,6.4667,4.0
1.3125,2.3933399595635975e-05,-0.0002392476740291447,-0.00027635594827191574,-1.9522976997024444e-05,6.4667,4.0
1.31640625,1.5142483176928414e-05,-0.0002041000794995041,-0.00023778519981689173,-2.2447925421530426e-05,6.4667,4.0
1.3203125,-1.941144159609308e-06,-0.00017724519588769357,-0.00020262153414206147,-3.660660433356217e-05,6.4667,4.0
1.32421875,-1.365700900282286e-05,-0.0001450064786373693,-0.00016405078568703743,-4.491538639658193e-05,6.4667,4.0
1.328125,-1.6598028572518445e-05,-0.00010449112161440447,-0.0001269425114442664,-3.660660433356217e-05,6.4667,4.0
1.33203125,-1.561768871595325e-05,-7.128813565270462e-05,-8.788962863355454e-05,-3.4661995765621366e-05,6.4667,4.0
1.3359375,-2.0005111352712233e-05,-4.637786060883492e-05,-5.2725962958724296e-05,-4.1990437972075934e-05,6.4667,4.0
1.33984375,-3.4661995765621366e-05,-4.6859994964522725e-05,-4.784033482108792e-05,-5.22438286030365e-05,6.4667,4.0
1.34375,-4.443325204089413e-05,-2.3910399633783425e-05,-2.73335535591668e-05,-5.370630281528949e-05,6.4667,4.0
1.34765625,-4.393504654001674e-05,1.4660348821240617e-05,-8.28924650949868e-06,-4.539752075226973e-05,6.4667,4.0
1.3515625,-4.051189261463335e-05,1.6122823033493608e-05,-6.8267722972456965e-06,-3.4163790264743975e-05,6.4667,4.0
1.35546875,-4.637786060883492e-05,1.2217534752422422e-05,-9.75172072175168e-06,-3.5642335622186566e-05,6.4667,4.0
1.359375,-5.907406530861368e-05,2.149058552681779e-05,4.406958190280065e-06,-4.2954706683451546e-05,6.4667,4.0
1.36328125,-8.396826920729375e-05,4.19973667887389e-05,3.0281501945525346e-05,-3.8567284046692565e-05,6.4667,4.0
1.3671875,-9.66644739070725e-05,5.030614885175866e-05,4.884367463950567e-05,-3.173704734111539e-05,6.4667,4.0
1.37109375,-7.46952184328984e-05,5.2748962920576856e-05,5.469357148851765e-05,-2.5871079346913815e-05,6.4667,4.0
1.375,-6.151687937743185e-05,5.6654251201648035e-05,5.225075741969946e-05,-3.075670748455019e-05,6.4667,4.0
1.37890625,-5.5168777027542486e-05,6.055953948271922e-05,5.713638555733584e-05,-3.270131605249098e-05,6.4667,4.0
1.3828125,-6.249721923399704e-05,6.78719105439842e-05,5.713638555733584e-05,-2.929423327229719e-05,6.4667,4.0
1.38671875,-7.46952184328984e-05,6.738977618829639e-05,5.6156045700770644e-05,-3.612446997787437e-05,6.4667,4.0
1.390625,-6.736677622644384e-05,6.30023535515374e-05,6.30023535515374e-05,-3.7586944190127365e-05,6.4667,4.0
1.39453125,-5.07652832455939e-05,4.786333478294048e-05,6.54451676203556e-05,-4.1990437972075934e-05,6.4667,4.0
1.3984375,-3.954762390325776e-05,4.15152324330511e-05,6.104167383840702e-05,-4.930280903334092e-05,6.4667,4.0
1.40234375,-4.101009811551074e-05,5.1270417563134266e-05,5.371323163195245e-05,-4.589572625314713e-05,6.4667,4.0
1.40625,-5.418843717097729e-05,6.738977618829639e-05,6.006133398184182e-05,-4.3452912184328936e-05,6.4667,4.0
1.41015625,-5.761159109636068e-05,6.78719105439842e-05,6.738977618829639e-05,-3.8085149691004755e-05,6.4667,4.0
1.4140625,-4.393504654001674e-05,6.055953948271922e-05,6.54451676203556e-05,-3.075670748455019e-05,6.4667,4.0
1.41796875,-5.07652832455939e-05,6.78719105439842e-05,6.104167383840702e-05,-3.02585019836728e-05,6.4667,4.0
1.421875,-6.151687937743185e-05,8.203058945601594e-05,6.396662226291301e-05,-3.173704734111539e-05,6.4667,4.0
1.42578125,-4.393504654001674e-05,7.179326997024498e-05,5.6156045700770644e-05,-3.075670748455019e-05,6.4667,4.0
1.4296875,-1.561768871595325e-05,5.225075741969946e-05,3.614746993972692e-05,-2.73335535591668e-05,6.4667,4.0
1.43359375,-2.1965791065842623e-05,4.15152324330511e-05,3.809207850766772e-05,-3.660660433356217e-05,6.4667,4.0
1.4375,-4.784033482108792e-05,4.3958046501869285e-05,5.909706527046623e-05,-5.126348874647131e-05,6.4667,4.0
1.44140625,-5.8591930952925875e-05,5.5191776989395045e-05,6.202201369497221e-05,-4.637786060883492e-05,6.4667,4.0
1.4453125,-4.882067467765311e-05,5.225075741969946e-05,4.884367463950567e-05,-2.5871079346913815e-05,6.4667,4.0
1.44921875,-2.538894499122601e-05,4.980794335088127e-05,4.932580899519347e-05,-1.4637348859388055e-05,6.4667,4.0
1.453125,-1.8060502784771445e-05,5.323109727626465e-05,5.2748962920576856e-05,-1.8060502784771445e-05,6.4667,4.0
1.45703125,-4.101009811551074e-05,4.640086057068748e-05,4.8345469138628273e-05,-3.075670748455019e-05,6.4667,4.0
1.4609375,-6.494003330281523e-05,4.736512928206308e-05,4.297770664530409e-05,-3.7586944190127365e-05,6.4667,4.0
1.46484375,-6.884532158388643e-05,4.5902655069810084e-05,4.4440180857557095e-05,-3.710480983443956e-05,6.4667,4.0
1.46875,-5.468664267185468e-05,3.320645037003134e-05,3.2242181658655736e-05,-3.02585019836728e-05,6.4667,4.0
1.47265625,-3.660660433356217e-05,2.149058552681779e-05,2.100845117112999e-05,-2.73335535591668e-05,6.4667,4.0
1.4765625,-3.368165590905617e-05,1.5142483176928414e-05,3.076363630121315e-05,-3.075670748455019e-05,6.4667,4.0
1.48046875,-3.075670748455019e-05,3.1743976157778346e-05,3.0281501945525346e-05,-2.929423327229719e-05,6.4667,4.0
1.484375,-2.4408605134660816e-05,4.2495572289616296e-05,3.6629604295414724e-05,-3.075670748455019e-05,6.4667,4.0
1.48828125,-3.173704734111539e-05,3.5649264438849524e-05,3.955455271992071e-05,-3.02585019836728e-05,6.4667,4.0
1.4921875,-3.8085149691004755e-05,2.5894079308766365e-05,2.6376213664454168e-05,-2.9776367627984994e-05,6.4667,4.0
1.49609375,-3.7586944190127365e-05,1.6122823033493608e-05,2.8819027733272357e-05,-2.4408605134660816e-05,6.4667,4.0
1.5,-3.5144130121309175e-05,1.6604957389181414e-05,1.954597695887699e-05,-3.075670748455019e-05,6.4667,4.0
1.50390625,-2.929423327229719e-05,1.6604957389181414e-05,5.86943240253305e-06,-3.5144130121309175e-05,6.4667,4.0
1.5078125,-4.051189261463335e-05,1.4660348821240617e-05,8.312246471351244e-06,-2.8313893415731994e-05,6.4667,4.0
1.51171875,-5.907406530861368e-05,7.814040970473853e-06,1.416214332036322e-05,-2.6353213702601605e-05,6.4667,4.0
1.515625,-6.980959029526203e-05,-5.364298084992697e-06,1.0755060540169438e-05,-2.9776367627984994e-05,6.4667,4.0
1.51953125,-7.567555828946359e-05,-8.28924650949868e-06,-4.882163729304892e-06,-4.002975825894555e-05,6.4667,4.0
1.5234375,-6.494003330281523e-05,1.1719329251545034e-05,-7.807112153810891e-06,-4.149223247119854e-05,6.4667,4.0
1.52734375,-3.7586944190127365e-05,1.3680008964675422e-05,2.4462784771496757e-06,-4.149223247119854e-05,6.4667,4.0
1.53125,-3.4661995765621366e-05,-3.901823872739698e-06,-1.941144159609308e-06,-5.1745623102159096e-05,6.4667,4.0
1.53515625,-5.126348874647131e-05,-4.383958228427502e-06,-1.4590098039215176e-06,-4.051189261463335e-05,6.4667,4.0
1.5390625,-3.7586944190127365e-05,-6.344637941557891e-06,-4.383958228427502e-06,-2.87960277714198e-05,6.4667,4.0
1.54296875,-3.1238841840238e-05,-1.4155214503700264e-05,3.90875268940266e-06,-3.02585019836728e-05,6.4667,4.0
1.546875,-5.07652832455939e-05,-8.28924650949868e-06,2.9444839780270653e-06,-1.8542637140459247e-05,6.4667,4.0
1.55078125,-5.2725962958724296e-05,-1.513555436026546e-05,-1.6598028572518445e-05,-1.513555436026546e-05,6.4667,4.0
1.5546875,-4.051189261463335e-05,-1.4155214503700264e-05,-1.1230266079194265e-05,-2.4890739490348622e-05,6.4667,4.0
1.55859375,-4.930280903334092e-05,-9.75172072175168e-06,-1.4155214503700264e-05,-3.270131605249098e-05,6.4667,4.0
1.5625,-5.22438286030365e-05,-1.171240043488207e-05,-1.024992622262907e-05,-3.368165590905617e-05,6.4667,4.0
1.56640625,-2.6353213702601605e-05,-1.171240043488207e-05,-9.75172072175168e-06,-3.1238841840238e-05,6.4667,4.0
1.5703125,-1.9040842641336638e-05,-1.6598028572518445e-05,-2.7831759060044205e-05,-3.612446997787437e-05,6.4667,4.0
1.57421875,-5.32080973144121e-05,-2.2946130922407816e-05,-1.8060502784771445e-05,-4.051189261463335e-05,6.4667,4.0
1.578125,-6.688464187075604e-05,-2.0503316853589637e-05,-7.807112153810891e-06,-4.051189261463335e-05,6.4667,4.0
1.58203125,-3.5144130121309175e-05,-2.4890739490348622e-05,-2.1965791065842623e-05,-3.221918169680319e-05,6.4667,4.0
1.5859375,-2.148365671015483e-05,-1.7562297283894054e-05,-2.3910399633783425e-05,-2.929423327229719e-05,6.4667,4.0
1.58984375,-2.929423327229719e-05,-1.2194534790569875e-05,-2.5871079346913815e-05,-3.612446997787437e-05,6.4667,4.0
1.59375,-3.710480983443956e-05,-1.8060502784771445e-05,-3.5642335622186566e-05,-2.7831759060044205e-05,6.4667,4.0
1.59765625,-4.539752075226973e-05,-3.02585019836728e-05,-2.87960277714198e-05,-2.2447925421530426e-05,6.4667,4.0
1.6015625,-4.833854032196531e-05,-2.4408605134660816e-05,-2.148365671015483e-05,-2.2447925421530426e-05,6.4667,4.0
1.60546875,-5.468664267185468e-05,-8.28924650949868e-06,-1.0732060578316875e-05,-1.9522976997024444e-05,6.4667,4.0
1.609375,-5.663125123979549e-05,-2.0985451209277427e-05,-1.365700900282286e-05,-3.02585019836728e-05,6.4667,4.0
1.61328125,-6.005440516517888e-05,1.964144121461871e-06,-2.0503316853589637e-05,-3.9049418402380354e-05,6.4667,4.0
1.6171875,-4.1990437972075934e-05,1.7585297245746607e-05,8.312246471351244e-06,-3.4163790264743975e-05,6.4667,4.0
1.62109375,-3.4036183718623077e-06,-1.9040842641336638e-05,-5.364298084992697e-06,-2.73335535591668e-05,6.4667,4.0
1.625,3.4266183337148702e-06,-2.2946130922407816e-05,-3.1238841840238e-05,-2.7831759060044205e-05,6.4667,4.0
1.62890625,-4.882163729304892e-06,1.416214332036322e-05,-9.608043030441137e-07,-2.9776367627984994e-05,6.4667,4.0
1.6328125,-1.4155214503700264e-05,1.6604957389181414e-05,1.0755060540169438e-05,-3.02585019836728e-05,6.4667,4.0
1.63671875,-3.221918169680319e-05,1.3197874608987617e-05,1.0256855039292034e-05,-3.173704734111539e-05,6.4667,4.0
1.640625,-3.954762390325776e-05,2.8320822232394967e-05,2.3933399595635975e-05,-3.5642335622186566e-05,6.4667,4.0
1.64453125,-4.1990437972075934e-05,4.1017026932173706e-05,2.4415533951323778e-05,-3.9049418402380354e-05,6.4667,4.0
1.6484375,-4.589572625314713e-05,4.1017026932173706e-05,2.2470925383382982e-05,-4.101009811551074e-05,6.4667,4.0
1.65234375,-5.418843717097729e-05,3.320645037003134e-05,3.516713008316173e-05,-3.319952155336838e-05,6.4667,4.0
1.65625,-6.103474502174407e-05,2.5894079308766365e-05,2.3933399595635975e-05,-2.7831759060044205e-05,6.4667,4.0
1.66015625,-6.199901373311965e-05,2.3933399595635975e-05,5.86943240253305e-06,-2.7831759060044205e-05,6.4667,4.0
1.6640625,-5.32080973144121e-05,1.416214332036322e-05,1.8565637102311797e-05,-3.4163790264743975e-05,6.4667,4.0
1.66796875,-4.491538639658193e-05,2.0028111314564796e-05,2.783868787670716e-05,-4.393504654001674e-05,6.4667,4.0
1.671875,-4.491538639658193e-05,1.90477714579996e-05,1.0256855039292034e-05,-3.660660433356217e-05,6.4667,4.0
1.67578125,-4.882067467765311e-05,-8.787452010376085e-06,-4.383958228427502e-06,-2.4890739490348622e-05,6.4667,4.0
1.6796875,-5.126348874647131e-05,-1.7562297283894054e-05,-3.901823872739698e-06,-2.0503316853589637e-05,6.4667,4.0
1.68359375,-4.930280903334092e-05,9.838042648966763e-07,4.889092545967855e-06,-1.561768871595325e-05,6.4667,4.0
1.6875,-4.491538639658193e-05,1.1237194895857236e-05,-9.608043030441137e-07,-2.538894499122601e-05,6.4667,4.0
1.69140625,-3.9049418402380354e-05,-6.8267722972456965e-06,-4.383958228427502e-06,-3.5144130121309175e-05,6.4667,4.0
1.6953125,-6.640250751506824e-05,-8.28924650949868e-06,6.849772259098244e-06,-3.075670748455019e-05,6.4667,4.0
1.69921875,-7.42130840772106e-05,5.016699092088714e-07,2.9444839780270653e-06,-2.685141920347901e-05,6.4667,4.0
1.703125,-1.7080162928206248e-05,-1.365700900282286e-05,-7.308906652933487e-06,-2.3428265278095623e-05,6.4667,4.0
1.70703125,1.6604957389181414e-05,-1.7080162928206248e-05,-6.8267722972456965e-06,-2.538894499122601e-05,6.4667,4.0
1.7109375,8.794380827039048e-06,-1.1230266079194265e-05,1.1237194895857236e-05,-2.6353213702601605e-05,6.4667,4.0
1.71484375,-4.882163729304892e-06,-1.4155214503700264e-05,4.406958190280065e-06,-2.5871079346913815e-05,6.4667,4.0
1.71875,-1.9522976997024444e-05,-1.7080162928206248e-05,-1.0732060578316875e-05,-3.5642335622186566e-05,6.4667,4.0
1.72265625,-4.637786060883492e-05,4.406958190280065e-06,-4.383958228427502e-06,-3.221918169680319e-05,6.4667,4.0
1.7265625,-6.980959029526203e-05,5.86943240253305e-06,-1.024992622262907e-05,-3.1238841840238e-05,6.4667,4.0
1.73046875,-6.151687937743185e-05,-2.2946130922407816e-05,-1.365700900282286e-05,-4.002975825894555e-05,6.4667,4.0
1.734375,-2.4890739490348622e-05,-2.8313893415731994e-05,-1.7080162928206248e-05,-3.612446997787437e-05,6.4667,4.0
1.73828125,-1.2692740291447265e-05,-1.9522976997024444e-05,-1.8542637140459247e-05,-3.5144130121309175e-05,6.4667,4.0
1.7421875,-3.173704734111539e-05,-1.317487464713507e-05,-2.685141920347901e-05,-3.612446997787437e-05,6.4667,4.0
1.74609375,-3.954762390325776e-05,-1.8542637140459247e-05,-2.7831759060044205e-05,-3.5144130121309175e-05,6.4667,4.0
1.75,-3.270131605249098e-05,-1.7080162928206248e-05,-1.9522976997024444e-05,-2.87960277714198e-05,6.4667,4.0
1.75390625,-2.0985451209277427e-05,-3.075670748455019e-05,-2.0503316853589637e-05,-2.1965791065842623e-05,6.4667,4.0
1.7578125,-2.4408605134660816e-05,-5.22438286030365e-05,-2.3910399633783425e-05,-2.0985451209277427e-05,6.4667,4.0
1.76171875,-3.612446997787437e-05,-2.0985451209277427e-05,-9.269586366063876e-06,-2.5871079346913815e-05,6.4667,4.0
1.765625,-3.7586944190127365e-05,-3.901823872739698e-06,-7.308906652933487e-06,-2.87960277714198e-05,6.4667,4.0
1.76953125,-6.590430201419085e-05,-3.02585019836728e-05,-1.7562297283894054e-05,-2.3428265278095623e-05,6.4667,4.0
1.7734375,-8.544681456473636e-05,-3.660660433356217e-05,-1.7080162928206248e-05,-2.148365671015483e-05,6.4667,4.0
1.77734375,-4.393504654001674e-05,-1.0732060578316875e-05,-2.685141920347901e-05,-3.221918169680319e-05,6.4667,4.0
1.78125,-1.4590098039215176e-06,-4.882163729304892e-06,-3.4661995765621366e-05,-3.8567284046692565e-05,6.4667,4.0
1.78515625,-9.269586366063876e-06,-1.2194534790569875e-05,-3.4163790264743975e-05,-3.173704734111539e-05,6.4667,4.0
1.7890625,-2.0503316853589637e-05,-3.9049418402380354e-05,-3.8567284046692565e-05,-3.173704734111539e-05,6.4667,4.0
1.79296875,-2.3428265278095623e-05,-4.3452912184328936e-05,-3.612446997787437e-05,-3.221918169680319e-05,6.4667,4.0
1.796875,-2.4408605134660816e-05,-1.4155214503700264e-05,-2.87960277714198e-05,-2.538894499122601e-05,6.4667,4.0
1.80078125,-1.9040842641336638e-05,-1.2194534790569875e-05,-2.9776367627984994e-05,-2.148365671015483e-05,6.4667,4.0
1.8046875,-2.1965791065842623e-05,-1.561768871595325e-05,-3.1238841840238e-05,-2.87960277714198e-05,6.4667,4.0
1.80859375,-2.73335535591668e-05,-2.0005111352712233e-05,-2.1965791065842623e-05,-3.173704734111539e-05,6.4667,4.0
1.8125,-3.710480983443956e-05,-3.4163790264743975e-05,-1.365700900282286e-05,-2.4890739490348622e-05,6.4667,4.0
1.81640625,-4.539752075226973e-05,-3.02585019836728e-05,-1.9522976997024444e-05,-2.538894499122601e-05,6.4667,4.0
1.8203125,-4.882067467765311e-05,-1.6099823071641055e-05,-4.002975825894555e-05,-3.4163790264743975e-05,6.4667,4.0
1.82421875,-3.9049418402380354e-05,-2.148365671015483e-05,-3.221918169680319e-05,-3.270131605249098e-05,6.4667,4.0
1.828125,-2.148365671015483e-05,-3.270131605249098e-05,-2.4408605134660816e-05,-2.6353213702601605e-05,6.4667,4.0
1.83203125,-3.4163790264743975e-05,-3.660660433356217e-05,-3.8567284046692565e-05,-2.7831759060044205e-05,6.4667,4.0
1.8359375,-5.22438286030365e-05,-3.8085149691004755e-05,-4.1990437972075934e-05,-4.784033482108792e-05,6.4667,4.0
1.83984375,-3.612446997787437e-05,-3.660660433356217e-05,-3.221918169680319e-05,-5.370630281528949e-05,6.4667,4.0
1.84375,-1.6598028572518445e-05,-4.051189261463335e-05,-3.221918169680319e-05,-3.710480983443956e-05,6.4667,4.0
1.84765625,-1.7080162928206248e-05,-4.247257232776374e-05,-3.4661995765621366e-05,-3.02585019836728e-05,6.4667,4.0
1.8515625,-1.4155214503700264e-05,-4.051189261463335e-05,-3.7586944190127365e-05,-2.7831759060044205e-05,6.4667,4.0
1.85546875,-2.685141920347901e-05,-4.443325204089413e-05,-4.980101453421831e-05,-2.9776367627984994e-05,6.4667,4.0
1.859375,-4.149223247119854e-05,-3.8085149691004755e-05,-3.319952155336838e-05,-3.660660433356217e-05,6.4667,4.0
1.86328125,-4.393504654001674e-05,-3.5144130121309175e-05,-2.2946130922407816e-05,-3.5642335622186566e-05,6.4667,4.0
1.8671875,-4.051189261463335e-05,-3.4163790264743975e-05,-4.784033482108792e-05,-4.930280903334092e-05,6.4667,4.0
1.87109375,-4.002975825894555e-05,-4.1990437972075934e-05,-3.710480983443956e-05,-6.444182780193784e-05,6.4667,4.0
1.875,-3.7586944190127365e-05,-3.612446997787437e-05,-4.002975825894555e-05,-4.002975825894555e-05,6.4667,4.0
1.87890625,-1.513555436026546e-05,-4.002975825894555e-05,-5.8591930952925875e-05,-1.4155214503700264e-05,6.4667,4.0
1.8828125,-1.4637348859388055e-05,-4.7358200465400115e-05,-5.126348874647131e-05,-1.561768871595325e-05,6.4667,4.0
1.88671875,-3.173704734111539e-05,-3.5144130121309175e-05,-4.491538639658193e-05,-2.87960277714198e-05,6.4667,4.0
1.890625,-2.8313893415731994e-05,-8.787452010376085e-06,-1.365700900282286e-05,-3.075670748455019e-05,6.4667,4.0
1.89453125,-2.4408605134660816e-05,-2.8313893415731994e-05,-2.7831759060044205e-05,-3.270131605249098e-05,6.4667,4.0
1.8984375,-2.9776367627984994e-05,-9.862515362020289e-05,-9.275918562600133e-05,-3.954762390325776e-05,6.4667,4.0
1.90234375,-1.7562297283894054e-05,-0.00010643573018234527,-0.00010106796768902109,-3.7586944190127365e-05,6.4667,4.0
1.90625,-4.1990437972075934e-05,-0.00011083922396429386,-0.00010399291611352708,-3.4163790264743975e-05,6.4667,4.0
1.91015625,-7.177027000839242e-05,-0.00014061905600061032,-0.00014306187006942852,-3.954762390325776e-05,6.4667,4.0
1.9140625,-5.32080973144121e-05,-0.0001703988880369268,-0.00017918980445563436,-4.393504654001674e-05,6.4667,4.0
1.91796875,-5.370630281528949e-05,-0.00019775197714961467,-0.00020556255371175706,-4.443325204089413e-05,6.4667,4.0
1.921875,-4.784033482108792e-05,-0.0001992144513618677,-0.00020458221385519186,-4.930280903334092e-05,6.4667,4.0
1.92578125,-3.8567284046692565e-05,-0.00019871624586099027,-0.00020165726543068586,-4.539752075226973e-05,6.4667,4.0
1.9296875,-5.22438286030365e-05,-0.00021629807869840537,-0.0002187408927672236,-3.954762390325776e-05,6.4667,4.0
1.93359375,-4.101009811551074e-05,-0.0002153177388418402,-0.00020946784199282824,-3.8085149691004755e-05,6.4667,4.0
1.9375,-2.73335535591668e-05,-0.0001826129583810177,-0.00018553790680552373,-3.1238841840238e-05,6.4667,4.0
1.94140625,-3.02585019836728e-05,-0.00017430417631799798,-0.00018407543259327076,-4.1990437972075934e-05,6.4667,4.0
1.9453125,-3.02585019836728e-05,-0.0001664935997558556,-0.00017186136224917978,-4.491538639658193e-05,6.4667,4.0
1.94921875,-3.221918169680319e-05,-0.0001455046841382467,-0.00014159939585717553,-4.149223247119854e-05,6.4667,4.0
1.953125,-3.5642335622186566e-05,-0.00013134600522621495,-0.00012890319115739678,-4.589572625314713e-05,6.4667,4.0
1.95703125,-4.051189261463335e-05,-0.00011376417238879983,-0.0001230372231631952,-4.051189261463335e-05,6.4667,4.0
1.9609375,-5.468664267185468e-05,-9.716267940794992e-05,-0.00010936067860685125,-3.8567284046692565e-05,6.4667,4.0
1.96484375,-4.491538639658193e-05,-8.348613485160598e-05,-0.00010253044190127409,-4.2954706683451546e-05,6.4667,4.0
1.96875,-3.7586944190127365e-05,-8.104332078278779e-05,-0.00010399291611352708,-4.784033482108792e-05,6.4667,4.0
1.97265625,-5.1745623102159096e-05,-8.983423720149534e-05,-0.00010545539032578008,-4.589572625314713e-05,6.4667,4.0
1.9765625,-5.614911688410768e-05,-8.250579499504078e-05,-9.179491691462572e-05,-3.612446997787437e-05,6.4667,4.0
1.98046875,-6.103474502174407e-05,-8.250579499504078e-05,-8.396826920729375e-05,-3.319952155336838e-05,6.4667,4.0
1.984375,-4.833854032196531e-05,-7.811837235828178e-05,-8.202366063935298e-05,-3.4661995765621366e-05,6.4667,4.0
1.98828125,-1.2194534790569875e-05,-7.665589814602879e-05,-7.567555828946359e-05,-3.173704734111539e-05,6.4667,4.0
1.9921875,1.964144121461871e-06,-8.348613485160598e-05,-7.519342393377579e-05,-4.002975825894555e-05,6.4667,4.0
1.99609375,-9.269586366063876e-06,-7.909871221484697e-05,-6.494003330281523e-05,-4.637786060883492e-05,6.4667,4.0
2.0,-2.0985451209277427e-05,-7.713803250171659e-05,-7.42130840772106e-05,-5.07652832455939e-05,6.4667,4.0
2.00390625,-3.173704734111539e-05,-6.151687937743185e-05,-7.225240436408021e-05,-5.32080973144121e-05,6.4667,4.0
2.0078125,-4.7358200465400115e-05,-5.5168777027542486e-05,-5.614911688410768e-05,-3.270131605249098e-05,6.4667,4.0
2.01171875,-4.7358200465400115e-05,-6.444182780193784e-05,-6.395969344625004e-05,-3.1238841840238e-05,6.4667,4.0
2.015625,-3.5642335622186566e-05,-5.711338559548329e-05,-5.9556199664301454e-05,-4.149223247119854e-05,6.4667,4.0
2.01953125,-2.929423327229719e-05,-4.539752075226973e-05,-5.370630281528949e-05,-4.3452912184328936e-05,6.4667,4.0
2.0234375,-2.1965791065842623e-05,-4.393504654001674e-05,-6.0536539520866654e-05,-4.3452912184328936e-05,6.4667,4.0
2.02734375,-2.3428265278095623e-05,-4.393504654001674e-05,-6.736677622644384e-05,-3.7586944190127365e-05,6.4667,4.0
2.03125,-3.221918169680319e-05,-3.710480983443956e-05,-6.151687937743185e-05,-2.9776367627984994e-05,6.4667,4.0
2.03515625,-2.0503316853589637e-05,-3.9049418402380354e-05,-5.711338559548329e-05,-2.87960277714198e-05,6.4667,4.0
2.0390625,-1.7562297283894054e-05,-4.443325204089413e-05,-5.1745623102159096e-05,-3.319952155336838e-05,6.4667,4.0
2.04296875,-2.3910399633783425e-05,-3.612446997787437e-05,-4.1990437972075934e-05,-3.954762390325776e-05,6.4667,4.0
2.046875,-2.7831759060044205e-05,-4.1990437972075934e-05,-4.833854032196531e-05,-3.710480983443956e-05,6.4667,4.0
2.05078125,-3.9049418402380354e-05,-4.539752075226973e-05,-5.418843717097729e-05,-3.1238841840238e-05,6.4667,4.0
2.0546875,-4.393504654001674e-05,-3.9049418402380354e-05,-5.2725962958724296e-05,-3.5144130121309175e-05,6.4667,4.0
2.05859375,-3.5144130121309175e-05,-3.660660433356217e-05,-4.833854032196531e-05,-3.612446997787437e-05,6.4667,4.0
2.0625,-1.4637348859388055e-05,-3.1238841840238e-05,-5.07652832455939e-05,-3.270131605249098e-05,6.4667,4.0
2.06640625,-1.2194534790569875e-05,-2.2946130922407816e-05,-3.954762390325776e-05,-3.075670748455019e-05,6.4667,4.0
2.0703125,-8.787452010376085e-06,-2.73335535591668e-05,-3.5144130121309175e-05,-2.2946130922407816e-05,6.4667,4.0
2.07421875,2.9444839780270653e-06,-4.589572625314713e-05,-4.149223247119854e-05,-2.3428265278095623e-05,6.4667,4.0
2.078125,-5.364298084992697e-06,-4.491538639658193e-05,-4.002975825894555e-05,-2.9776367627984994e-05,6.4667,4.0
2.08203125,-2.4890739490348622e-05,-2.9776367627984994e-05,-3.5642335622186566e-05,-2.538894499122601e-05,6.4667,4.0
2.0859375,-3.8567284046692565e-05,-2.0005111352712233e-05,-3.02585019836728e-05,-2.3428265278095623e-05,6.4667,4.0
2.08984375,-3.4661995765621366e-05,-1.0732060578316875e-05,-2.538894499122601e-05,-3.4163790264743975e-05,6.4667,4.0
2.09375,-3.4661995765621366e-05,-7.807112153810891e-06,-3.7586944190127365e-05,-4.637786060883492e-05,6.4667,4.0
2.09765625,-3.7586944190127365e-05,-7.807112153810891e-06,-5.711338559548329e-05,-4.002975825894555e-05,6.4667,4.0
2.1015625,-1.7562297283894054e-05,-1.941144159609308e-06,-4.637786060883492e-05,-3.612446997787437e-05,6.4667,4.0
2.10546875,-4.383958228427502e-06,1.90477714579996e-05,-4.051189261463335e-05,-2.9776367627984994e-05,6.4667,4.0
2.109375,-3.901823872739698e-06,2.4462784771496757e-06,-5.07652832455939e-05,-2.2946130922407816e-05,6.4667,4.0
2.11328125,-1.4155214503700264e-05,-2.5871079346913815e-05,-3.4163790264743975e-05,-2.2946130922407816e-05,6.4667,4.0
2.1171875,-2.8313893415731994e-05,-1.9522976997024444e-05,-2.3910399633783425e-05,-3.075670748455019e-05,6.4667,4.0
2.12109375,-3.221918169680319e-05,-2.2946130922407816e-05,-2.4890739490348622e-05,-3.221918169680319e-05,6.4667,4.0
2.125,-2.7831759060044205e-05,-2.4890739490348622e-05,-1.4637348859388055e-05,-2.148365671015483e-05,6.4667,4.0
2.12890625,-1.7562297283894054e-05,-1.9522976997024444e-05,-1.2194534790569875e-05,-2.7831759060044205e-05,6.4667,4.0
2.1328125,-1.6099823071641055e-05,-2.73335535591668e-05,-2.0985451209277427e-05,-4.980101453421831e-05,6.4667,4.0
2.13671875,-1.561768871595325e-05,-4.980101453421831e-05,-3.319952155336838e-05,-5.5168777027542486e-05,6.4667,4.0
2.140625,-1.365700900282286e-05,-4.6859994964522725e-05,-3.02585019836728e-05,-4.247257232776374e-05,6.4667,4.0
2.14453125,-1.513555436026546e-05,-3.4661995765621366e-05,-1.9040842641336638e-05,-3.612446997787437e-05,6.4667,4.0
2.1484375,-2.929423327229719e-05,-3.7586944190127365e-05,-1.513555436026546e-05,-3.5144130121309175e-05,6.4667,4.0
2.15234375,-4.393504654001674e-05,-2.929423327229719e-05,-2.3910399633783425e-05,-3.5144130121309175e-05,6.4667,4.0
2.15625,-2.929423327229719e-05,-2.3428265278095623e-05,-2.9776367627984994e-05,-3.221918169680319e-05,6.4667,4.0
2.16015625,-2.4408605134660816e-05,-2.0503316853589637e-05,-2.0985451209277427e-05,-2.538894499122601e-05,6.4667,4.0
2.1640625,-4.1990437972075934e-05,-3.1238841840238e-05,-1.6598028572518445e-05,-2.929423327229719e-05,6.4667,4.0
2.16796875,-3.7586944190127365e-05,-2.685141920347901e-05,-1.8060502784771445e-05,-3.8567284046692565e-05,6.4667,4.0
2.171875,-2.0503316853589637e-05,-7.807112153810891e-06,-1.365700900282286e-05,-2.4890739490348622e-05,6.4667,4.0
2.17578125,-2.685141920347901e-05,-2.4890739490348622e-05,-2.0503316853589637e-05,-2.2447925421530426e-05,6.4667,4.0
2.1796875,-2.5871079346913815e-05,-4.051189261463335e-05,-2.9776367627984994e-05,-2.7831759060044205e-05,6.4667,4.0
2.18359375,-1.6099823071641055e-05,-2.4408605134660816e-05,-3.319952155336838e-05,-2.8313893415731994e-05,6.4667,4.0
2.1875,-2.685141920347901e-05,-2.3428265278095623e-05,-2.538894499122601e-05,-3.660660433356217e-05,6.4667,4.0
2.19140625,-4.539752075226973e-05,-6.494003330281523e-05,-2.2447925421530426e-05,-3.02585019836728e-05,6.4667,4.0
2.1953125,-5.5650911383230295e-05,-6.0536539520866654e-05,-3.368165590905617e-05,-2.685141920347901e-05,6.4667,4.0
2.19921875,-3.4163790264743975e-05,-2.3910399633783425e-05,-3.954762390325776e-05,-3.612446997787437e-05,6.4667,4.0
2.203125,-2.5871079346913815e-05,-5.846432440680502e-06,-2.7831759060044205e-05,-3.4661995765621366e-05,6.4667,4.0
2.20703125,-3.075670748455019e-05,-2.0985451209277427e-05,-2.0985451209277427e-05,-4.247257232776374e-05,6.4667,4.0
2.2109375,-2.4408605134660816e-05,-5.614911688410768e-05,-2.87960277714198e-05,-4.6859994964522725e-05,6.4667,4.0
2.21484375,-2.2946130922407816e-05,-3.4163790264743975e-05,-3.173704734111539e-05,-3.7586944190127365e-05,6.4667,4.0
2.21875,-4.149223247119854e-05,-1.9522976997024444e-05,-3.075670748455019e-05,-3.5144130121309175e-05,6.4667,4.0
2.22265625,-5.07652832455939e-05,-2.87960277714198e-05,-2.73335535591668e-05,-3.660660433356217e-05,6.4667,4.0
2.2265625,-3.5642335622186566e-05,-2.538894499122601e-05,-2.9776367627984994e-05,-3.221918169680319e-05,6.4667,4.0
2.23046875,-4.980101453421831e-05,-4.101009811551074e-05,-4.002975825894555e-05,-3.8567284046692565e-05,6.4667,4.0
2.234375,-5.32080973144121e-05,-4.247257232776374e-05,-2.685141920347901e-05,-4.589572625314713e-05,6.4667,4.0
2.23828125,-3.1238841840238e-05,-3.7586944190127365e-05,-2.2447925421530426e-05,-4.247257232776374e-05,6.4667,4.0
2.2421875,-4.1990437972075934e-05,-5.8093725452048485e-05,-4.101009811551074e-05,-3.7586944190127365e-05,6.4667,4.0
2.24609375,-5.2725962958724296e-05,-6.590430201419085e-05,-4.930280903334092e-05,-3.660660433356217e-05,6.4667,4.0
2.25,-4.443325204089413e-05,-4.980101453421831e-05,-4.393504654001674e-05,-3.8567284046692565e-05,6.4667,4.0
2.25390625,-4.3452912184328936e-05,-3.1238841840238e-05,-4.6859994964522725e-05,-3.660660433356217e-05,6.4667,4.0
2.2578125,-3.660660433356217e-05,-3.9049418402380354e-05,-5.1745623102159096e-05,-3.319952155336838e-05,6.4667,4.0
2.26171875,-3.7586944190127365e-05,-4.784033482108792e-05,-4.3452912184328936e-05,-2.9776367627984994e-05,6.4667,4.0
2.265625,-4.539752075226973e-05,-3.710480983443956e-05,-4.882067467765311e-05,-3.5642335622186566e-05,6.4667,4.0
2.26953125,-2.929423327229719e-05,-3.8085149691004755e-05,-5.370630281528949e-05,-4.443325204089413e-05,6.4667,4.0
2.2734375,-3.221918169680319e-05,-4.491538639658193e-05,-5.711338559548329e-05,-4.393504654001674e-05,6.4667,4.0
2.27734375,-6.0536539520866654e-05,-4.7358200465400115e-05,-5.370630281528949e-05,-2.8313893415731994e-05,6.4667,4.0
2.28125,-5.370630281528949e-05,-4.589572625314713e-05,-3.954762390325776e-05,-2.148365671015483e-05,6.4667,4.0
2.28515625,-2.6353213702601605e-05,-4.491538639658193e-05,-3.319952155336838e-05,-2.7831759060044205e-05,6.4667,4.0
2.2890625,-2.538894499122601e-05,-4.3452912184328936e-05,-3.710480983443956e-05,-3.02585019836728e-05,6.4667,4.0
2.29296875,-3.319952155336838e-05,-4.3452912184328936e-05,-4.002975825894555e-05,-3.173704734111539e-05,6.4667,4.0
2.296875,-3.612446997787437e-05,-4.882067467765311e-05,-4.443325204089413e-05,-3.368165590905617e-05,6.4667,4.0
2.30078125,-4.149223247119854e-05,-4.6859994964522725e-05,-4.149223247119854e-05,-3.710480983443956e-05,6.4667,4.0
2.3046875,-3.8567284046692565e-05,-4.589572625314713e-05,-3.319952155336838e-05,-3.8085149691004755e-05,6.4667,4.0
2.30859375,-5.22438286030365e-05,-5.126348874647131e-05,-4.101009811551074e-05,-4.539752075226973e-05,6.4667,4.0
2.3125,-6.103474502174407e-05,-4.539752075226973e-05,-4.980101453421831e-05,-5.1745623102159096e-05,6.4667,4.0
2.31640625,-3.660660433356217e-05,-5.663125123979549e-05,-4.6859994964522725e-05,-4.6859994964522725e-05,6.4667,4.0
2.3203125,-2.6353213702601605e-05,-5.32080973144121e-05,-4.7358200465400115e-05,-3.368165590905617e-05,6.4667,4.0
2.32421875,-4.443325204089413e-05,-3.5144130121309175e-05,-3.221918169680319e-05,-2.538894499122601e-05,6.4667,4.0
2.328125,-4.882067467765311e-05,-3.270131605249098e-05,-3.173704734111539e-05,-2.2946130922407816e-05,6.4667,4.0
2.33203125,-3.368165590905617e-05,-3.4163790264743975e-05,-4.247257232776374e-05,-2.73335535591668e-05,6.4667,4.0
2.3359375,-3.173704734111539e-05,-4.882067467765311e-05,-4.930280903334092e-05,-3.612446997787437e-05,6.4667,4.0
2.33984375,-3.1238841840238e-05,-3.954762390325776e-05,-5.126348874647131e-05,-3.660660433356217e-05,6.4667,4.0
2.34375,-4.1990437972075934e-05,-3.8085149691004755e-05,-4.833854032196531e-05,-4.2954706683451546e-05,6.4667,4.0
2.34765625,-5.5168777027542486e-05,-4.443325204089413e-05,-4.1990437972075934e-05,-4.882067467765311e-05,6.4667,4.0
2.3515625,-4.6859994964522725e-05,-3.221918169680319e-05,-3.8567284046692565e-05,-4.051189261463335e-05,6.4667,4.0
2.35546875,-5.1745623102159096e-05,-3.710480983443956e-05,-3.954762390325776e-05,-3.9049418402380354e-05,6.4667,4.0
2.359375,-5.9556199664301454e-05,-4.1990437972075934e-05,-2.6353213702601605e-05,-3.368165590905617e-05,6.4667,4.0
2.36328125,-3.02585019836728e-05,-2.929423327229719e-05,-3.075670748455019e-05,-2.929423327229719e-05,6.4667,4.0
2.3671875,-6.344637941557891e-06,-3.1238841840238e-05,-5.418843717097729e-05,-3.4163790264743975e-05,6.4667,4.0
2.37109375,-1.1230266079194265e-05,-5.761159109636068e-05,-5.8591930952925875e-05,-3.5144130121309175e-05,6.4667,4.0
2.375,-2.929423327229719e-05,-6.297935358968484e-05,-5.9556199664301454e-05,-3.4661995765621366e-05,6.4667,4.0
2.37890625,-4.1990437972075934e-05,-4.247257232776374e-05,-5.1745623102159096e-05,-4.443325204089413e-05,6.4667,4.0
2.3828125,-4.637786060883492e-05,-2.87960277714198e-05,-3.368165590905617e-05,-3.8567284046692565e-05,6.4667,4.0
2.38671875,-3.319952155336838e-05,-3.319952155336838e-05,-2.73335535591668e-05,-2.2946130922407816e-05,6.4667,4.0
2.390625,-2.2447925421530426e-05,-4.1990437972075934e-05,-3.368165590905617e-05,-2.148365671015483e-05,6.4667,4.0
2.39453125,-1.365700900282286e-05,-4.637786060883492e-05,-3.9049418402380354e-05,-1.6598028572518445e-05,6.4667,4.0
2.3984375,-1.2692740291447265e-05,-4.2954706683451546e-05,-3.5144130121309175e-05,-2.4408605134660816e-05,6.4667,4.0
2.40234375,-2.7831759060044205e-05,-4.1990437972075934e-05,-2.87960277714198e-05,-3.4661995765621366e-05,6.4667,4.0
2.40625,-3.4163790264743975e-05,-3.9049418402380354e-05,-3.4661995765621366e-05,-3.319952155336838e-05,6.4667,4.0
2.41015625,-3.02585019836728e-05,-4.539752075226973e-05,-4.539752075226973e-05,-4.149223247119854e-05,6.4667,4.0
2.4140625,-2.929423327229719e-05,-5.22438286030365e-05,-2.929423327229719e-05,-4.539752075226973e-05,6.4667,4.0
2.41796875,-4.3452912184328936e-05,-4.637786060883492e-05,-1.9522976997024444e-05,-3.710480983443956e-05,6.4667,4.0
2.421875,-6.494003330281523e-05,-3.319952155336838e-05,-3.8085149691004755e-05,-3.612446997787437e-05,6.4667,4.0
2.42578125,-4.7358200465400115e-05,-2.87960277714198e-05,-3.8085149691004755e-05,-4.247257232776374e-05,6.4667,4.0
2.4296875,-2.3910399633783425e-05,-3.660660433356217e-05,-4.637786060883492e-05,-4.149223247119854e-05,6.4667,4.0
2.43359375,-2.4408605134660816e-05,-4.491538639658193e-05,-6.0536539520866654e-05,-3.5642335622186566e-05,6.4667,4.0
2.4375,-6.344637941557891e-06,-6.199901373311965e-05,-5.5650911383230295e-05,-3.1238841840238e-05,6.4667,4.0
2.44140625,-5.846432440680502e-06,-6.005440516517888e-05,-5.2725962958724296e-05,-2.9776367627984994e-05,6.4667,4.0
2.4453125,-2.538894499122601e-05,-4.7358200465400115e-05,-5.126348874647131e-05,-2.6353213702601605e-05,6.4667,4.0
2.44921875,-1.9040842641336638e-05,-4.882067467765311e-05,-3.8085149691004755e-05,-2.148365671015483e-05,6.4667,4.0
2.453125,-2.5871079346913815e-05,-8.056118642709998e-05,-5.5168777027542486e-05,-2.87960277714198e-05,6.4667,4.0
2.45703125,-3.368165590905617e-05,-9.373952548256654e-05,-7.763623800259398e-05,-2.929423327229719e-05,6.4667,4.0
2.4609375,-2.929423327229719e-05,-6.834711608300904e-05,-7.030779579613942e-05,-2.7831759060044205e-05,6.4667,4.0
2.46484375,-3.270131605249098e-05,-7.860050671396958e-05,-8.056118642709998e-05,-2.3428265278095623e-05,6.4667,4.0
2.46875,-1.8060502784771445e-05,-0.00010399291611352708,-9.960549347676808e-05,-6.8267722972456965e-06,6.4667,4.0
2.47265625,-2.0985451209277427e-05,-0.00014696715835049972,-0.00012744071694514378,-9.608043030441137e-07,6.4667,4.0
2.4765625,-3.1238841840238e-05,-0.00017480238181887537,-0.00015916515754940103,-4.882163729304892e-06,6.4667,4.0
2.48046875,-3.4163790264743975e-05,-0.00019188600915541308,-0.00019236814351110092,5.016699092088714e-07,6.4667,4.0
2.484375,-4.539752075226973e-05,-0.00020067692557412066,-0.0002167962841992828,2.4462784771496757e-06,6.4667,4.0
2.48828125,-5.22438286030365e-05,-0.00022947641775387194,-0.0002446154365224689,4.889092545967855e-06,6.4667,4.0
2.4921875,-2.73335535591668e-05,-0.0002675650318532082,-0.00027781842248416873,1.1719329251545034e-05,6.4667,4.0
2.49609375,6.849772259098244e-06,-0.0003037090373846036,-0.0003037090373846036,9.774720683604243e-06,6.4667,4.0
2.5,4.889092545967855e-06,-0.00032714076707103073,-0.0003339710037766079,9.838042648966763e-07,6.4667,4.0
2.50390625,1.465938620584481e-06,-0.00033787629205767907,-0.00035595633039597164,-9.608043030441137e-07,6.4667,4.0
2.5078125,1.465938620584481e-06,-0.0003569205991073472,-0.0003671739897383078,7.33190661478605e-06,6.4667,4.0
2.51171875,-1.1230266079194265e-05,-0.00036571151552605474,-0.0003666918553826199,1.465938620584481e-06,6.4667,4.0
2.515625,-1.8060502784771445e-05,-0.000363766906958114,-0.0003627865671015488,3.46440833148165e-09,6.4667,4.0
2.51953125,-3.221918169680319e-05,-0.000347165413977264,-0.000351552836614023,8.312246471351244e-06,6.4667,4.0
2.5234375,-4.247257232776374e-05,-0.00031883198500801097,-0.0003290853756389715,6.849772259098244e-06,6.4667,4.0
2.52734375,-2.148365671015483e-05,-0.00030419117174029146,-0.000314444562371252,4.889092545967855e-06,6.4667,4.0
2.53125,1.2217534752422422e-05,-0.0002890521529716945,-0.0002885700186160067,5.86943240253305e-06,6.4667,4.0
2.53515625,2.7356553521019364e-05,-0.0002553670326543068,-0.000257809846723125,2.4462784771496757e-06,6.4667,4.0
2.5390625,4.406958190280065e-06,-0.0002187408927672236,-0.0002363227256046387,-2.439349660486712e-06,6.4667,4.0
2.54296875,-2.2447925421530426e-05,-0.00017918980445563436,-0.00020213939978637368,-4.383958228427502e-06,6.4667,4.0
2.546875,-3.368165590905617e-05,-0.00015039031227588308,-0.0001689364138246738,-1.2692740291447265e-05,6.4667,4.0
2.55078125,-2.929423327229719e-05,-0.00013084779972533756,-0.00013963871614404511,-2.0985451209277427e-05,6.4667,4.0
2.5546875,-2.3910399633783425e-05,-0.00011766946066987103,-0.00011326596688792244,-2.4408605134660816e-05,6.4667,4.0
2.55859375,-3.173704734111539e-05,-9.814301926451511e-05,-9.960549347676808e-05,-3.02585019836728e-05,6.4667,4.0
2.5625,-3.1238841840238e-05,-6.736677622644384e-05,-7.42130840772106e-05,-3.7586944190127365e-05,6.4667,4.0
2.56640625,-2.6353213702601605e-05,-4.3452912184328936e-05,-4.589572625314713e-05,-4.101009811551074e-05,6.4667,4.0
2.5703125,-3.954762390325776e-05,-3.7586944190127365e-05,-4.1990437972075934e-05,-3.660660433356217e-05,6.4667,4.0
2.57421875,-6.103474502174407e-05,-3.319952155336838e-05,-3.173704734111539e-05,-3.5144130121309175e-05,6.4667,4.0
2.578125,-5.0283148889906114e-05,-2.148365671015483e-05,-1.4155214503700264e-05,-3.9049418402380354e-05,6.4667,4.0
2.58203125,-3.4163790264743975e-05,-5.846432440680502e-06,2.4462784771496757e-06,-4.002975825894555e-05,6.4667,4.0
2.5859375,-4.6859994964522725e-05,1.1237194895857236e-05,5.86943240253305e-06,-4.882067467765311e-05,6.4667,4.0
2.58984375,-5.07652832455939e-05,2.0510245670252592e-05,5.37122690165566e-06,-5.2725962958724296e-05,6.4667,4.0
2.59375,-4.637786060883492e-05,2.5395873807888974e-05,2.5395873807888974e-05,-3.9049418402380354e-05,6.4667,4.0
2.59765625,-4.6859994964522725e-05,2.3933399595635975e-05,2.6376213664454168e-05,-3.660660433356217e-05,6.4667,4.0
2.6015625,-5.418843717097729e-05,2.6858348020141967e-05,2.3451265239948176e-05,-4.247257232776374e-05,6.4667,4.0
2.60546875,-6.688464187075604e-05,4.34598410009919e-05,3.076363630121315e-05,-4.491538639658193e-05,6.4667,4.0
2.609375,-4.539752075226973e-05,4.15152324330511e-05,3.9072418364232914e-05,-5.614911688410768e-05,6.4667,4.0
2.61328125,-2.0985451209277427e-05,2.3933399595635975e-05,4.053489257648591e-05,-5.5168777027542486e-05,6.4667,4.0
2.6171875,-3.270131605249098e-05,2.8819027733272357e-05,3.1743976157778346e-05,-5.07652832455939e-05,6.4667,4.0
2.62109375,-4.491538639658193e-05,5.6156045700770644e-05,3.4186790226596535e-05,-5.468664267185468e-05,6.4667,4.0
2.625,-5.07652832455939e-05,6.055953948271922e-05,3.466892458228434e-05,-5.9556199664301454e-05,6.4667,4.0
2.62890625,-4.539752075226973e-05,5.811672541390104e-05,4.4440180857557095e-05,-6.0536539520866654e-05,6.4667,4.0
2.6328125,-3.8085149691004755e-05,5.8598859769588833e-05,5.371323163195245e-05,-4.833854032196531e-05,6.4667,4.0
2.63671875,-4.833854032196531e-05,5.371323163195245e-05,5.567391134508284e-05,-4.2954706683451546e-05,6.4667,4.0
2.640625,-3.02585019836728e-05,5.957919962615403e-05,5.6654251201648035e-05,-4.882067467765311e-05,6.4667,4.0
2.64453125,-2.538894499122601e-05,7.03147246128024e-05,4.980794335088127e-05,-4.930280903334092e-05,6.4667,4.0
2.6484375,-3.4163790264743975e-05,6.396662226291301e-05,4.2495572289616296e-05,-4.393504654001674e-05,6.4667,4.0
2.65234375,-3.9049418402380354e-05,5.909706527046623e-05,5.078828320744647e-05,-4.149223247119854e-05,6.4667,4.0
2.65625,-4.980101453421831e-05,5.323109727626465e-05,5.811672541390104e-05,-4.539752075226973e-05,6.4667,4.0
2.66015625,-3.9049418402380354e-05,6.202201369497221e-05,4.8345469138628273e-05,-5.418843717097729e-05,6.4667,4.0
2.6640625,-4.393504654001674e-05,6.59273019760434e-05,3.955455271992071e-05,-5.0283148889906114e-05,6.4667,4.0
2.66796875,-4.443325204089413e-05,5.2748962920576856e-05,3.809207850766772e-05,-4.2954706683451546e-05,6.4667,4.0
2.671875,-2.4890739490348622e-05,4.34598410009919e-05,3.955455271992071e-05,-4.2954706683451546e-05,6.4667,4.0
2.67578125,-1.8542637140459247e-05,3.809207850766772e-05,4.297770664530409e-05,-4.589572625314713e-05,6.4667,4.0
2.6796875,-2.538894499122601e-05,4.297770664530409e-05,4.980794335088127e-05,-3.7586944190127365e-05,6.4667,4.0
2.68359375,-4.539752075226973e-05,4.8345469138628273e-05,4.5902655069810084e-05,-3.710480983443956e-05,6.4667,4.0
2.6875,-4.491538639658193e-05,4.1017026932173706e-05,3.126184180209054e-05,-4.882067467765311e-05,6.4667,4.0
2.69140625,-3.368165590905617e-05,2.783868787670716e-05,3.272431601434354e-05,-5.126348874647131e-05,6.4667,4.0
2.6953125,-3.4163790264743975e-05,3.076363630121315e-05,4.19973667887389e-05,-4.2954706683451546e-05,6.4667,4.0
2.69921875,-4.1990437972075934e-05,3.614746993972692e-05,4.980794335088127e-05,-3.9049418402380354e-05,6.4667,4.0
2.703125,-3.5144130121309175e-05,3.126184180209054e-05,4.2495572289616296e-05,-5.0283148889906114e-05,6.4667,4.0
2.70703125,-3.173704734111539e-05,3.859028400854511e-05,4.2495572289616296e-05,-4.6859994964522725e-05,6.4667,4.0
2.7109375,-4.589572625314713e-05,3.1743976157778346e-05,3.9072418364232914e-05,-3.7586944190127365e-05,6.4667,4.0
2.71484375,-4.002975825894555e-05,1.5142483176928414e-05,2.6376213664454168e-05,-4.101009811551074e-05,6.4667,4.0
2.71875,-3.710480983443956e-05,1.8565637102311797e-05,2.6858348020141967e-05,-4.2954706683451546e-05,6.4667,4.0
2.72265625,-3.8085149691004755e-05,2.3451265239948176e-05,1.90477714579996e-05,-4.101009811551074e-05,6.4667,4.0
2.7265625,-4.051189261463335e-05,2.783868787670716e-05,1.3680008964675422e-05,-4.7358200465400115e-05,6.4667,4.0
2.73046875,-5.2725962958724296e-05,2.7356553521019364e-05,1.6122823033493608e-05,-4.393504654001674e-05,6.4667,4.0
2.734375,-4.539752075226973e-05,2.3451265239948176e-05,2.0028111314564796e-05,-2.7831759060044205e-05,6.4667,4.0
2.73828125,-2.2447925421530426e-05,2.100845117112999e-05,2.100845117112999e-05,-2.6353213702601605e-05,6.4667,4.0
2.7421875,-2.148365671015483e-05,2.5395873807888974e-05,2.0028111314564796e-05,-3.8085149691004755e-05,6.4667,4.0
2.74609375,-1.8060502784771445e-05,3.711173865110253e-05,2.6376213664454168e-05,-4.491538639658193e-05,6.4667,4.0
2.75,-1.8542637140459247e-05,2.8819027733272357e-05,2.0028111314564796e-05,-5.370630281528949e-05,6.4667,4.0
2.75390625,-2.4890739490348622e-05,2.100845117112999e-05,9.292586327916439e-06,-4.833854032196531e-05,6.4667,4.0
2.7578125,-2.2946130922407816e-05,2.100845117112999e-05,7.814040970473853e-06,-3.02585019836728e-05,6.4667,4.0
2.76171875,-3.9049418402380354e-05,1.5142483176928414e-05,7.814040970473853e-06,-2.538894499122601e-05,6.4667,4.0
2.765625,-4.589572625314713e-05,1.3680008964675422e-05,4.406958190280065e-06,-3.270131605249098e-05,6.4667,4.0
2.76953125,-3.221918169680319e-05,7.33190661478605e-06,2.4462784771496757e-06,-3.221918169680319e-05,6.4667,4.0
2.7734375,-2.8313893415731994e-05,-4.786699473563232e-07,3.90875268940266e-06,-2.73335535591668e-05,6.4667,4.0
2.77734375,-3.02585019836728e-05,-2.439349660486712e-06,-4.786699473563232e-07,-2.685141920347901e-05,6.4667,4.0
2.78125,-2.538894499122601e-05,5.016699092088714e-07,1.964144121461871e-06,-2.685141920347901e-05,6.4667,4.0
2.78515625,-3.173704734111539e-05,5.016699092088714e-07,5.016699092088714e-07,-3.270131605249098e-05,6.4667,4.0
2.7890625,-4.149223247119854e-05,-1.941144159609308e-06,1.1237194895857236e-05,-3.5144130121309175e-05,6.4667,4.0
2.79296875,-3.4163790264743975e-05,-4.882163729304892e-06,1.4660348821240617e-05,-3.7586944190127365e-05,6.4667,4.0
2.796875,-2.7831759060044205e-05,-1.4155214503700264e-05,-4.786699473563232e-07,-3.270131605249098e-05,6.4667,4.0
2.80078125,-2.0503316853589637e-05,-1.4155214503700264e-05,-9.608043030441137e-07,-2.73335535591668e-05,6.4667,4.0
2.8046875,-1.8060502784771445e-05,-4.882163729304892e-06,1.465938620584481e-06,-3.5144130121309175e-05,6.4667,4.0
2.80859375,-3.173704734111539e-05,5.016699092088714e-07,2.4462784771496757e-06,-4.149223247119854e-05,6.4667,4.0
2.8125,-4.101009811551074e-05,-4.383958228427502e-06,7.33190661478605e-06,-3.075670748455019e-05,6.4667,4.0
2.81640625,-2.9776367627984994e-05,-1.2692740291447265e-05,-3.901823872739698e-06,-1.7562297283894054e-05,6.4667,4.0
2.8203125,-2.73335535591668e-05,-8.787452010376085e-06,-9.75172072175168e-06,-1.4637348859388055e-05,6.4667,4.0
2.82421875,-2.1965791065842623e-05,-4.786699473563232e-07,3.46440833148165e-09,-2.5871079346913815e-05,6.4667,4.0
2.828125,-5.846432440680502e-06,-3.901823872739698e-06,-1.4155214503700264e-05,-4.393504654001674e-05,6.4667,4.0
2.83203125,-5.364298084992697e-06,-4.882163729304892e-06,-1.7562297283894054e-05,-4.539752075226973e-05,6.4667,4.0
2.8359375,-3.02585019836728e-05,-3.4036183718623077e-06,-1.4590098039215176e-06,-3.221918169680319e-05,6.4667,4.0
2.83984375,-4.149223247119854e-05,-1.2194534790569875e-05,-1.4637348859388055e-05,-2.6353213702601605e-05,6.4667,4.0
2.84375,-2.6353213702601605e-05,-1.8060502784771445e-05,-2.87960277714198e-05,-3.368165590905617e-05,6.4667,4.0
2.84765625,-2.4890739490348622e-05,-1.171240043488207e-05,-1.4155214503700264e-05,-3.660660433356217e-05,6.4667,4.0
2.8515625,-4.637786060883492e-05,-1.6099823071641055e-05,-9.269586366063876e-06,-3.270131605249098e-05,6.4667,4.0
2.85546875,-5.370630281528949e-05,-2.6353213702601605e-05,-1.0732060578316875e-05,-3.710480983443956e-05,6.4667,4.0
2.859375,-3.270131605249098e-05,-1.513555436026546e-05,-9.608043030441137e-07,-4.247257232776374e-05,6.4667,4.0
2.86328125,-1.9522976997024444e-05,-1.7562297283894054e-05,-9.269586366063876e-06,-4.784033482108792e-05,6.4667,4.0
2.8671875,-2.685141920347901e-05,-2.2447925421530426e-05,-1.2194534790569875e-05,-4.7358200465400115e-05,6.4667,4.0
2.87109375,-3.660660433356217e-05,-2.538894499122601e-05,-9.269586366063876e-06,-3.660660433356217e-05,6.4667,4.0
2.875,-4.101009811551074e-05,-3.173704734111539e-05,-8.787452010376085e-06,-2.9776367627984994e-05,6.4667,4.0
2.87890625,-3.8567284046692565e-05,-2.0005111352712233e-05,3.46440833148165e-09,-2.8313893415731994e-05,6.4667,4.0
2.8828125,-4.247257232776374e-05,-9.608043030441137e-07,5.016699092088714e-07,-2.9776367627984994e-05,6.4667,4.0
2.88671875,-3.173704734111539e-05,3.46440833148165e-09,-7.308906652933487e-06,-3.4163790264743975e-05,6.4667,4.0
2.890625,-4.882163729304892e-06,-4.383958228427502e-06,-9.75172072175168e-06,-3.173704734111539e-05,6.4667,4.0
2.89453125,-1.513555436026546e-05,-1.6099823071641055e-05,-6.344637941557891e-06,-3.5144130121309175e-05,6.4667,4.0
2.8984375,-2.8313893415731994e-05,-2.685141920347901e-05,-7.807112153810891e-06,-4.637786060883492e-05,6.4667,4.0
2.90234375,-2.7831759060044205e-05,-2.0985451209277427e-05,-1.171240043488207e-05,-4.2954706683451546e-05,6.4667,4.0
2.90625,-1.8542637140459247e-05,-1.941144159609308e-06,-8.28924650949868e-06,-3.02585019836728e-05,6.4667,4.0
2.91015625,-1.2692740291447265e-05,-1.4590098039215176e-06,-1.171240043488207e-05,-2.4890739490348622e-05,6.4667,4.0
2.9140625,-3.660660433356217e-05,-2.0503316853589637e-05,-1.0732060578316875e-05,-3.710480983443956e-05,6.4667,4.0
2.91796875,-5.32080973144121e-05,-2.4890739490348622e-05,-1.4155214503700264e-05,-4.393504654001674e-05,6.4667,4.0
2.921875,-5.711338559548329e-05,-9.269586366063876e-06,-1.9040842641336638e-05,-2.929423327229719e-05,6.4667,4.0
2.92578125,-3.8085149691004755e-05,-8.28924650949868e-06,-1.8542637140459247e-05,-2.6353213702601605e-05,6.4667,4.0
2.9296875,-2.0985451209277427e-05,-2.148365671015483e-05,-1.8060502784771445e-05,-3.173704734111539e-05,6.4667,4.0
2.93359375,-3.270131605249098e-05,-2.2447925421530426e-05,-2.3428265278095623e-05,-2.73335535591668e-05,6.4667,4.0
2.9375,-2.3428265278095623e-05,-2.6353213702601605e-05,-2.2946130922407816e-05,-3.270131605249098e-05,6.4667,4.0
2.94140625,-1.4590098039215176e-06,-3.221918169680319e-05,-1.513555436026546e-05,-4.101009811551074e-05,6.4667,4.0
2.9453125,5.016699092088714e-07,-1.9040842641336638e-05,-1.7080162928206248e-05,-3.5144130121309175e-05,6.4667,4.0
2.94921875,-2.1965791065842623e-05,-1.0732060578316875e-05,-1.7562297283894054e-05,-2.87960277714198e-05,6.4667,4.0
2.953125,-4.637786060883492e-05,-2.0005111352712233e-05,-1.9040842641336638e-05,-2.6353213702601605e-05,6.4667,4.0
2.95703125,-3.8567284046692565e-05,-3.1238841840238e-05,-2.3428265278095623e-05,-3.319952155336838e-05,6.4667,4.0
2.9609375,-3.5642335622186566e-05,-2.9776367627984994e-05,-3.075670748455019e-05,-4.2954706683451546e-05,6.4667,4.0
2.96484375,-3.710480983443956e-05,-2.685141920347901e-05,-2.9776367627984994e-05,-4.930280903334092e-05,6.4667,4.0
2.96875,-2.0985451209277427e-05,-2.8313893415731994e-05,-2.538894499122601e-05,-4.443325204089413e-05,6.4667,4.0
2.97265625,-1.171240043488207e-05,-2.2447925421530426e-05,-1.561768871595325e-05,-3.02585019836728e-05,6.4667,4.0
2.9765625,-2.1965791065842623e-05,-3.02585019836728e-05,-2.685141920347901e-05,-3.1238841840238e-05,6.4667,4.0
2.98046875,-4.930280903334092e-05,-2.929423327229719e-05,-2.73335535591668e-05,-3.7586944190127365e-05,6.4667,4.0
2.984375,-6.297935358968484e-05,-2.3910399633783425e-05,-8.28924650949868e-06,-3.270131605249098e-05,6.4667,4.0
2.98828125,-3.8085149691004755e-05,-2.87960277714198e-05,-1.6099823071641055e-05,-3.173704734111539e-05,6.4667,4.0
2.9921875,-2.2946130922407816e-05,-2.7831759060044205e-05,-2.0985451209277427e-05,-3.270131605249098e-05,6.4667,4.0
2.99609375,-3.319952155336838e-05,-3.5144130121309175e-05,-1.7562297283894054e-05,-3.02585019836728e-05,6.4667,4.0
3.0,-4.637786060883492e-05,-2.6353213702601605e-05,-2.1965791065842623e-05,-3.221918169680319e-05,6.4667,4.0
3.00390625,-4.637786060883492e-05,-1.2692740291447265e-05,-2.73335535591668e-05,-3.7586944190127365e-05,6.4667,4.0
3.0078125,-3.02585019836728e-05,-2.2946130922407816e-05,-2.87960277714198e-05,-4.2954706683451546e-05,6.4667,4.0
3.01171875,-2.4890739490348622e-05,-2.9776367627984994e-05,-2.3910399633783425e-05,-3.7586944190127365e-05,6.4667,4.0
3.015625,-3.7586944190127365e-05,-1.4155214503700264e-05,-2.9214840161745027e-06,-2.7831759060044205e-05,6.4667,4.0
3.01953125,-4.149223247119854e-05,-4.882163729304892e-06,-5.846432440680502e-06,-3.1238841840238e-05,6.4667,4.0
3.0234375,-2.3428265278095623e-05,-2.6353213702601605e-05,-4.3452912184328936e-05,-4.539752075226973e-05,6.4667,4.0
3.02734375,-1.171240043488207e-05,-1.2194534790569875e-05,-2.87960277714198e-05,-4.6859994964522725e-05,6.4667,4.0
3.03125,-1.4155214503700264e-05,-4.882163729304892e-06,-4.786699473563232e-07,-4.6859994964522725e-05,6.4667,4.0
3.03515625,-2.87960277714198e-05,-3.221918169680319e-05,-1.6099823071641055e-05,-3.9049418402380354e-05,6.4667,4.0
3.0390625,-5.418843717097729e-05,-2.685141920347901e-05,-2.5871079346913815e-05,-3.221918169680319e-05,6.4667,4.0
3.04296875,-6.103474502174407e-05,-1.365700900282286e-05,-1.9522976997024444e-05,-3.5642335622186566e-05,6.4667,4.0
3.046875,-4.980101453421831e-05,-1.7080162928206248e-05,-2.6353213702601605e-05,-3.5642335622186566e-05,6.4667,4.0
3.05078125,-1.365700900282286e-05,-2.1965791065842623e-05,-3.368165590905617e-05,-4.833854032196531e-05,6.4667,4.0
3.0546875,-2.9214840161745027e-06,-3.7586944190127365e-05,-2.7831759060044205e-05,-5.5650911383230295e-05,6.4667,4.0
3.05859375,-1.9522976997024444e-05,-3.319952155336838e-05,-2.0985451209277427e-05,-3.8085149691004755e-05,6.4667,4.0
3.0625,-1.8060502784771445e-05,-5.364298084992697e-06,-1.8542637140459247e-05,-2.148365671015483e-05,6.4667,4.0
3.06640625,-2.538894499122601e-05,-1.4155214503700264e-05,-2.1965791065842623e-05,-3.221918169680319e-05,6.4667,4.0
3.0703125,-3.221918169680319e-05,-3.1238841840238e-05,-3.02585019836728e-05,-4.443325204089413e-05,6.4667,4.0
3.07421875,-3.4661995765621366e-05,-3.319952155336838e-05,-1.9522976997024444e-05,-3.4661995765621366e-05,6.4667,4.0
3.078125,-4.637786060883492e-05,-3.02585019836728e-05,-2.1965791065842623e-05,-3.02585019836728e-05,6.4667,4.0
3.08203125,-6.151687937743185e-05,-2.1965791065842623e-05,-3.5642335622186566e-05,-3.02585019836728e-05,6.4667,4.0
3.0859375,-5.5168777027542486e-05,-1.317487464713507e-05,-2.0005111352712233e-05,-2.685141920347901e-05,6.4667,4.0
3.08984375,-3.710480983443956e-05,-1.561768871595325e-05,-9.269586366063876e-06,-2.7831759060044205e-05,6.4667,4.0
3.09375,-1.513555436026546e-05,-2.4890739490348622e-05,-2.0503316853589637e-05,-2.9776367627984994e-05,6.4667,4.0
3.09765625,-2.4408605134660816e-05,-3.173704734111539e-05,-2.3910399633783425e-05,-2.538894499122601e-05,6.4667,4.0
3.1015625,-3.8567284046692565e-05,-3.1238841840238e-05,-1.9040842641336638e-05,-2.73335535591668e-05,6.4667,4.0
3.10546875,-2.0005111352712233e-05,-2.2946130922407816e-05,-2.73335535591668e-05,-3.4661995765621366e-05,6.4667,4.0
3.109375,-1.9040842641336638e-05,-3.02585019836728e-05,-3.319952155336838e-05,-4.101009811551074e-05,6.4667,4.0
3.11328125,-3.173704734111539e-05,-2.7831759060044205e-05,-2.7831759060044205e-05,-3.8085149691004755e-05,6.4667,4.0
3.1171875,-1.6598028572518445e-05,-2.5871079346913815e-05,-2.538894499122601e-05,-4.2954706683451546e-05,6.4667,4.0
3.12109375,-1.317487464713507e-05,-2.0503316853589637e-05,-2.0005111352712233e-05,-4.002975825894555e-05,6.4667,4.0
3.125,-4.491538639658193e-05,-1.513555436026546e-05,-2.538894499122601e-05,-3.02585019836728e-05,6.4667,4.0
3.12890625,-5.22438286030365e-05,-3.270131605249098e-05,-3.954762390325776e-05,-3.5144130121309175e-05,6.4667,4.0
3.1328125,-4.491538639658193e-05,-3.5144130121309175e-05,-3.954762390325776e-05,-3.5144130121309175e-05,6.4667,4.0
3.13671875,-3.368165590905617e-05,-3.8085149691004755e-05,-3.1238841840238e-05,-3.8085149691004755e-05,6.4667,4.0
3.140625,-8.787452010376085e-06,-3.4661995765621366e-05,-2.929423327229719e-05,-3.954762390325776e-05,6.4667,4.0
3.14453125,-1.365700900282286e-05,-2.4890739490348622e-05,-2.4408605134660816e-05,-2.7831759060044205e-05,6.4667,4.0
3.1484375,-3.368165590905617e-05,-2.73335535591668e-05,-2.6353213702601605e-05,-2.1965791065842623e-05,6.4667,4.0
3.15234375,-4.539752075226973e-05,-3.270131605249098e-05,-3.5642335622186566e-05,-2.8313893415731994e-05,6.4667,4.0
3.15625,-5.418843717097729e-05,-3.5642335622186566e-05,-3.4163790264743975e-05,-3.612446997787437e-05,6.4667,4.0
3.16015625,-3.7586944190127365e-05,-3.075670748455019e-05,-3.368165590905617e-05,-3.221918169680319e-05,6.4667,4.0
3.1640625,-2.8313893415731994e-05,-2.87960277714198e-05,-3.612446997787437e-05,-3.4163790264743975e-05,6.4667,4.0
3.16796875,-2.4408605134660816e-05,-2.5871079346913815e-05,-4.051189261463335e-05,-3.954762390325776e-05,6.4667,4.0
3.171875,-1.1230266079194265e-05,-3.4163790264743975e-05,-4.637786060883492e-05,-3.660660433356217e-05,6.4667,4.0
3.17578125,-1.7080162928206248e-05,-3.8567284046692565e-05,-3.954762390325776e-05,-3.221918169680319e-05,6.4667,4.0
3.1796875,-2.8313893415731994e-05,-3.221918169680319e-05,-2.87960277714198e-05,-3.02585019836728e-05,6.4667,4.0
3.18359375,-2.4890739490348622e-05,-3.612446997787437e-05,-3.4661995765621366e-05,-3.270131605249098e-05,6.4667,4.0
3.1875,-2.0503316853589637e-05,-2.7831759060044205e-05,-3.8085149691004755e-05,-2.8313893415731994e-05,6.4667,4.0
3.19140625,-2.3428265278095623e-05,-2.538894499122601e-05,-2.73335535591668e-05,-2.538894499122601e-05,6.4667,4.0
3.1953125,-4.637786060883492e-05,-3.5144130121309175e-05,-2.929423327229719e-05,-2.7831759060044205e-05,6.4667,4.0
3.19921875,-6.0536539520866654e-05,-3.368165590905617e-05,-3.368165590905617e-05,-3.368165590905617e-05,6.4667,4.0
3.203125,-6.395969344625004e-05,-3.4661995765621366e-05,-4.393504654001674e-05,-3.8085149691004755e-05,6.4667,4.0
3.20703125,-6.590430201419085e-05,-4.589572625314713e-05,-4.784033482108792e-05,-3.5642335622186566e-05,6.4667,4.0
3.2109375,-3.075670748455019e-05,-5.468664267185468e-05,-4.1990437972075934e-05,-3.7586944190127365e-05,6.4667,4.0
3.21484375,1.964144121461871e-06,-5.907406530861368e-05,-5.126348874647131e-05,-4.930280903334092e-05,6.4667,4.0
3.21875,-1.9040842641336638e-05,-5.418843717097729e-05,-5.370630281528949e-05,-4.980101453421831e-05,6.4667,4.0
3.22265625,-3.612446997787437e-05,-4.2954706683451546e-05,-4.149223247119854e-05,-3.710480983443956e-05,6.4667,4.0
3.2265625,-2.9776367627984994e-05,-4.1990437972075934e-05,-3.9049418402380354e-05,-3.368165590905617e-05,6.4667,4.0
3.23046875,-3.221918169680319e-05,-4.1990437972075934e-05,-4.784033482108792e-05,-3.319952155336838e-05,6.4667,4.0
3.234375,-3.5642335622186566e-05,-4.149223247119854e-05,-4.247257232776374e-05,-2.8313893415731994e-05,6.4667,4.0
3.23828125,-6.0536539520866654e-05,-4.3452912184328936e-05,-5.0283148889906114e-05,-3.173704734111539e-05,6.4667,4.0
3.2421875,-5.663125123979549e-05,-3.1238841840238e-05,-5.1745623102159096e-05,-4.1990437972075934e-05,6.4667,4.0
3.24609375,-1.0732060578316875e-05,-2.4408605134660816e-05,-4.637786060883492e-05,-4.443325204089413e-05,6.4667,4.0
3.25,-7.308906652933487e-06,-2.7831759060044205e-05,-4.882067467765311e-05,-3.9049418402380354e-05,6.4667,4.0
3.25390625,-1.561768871595325e-05,-4.247257232776374e-05,-4.2954706683451546e-05,-3.270131605249098e-05,6.4667,4.0
3.2578125,-1.513555436026546e-05,-4.393504654001674e-05,-4.443325204089413e-05,-3.1238841840238e-05,6.4667,4.0
3.26171875,-3.8567284046692565e-05,-2.148365671015483e-05,-4.443325204089413e-05,-2.9776367627984994e-05,6.4667,4.0
3.265625,-4.833854032196531e-05,-2.3428265278095623e-05,-4.2954706683451546e-05,-2.87960277714198e-05,6.4667,4.0
3.26953125,-3.8085149691004755e-05,-3.660660433356217e-05,-3.660660433356217e-05,-2.0985451209277427e-05,6.4667,4.0
3.2734375,-3.4661995765621366e-05,-4.539752075226973e-05,-3.368165590905617e-05,-2.4890739490348622e-05,6.4667,4.0
3.27734375,-4.149223247119854e-05,-5.1745623102159096e-05,-4.833854032196531e-05,-4.3452912184328936e-05,6.4667,4.0
3.28125,-2.538894499122601e-05,-4.101009811551074e-05,-5.32080973144121e-05,-3.7586944190127365e-05,6.4667,4.0
3.28515625,-7.308906652933487e-06,-3.5642335622186566e-05,-4.833854032196531e-05,-3.173704734111539e-05,6.4667,4.0
3.2890625,-1.4590098039215176e-06,-3.8085149691004755e-05,-5.5168777027542486e-05,-3.5642335622186566e-05,6.4667,4.0
3.29296875,-1.171240043488207e-05,-4.1990437972075934e-05,-5.1745623102159096e-05,-3.270131605249098e-05,6.4667,4.0
3.296875,-2.929423327229719e-05,-5.0283148889906114e-05,-4.149223247119854e-05,-3.319952155336838e-05,6.4667,4.0
3.30078125,-3.319952155336838e-05,-3.954762390325776e-05,-3.4163790264743975e-05,-3.4163790264743975e-05,6.4667,4.0
3.3046875,-4.882067467765311e-05,-3.319952155336838e-05,-3.4163790264743975e-05,-2.9776367627984994e-05,6.4667,4.0
3.30859375,-6.151687937743185e-05,-4.1990437972075934e-05,-3.9049418402380354e-05,-2.73335535591668e-05,6.4667,4.0
3.3125,-5.614911688410768e-05,-4.589572625314713e-05,-3.4661995765621366e-05,-3.5144130121309175e-05,6.4667,4.0
3.31640625,-2.87960277714198e-05,-4.637786060883492e-05,-2.3910399633783425e-05,-3.5642335622186566e-05,6.4667,4.0
3.3203125,3.4266183337148702e-06,-2.0503316853589637e-05,-1.8060502784771445e-05,-3.4661995765621366e-05,6.4667,4.0
3.32421875,6.849772259098244e-06,2.4462784771496757e-06,-7.807112153810891e-06,-3.612446997787437e-05,6.4667,4.0
3.328125,-2.1965791065842623e-05,-1.8542637140459247e-05,-1.4637348859388055e-05,-2.4890739490348622e-05,6.4667,4.0
3.33203125,-3.710480983443956e-05,-3.9049418402380354e-05,-2.8313893415731994e-05,-1.7562297283894054e-05,6.4667,4.0
3.3359375,-3.5144130121309175e-05,-3.1238841840238e-05,-1.9522976997024444e-05,-2.4890739490348622e-05,6.4667,4.0
3.33984375,-3.270131605249098e-05,-9.75172072175168e-06,-7.807112153810891e-06,-3.173704734111539e-05,6.4667,4.0
3.34375,-4.051189261463335e-05,1.1719329251545034e-05,9.292586327916439e-06,-2.538894499122601e-05,6.4667,4.0
3.34765625,-4.637786060883492e-05,2.6858348020141967e-05,2.5894079308766365e-05,-2.4408605134660816e-05,6.4667,4.0
3.3515625,-5.5650911383230295e-05,2.2470925383382982e-05,2.8320822232394967e-05,-3.02585019836728e-05,6.4667,4.0
3.35546875,-6.640250751506824e-05,1.8067431601434407e-05,3.466892458228434e-05,-2.4890739490348622e-05,6.4667,4.0
3.359375,-5.907406530861368e-05,2.979936758983755e-05,4.786333478294048e-05,-2.0503316853589637e-05,6.4667,4.0
3.36328125,-5.711338559548329e-05,3.711173865110253e-05,4.980794335088127e-05,-1.8060502784771445e-05,6.4667,4.0
3.3671875,-5.663125123979549e-05,3.516713008316173e-05,4.19973667887389e-05,-2.4890739490348622e-05,6.4667,4.0
3.37109375,-5.1745623102159096e-05,2.979936758983755e-05,3.320645037003134e-05,-3.1238841840238e-05,6.4667,4.0
3.375,-4.980101453421831e-05,2.8320822232394967e-05,3.760994415197992e-05,-2.538894499122601e-05,6.4667,4.0
3.37890625,-5.614911688410768e-05,3.076363630121315e-05,4.3958046501869285e-05,-2.0503316853589637e-05,6.4667,4.0
3.3828125,-7.030779579613942e-05,3.076363630121315e-05,3.5649264438849524e-05,-2.148365671015483e-05,6.4667,4.0
3.38671875,-5.761159109636068e-05,2.8819027733272357e-05,2.5395873807888974e-05,-2.1965791065842623e-05,6.4667,4.0
3.390625,-3.221918169680319e-05,2.3933399595635975e-05,2.295305973907079e-05,-2.3428265278095623e-05,6.4667,4.0
3.39453125,-3.5642335622186566e-05,1.7103162890058804e-05,1.7103162890058804e-05,-3.075670748455019e-05,6.4667,4.0
3.3984375,-6.346148794537265e-05,1.3680008964675422e-05,1.2699669108110229e-05,-2.8313893415731994e-05,6.4667,4.0
3.40234375,-4.833854032196531e-05,1.3197874608987617e-05,1.5142483176928414e-05,-2.7831759060044205e-05,6.4667,4.0
3.40625,-1.6099823071641055e-05,6.849772259098244e-06,6.351566758220855e-06,-3.270131605249098e-05,6.4667,4.0
3.41015625,-1.6598028572518445e-05,-1.1230266079194265e-05,-2.9214840161745027e-06,-3.1238841840238e-05,6.4667,4.0
3.4140625,-1.024992622262907e-05,-2.0005111352712233e-05,3.46440833148165e-09,-3.4661995765621366e-05,6.4667,4.0
3.41796875,-7.308906652933487e-06,-1.9040842641336638e-05,-6.344637941557891e-06,-3.9049418402380354e-05,6.4667,4.0
3.421875,-3.319952155336838e-05,-1.365700900282286e-05,-1.365700900282286e-05,-4.1990437972075934e-05,6.4667,4.0
3.42578125,-5.22438286030365e-05,-8.28924650949868e-06,-1.171240043488207e-05,-2.9776367627984994e-05,6.4667,4.0
3.4296875,-4.784033482108792e-05,-1.8542637140459247e-05,-1.513555436026546e-05,-1.8060502784771445e-05,6.4667,4.0
3.43359375,-3.368165590905617e-05,-2.685141920347901e-05,-1.6598028572518445e-05,-1.6598028572518445e-05,6.4667,4.0
3.4375,-3.660660433356217e-05,-2.7831759060044205e-05,-1.513555436026546e-05,-1.6598028572518445e-05,6.4667,4.0
3.44140625,-4.149223247119854e-05,-2.4890739490348622e-05,-1.7080162928206248e-05,-2.4890739490348622e-05,6.4667,4.0
3.4453125,-3.1238841840238e-05,-2.4890739490348622e-05,-2.538894499122601e-05,-2.4408605134660816e-05,6.4667,4.0
3.44921875,-3.660660433356217e-05,-3.319952155336838e-05,-2.538894499122601e-05,-2.3910399633783425e-05,6.4667,4.0
3.453125,-4.2954706683451546e-05,-3.4163790264743975e-05,-2.1965791065842623e-05,-3.954762390325776e-05,6.4667,4.0
3.45703125,-2.538894499122601e-05,-2.7831759060044205e-05,-2.538894499122601e-05,-4.3452912184328936e-05,6.4667,4.0
3.4609375,-2.148365671015483e-05,-1.9522976997024444e-05,-2.0503316853589637e-05,-2.7831759060044205e-05,6.4667,4.0
3.46484375,-3.173704734111539e-05,-6.344637941557891e-06,-1.365700900282286e-05,-2.2447925421530426e-05,6.4667,4.0
3.46875,-3.8567284046692565e-05,-1.4590098039215176e-06,-8.787452010376085e-06,-2.4890739490348622e-05,6.4667,4.0
3.47265625,-3.4163790264743975e-05,-1.8542637140459247e-05,-1.9522976997024444e-05,-2.7831759060044205e-05,6.4667,4.0
3.4765625,-1.4155214503700264e-05,-3.319952155336838e-05,-2.5871079346913815e-05,-2.929423327229719e-05,6.4667,4.0
3.48046875,-1.0732060578316875e-05,-2.929423327229719e-05,-2.4890739490348622e-05,-2.685141920347901e-05,6.4667,4.0
3.484375,-2.5871079346913815e-05,-2.148365671015483e-05,-1.7080162928206248e-05,-2.3910399633783425e-05,6.4667,4.0
3.48828125,-2.6353213702601605e-05,-1.7562297283894054e-05,-1.0732060578316875e-05,-2.73335535591668e-05,6.4667,4.0
3.4921875,-3.4661995765621366e-05,-2.3910399633783425e-05,-1.7080162928206248e-05,-3.4661995765621366e-05,6.4667,4.0
3.49609375,-4.3452912184328936e-05,-3.660660433356217e-05,-2.3428265278095623e-05,-3.4661995765621366e-05,6.4667,4.0
3.5,-2.6353213702601605e-05,-4.051189261463335e-05,-3.5642335622186566e-05,-3.660660433356217e-05,6.4667,4.0
3.50390625,-2.87960277714198e-05,-3.075670748455019e-05,-3.4163790264743975e-05,-3.8085149691004755e-05,6.4667,4.0
3.5078125,-4.539752075226973e-05,-2.87960277714198e-05,-3.4163790264743975e-05,-3.7586944190127365e-05,6.4667,4.0
3.51171875,-3.660660433356217e-05,-3.221918169680319e-05,-3.7586944190127365e-05,-3.4163790264743975e-05,6.4667,4.0
3.515625,-2.2447925421530426e-05,-4.002975825894555e-05,-3.660660433356217e-05,-3.1238841840238e-05,6.4667,4.0
3.51953125,-1.6598028572518445e-05,-4.589572625314713e-05,-3.270131605249098e-05,-2.4890739490348622e-05,6.4667,4.0
3.5234375,-2.0005111352712233e-05,-3.221918169680319e-05,-2.1965791065842623e-05,-2.5871079346913815e-05,6.4667,4.0
3.52734375,-3.075670748455019e-05,-1.171240043488207e-05,-3.4036183718623077e-06,-3.4163790264743975e-05,6.4667,4.0
3.53125,-5.0283148889906114e-05,-4.786699473563232e-07,3.4266183337148702e-06,-2.6353213702601605e-05,6.4667,4.0
3.53515625,-4.2954706683451546e-05,-2.148365671015483e-05,-1.8542637140459247e-05,-2.685141920347901e-05,6.4667,4.0
3.5390625,-1.0732060578316875e-05,-2.9776367627984994e-05,-2.2946130922407816e-05,-3.5642335622186566e-05,6.4667,4.0
3.54296875,-8.28924650949868e-06,-4.882163729304892e-06,-4.383958228427502e-06,-3.710480983443956e-05,6.4667,4.0
3.546875,-2.9776367627984994e-05,-2.439349660486712e-06,-5.846432440680502e-06,-3.270131605249098e-05,6.4667,4.0
3.55078125,-2.73335535591668e-05,-1.317487464713507e-05,-9.75172072175168e-06,-3.368165590905617e-05,6.4667,4.0
3.5546875,-2.685141920347901e-05,-1.513555436026546e-05,-5.846432440680502e-06,-3.710480983443956e-05,6.4667,4.0
3.55859375,-3.7586944190127365e-05,-2.0985451209277427e-05,-1.7562297283894054e-05,-3.5144130121309175e-05,6.4667,4.0
3.5625,-4.637786060883492e-05,-2.1965791065842623e-05,-3.270131605249098e-05,-3.954762390325776e-05,6.4667,4.0
3.56640625,-4.002975825894555e-05,-1.561768871595325e-05,-2.0005111352712233e-05,-4.101009811551074e-05,6.4667,4.0
3.5703125,-2.5871079346913815e-05,-9.269586366063876e-06,-1.7080162928206248e-05,-2.8313893415731994e-05,6.4667,4.0
3.57421875,-3.173704734111539e-05,-1.8060502784771445e-05,-3.319952155336838e-05,-2.73335535591668e-05,6.4667,4.0
3.578125,-3.5642335622186566e-05,-3.075670748455019e-05,-3.4661995765621366e-05,-3.8085149691004755e-05,6.4667,4.0
3.58203125,-2.73335535591668e-05,-2.3910399633783425e-05,-2.7831759060044205e-05,-3.954762390325776e-05,6.4667,4.0
3.5859375,-1.9040842641336638e-05,-1.0732060578316875e-05,-1.8060502784771445e-05,-3.660660433356217e-05,6.4667,4.0
3.58984375,-2.4890739490348622e-05,-8.787452010376085e-06,-2.2946130922407816e-05,-3.8567284046692565e-05,6.4667,4.0
3.59375,-3.8567284046692565e-05,-2.1965791065842623e-05,-2.0985451209277427e-05,-4.2954706683451546e-05,6.4667,4.0
3.59765625,-2.148365671015483e-05,-3.075670748455019e-05,-2.73335535591668e-05,-3.5144130121309175e-05,6.4667,4.0
3.6015625,-2.9214840161745027e-06,-2.73335535591668e-05,-3.8085149691004755e-05,-3.02585019836728e-05,6.4667,4.0
3.60546875,7.814040970473853e-06,-2.148365671015483e-05,-3.4661995765621366e-05,-3.270131605249098e-05,6.4667,4.0
3.609375,9.838042648966763e-07,-2.9776367627984994e-05,-3.5642335622186566e-05,-3.02585019836728e-05,6.4667,4.0
3.61328125,-1.513555436026546e-05,-3.5144130121309175e-05,-3.221918169680319e-05,-2.5871079346913815e-05,6.4667,4.0
3.6171875,-4.051189261463335e-05,-2.929423327229719e-05,-2.9776367627984994e-05,-2.73335535591668e-05,6.4667,4.0
3.62109375,-5.5650911383230295e-05,-2.1965791065842623e-05,-2.87960277714198e-05,-3.075670748455019e-05,6.4667,4.0
3.625,-4.051189261463335e-05,-1.0732060578316875e-05,-2.7831759060044205e-05,-4.1990437972075934e-05,6.4667,4.0
3.62890625,-4.149223247119854e-05,-1.7080162928206248e-05,-2.87960277714198e-05,-5.370630281528949e-05,6.4667,4.0
3.6328125,-4.6859994964522725e-05,-1.8542637140459247e-05,-2.3910399633783425e-05,-4.1990437972075934e-05,6.4667,4.0
3.63671875,-3.954762390325776e-05,-2.2447925421530426e-05,-2.4408605134660816e-05,-2.9776367627984994e-05,6.4667,4.0
3.640625,-2.0985451209277427e-05,-2.538894499122601e-05,-2.87960277714198e-05,-3.075670748455019e-05,6.4667,4.0
3.64453125,-1.941144159609308e-06,-2.3910399633783425e-05,-1.9522976997024444e-05,-4.2954706683451546e-05,6.4667,4.0
3.6484375,-1.2692740291447265e-05,-2.7831759060044205e-05,-1.6598028572518445e-05,-5.418843717097729e-05,6.4667,4.0
3.65234375,-2.1965791065842623e-05,-3.1238841840238e-05,-2.2946130922407816e-05,-4.539752075226973e-05,6.4667,4.0
3.65625,-1.513555436026546e-05,-3.660660433356217e-05,-2.73335535591668e-05,-3.319952155336838e-05,6.4667,4.0
3.66015625,-2.0503316853589637e-05,-2.9776367627984994e-05,-2.9776367627984994e-05,-2.685141920347901e-05,6.4667,4.0
3.6640625,-2.2946130922407816e-05,-1.7562297283894054e-05,-2.4408605134660816e-05,-2.87960277714198e-05,6.4667,4.0
3.66796875,-2.538894499122601e-05,-2.0005111352712233e-05,-2.7831759060044205e-05,-2.685141920347901e-05,6.4667,4.0
3.671875,-3.660660433356217e-05,-3.1238841840238e-05,-3.4163790264743975e-05,-2.4408605134660816e-05,6.4667,4.0
3.67578125,-4.491538639658193e-05,-3.5642335622186566e-05,-3.221918169680319e-05,-2.2946130922407816e-05,6.4667,4.0
3.6796875,-3.8567284046692565e-05,-3.5144130121309175e-05,-2.6353213702601605e-05,-2.9776367627984994e-05,6.4667,4.0
3.68359375,-3.660660433356217e-05,-2.8313893415731994e-05,-2.73335535591668e-05,-3.660660433356217e-05,6.4667,4.0
3.6875,-4.247257232776374e-05,-2.4890739490348622e-05,-2.0985451209277427e-05,-3.319952155336838e-05,6.4667,4.0
3.69140625,-3.075670748455019e-05,-2.4408605134660816e-05,-1.561768871595325e-05,-3.173704734111539e-05,6.4667,4.0
3.6953125,-2.685141920347901e-05,-3.1238841840238e-05,-3.075670748455019e-05,-3.270131605249098e-05,6.4667,4.0
3.69921875,-3.075670748455019e-05,-2.8313893415731994e-05,-4.1990437972075934e-05,-3.5144130121309175e-05,6.4667,4.0
3.703125,-3.02585019836728e-05,-1.6598028572518445e-05,-3.9049418402380354e-05,-4.443325204089413e-05,6.4667,4.0
3.70703125,-2.7831759060044205e-05,-2.6353213702601605e-05,-2.7831759060044205e-05,-4.7358200465400115e-05,6.4667,4.0
3.7109375,-9.75172072175168e-06,-3.9049418402380354e-05,-2.87960277714198e-05,-4.393504654001674e-05,6.4667,4.0
3.71484375,-3.901823872739698e-06,-3.270131605249098e-05,-3.368165590905617e-05,-3.954762390325776e-05,6.4667,4.0
3.71875,-2.0985451209277427e-05,-3.319952155336838e-05,-2.4408605134660816e-05,-3.660660433356217e-05,6.4667,4.0
3.72265625,-2.7831759060044205e-05,-2.929423327229719e-05,-2.5871079346913815e-05,-3.368165590905617e-05,6.4667,4.0
3.7265625,-3.1238841840238e-05,-2.0005111352712233e-05,-2.685141920347901e-05,-2.3428265278095623e-05,6.4667,4.0
3.73046875,-3.612446997787437e-05,-3.710480983443956e-05,-2.5871079346913815e-05,-3.173704734111539e-05,6.4667,4.0
3.734375,-4.3452912184328936e-05,-4.980101453421831e-05,-3.319952155336838e-05,-4.2954706683451546e-05,6.4667,4.0
3.73828125,-4.6859994964522725e-05,-4.2954706683451546e-05,-4.051189261463335e-05,-3.4163790264743975e-05,6.4667,4.0
3.7421875,-4.3452912184328936e-05,-3.8567284046692565e-05,-5.126348874647131e-05,-3.4163790264743975e-05,6.4667,4.0
3.74609375,-4.149223247119854e-05,-3.1238841840238e-05,-5.0283148889906114e-05,-4.3452912184328936e-05,6.4667,4.0
3.75,-3.319952155336838e-05,-2.538894499122601e-05,-4.051189261463335e-05,-4.3452912184328936e-05,6.4667,4.0
3.75390625,-3.075670748455019e-05,-3.4163790264743975e-05,-3.4163790264743975e-05,-3.9049418402380354e-05,6.4667,4.0
3.7578125,-2.7831759060044205e-05,-3.075670748455019e-05,-2.929423327229719e-05,-3.8085149691004755e-05,6.4667,4.0
3.76171875,-3.1238841840238e-05,-2.7831759060044205e-05,-3.173704734111539e-05,-3.4163790264743975e-05,6.4667,4.0
3.765625,-3.710480983443956e-05,-2.538894499122601e-05,-3.173704734111539e-05,-3.270131605249098e-05,6.4667,4.0
3.76953125,-4.3452912184328936e-05,-2.4890739490348622e-05,-3.7586944190127365e-05,-4.247257232776374e-05,6.4667,4.0
3.7734375,-3.660660433356217e-05,-3.7586944190127365e-05,-3.954762390325776e-05,-3.7586944190127365e-05,6.4667,4.0
3.77734375,-2.4890739490348622e-05,-3.660660433356217e-05,-3.173704734111539e-05,-2.73335535591668e-05,6.4667,4.0
3.78125,-3.612446997787437e-05,-2.73335535591668e-05,-2.148365671015483e-05,-2.9776367627984994e-05,6.4667,4.0
3.78515625,-4.589572625314713e-05,-1.8060502784771445e-05,-2.538894499122601e-05,-2.87960277714198e-05,6.4667,4.0
3.7890625,-3.270131605249098e-05,-1.9522976997024444e-05,-2.8313893415731994e-05,-2.3428265278095623e-05,6.4667,4.0
3.79296875,-2.6353213702601605e-05,-3.368165590905617e-05,-2.685141920347901e-05,-2.4890739490348622e-05,6.4667,4.0
3.796875,-3.4163790264743975e-05,-3.5642335622186566e-05,-3.319952155336838e-05,-3.5642335622186566e-05,6.4667,4.0
3.80078125,-5.0283148889906114e-05,-2.685141920347901e-05,-3.710480983443956e-05,-3.954762390325776e-05,6.4667,4.0
3.8046875,-5.907406530861368e-05,-2.538894499122601e-05,-4.002975825894555e-05,-3.221918169680319e-05,6.4667,4.0
3.80859375,-4.051189261463335e-05,-2.8313893415731994e-05,-4.101009811551074e-05,-3.4163790264743975e-05,6.4667,4.0
3.8125,-2.73335535591668e-05,-2.73335535591668e-05,-3.612446997787437e-05,-4.002975825894555e-05,6.4667,4.0
3.81640625,-3.7586944190127365e-05,-3.319952155336838e-05,-3.4661995765621366e-05,-4.149223247119854e-05,6.4667,4.0
3.8203125,-3.5642335622186566e-05,-3.954762390325776e-05,-4.002975825894555e-05,-4.539752075226973e-05,6.4667,4.0
3.82421875,-2.3428265278095623e-05,-1.9522976997024444e-05,-1.513555436026546e-05,-3.8567284046692565e-05,6.4667,4.0
3.828125,-1.4155214503700264e-05,-1.4590098039215176e-06,6.351566758220855e-06,-2.87960277714198e-05,6.4667,4.0
3.83203125,-2.5871079346913815e-05,-4.930280903334092e-05,-4.833854032196531e-05,-3.270131605249098e-05,6.4667,4.0
3.8359375,-4.101009811551074e-05,-0.00010106796768902109,-0.00010449112161440447,-3.7586944190127365e-05,6.4667,4.0
3.83984375,-4.393504654001674e-05,-0.00010058583333333327,-0.00010789820439459828,-3.319952155336838e-05,6.4667,4.0
3.84375,-4.539752075226973e-05,-0.00011522664660105284,-0.0001230372231631952,-4.443325204089413e-05,6.4667,4.0
3.84765625,-2.685141920347901e-05,-0.00014891176691844048,-0.00015281705519951168,-5.468664267185468e-05,6.4667,4.0
3.8515625,-2.2946130922407816e-05,-0.00016356865133134962,-0.00017137922789349201,-4.393504654001674e-05,6.4667,4.0
3.85546875,-3.7586944190127365e-05,-0.00018602004116121155,-0.0001909056692988479,-5.126348874647131e-05,6.4667,4.0
3.859375,-2.73335535591668e-05,-0.0002031197396429389,-0.00020652682242313267,-5.907406530861368e-05,6.4667,4.0
3.86328125,-2.929423327229719e-05,-0.0002031197396429389,-0.00021825875841153576,-5.22438286030365e-05,6.4667,4.0
3.8671875,-3.8567284046692565e-05,-0.00020213939978637368,-0.00021385526462958722,-5.5168777027542486e-05,6.4667,4.0
3.87109375,-3.1238841840238e-05,-0.00020556255371175706,-0.0001992144513618677,-5.22438286030365e-05,6.4667,4.0
3.875,-4.149223247119854e-05,-0.00019236814351110092,-0.00018700038101777676,-4.101009811551074e-05,6.4667,4.0
3.87890625,-6.103474502174407e-05,-0.0001703988880369268,-0.0001703988880369268,-3.8085149691004755e-05,6.4667,4.0
3.8828125,-5.32080973144121e-05,-0.0001455046841382467,-0.00014452434428168152,-3.9049418402380354e-05,6.4667,4.0
3.88671875,-3.8567284046692565e-05,-0.00012351935751888298,-0.0001284049856565194,-4.393504654001674e-05,6.4667,4.0
3.890625,-3.8567284046692565e-05,-0.00012205688330663,-0.00013134600522621495,-5.07652832455939e-05,6.4667,4.0
3.89453125,-4.443325204089413e-05,-0.00012109261459525441,-0.00012351935751888298,-4.637786060883492e-05,6.4667,4.0
3.8984375,-4.101009811551074e-05,-0.00011132135831998164,-0.00011522664660105284,-4.051189261463335e-05,6.4667,4.0
3.90234375,-3.319952155336838e-05,-0.00010497325597009228,-0.00011961406923781182,-5.0283148889906114e-05,6.4667,4.0
3.90625,-4.491538639658193e-05,-9.275918562600133e-05,-0.00010839640989547567,-5.5650911383230295e-05,6.4667,4.0
3.91015625,-5.8093725452048485e-05,-8.690928877698933e-05,-9.570020519569692e-05,-4.393504654001674e-05,6.4667,4.0
3.9140625,-4.2954706683451546e-05,-9.716267940794992e-05,-9.325739112687872e-05,-4.3452912184328936e-05,6.4667,4.0
3.91796875,-3.5642335622186566e-05,-9.179491691462572e-05,-9.471986533913173e-05,-4.784033482108792e-05,6.4667,4.0
3.921875,-3.4661995765621366e-05,-7.763623800259398e-05,-0.00010106796768902109,-4.833854032196531e-05,6.4667,4.0
3.92578125,-4.002975825894555e-05,-7.763623800259398e-05,-9.66644739070725e-05,-4.980101453421831e-05,6.4667,4.0
3.9296875,-5.9556199664301454e-05,-7.958084657053479e-05,-8.983423720149534e-05,-4.637786060883492e-05,6.4667,4.0
3.93359375,-6.0536539520866654e-05,-8.396826920729375e-05,-8.641108327611195e-05,-3.9049418402380354e-05,6.4667,4.0
3.9375,-3.710480983443956e-05,-9.031637155718314e-05,-9.227705127031353e-05,-4.247257232776374e-05,6.4667,4.0
3.94140625,-1.4155214503700264e-05,-8.396826920729375e-05,-9.373952548256654e-05,-4.247257232776374e-05,6.4667,4.0
3.9453125,-2.0005111352712233e-05,-7.46952184328984e-05,-7.860050671396958e-05,-3.319952155336838e-05,6.4667,4.0
3.94921875,-2.5871079346913815e-05,-6.932745593957423e-05,-6.736677622644384e-05,-3.5144130121309175e-05,6.4667,4.0
3.953125,-2.1965791065842623e-05,-7.32327442206454e-05,-6.640250751506824e-05,-3.1238841840238e-05,6.4667,4.0
3.95703125,-2.73335535591668e-05,-8.00629809262226e-05,-6.297935358968484e-05,-2.3428265278095623e-05,6.4667,4.0
3.9609375,-3.270131605249098e-05,-7.37148785763332e-05,-6.395969344625004e-05,-3.1238841840238e-05,6.4667,4.0
3.96484375,-3.319952155336838e-05,-6.0536539520866654e-05,-7.177027000839242e-05,-3.4661995765621366e-05,6.4667,4.0
3.96875,-1.317487464713507e-05,-5.2725962958724296e-05,-6.786498172732123e-05,-3.319952155336838e-05,6.4667,4.0
3.97265625,-2.2946130922407816e-05,-6.005440516517888e-05,-6.494003330281523e-05,-3.075670748455019e-05,6.4667,4.0
3.9765625,-4.833854032196531e-05,-6.297935358968484e-05,-6.297935358968484e-05,-3.02585019836728e-05,6.4667,4.0
3.98046875,-4.882067467765311e-05,-5.1745623102159096e-05,-5.32080973144121e-05,-4.1990437972075934e-05,6.4667,4.0
3.984375,-3.4661995765621366e-05,-4.3452912184328936e-05,-4.7358200465400115e-05,-4.3452912184328936e-05,6.4667,4.0
3.98828125,-2.73335535591668e-05,-4.051189261463335e-05,-4.7358200465400115e-05,-2.9776367627984994e-05,6.4667,4.0
3.9921875,-3.7586944190127365e-05,-4.1990437972075934e-05,-4.3452912184328936e-05,-3.173704734111539e-05,6.4667,4.0
3.99609375,-4.247257232776374e-05,-4.393504654001674e-05,-3.270131605249098e-05,-3.7586944190127365e-05,6.4667,4.0
4.0,-3.4163790264743975e-05,-4.3452912184328936e-05,-3.7586944190127365e-05,-3.660660433356217e-05,6.4667,4.0
4.00390625,-1.9522976997024444e-05,-3.221918169680319e-05,-4.101009811551074e-05,-3.660660433356217e-05,6.4667,4.0
4.0078125,-1.317487464713507e-05,-2.8313893415731994e-05,-3.710480983443956e-05,-3.4163790264743975e-05,6.4667,4.0
4.01171875,-9.75172072175168e-06,-4.247257232776374e-05,-4.443325204089413e-05,-2.9776367627984994e-05,6.4667,4.0
4.015625,-1.2692740291447265e-05,-5.22438286030365e-05,-4.833854032196531e-05,-2.73335535591668e-05,6.4667,4.0
4.01953125,-2.2946130922407816e-05,-4.980101453421831e-05,-4.491538639658193e-05,-2.7831759060044205e-05,6.4667,4.0
4.0234375,-4.637786060883492e-05,-4.833854032196531e-05,-5.0283148889906114e-05,-3.075670748455019e-05,6.4667,4.0
4.02734375,-5.468664267185468e-05,-4.784033482108792e-05,-5.32080973144121e-05,-3.075670748455019e-05,6.4667,4.0
4.03125,-2.685141920347901e-05,-4.784033482108792e-05,-5.2725962958724296e-05,-2.538894499122601e-05,6.4667,4.0
4.03515625,-7.308906652933487e-06,-5.32080973144121e-05,-5.663125123979549e-05,-2.4408605134660816e-05,6.4667,4.0
4.0390625,-2.6353213702601605e-05,-4.101009811551074e-05,-5.126348874647131e-05,-2.6353213702601605e-05,6.4667,4.0
4.04296875,-4.101009811551074e-05,-2.87960277714198e-05,-4.3452912184328936e-05,-3.4661995765621366e-05,6.4667,4.0
4.046875,-3.319952155336838e-05,-3.075670748455019e-05,-3.270131605249098e-05,-3.660660433356217e-05,6.4667,4.0
4.05078125,-3.02585019836728e-05,-4.589572625314713e-05,-3.7586944190127365e-05,-3.1238841840238e-05,6.4667,4.0
4.0546875,-2.148365671015483e-05,-4.7358200465400115e-05,-4.3452912184328936e-05,-3.660660433356217e-05,6.4667,4.0
4.05859375,-8.28924650949868e-06,-4.247257232776374e-05,-3.9049418402380354e-05,-4.443325204089413e-05,6.4667,4.0
4.0625,-1.2194534790569875e-05,-3.8085149691004755e-05,-4.3452912184328936e-05,-4.3452912184328936e-05,6.4667,4.0
4.06640625,-2.685141920347901e-05,-3.02585019836728e-05,-3.954762390325776e-05,-4.247257232776374e-05,6.4667,4.0
4.0703125,-4.443325204089413e-05,-3.660660433356217e-05,-4.2954706683451546e-05,-4.149223247119854e-05,6.4667,4.0
4.07421875,-3.319952155336838e-05,-3.660660433356217e-05,-4.2954706683451546e-05,-3.368165590905617e-05,6.4667,4.0
4.078125,-1.024992622262907e-05,-2.73335535591668e-05,-3.5642335622186566e-05,-2.3910399633783425e-05,6.4667,4.0
4.08203125,-2.2447925421530426e-05,-1.6598028572518445e-05,-3.221918169680319e-05,-2.3910399633783425e-05,6.4667,4.0
4.0859375,-4.247257232776374e-05,-2.3910399633783425e-05,-3.319952155336838e-05,-3.5144130121309175e-05,6.4667,4.0
4.08984375,-3.4163790264743975e-05,-2.87960277714198e-05,-3.612446997787437e-05,-4.3452912184328936e-05,6.4667,4.0
4.09375,-1.7562297283894054e-05,-3.075670748455019e-05,-3.5642335622186566e-05,-4.930280903334092e-05,6.4667,4.0
4.09765625,-3.9049418402380354e-05,-3.710480983443956e-05,-3.710480983443956e-05,-4.393504654001674e-05,6.4667,4.0
4.1015625,-5.32080973144121e-05,-3.710480983443956e-05,-3.4661995765621366e-05,-2.5871079346913815e-05,6.4667,4.0
4.10546875,-4.784033482108792e-05,-3.075670748455019e-05,-3.4661995765621366e-05,-2.685141920347901e-05,6.4667,4.0
