timestamp,TP9,AF7,AF8,TP10,Valence,Arousal
0.0,-2.6359408209353773e-05,-3.954693829251543e-05,-6.83171943236438e-06,-3.222507760738536e-05,3.4667,5.3333
0.00390625,-2.3430663935301737e-05,-2.5385887067978925e-05,-2.6850259205004945e-05,-3.1243375616083e-05,3.4667,5.3333
0.0078125,-1.0733984847791247e-05,1.4718432440680686e-06,-2.8314631342030962e-05,-3.710086416418707e-05,3.4667,5.3333
0.01171875,-1.3670909971770796e-05,-6.83171943236438e-06,-3.902975158312344e-06,-3.2707747753109015e-05,3.4667,5.3333
0.015625,-2.001106866559853e-05,-1.806402638284885e-05,7.329331792172134e-06,-2.6359408209353773e-05,3.4667,5.3333
0.01953125,-2.4895036072327754e-05,-3.0269854474708167e-05,-7.322570428015552e-06,-3.0269854474708167e-05,3.4667,5.3333
0.0234375,-3.076070547035934e-05,-3.710086416418707e-05,-2.2457142793926906e-05,-3.85734171511406e-05,3.4667,5.3333
0.02734375,-3.076070547035934e-05,-3.2707747753109015e-05,-1.5135282108796815e-05,-3.4172119890135035e-05,3.4667,5.3333
0.03125,-2.8805482337682147e-05,-2.8805482337682147e-05,-2.9212731670099853e-06,-3.515382188143739e-05,3.4667,5.3333
0.03515625,-1.806402638284885e-05,-2.438603021286326e-06,1.0748927061875342e-05,-3.759171515983824e-05,3.4667,5.3333
0.0390625,-1.4153580117494456e-05,5.864959655146115e-06,-6.340868436713194e-06,-3.466297088578621e-05,3.4667,5.3333
0.04296875,-2.6850259205004945e-05,-2.1483621652552058e-05,-2.9296333333333323e-05,-2.734111020065613e-05,3.4667,5.3333
0.046875,-2.8314631342030962e-05,-3.076070547035934e-05,-3.1243375616083e-05,-2.3430663935301737e-05,3.4667,5.3333
0.05078125,-2.2947993789578078e-05,-3.0269854474708167e-05,-3.466297088578621e-05,-2.782378034637979e-05,3.4667,5.3333
0.0546875,-3.2707747753109015e-05,-4.0520459433890276e-05,-2.4895036072327754e-05,-2.734111020065613e-05,3.4667,5.3333
0.05859375,-3.466297088578621e-05,-3.1243375616083e-05,-2.05019196612497e-05,-3.1734226611734184e-05,3.4667,5.3333
0.0625,-3.515382188143739e-05,-3.0269854474708167e-05,-3.319859874876019e-05,-3.466297088578621e-05,3.4667,5.3333
0.06640625,-3.4172119890135035e-05,-3.319859874876019e-05,-2.6850259205004945e-05,-2.782378034637979e-05,3.4667,5.3333
0.0703125,-2.8314631342030962e-05,-2.734111020065613e-05,-2.2947993789578078e-05,-3.4172119890135035e-05,3.4667,5.3333
0.07421875,-2.4895036072327754e-05,-1.3180058976119624e-05,-2.0992770656900886e-05,-4.0520459433890276e-05,3.4667,5.3333
0.078125,-2.782378034637979e-05,-1.806402638284885e-05,-2.001106866559853e-05,-3.85734171511406e-05,3.4667,5.3333
0.08203125,-2.8314631342030962e-05,-2.8314631342030962e-05,-3.2707747753109015e-05,-3.759171515983824e-05,3.4667,5.3333
0.0859375,-2.9296333333333323e-05,-2.5876738063630114e-05,-3.85734171511406e-05,-2.782378034637979e-05,3.4667,5.3333
0.08984375,-2.4895036072327754e-05,-2.1966291798275717e-05,-2.05019196612497e-05,-2.4412365926604094e-05,3.4667,5.3333
0.09375,-1.854669652857251e-05,-1.1715686839093606e-05,-6.340868436713194e-06,-2.782378034637979e-05,3.4667,5.3333
0.09765625,-2.5385887067978925e-05,-7.805240573739212e-06,-1.2689207980468437e-05,-2.0992770656900886e-05,3.4667,5.3333
0.1015625,-3.1734226611734184e-05,-6.340868436713194e-06,-8.78694256504157e-06,-1.806402638284885e-05,3.4667,5.3333
0.10546875,-2.9779003479056982e-05,-1.7082324391546492e-05,-2.1966291798275717e-05,-2.5876738063630114e-05,3.4667,5.3333
0.109375,-3.319859874876019e-05,-2.9779003479056982e-05,-2.9779003479056982e-05,-3.1734226611734184e-05,3.4667,5.3333
0.11328125,-3.515382188143739e-05,-2.734111020065613e-05,-2.9296333333333323e-05,-4.2966533562218654e-05,3.4667,5.3333
0.1171875,-3.4172119890135035e-05,-1.2689207980468437e-05,-3.222507760738536e-05,-4.735964997329669e-05,3.4667,5.3333
0.12109375,-3.319859874876019e-05,-9.269612710765229e-06,-3.710086416418707e-05,-4.101131042954145e-05,3.4667,5.3333
0.125,-3.515382188143739e-05,-1.0251314702067588e-05,-3.2707747753109015e-05,-4.0520459433890276e-05,3.4667,5.3333
0.12890625,-4.4913575844968336e-05,-2.4895036072327754e-05,-2.9779003479056982e-05,-3.1243375616083e-05,3.4667,5.3333
0.1328125,-4.3940054703593485e-05,-4.2966533562218654e-05,-3.1734226611734184e-05,-2.9779003479056982e-05,3.4667,5.3333
0.13671875,-3.466297088578621e-05,-3.2707747753109015e-05,-2.05019196612497e-05,-3.5636492027161055e-05,3.4667,5.3333
0.140625,-3.368944974441137e-05,-2.8314631342030962e-05,-2.3430663935301737e-05,-4.003778928816662e-05,3.4667,5.3333
0.14453125,-3.808256615548943e-05,-2.5876738063630114e-05,-2.4895036072327754e-05,-4.247568256656747e-05,3.4667,5.3333
0.1484375,-3.5636492027161055e-05,-2.05019196612497e-05,-2.3921514930952922e-05,-4.882402211032271e-05,3.4667,5.3333
0.15234375,-3.368944974441137e-05,-1.952839851987487e-05,-2.3921514930952922e-05,-5.5172361654077955e-05,3.4667,5.3333
0.15625,-3.1734226611734184e-05,-1.3180058976119624e-05,-1.9037547524223684e-05,-5.419065966277561e-05,3.4667,5.3333
0.16015625,-2.8314631342030962e-05,-1.610880325017166e-05,-1.952839851987487e-05,-4.93148731059739e-05,3.4667,5.3333
0.1640625,-2.5385887067978925e-05,-2.8314631342030962e-05,-2.3430663935301737e-05,-4.247568256656747e-05,3.4667,5.3333
0.16796875,-3.1243375616083e-05,-3.319859874876019e-05,-2.3430663935301737e-05,-4.4430905699244674e-05,3.4667,5.3333
0.171875,-3.222507760738536e-05,-3.1243375616083e-05,-2.734111020065613e-05,-4.93148731059739e-05,3.4667,5.3333
0.17578125,-3.368944974441137e-05,-2.8314631342030962e-05,-1.7082324391546492e-05,-4.0520459433890276e-05,3.4667,5.3333
0.1796875,-4.1984831570916296e-05,-3.368944974441137e-05,-1.122483584344242e-05,-3.076070547035934e-05,3.4667,5.3333
0.18359375,-3.661819401846341e-05,-3.2707747753109015e-05,-2.5385887067978925e-05,-3.5636492027161055e-05,3.4667,5.3333
0.1875,-3.515382188143739e-05,-3.661819401846341e-05,-3.515382188143739e-05,-4.3940054703593485e-05,3.4667,5.3333
0.19140625,-4.2966533562218654e-05,-3.905608729686426e-05,-2.1966291798275717e-05,-3.905608729686426e-05,3.4667,5.3333
0.1953125,-4.003778928816662e-05,-4.003778928816662e-05,-1.5135282108796815e-05,-4.3449203707942316e-05,3.4667,5.3333
0.19921875,-3.4172119890135035e-05,-3.1243375616083e-05,-2.2947993789578078e-05,-5.1752766384374746e-05,3.4667,5.3333
0.203125,-3.222507760738536e-05,-1.7573175387197664e-05,-2.5385887067978925e-05,-4.5404426840619505e-05,3.4667,5.3333
0.20703125,-3.808256615548943e-05,-2.1483621652552058e-05,-2.8314631342030962e-05,-4.003778928816662e-05,3.4667,5.3333
0.2109375,-4.150216142519264e-05,-2.6359408209353773e-05,-1.854669652857251e-05,-3.612734302281222e-05,3.4667,5.3333
0.21484375,-4.101131042954145e-05,-2.5385887067978925e-05,1.954513389791728e-06,-2.6359408209353773e-05,3.4667,5.3333
0.21875,-3.612734302281222e-05,-2.734111020065613e-05,-6.340868436713194e-06,-2.1483621652552058e-05,3.4667,5.3333
0.22265625,-3.1243375616083e-05,-3.1243375616083e-05,-2.6850259205004945e-05,-2.6359408209353773e-05,3.4667,5.3333
0.2265625,-3.2707747753109015e-05,-3.515382188143739e-05,-3.4172119890135035e-05,-3.1734226611734184e-05,3.4667,5.3333
0.23046875,-2.9296333333333323e-05,-3.661819401846341e-05,-1.4644431113145643e-05,-3.368944974441137e-05,3.4667,5.3333
0.234375,-2.782378034637979e-05,-3.222507760738536e-05,-1.3180058976119624e-05,-3.368944974441137e-05,3.4667,5.3333
0.23828125,-3.368944974441137e-05,-3.222507760738536e-05,-2.5385887067978925e-05,-2.782378034637979e-05,3.4667,5.3333
0.2421875,-3.661819401846341e-05,-4.5404426840619505e-05,-3.2707747753109015e-05,-2.2947993789578078e-05,3.4667,5.3333
0.24609375,-3.905608729686426e-05,-5.3217138521400766e-05,-4.4913575844968336e-05,-2.001106866559853e-05,3.4667,5.3333
0.25,-3.466297088578621e-05,-5.0779245242999915e-05,-4.247568256656747e-05,-1.5617952254520476e-05,3.4667,5.3333
0.25390625,-3.1243375616083e-05,-5.419065966277561e-05,-3.612734302281222e-05,-1.610880325017166e-05,3.4667,5.3333
0.2578125,-2.9779003479056982e-05,-5.0779245242999915e-05,-4.3449203707942316e-05,-1.9037547524223684e-05,3.4667,5.3333
0.26171875,-2.8314631342030962e-05,-5.0779245242999915e-05,-5.7127584786755163e-05,-2.1966291798275717e-05,3.4667,5.3333
0.265625,-2.6359408209353773e-05,-6.152070119783322e-05,-7.177130615701531e-05,-2.3921514930952922e-05,3.4667,5.3333
0.26953125,-3.2707747753109015e-05,-8.300361310749979e-05,-8.251276211184862e-05,-1.4153580117494456e-05,3.4667,5.3333
0.2734375,-2.9779003479056982e-05,-9.570029219501029e-05,-6.737818974593727e-05,-6.340868436713194e-06,3.4667,5.3333
0.27734375,-2.4895036072327754e-05,-0.00010106692974746318,-8.397713424887464e-05,-1.5135282108796815e-05,3.4667,5.3333
0.28125,-3.0269854474708167e-05,-0.00011815672524605173,-0.00012646028792248415,-1.7082324391546492e-05,3.4667,5.3333
0.28515625,-2.8805482337682147e-05,-0.00011815672524605173,-0.00013720174387731745,-1.4153580117494456e-05,3.4667,5.3333
0.2890625,-2.1483621652552058e-05,-0.00011034401356527046,-0.00013720174387731745,-2.3921514930952922e-05,3.4667,5.3333
0.29296875,-2.2457142793926906e-05,-0.00012353154364843215,-0.0001396396371557183,-2.8805482337682147e-05,3.4667,5.3333
0.296875,-3.076070547035934e-05,-0.00014404093441672388,-0.00013378214860761427,-8.78694256504157e-06,3.4667,5.3333
0.30078125,-4.3940054703593485e-05,-0.00015185364609750517,-0.00013378214860761427,4.400587518120098e-06,3.4667,5.3333
0.3046875,-4.3449203707942316e-05,-0.00015966635777828642,-0.00014989842296482794,-1.4569010299839675e-06,3.4667,5.3333
0.30859375,-3.4172119890135035e-05,-0.00016405947418936446,-0.00016552384632639047,-9.269612710765229e-06,3.4667,5.3333
0.3125,-4.150216142519264e-05,-0.00017089048387884334,-0.00018065841869230182,-1.0251314702067588e-05,3.4667,5.3333
0.31640625,-4.638612883192186e-05,-0.00018065841869230182,-0.00017480093014419777,-9.760463706416402e-06,3.4667,5.3333
0.3203125,-4.833317111467154e-05,-0.0001845688649576562,-0.00015672943265430687,-9.269612710765229e-06,3.4667,5.3333
0.32421875,-4.3940054703593485e-05,-0.00017187218587014571,-0.00016063987891966124,-7.805240573739212e-06,3.4667,5.3333
0.328125,-4.4913575844968336e-05,-0.00016307777219806208,-0.00014843405082780192,-3.902975158312344e-06,3.4667,5.3333
0.33203125,-4.735964997329669e-05,-0.00015868465578698404,-0.00013378214860761427,-1.3180058976119624e-05,3.4667,5.3333
0.3359375,-4.2966533562218654e-05,-0.00014647882769512475,-0.0001367108928816663,-2.2457142793926906e-05,3.4667,5.3333
0.33984375,-4.1984831570916296e-05,-0.00015478239037155717,-0.00016210425105668726,-2.1483621652552058e-05,3.4667,5.3333
0.34375,-4.150216142519264e-05,-0.0001577111346456092,-0.00017187218587014571,-1.854669652857251e-05,3.4667,5.3333
0.34765625,-3.710086416418707e-05,-0.00014794319983215073,-0.00014013048815136948,-1.854669652857251e-05,3.4667,5.3333
0.3515625,-3.808256615548943e-05,-0.0001455053065537499,-0.00011767405510032807,-1.854669652857251e-05,3.4667,5.3333
0.35546875,-4.150216142519264e-05,-0.0001332994784618906,-0.0001220671715114061,-2.0992770656900886e-05,3.4667,5.3333
0.359375,-3.759171515983824e-05,-0.00011620968296330204,-0.00012011194837872892,-2.3430663935301737e-05,3.4667,5.3333
0.36328125,-4.0520459433890276e-05,-0.00010887964142824443,-0.00011376360883497366,-1.5617952254520476e-05,3.4667,5.3333
0.3671875,-4.101131042954145e-05,-0.00011279008769359884,-0.00011474531082627604,-1.9037547524223684e-05,3.4667,5.3333
0.37109375,-3.4172119890135035e-05,-0.00010302215288014037,-0.0001044865250171664,-3.319859874876019e-05,3.4667,5.3333
0.375,-3.0269854474708167e-05,-9.716466433203632e-05,-0.0001044865250171664,-4.3940054703593485e-05,3.4667,5.3333
0.37890625,-3.222507760738536e-05,-0.00010546004615854125,-0.0001044865250171664,-4.882402211032271e-05,3.4667,5.3333
0.3828125,-3.808256615548943e-05,-9.813818547341114e-05,-9.423592005798429e-05,-4.785050096894788e-05,3.4667,5.3333
0.38671875,-4.3940054703593485e-05,-8.739672951857785e-05,-8.886110165560387e-05,-4.882402211032271e-05,3.4667,5.3333
0.390625,-3.905608729686426e-05,-6.933341287861446e-05,-6.933341287861446e-05,-4.247568256656747e-05,3.4667,5.3333
0.39453125,-3.710086416418707e-05,-5.6145882795452806e-05,-5.4681510658426786e-05,-3.808256615548943e-05,3.4667,5.3333
0.3984375,-4.101131042954145e-05,-4.150216142519264e-05,-5.4681510658426786e-05,-4.247568256656747e-05,3.4667,5.3333
0.40234375,-4.0520459433890276e-05,-3.612734302281222e-05,-6.34759243305104e-05,-3.905608729686426e-05,3.4667,5.3333
0.40625,-3.905608729686426e-05,-2.001106866559853e-05,-6.640466860456244e-05,-4.1984831570916296e-05,3.4667,5.3333
0.41015625,-3.222507760738536e-05,6.838480796520954e-06,-3.368944974441137e-05,-5.3707989517051955e-05,3.4667,5.3333
0.4140625,-2.9296333333333323e-05,-2.438603021286326e-06,-2.1483621652552058e-05,-5.761025493247882e-05,3.4667,5.3333
0.41796875,-3.4172119890135035e-05,-1.9477520256351465e-06,-3.319859874876019e-05,-5.6636733791103975e-05,3.4667,5.3333
0.421875,-3.5636492027161055e-05,2.4453643854429074e-06,-2.001106866559853e-05,-5.2243617380025935e-05,3.4667,5.3333
0.42578125,-3.808256615548943e-05,-1.3180058976119624e-05,-6.83171943236438e-06,-4.979754325169756e-05,3.4667,5.3333
0.4296875,-4.4430905699244674e-05,-2.1966291798275717e-05,-9.74230884260308e-07,-5.126191538872358e-05,3.4667,5.3333
0.43359375,-4.4430905699244674e-05,-2.3921514930952922e-05,-3.902975158312344e-06,-5.7127584786755163e-05,3.4667,5.3333
0.4375,-3.515382188143739e-05,-1.9037547524223684e-05,-1.0251314702067588e-05,-6.102985020218203e-05,3.4667,5.3333
0.44140625,-3.222507760738536e-05,-1.4644431113145643e-05,-1.4153580117494456e-05,-5.7127584786755163e-05,3.4667,5.3333
0.4453125,-3.5636492027161055e-05,-7.805240573739212e-06,-3.902975158312344e-06,-4.882402211032271e-05,3.4667,5.3333
0.44921875,-3.808256615548943e-05,-1.2198356984817265e-05,1.7579936751354253e-05,-4.150216142519264e-05,3.4667,5.3333
0.453125,-4.247568256656747e-05,-1.7573175387197664e-05,2.8321392706187544e-05,-4.5895277836270694e-05,3.4667,5.3333
0.45703125,-4.5404426840619505e-05,-9.760463706416402e-06,1.221329919890136e-05,-5.419065966277561e-05,3.4667,5.3333
0.4609375,-4.5404426840619505e-05,-9.760463706416402e-06,-5.858198290989534e-06,-5.859195692378118e-05,3.4667,5.3333
0.46484375,-3.954693829251543e-05,-5.367347295338362e-06,-1.3670909971770796e-05,-6.249422233920805e-05,3.4667,5.3333
0.46875,-3.319859874876019e-05,5.374108659494937e-06,-7.322570428015552e-06,-6.102985020218203e-05,3.4667,5.3333
0.47265625,-3.466297088578621e-05,3.9097365224689184e-06,4.400587518120098e-06,-5.8101105928129995e-05,3.4667,5.3333
0.4765625,-3.515382188143739e-05,1.4718432440680686e-06,3.418885526817739e-06,-5.4681510658426786e-05,3.4667,5.3333
0.48046875,-3.1734226611734184e-05,4.8914385137712766e-06,4.400587518120098e-06,-5.419065966277561e-05,3.4667,5.3333
0.484375,-2.8805482337682147e-05,4.400587518120098e-06,8.302852933546972e-06,-4.882402211032271e-05,3.4667,5.3333
0.48828125,-2.5385887067978925e-05,1.4718432440680686e-06,1.221329919890136e-05,-4.2966533562218654e-05,3.4667,5.3333
0.4921875,-2.2457142793926906e-05,6.355810650797295e-06,2.3928276295109498e-05,-4.4430905699244674e-05,3.4667,5.3333
0.49609375,-2.4895036072327754e-05,9.28455492484933e-06,2.2463904158083478e-05,-4.979754325169756e-05,3.4667,5.3333
0.5,-2.8805482337682147e-05,1.3677671335927378e-05,1.5142043472953395e-05,-5.419065966277561e-05,3.4667,5.3333
0.50390625,-3.710086416418707e-05,1.1231597207599001e-05,1.5632894468604574e-05,-4.833317111467154e-05,3.4667,5.3333
0.5078125,-4.247568256656747e-05,5.864959655146115e-06,2.8321392706187544e-05,-4.4913575844968336e-05,3.4667,5.3333
0.51171875,-3.466297088578621e-05,8.793703929198152e-06,3.516058324559397e-05,-4.2966533562218654e-05,3.4667,5.3333
0.515625,-2.6359408209353773e-05,1.3677671335927378e-05,2.7838722560463885e-05,-4.5404426840619505e-05,3.4667,5.3333
0.51953125,-2.6359408209353773e-05,1.4168522331578557e-05,1.9044308888380263e-05,-5.0779245242999915e-05,3.4667,5.3333
0.5234375,-2.9779003479056982e-05,4.400587518120098e-06,5.374108659494937e-06,-5.2243617380025935e-05,3.4667,5.3333
0.52734375,-3.1734226611734184e-05,3.418885526817739e-06,6.838480796520954e-06,-5.6145882795452806e-05,3.4667,5.3333
0.53125,-3.222507760738536e-05,5.374108659494937e-06,2.0026010879682623e-05,-5.4681510658426786e-05,3.4667,5.3333
0.53515625,-3.319859874876019e-05,3.418885526817739e-06,2.0508681025406283e-05,-4.979754325169756e-05,3.4667,5.3333
0.5390625,-2.782378034637979e-05,9.28455492484933e-06,1.3186820340276198e-05,-4.5404426840619505e-05,3.4667,5.3333
0.54296875,-2.9779003479056982e-05,2.4453643854429074e-06,9.809922484168893e-07,-4.3940054703593485e-05,3.4667,5.3333
0.546875,-3.808256615548943e-05,-1.122483584344242e-05,-1.9477520256351465e-06,-4.638612883192186e-05,3.4667,5.3333
0.55078125,-3.515382188143739e-05,-1.5135282108796815e-05,4.901412527657101e-07,-4.785050096894788e-05,3.4667,5.3333
0.5546875,-2.8314631342030962e-05,-3.902975158312344e-06,9.76722507057299e-06,-4.833317111467154e-05,3.4667,5.3333
0.55859375,-2.6359408209353773e-05,1.025807606622417e-05,1.6115564614328233e-05,-4.785050096894788e-05,3.4667,5.3333
0.5625,-2.3921514930952922e-05,1.3186820340276198e-05,4.400587518120098e-06,-5.028839424734873e-05,3.4667,5.3333
0.56640625,-2.1966291798275717e-05,1.8070787747005425e-05,-1.4569010299839675e-06,-4.785050096894788e-05,3.4667,5.3333
0.5703125,-2.1966291798275717e-05,1.3677671335927378e-05,-5.367347295338362e-06,-4.638612883192186e-05,3.4667,5.3333
0.57421875,-2.3430663935301737e-05,1.3186820340276198e-05,6.355810650797295e-06,-4.882402211032271e-05,3.4667,5.3333
0.578125,-2.0992770656900886e-05,2.4909978286411855e-05,1.025807606622417e-05,-4.735964997329669e-05,3.4667,5.3333
0.58203125,-1.806402638284885e-05,2.3928276295109498e-05,2.9362153810940797e-06,-4.4430905699244674e-05,3.4667,5.3333
0.5859375,-2.3921514930952922e-05,1.9044308888380263e-05,1.172244820325018e-05,-4.0520459433890276e-05,3.4667,5.3333
0.58984375,-2.5876738063630114e-05,2.0508681025406283e-05,2.8812243701838723e-05,-3.612734302281222e-05,3.4667,5.3333
0.59375,-2.0992770656900886e-05,1.9044308888380263e-05,3.076746683451592e-05,-3.466297088578621e-05,3.4667,5.3333
0.59765625,-2.3430663935301737e-05,8.793703929198152e-06,6.355810650797295e-06,-3.954693829251543e-05,3.4667,5.3333
0.6015625,-2.782378034637979e-05,-1.9477520256351465e-06,-1.3670909971770796e-05,-4.5404426840619505e-05,3.4667,5.3333
0.60546875,-2.6359408209353773e-05,9.809922484168893e-07,-1.9037547524223684e-05,-5.028839424734873e-05,3.4667,5.3333
0.609375,-2.782378034637979e-05,7.471107042050562e-09,-1.806402638284885e-05,-5.2243617380025935e-05,3.4667,5.3333
0.61328125,-3.222507760738536e-05,-8.296091569390398e-06,9.809922484168893e-07,-5.0779245242999915e-05,3.4667,5.3333
0.6171875,-3.515382188143739e-05,-4.3938261539635166e-06,1.025807606622417e-05,-4.5404426840619505e-05,3.4667,5.3333
0.62109375,-4.0520459433890276e-05,1.954513389791728e-06,-1.4569010299839675e-06,-4.1984831570916296e-05,3.4667,5.3333
0.625,-4.150216142519264e-05,-2.9212731670099853e-06,-6.83171943236438e-06,-3.954693829251543e-05,3.4667,5.3333
0.62890625,-3.954693829251543e-05,-6.83171943236438e-06,-9.269612710765229e-06,-4.247568256656747e-05,3.4667,5.3333
0.6328125,-3.466297088578621e-05,-3.902975158312344e-06,-1.9477520256351465e-06,-4.785050096894788e-05,3.4667,5.3333
0.63671875,-3.0269854474708167e-05,-3.412124162661165e-06,-2.9212731670099853e-06,-5.419065966277561e-05,3.4667,5.3333
0.640625,-3.515382188143739e-05,-1.0733984847791247e-05,-2.2947993789578078e-05,-5.5172361654077955e-05,3.4667,5.3333
0.64453125,-3.759171515983824e-05,-1.6599654245822833e-05,-2.6850259205004945e-05,-5.028839424734873e-05,3.4667,5.3333
0.6484375,-3.1734226611734184e-05,-1.6599654245822833e-05,-1.4644431113145643e-05,-4.4913575844968336e-05,3.4667,5.3333
0.65234375,-2.6359408209353773e-05,-1.806402638284885e-05,-5.858198290989534e-06,-4.4430905699244674e-05,3.4667,5.3333
0.65625,-2.9779003479056982e-05,-2.1483621652552058e-05,-1.0251314702067588e-05,-4.3449203707942316e-05,3.4667,5.3333
0.66015625,-3.4172119890135035e-05,-2.1966291798275717e-05,-1.806402638284885e-05,-4.150216142519264e-05,3.4667,5.3333
0.6640625,-2.9296333333333323e-05,-2.001106866559853e-05,-2.782378034637979e-05,-3.710086416418707e-05,3.4667,5.3333
0.66796875,-2.6850259205004945e-05,-1.806402638284885e-05,-1.854669652857251e-05,-3.808256615548943e-05,3.4667,5.3333
0.671875,-3.368944974441137e-05,4.400587518120098e-06,1.5632894468604574e-05,-5.0779245242999915e-05,3.4667,5.3333
0.67578125,-3.319859874876019e-05,1.6115564614328233e-05,3.2722689967193117e-05,-4.3449203707942316e-05,3.4667,5.3333
0.6796875,-3.222507760738536e-05,-1.7573175387197664e-05,-2.9212731670099853e-06,-2.9779003479056982e-05,3.4667,5.3333
0.68359375,-3.319859874876019e-05,-3.661819401846341e-05,-3.1734226611734184e-05,-3.661819401846341e-05,3.4667,5.3333
0.6875,-3.1243375616083e-05,-2.001106866559853e-05,-2.2457142793926906e-05,-4.0520459433890276e-05,3.4667,5.3333
0.69140625,-3.4172119890135035e-05,-1.7082324391546492e-05,-1.1715686839093606e-05,-3.759171515983824e-05,3.4667,5.3333
0.6953125,-3.319859874876019e-05,-2.1483621652552058e-05,-5.858198290989534e-06,-4.4430905699244674e-05,3.4667,5.3333
0.69921875,-2.9296333333333323e-05,-1.1715686839093606e-05,-9.269612710765229e-06,-4.3940054703593485e-05,3.4667,5.3333
0.703125,-3.612734302281222e-05,-1.0251314702067588e-05,-1.9037547524223684e-05,-4.003778928816662e-05,3.4667,5.3333
0.70703125,-4.3449203707942316e-05,-1.7573175387197664e-05,-2.2947993789578078e-05,-3.759171515983824e-05,3.4667,5.3333
0.7109375,-4.3449203707942316e-05,-1.122483584344242e-05,-1.2689207980468437e-05,-3.222507760738536e-05,3.4667,5.3333
0.71484375,-4.2966533562218654e-05,-1.2689207980468437e-05,-6.83171943236438e-06,-3.5636492027161055e-05,3.4667,5.3333
0.71875,-4.4430905699244674e-05,-2.5385887067978925e-05,-1.854669652857251e-05,-4.150216142519264e-05,3.4667,5.3333
0.72265625,-4.638612883192186e-05,-3.0269854474708167e-05,-2.6359408209353773e-05,-4.3449203707942316e-05,3.4667,5.3333
0.7265625,-4.3940054703593485e-05,-2.4895036072327754e-05,-1.952839851987487e-05,-4.6868798977645525e-05,3.4667,5.3333
0.73046875,-3.954693829251543e-05,-2.1966291798275717e-05,-1.1715686839093606e-05,-4.735964997329669e-05,3.4667,5.3333
0.734375,-4.003778928816662e-05,-2.2947993789578078e-05,-6.83171943236438e-06,-4.247568256656747e-05,3.4667,5.3333
0.73828125,-3.954693829251543e-05,-2.4895036072327754e-05,-1.0251314702067588e-05,-3.4172119890135035e-05,3.4667,5.3333
0.7421875,-3.612734302281222e-05,-2.5876738063630114e-05,-2.3430663935301737e-05,-3.466297088578621e-05,3.4667,5.3333
0.74609375,-3.4172119890135035e-05,-1.610880325017166e-05,-2.6359408209353773e-05,-4.101131042954145e-05,3.4667,5.3333
0.75,-3.466297088578621e-05,-1.122483584344242e-05,-1.0251314702067588e-05,-3.661819401846341e-05,3.4667,5.3333
0.75390625,-3.368944974441137e-05,-1.6599654245822833e-05,-2.9212731670099853e-06,-3.466297088578621e-05,3.4667,5.3333
0.7578125,-3.612734302281222e-05,-2.001106866559853e-05,-1.4644431113145643e-05,-3.612734302281222e-05,3.4667,5.3333
0.76171875,-4.150216142519264e-05,-2.5876738063630114e-05,-2.9296333333333323e-05,-3.612734302281222e-05,3.4667,5.3333
0.765625,-4.150216142519264e-05,-2.6850259205004945e-05,-3.905608729686426e-05,-3.5636492027161055e-05,3.4667,5.3333
0.76953125,-4.1984831570916296e-05,-2.001106866559853e-05,-3.4172119890135035e-05,-3.5636492027161055e-05,3.4667,5.3333
0.7734375,-4.3449203707942316e-05,-2.6359408209353773e-05,-2.5876738063630114e-05,-3.710086416418707e-05,3.4667,5.3333
0.77734375,-4.0520459433890276e-05,-3.612734302281222e-05,-2.5385887067978925e-05,-3.612734302281222e-05,3.4667,5.3333
0.78125,-3.368944974441137e-05,-3.222507760738536e-05,-2.782378034637979e-05,-3.710086416418707e-05,3.4667,5.3333
0.78515625,-2.8314631342030962e-05,-2.0992770656900886e-05,-2.2947993789578078e-05,-4.003778928816662e-05,3.4667,5.3333
0.7890625,-2.8805482337682147e-05,-1.0733984847791247e-05,-1.7573175387197664e-05,-3.368944974441137e-05,3.4667,5.3333
0.79296875,-3.2707747753109015e-05,-1.3180058976119624e-05,-1.1715686839093606e-05,-2.3921514930952922e-05,3.4667,5.3333
0.796875,-3.2707747753109015e-05,-2.0992770656900886e-05,-6.83171943236438e-06,-2.2947993789578078e-05,3.4667,5.3333
0.80078125,-2.9779003479056982e-05,-2.001106866559853e-05,-1.2689207980468437e-05,-2.9296333333333323e-05,3.4667,5.3333
0.8046875,-3.076070547035934e-05,-2.5385887067978925e-05,-2.9296333333333323e-05,-3.2707747753109015e-05,3.4667,5.3333
0.80859375,-3.515382188143739e-05,-3.0269854474708167e-05,-3.515382188143739e-05,-2.9779003479056982e-05,3.4667,5.3333
0.8125,-2.9296333333333323e-05,-2.3921514930952922e-05,-1.806402638284885e-05,-3.4172119890135035e-05,3.4667,5.3333
0.81640625,-2.5876738063630114e-05,-2.1483621652552058e-05,-1.3180058976119624e-05,-3.222507760738536e-05,3.4667,5.3333
0.8203125,-2.9779003479056982e-05,-2.6850259205004945e-05,-2.1483621652552058e-05,-2.5876738063630114e-05,3.4667,5.3333
0.82421875,-2.5876738063630114e-05,-2.2457142793926906e-05,-2.2947993789578078e-05,-2.4412365926604094e-05,3.4667,5.3333
0.828125,-2.2947993789578078e-05,-2.5876738063630114e-05,-1.9037547524223684e-05,-2.4895036072327754e-05,3.4667,5.3333
0.83203125,-2.6850259205004945e-05,-3.954693829251543e-05,-1.7082324391546492e-05,-2.9296333333333323e-05,3.4667,5.3333
0.8359375,-2.8314631342030962e-05,-3.661819401846341e-05,-2.1483621652552058e-05,-3.368944974441137e-05,3.4667,5.3333
0.83984375,-2.6359408209353773e-05,-2.5385887067978925e-05,-2.782378034637979e-05,-3.2707747753109015e-05,3.4667,5.3333
0.84375,-2.8314631342030962e-05,-1.7082324391546492e-05,-3.808256615548943e-05,-2.734111020065613e-05,3.4667,5.3333
0.84765625,-2.8805482337682147e-05,-2.2947993789578078e-05,-4.0520459433890276e-05,-2.001106866559853e-05,3.4667,5.3333
0.8515625,-2.5385887067978925e-05,-3.222507760738536e-05,-2.5876738063630114e-05,-2.001106866559853e-05,3.4667,5.3333
0.85546875,-3.1734226611734184e-05,-4.3940054703593485e-05,-2.6850259205004945e-05,-2.5385887067978925e-05,3.4667,5.3333
0.859375,-3.5636492027161055e-05,-4.5404426840619505e-05,-3.661819401846341e-05,-2.734111020065613e-05,3.4667,5.3333
0.86328125,-3.368944974441137e-05,-4.247568256656747e-05,-4.5404426840619505e-05,-3.0269854474708167e-05,3.4667,5.3333
0.8671875,-3.808256615548943e-05,-4.247568256656747e-05,-4.5895277836270694e-05,-3.2707747753109015e-05,3.4667,5.3333
0.87109375,-4.003778928816662e-05,-3.319859874876019e-05,-2.3921514930952922e-05,-3.222507760738536e-05,3.4667,5.3333
0.875,-3.661819401846341e-05,-3.661819401846341e-05,-1.122483584344242e-05,-3.222507760738536e-05,3.4667,5.3333
0.87890625,-3.710086416418707e-05,-3.954693829251543e-05,-2.4895036072327754e-05,-3.368944974441137e-05,3.4667,5.3333
0.8828125,-3.222507760738536e-05,-3.1243375616083e-05,-4.6868798977645525e-05,-2.6359408209353773e-05,3.4667,5.3333
0.88671875,-2.8314631342030962e-05,-3.222507760738536e-05,-6.298507333485922e-05,-2.4895036072327754e-05,3.4667,5.3333
0.890625,-3.076070547035934e-05,-3.2707747753109015e-05,-6.249422233920805e-05,-1.854669652857251e-05,3.4667,5.3333
0.89453125,-3.222507760738536e-05,-3.515382188143739e-05,-6.981608302433812e-05,-1.952839851987487e-05,3.4667,5.3333
0.8984375,-2.734111020065613e-05,-4.785050096894788e-05,-8.788758051422902e-05,-1.5135282108796815e-05,3.4667,5.3333
0.90234375,-2.2457142793926906e-05,-6.688733875028611e-05,-0.00010546004615854125,-1.2689207980468437e-05,3.4667,5.3333
0.90625,-2.734111020065613e-05,-8.544150638590064e-05,-0.00012304069265278096,-1.6599654245822833e-05,3.4667,5.3333
0.91015625,-3.2707747753109015e-05,-0.00010839697128252077,-0.00012596943692683298,-1.3670909971770796e-05,3.4667,5.3333
0.9140625,-3.954693829251543e-05,-0.00012889818120088504,-0.00013231777647058823,-1.806402638284885e-05,3.4667,5.3333
0.91796875,-4.150216142519264e-05,-0.0001435500834210727,-0.00014452360456244755,-1.4644431113145643e-05,3.4667,5.3333
0.921875,-3.612734302281222e-05,-0.00015136279510185398,-0.00015331801823453115,-1.806402638284885e-05,3.4667,5.3333
0.92578125,-3.368944974441137e-05,-0.0001469696786907759,-0.00014159486028839552,-1.7573175387197664e-05,3.4667,5.3333
0.9296875,-4.735964997329669e-05,-0.0001669882184634165,-0.00014013048815136948,-3.412124162661165e-06,3.4667,5.3333
0.93359375,-5.7127584786755163e-05,-0.00018651590724040587,-0.00014745234883649957,-4.3938261539635166e-06,3.4667,5.3333
0.9375,-5.0779245242999915e-05,-0.00017284570701152057,-0.00014111219014267186,-7.805240573739212e-06,3.4667,5.3333
0.94140625,-4.979754325169756e-05,-0.00018651590724040587,-0.0001684525906004425,-5.858198290989534e-06,3.4667,5.3333
0.9453125,-5.5172361654077955e-05,-0.000208007,-0.00018798027937743191,-1.0733984847791247e-05,3.4667,5.3333
0.94921875,-4.882402211032271e-05,-0.00019432861892118713,-0.00016991696273746854,-1.2198356984817265e-05,3.4667,5.3333
0.953125,-4.735964997329669e-05,-0.00018554238609903105,-0.0001562467625085832,-7.805240573739212e-06,3.4667,5.3333
0.95703125,-5.1752766384374746e-05,-0.0001757744512855726,-0.000154291539375906,-6.340868436713194e-06,3.4667,5.3333
0.9609375,-4.735964997329669e-05,-0.00016796173960479134,-0.00015331801823453115,-9.74230884260308e-07,3.4667,5.3333
0.96484375,-5.3707989517051955e-05,-0.00018261364182497902,-0.00017187218587014571,-4.876496299687176e-06,3.4667,5.3333
0.96875,-5.5663212649729143e-05,-0.00017138133487449453,-0.00017040781373311967,-1.806402638284885e-05,3.4667,5.3333
0.97265625,-4.93148731059739e-05,-0.00014647882769512475,-0.0001455053065537499,-1.854669652857251e-05,3.4667,5.3333
0.9765625,-4.5895277836270694e-05,-0.00014647882769512475,-0.0001342729996032654,-1.6599654245822833e-05,3.4667,5.3333
0.98046875,-4.3449203707942316e-05,-0.0001386661160143435,-0.00012792466005951019,-1.7082324391546492e-05,3.4667,5.3333
0.984375,-4.4430905699244674e-05,-0.00013036255333791102,-0.00013036255333791102,-1.5617952254520476e-05,3.4667,5.3333
0.98828125,-4.735964997329669e-05,-0.00012254984165712977,-0.00011279008769359884,-1.5617952254520476e-05,3.4667,5.3333
0.9921875,-4.0520459433890276e-05,-0.0001132727578393225,-9.081632478828106e-05,-1.4644431113145643e-05,3.4667,5.3333
0.99609375,-3.808256615548943e-05,-0.00010839697128252077,-8.397713424887464e-05,-1.122483584344242e-05,3.4667,5.3333
1.0,-4.150216142519264e-05,-9.667381333638513e-05,-8.984280364690621e-05,-1.5135282108796815e-05,3.4667,5.3333
1.00390625,-4.3940054703593485e-05,-8.642320837720302e-05,-9.960255761043717e-05,-2.3921514930952922e-05,3.4667,5.3333
1.0078125,-4.2966533562218654e-05,-7.616442256809339e-05,-8.056571982909895e-05,-2.8314631342030962e-05,3.4667,5.3333
1.01171875,-3.85734171511406e-05,-5.3707989517051955e-05,-4.2966533562218654e-05,-3.1734226611734184e-05,3.4667,5.3333
1.015625,-3.515382188143739e-05,-3.759171515983824e-05,-2.5876738063630114e-05,-2.734111020065613e-05,3.4667,5.3333
1.01953125,-3.612734302281222e-05,-3.319859874876019e-05,-3.319859874876019e-05,-2.8805482337682147e-05,3.4667,5.3333
1.0234375,-3.612734302281222e-05,-2.6850259205004945e-05,-4.003778928816662e-05,-3.612734302281222e-05,3.4667,5.3333
1.02734375,-3.2707747753109015e-05,-1.952839851987487e-05,-3.2707747753109015e-05,-3.4172119890135035e-05,3.4667,5.3333
1.03125,-3.4172119890135035e-05,-1.610880325017166e-05,-1.9037547524223684e-05,-3.759171515983824e-05,3.4667,5.3333
1.03515625,-3.759171515983824e-05,-1.0251314702067588e-05,-4.3938261539635166e-06,-4.5404426840619505e-05,3.4667,5.3333
1.0390625,-4.1984831570916296e-05,-2.438603021286326e-06,-7.805240573739212e-06,-4.4913575844968336e-05,3.4667,5.3333
1.04296875,-4.785050096894788e-05,-1.1715686839093606e-05,-1.610880325017166e-05,-4.150216142519264e-05,3.4667,5.3333
1.046875,-4.5895277836270694e-05,-1.3670909971770796e-05,-5.367347295338362e-06,-4.150216142519264e-05,3.4667,5.3333
1.05078125,-4.1984831570916296e-05,4.400587518120098e-06,9.76722507057299e-06,-3.808256615548943e-05,3.4667,5.3333
1.0546875,-3.759171515983824e-05,1.221329919890136e-05,1.9044308888380263e-05,-3.2707747753109015e-05,3.4667,5.3333
1.05859375,-3.368944974441137e-05,7.329331792172134e-06,1.4651192477302216e-05,-3.905608729686426e-05,3.4667,5.3333
1.0625,-3.368944974441137e-05,8.302852933546972e-06,3.418885526817739e-06,-4.247568256656747e-05,3.4667,5.3333
1.06640625,-3.222507760738536e-05,1.4651192477302216e-05,2.4453643854429074e-06,-4.101131042954145e-05,3.4667,5.3333
1.0703125,-3.2707747753109015e-05,2.4909978286411855e-05,1.4168522331578557e-05,-3.808256615548943e-05,3.4667,5.3333
1.07421875,-3.2707747753109015e-05,3.516058324559397e-05,3.711580637827116e-05,-3.4172119890135035e-05,3.4667,5.3333
1.078125,-3.0269854474708167e-05,3.6134104386968806e-05,4.053540164797438e-05,-3.222507760738536e-05,3.4667,5.3333
1.08203125,-3.1734226611734184e-05,3.4187062104219137e-05,2.2954755153734657e-05,-3.222507760738536e-05,3.4667,5.3333
1.0859375,-3.1243375616083e-05,2.344560614938584e-05,7.329331792172134e-06,-3.954693829251543e-05,3.4667,5.3333
1.08984375,-2.8805482337682147e-05,1.3677671335927378e-05,9.76722507057299e-06,-4.735964997329669e-05,3.4667,5.3333
1.09375,-2.9779003479056982e-05,1.172244820325018e-05,1.9044308888380263e-05,-4.735964997329669e-05,3.4667,5.3333
1.09765625,-2.8805482337682147e-05,1.5142043472953395e-05,2.5392648432135514e-05,-4.2966533562218654e-05,3.4667,5.3333
1.1015625,-2.5876738063630114e-05,1.8070787747005425e-05,2.5392648432135514e-05,-4.003778928816662e-05,3.4667,5.3333
1.10546875,-2.6359408209353773e-05,1.6115564614328233e-05,1.4651192477302216e-05,-3.954693829251543e-05,3.4667,5.3333
1.109375,-2.5876738063630114e-05,1.8561638742656603e-05,1.4168522331578557e-05,-3.368944974441137e-05,3.4667,5.3333
1.11328125,-2.4412365926604094e-05,1.9044308888380263e-05,2.978576484321356e-05,-3.076070547035934e-05,3.4667,5.3333
1.1171875,-2.05019196612497e-05,2.6857020569161528e-05,3.6134104386968806e-05,-4.101131042954145e-05,3.4667,5.3333
1.12109375,-1.610880325017166e-05,2.6857020569161528e-05,2.344560614938584e-05,-4.4430905699244674e-05,3.4667,5.3333
1.125,-9.760463706416402e-06,2.2463904158083478e-05,6.838480796520954e-06,-4.5895277836270694e-05,3.4667,5.3333
1.12890625,-1.1715686839093606e-05,2.6374350423437865e-05,8.302852933546972e-06,-4.3940054703593485e-05,3.4667,5.3333
1.1328125,-2.001106866559853e-05,2.2463904158083478e-05,2.0508681025406283e-05,-3.85734171511406e-05,3.4667,5.3333
1.13671875,-2.4895036072327754e-05,2.5883499427786686e-05,2.4909978286411855e-05,-3.905608729686426e-05,3.4667,5.3333
1.140625,-3.1734226611734184e-05,2.198123401235982e-05,1.953515988403144e-05,-3.661819401846341e-05,3.4667,5.3333
1.14453125,-3.222507760738536e-05,2.9362153810940797e-06,1.025807606622417e-05,-3.1734226611734184e-05,3.4667,5.3333
1.1484375,-3.0269854474708167e-05,-4.3938261539635166e-06,-1.4569010299839675e-06,-3.661819401846341e-05,3.4667,5.3333
1.15234375,-2.9779003479056982e-05,-7.805240573739212e-06,4.901412527657101e-07,-4.3449203707942316e-05,3.4667,5.3333
1.15625,-3.5636492027161055e-05,-1.2198356984817265e-05,-5.367347295338362e-06,-4.150216142519264e-05,3.4667,5.3333
1.16015625,-3.612734302281222e-05,-4.876496299687176e-06,-2.05019196612497e-05,-4.150216142519264e-05,3.4667,5.3333
1.1640625,-3.368944974441137e-05,-6.83171943236438e-06,-2.2947993789578078e-05,-3.5636492027161055e-05,3.4667,5.3333
1.16796875,-4.3449203707942316e-05,-1.3180058976119624e-05,-2.3921514930952922e-05,-3.1243375616083e-05,3.4667,5.3333
1.171875,-4.5895277836270694e-05,-5.858198290989534e-06,-1.2689207980468437e-05,-3.1243375616083e-05,3.4667,5.3333
1.17578125,-4.3940054703593485e-05,-1.0251314702067588e-05,2.4453643854429074e-06,-2.6359408209353773e-05,3.4667,5.3333
1.1796875,-4.2966533562218654e-05,-1.806402638284885e-05,7.471107042050562e-09,-2.4412365926604094e-05,3.4667,5.3333
1.18359375,-3.759171515983824e-05,-1.3670909971770796e-05,-1.5135282108796815e-05,-3.076070547035934e-05,3.4667,5.3333
1.1875,-2.9296333333333323e-05,-1.7573175387197664e-05,-1.806402638284885e-05,-3.5636492027161055e-05,3.4667,5.3333
1.19140625,-2.05019196612497e-05,-2.3430663935301737e-05,-1.1715686839093606e-05,-3.759171515983824e-05,3.4667,5.3333
1.1953125,-2.8805482337682147e-05,-3.076070547035934e-05,-1.4644431113145643e-05,-3.466297088578621e-05,3.4667,5.3333
1.19921875,-2.05019196612497e-05,-4.3449203707942316e-05,-3.2707747753109015e-05,-3.076070547035934e-05,3.4667,5.3333
1.203125,-2.9212731670099853e-06,-4.5895277836270694e-05,-3.85734171511406e-05,-2.3921514930952922e-05,3.4667,5.3333
1.20703125,-2.9296333333333323e-05,-7.665527356374456e-05,-6.102985020218203e-05,-3.5636492027161055e-05,3.4667,5.3333
1.2109375,-3.466297088578621e-05,-9.178984592965591e-05,-7.616442256809339e-05,-4.101131042954145e-05,3.4667,5.3333
1.21484375,-3.2707747753109015e-05,-9.325421806668191e-05,-8.056571982909895e-05,-3.85734171511406e-05,3.4667,5.3333
1.21875,-4.735964997329669e-05,-0.00011083486456092162,-0.00010155778074311435,-4.2966533562218654e-05,3.4667,5.3333
1.22265625,-3.4172119890135035e-05,-9.813818547341114e-05,-0.00010937049242389562,-4.4430905699244674e-05,3.4667,5.3333
1.2265625,-1.9037547524223684e-05,-9.228069692530709e-05,-0.00011571883196765088,-4.3449203707942316e-05,3.4667,5.3333
1.23046875,-2.4895036072327754e-05,-0.00010302215288014037,-0.00011620968296330204,-3.612734302281222e-05,3.4667,5.3333
1.234375,-2.2457142793926906e-05,-9.813818547341114e-05,-0.00011376360883497366,-3.661819401846341e-05,3.4667,5.3333
1.23828125,-1.5617952254520476e-05,-9.716466433203632e-05,-0.00012450506478980697,-4.3940054703593485e-05,3.4667,5.3333
1.2421875,-2.3430663935301737e-05,-0.00010155778074311435,-0.0001386661160143435,-4.3940054703593485e-05,3.4667,5.3333
1.24609375,-2.734111020065613e-05,-9.325421806668191e-05,-0.0001332994784618906,-4.1984831570916296e-05,3.4667,5.3333
1.25,-2.6850259205004945e-05,-8.837025065995268e-05,-0.00010790612028686962,-4.5895277836270694e-05,3.4667,5.3333
1.25390625,-3.0269854474708167e-05,-8.642320837720302e-05,-8.886110165560387e-05,-4.247568256656747e-05,3.4667,5.3333
1.2578125,-3.661819401846341e-05,-7.714612455939573e-05,-7.714612455939573e-05,-3.4172119890135035e-05,3.4667,5.3333
1.26171875,-3.759171515983824e-05,-6.933341287861446e-05,-7.275300814831769e-05,-3.1243375616083e-05,3.4667,5.3333
1.265625,-3.466297088578621e-05,-7.177130615701531e-05,-8.349446410315098e-05,-2.4412365926604094e-05,3.4667,5.3333
1.26953125,-3.5636492027161055e-05,-6.786904074158846e-05,-7.421738028534369e-05,-2.5876738063630114e-05,3.4667,5.3333
1.2734375,-2.9779003479056982e-05,-6.102985020218203e-05,-4.5895277836270694e-05,-3.368944974441137e-05,3.4667,5.3333
1.27734375,-2.5876738063630114e-05,-6.200337134355688e-05,-4.638612883192186e-05,-3.954693829251543e-05,3.4667,5.3333
1.28125,-3.0269854474708167e-05,-5.27262875257496e-05,-4.101131042954145e-05,-4.101131042954145e-05,3.4667,5.3333
1.28515625,-3.1734226611734184e-05,-3.5636492027161055e-05,-2.4895036072327754e-05,-3.905608729686426e-05,3.4667,5.3333
1.2890625,-4.1984831570916296e-05,-3.222507760738536e-05,-1.7082324391546492e-05,-3.661819401846341e-05,3.4667,5.3333
1.29296875,-4.979754325169756e-05,-2.4412365926604094e-05,1.4651192477302216e-05,-3.1734226611734184e-05,3.4667,5.3333
1.296875,-4.6868798977645525e-05,-1.610880325017166e-05,2.5392648432135514e-05,-3.661819401846341e-05,3.4667,5.3333
1.30078125,-4.003778928816662e-05,-1.2198356984817265e-05,-4.833798886091287e-07,-4.3449203707942316e-05,3.4667,5.3333
1.3046875,-3.515382188143739e-05,-1.4153580117494456e-05,-2.05019196612497e-05,-4.833317111467154e-05,3.4667,5.3333
1.30859375,-3.319859874876019e-05,-4.876496299687176e-06,-3.412124162661165e-06,-4.638612883192186e-05,3.4667,5.3333
1.3125,-2.8805482337682147e-05,3.418885526817739e-06,8.302852933546972e-06,-4.4430905699244674e-05,3.4667,5.3333
1.31640625,-3.466297088578621e-05,5.374108659494937e-06,7.820182787823312e-06,-4.833317111467154e-05,3.4667,5.3333
1.3203125,-4.101131042954145e-05,1.4168522331578557e-05,1.4168522331578557e-05,-4.4430905699244674e-05,3.4667,5.3333
1.32421875,-3.808256615548943e-05,2.099953202105746e-05,1.8070787747005425e-05,-3.905608729686426e-05,3.4667,5.3333
1.328125,-4.003778928816662e-05,2.6857020569161528e-05,1.9044308888380263e-05,-4.3449203707942316e-05,3.4667,5.3333
1.33203125,-4.3449203707942316e-05,2.344560614938584e-05,2.4419127290760676e-05,-4.6868798977645525e-05,3.4667,5.3333
1.3359375,-4.1984831570916296e-05,2.5392648432135514e-05,3.516058324559397e-05,-4.5895277836270694e-05,3.4667,5.3333
1.33984375,-3.85734171511406e-05,3.0276615838864743e-05,3.8089327519646e-05,-5.126191538872358e-05,3.4667,5.3333
1.34375,-3.661819401846341e-05,2.7347871564812706e-05,3.565143424124515e-05,-5.1752766384374746e-05,3.4667,5.3333
1.34765625,-3.85734171511406e-05,2.6374350423437865e-05,3.12583178301671e-05,-4.93148731059739e-05,3.4667,5.3333
1.3515625,-3.954693829251543e-05,2.5883499427786686e-05,3.565143424124515e-05,-4.735964997329669e-05,3.4667,5.3333
1.35546875,-3.515382188143739e-05,3.858017851529718e-05,5.0295155611505315e-05,-3.759171515983824e-05,3.4667,5.3333
1.359375,-2.8805482337682147e-05,4.053540164797438e-05,3.565143424124515e-05,-3.076070547035934e-05,3.4667,5.3333
1.36328125,-3.319859874876019e-05,2.7838722560463885e-05,2.4453643854429074e-06,-4.003778928816662e-05,3.4667,5.3333
1.3671875,-3.661819401846341e-05,3.076746683451592e-05,-9.74230884260308e-07,-4.5895277836270694e-05,3.4667,5.3333
1.37109375,-3.4172119890135035e-05,3.711580637827116e-05,9.28455492484933e-06,-4.150216142519264e-05,3.4667,5.3333
1.375,-3.661819401846341e-05,3.955369965667202e-05,1.6115564614328233e-05,-3.954693829251543e-05,3.4667,5.3333
1.37890625,-3.368944974441137e-05,3.955369965667202e-05,7.329331792172134e-06,-3.759171515983824e-05,3.4667,5.3333
1.3828125,-2.9296333333333323e-05,3.6134104386968806e-05,-9.74230884260308e-07,-3.466297088578621e-05,3.4667,5.3333
1.38671875,-2.8805482337682147e-05,3.174098797589075e-05,9.28455492484933e-06,-4.101131042954145e-05,3.4667,5.3333
1.390625,-3.1734226611734184e-05,2.6857020569161528e-05,1.025807606622417e-05,-5.0779245242999915e-05,3.4667,5.3333
1.39453125,-3.222507760738536e-05,1.4168522331578557e-05,1.5142043472953395e-05,-4.6868798977645525e-05,3.4667,5.3333
1.3984375,-2.8805482337682147e-05,-4.3938261539635166e-06,5.374108659494937e-06,-4.3449203707942316e-05,3.4667,5.3333
1.40234375,-2.9779003479056982e-05,-1.0733984847791247e-05,-7.322570428015552e-06,-4.3449203707942316e-05,3.4667,5.3333
1.40625,-3.905608729686426e-05,-1.4153580117494456e-05,-1.4569010299839675e-06,-4.1984831570916296e-05,3.4667,5.3333
1.41015625,-3.808256615548943e-05,-1.2198356984817265e-05,1.025807606622417e-05,-3.466297088578621e-05,3.4667,5.3333
1.4140625,-2.8805482337682147e-05,6.838480796520954e-06,2.2463904158083478e-05,-3.2707747753109015e-05,3.4667,5.3333
1.41796875,-2.6359408209353773e-05,8.302852933546972e-06,2.4419127290760676e-05,-3.4172119890135035e-05,3.4667,5.3333
1.421875,-2.4412365926604094e-05,-1.3180058976119624e-05,3.418885526817739e-06,-3.710086416418707e-05,3.4667,5.3333
1.42578125,-2.9296333333333323e-05,-2.05019196612497e-05,-1.0251314702067588e-05,-4.003778928816662e-05,3.4667,5.3333
1.4296875,-3.4172119890135035e-05,-1.7082324391546492e-05,-1.9477520256351465e-06,-4.003778928816662e-05,3.4667,5.3333
1.43359375,-3.1243375616083e-05,-1.5617952254520476e-05,4.8914385137712766e-06,-3.710086416418707e-05,3.4667,5.3333
1.4375,-3.368944974441137e-05,-2.0992770656900886e-05,1.4718432440680686e-06,-3.4172119890135035e-05,3.4667,5.3333
1.44140625,-4.3940054703593485e-05,-2.734111020065613e-05,-3.412124162661165e-06,-3.515382188143739e-05,3.4667,5.3333
1.4453125,-4.4430905699244674e-05,-2.1966291798275717e-05,5.864959655146115e-06,-3.1734226611734184e-05,3.4667,5.3333
1.44921875,-4.003778928816662e-05,-1.806402638284885e-05,9.76722507057299e-06,-3.661819401846341e-05,3.4667,5.3333
1.453125,-3.905608729686426e-05,-2.3921514930952922e-05,8.793703929198152e-06,-4.2966533562218654e-05,3.4667,5.3333
1.45703125,-3.466297088578621e-05,-2.5385887067978925e-05,5.864959655146115e-06,-4.003778928816662e-05,3.4667,5.3333
1.4609375,-3.4172119890135035e-05,-1.3670909971770796e-05,-2.438603021286326e-06,-3.759171515983824e-05,3.4667,5.3333
1.46484375,-3.5636492027161055e-05,-9.269612710765229e-06,-1.122483584344242e-05,-3.759171515983824e-05,3.4667,5.3333
1.46875,-3.85734171511406e-05,-1.122483584344242e-05,-1.1715686839093606e-05,-3.85734171511406e-05,3.4667,5.3333
1.47265625,-3.612734302281222e-05,-2.9212731670099853e-06,5.374108659494937e-06,-2.8805482337682147e-05,3.4667,5.3333
1.4765625,-3.1734226611734184e-05,-4.833798886091287e-07,1.0748927061875342e-05,-2.782378034637979e-05,3.4667,5.3333
1.48046875,-3.222507760738536e-05,-9.760463706416402e-06,4.901412527657101e-07,-3.515382188143739e-05,3.4667,5.3333
1.484375,-3.515382188143739e-05,-1.3180058976119624e-05,-1.610880325017166e-05,-3.85734171511406e-05,3.4667,5.3333
1.48828125,-3.808256615548943e-05,-1.2689207980468437e-05,-1.4644431113145643e-05,-4.0520459433890276e-05,3.4667,5.3333
1.4921875,-4.247568256656747e-05,-1.610880325017166e-05,-3.412124162661165e-06,-4.0520459433890276e-05,3.4667,5.3333
1.49609375,-4.5895277836270694e-05,-5.858198290989534e-06,6.838480796520954e-06,-4.003778928816662e-05,3.4667,5.3333
1.5,-4.833317111467154e-05,2.9362153810940797e-06,6.355810650797295e-06,-3.905608729686426e-05,3.4667,5.3333
1.50390625,-3.710086416418707e-05,-1.3670909971770796e-05,-2.8314631342030962e-05,-4.3449203707942316e-05,3.4667,5.3333
1.5078125,-2.8805482337682147e-05,-1.7082324391546492e-05,-2.5385887067978925e-05,-4.4913575844968336e-05,3.4667,5.3333
1.51171875,-3.1734226611734184e-05,-2.1483621652552058e-05,-2.9212731670099853e-06,-4.150216142519264e-05,3.4667,5.3333
1.515625,-3.612734302281222e-05,-3.710086416418707e-05,-1.2689207980468437e-05,-4.6868798977645525e-05,3.4667,5.3333
1.51953125,-3.515382188143739e-05,-3.1243375616083e-05,-2.2457142793926906e-05,-4.93148731059739e-05,3.4667,5.3333
1.5234375,-3.368944974441137e-05,-2.8805482337682147e-05,-3.0269854474708167e-05,-4.247568256656747e-05,3.4667,5.3333
1.52734375,-3.85734171511406e-05,-2.6850259205004945e-05,-3.076070547035934e-05,-3.515382188143739e-05,3.4667,5.3333
1.53125,-3.661819401846341e-05,-1.806402638284885e-05,-1.7082324391546492e-05,-3.222507760738536e-05,3.4667,5.3333
1.53515625,-3.319859874876019e-05,-1.806402638284885e-05,9.809922484168893e-07,-3.612734302281222e-05,3.4667,5.3333
1.5390625,-3.076070547035934e-05,-2.3921514930952922e-05,-6.340868436713194e-06,-4.150216142519264e-05,3.4667,5.3333
1.54296875,-2.9296333333333323e-05,-2.6359408209353773e-05,-2.734111020065613e-05,-4.5895277836270694e-05,3.4667,5.3333
1.546875,-3.1734226611734184e-05,-2.782378034637979e-05,-3.319859874876019e-05,-4.785050096894788e-05,3.4667,5.3333
1.55078125,-3.222507760738536e-05,-3.0269854474708167e-05,-2.9779003479056982e-05,-4.2966533562218654e-05,3.4667,5.3333
1.5546875,-3.368944974441137e-05,-2.8314631342030962e-05,-2.1483621652552058e-05,-4.101131042954145e-05,3.4667,5.3333
1.55859375,-3.661819401846341e-05,-2.001106866559853e-05,-2.2457142793926906e-05,-3.905608729686426e-05,3.4667,5.3333
1.5625,-3.5636492027161055e-05,-2.5385887067978925e-05,-4.247568256656747e-05,-3.759171515983824e-05,3.4667,5.3333
1.56640625,-2.734111020065613e-05,-3.2707747753109015e-05,-4.101131042954145e-05,-3.954693829251543e-05,3.4667,5.3333
1.5703125,-2.8805482337682147e-05,-2.782378034637979e-05,-2.5385887067978925e-05,-3.85734171511406e-05,3.4667,5.3333
1.57421875,-3.4172119890135035e-05,-2.3921514930952922e-05,-2.2947993789578078e-05,-4.0520459433890276e-05,3.4667,5.3333
1.578125,-3.1734226611734184e-05,-1.9037547524223684e-05,-1.3180058976119624e-05,-4.3940054703593485e-05,3.4667,5.3333
1.58203125,-3.612734302281222e-05,-1.610880325017166e-05,-2.0992770656900886e-05,-4.3449203707942316e-05,3.4667,5.3333
1.5859375,-3.710086416418707e-05,-1.7573175387197664e-05,-3.319859874876019e-05,-3.5636492027161055e-05,3.4667,5.3333
1.58984375,-3.368944974441137e-05,-1.7082324391546492e-05,-2.0992770656900886e-05,-3.222507760738536e-05,3.4667,5.3333
1.59375,-2.9296333333333323e-05,-1.0251314702067588e-05,-1.122483584344242e-05,-3.759171515983824e-05,3.4667,5.3333
1.59765625,-2.6359408209353773e-05,-7.322570428015552e-06,-1.1715686839093606e-05,-4.0520459433890276e-05,3.4667,5.3333
1.6015625,-2.5876738063630114e-05,-1.2689207980468437e-05,-2.4412365926604094e-05,-3.808256615548943e-05,3.4667,5.3333
1.60546875,-2.1966291798275717e-05,-2.0992770656900886e-05,-3.368944974441137e-05,-4.2966533562218654e-05,3.4667,5.3333
1.609375,-2.5385887067978925e-05,-2.1966291798275717e-05,-2.782378034637979e-05,-4.3449203707942316e-05,3.4667,5.3333
1.61328125,-3.515382188143739e-05,-2.734111020065613e-05,-2.4895036072327754e-05,-4.1984831570916296e-05,3.4667,5.3333
1.6171875,-3.808256615548943e-05,-2.4412365926604094e-05,-1.4644431113145643e-05,-4.101131042954145e-05,3.4667,5.3333
1.62109375,-3.905608729686426e-05,-2.1483621652552058e-05,-1.4153580117494456e-05,-4.003778928816662e-05,3.4667,5.3333
1.625,-3.808256615548943e-05,-2.3430663935301737e-05,-2.6850259205004945e-05,-4.0520459433890276e-05,3.4667,5.3333
1.62890625,-3.4172119890135035e-05,-2.8314631342030962e-05,-3.0269854474708167e-05,-4.3940054703593485e-05,3.4667,5.3333
1.6328125,-3.1734226611734184e-05,-3.466297088578621e-05,-1.2198356984817265e-05,-4.3449203707942316e-05,3.4667,5.3333
1.63671875,-3.1734226611734184e-05,-3.2707747753109015e-05,-1.4569010299839675e-06,-3.808256615548943e-05,3.4667,5.3333
1.640625,-3.2707747753109015e-05,-2.9296333333333323e-05,-1.3180058976119624e-05,-3.661819401846341e-05,3.4667,5.3333
1.64453125,-2.8805482337682147e-05,-2.8314631342030962e-05,-1.9037547524223684e-05,-3.4172119890135035e-05,3.4667,5.3333
1.6484375,-2.2947993789578078e-05,-2.9779003479056982e-05,-2.05019196612497e-05,-2.9779003479056982e-05,3.4667,5.3333
1.65234375,-2.001106866559853e-05,-2.782378034637979e-05,-1.4153580117494456e-05,-2.6850259205004945e-05,3.4667,5.3333
1.65625,-2.001106866559853e-05,-3.1734226611734184e-05,-1.122483584344242e-05,-3.808256615548943e-05,3.4667,5.3333
1.66015625,-2.4895036072327754e-05,-4.247568256656747e-05,-2.2457142793926906e-05,-3.905608729686426e-05,3.4667,5.3333
1.6640625,-2.9296333333333323e-05,-4.150216142519264e-05,-3.076070547035934e-05,-3.1734226611734184e-05,3.4667,5.3333
1.66796875,-3.661819401846341e-05,-4.150216142519264e-05,-2.9296333333333323e-05,-3.2707747753109015e-05,3.4667,5.3333
1.671875,-4.4913575844968336e-05,-3.954693829251543e-05,-1.7573175387197664e-05,-3.466297088578621e-05,3.4667,5.3333
1.67578125,-4.101131042954145e-05,-2.5876738063630114e-05,-6.340868436713194e-06,-3.368944974441137e-05,3.4667,5.3333
1.6796875,-3.905608729686426e-05,-3.905608729686426e-05,-2.2947993789578078e-05,-3.076070547035934e-05,3.4667,5.3333
1.68359375,-3.808256615548943e-05,-4.4913575844968336e-05,-3.808256615548943e-05,-3.515382188143739e-05,3.4667,5.3333
1.6875,-3.515382188143739e-05,-4.247568256656747e-05,-4.0520459433890276e-05,-4.3449203707942316e-05,3.4667,5.3333
1.69140625,-3.1734226611734184e-05,-4.5404426840619505e-05,-3.612734302281222e-05,-3.661819401846341e-05,3.4667,5.3333
1.6953125,-3.1243375616083e-05,-3.515382188143739e-05,-2.5876738063630114e-05,-3.0269854474708167e-05,3.4667,5.3333
1.69921875,-3.076070547035934e-05,-3.661819401846341e-05,-3.076070547035934e-05,-3.222507760738536e-05,3.4667,5.3333
1.703125,-2.9296333333333323e-05,-4.6868798977645525e-05,-4.785050096894788e-05,-3.0269854474708167e-05,3.4667,5.3333
1.70703125,-2.8805482337682147e-05,-4.882402211032271e-05,-5.9565478065156015e-05,-3.4172119890135035e-05,3.4667,5.3333
1.7109375,-2.734111020065613e-05,-5.126191538872358e-05,-4.735964997329669e-05,-3.710086416418707e-05,3.4667,5.3333
1.71484375,-2.5385887067978925e-05,-5.4681510658426786e-05,-3.954693829251543e-05,-3.4172119890135035e-05,3.4667,5.3333
1.71875,-1.854669652857251e-05,-5.8101105928129995e-05,-5.6145882795452806e-05,-2.8805482337682147e-05,3.4667,5.3333
1.72265625,-2.2947993789578078e-05,-5.7127584786755163e-05,-6.737818974593727e-05,-3.515382188143739e-05,3.4667,5.3333
1.7265625,-2.782378034637979e-05,-6.200337134355688e-05,-7.128045516136416e-05,-3.466297088578621e-05,3.4667,5.3333
1.73046875,-2.2457142793926906e-05,-5.6145882795452806e-05,-5.9565478065156015e-05,-2.1483621652552058e-05,3.4667,5.3333
1.734375,-2.1483621652552058e-05,-5.5663212649729143e-05,-4.247568256656747e-05,-2.3921514930952922e-05,3.4667,5.3333
1.73828125,-2.1966291798275717e-05,-7.07977850156405e-05,-5.859195692378118e-05,-2.9779003479056982e-05,3.4667,5.3333
1.7421875,-2.2457142793926906e-05,-7.372652928969254e-05,-8.056571982909895e-05,-2.2457142793926906e-05,3.4667,5.3333
1.74609375,-2.9779003479056982e-05,-8.593235738155183e-05,-9.765551532768748e-05,-1.4153580117494456e-05,3.4667,5.3333
1.75,-2.5385887067978925e-05,-9.570029219501029e-05,-0.00010693259914549477,-1.952839851987487e-05,3.4667,5.3333
1.75390625,-1.7082324391546492e-05,-9.862903646906233e-05,-0.00010887964142824443,-1.854669652857251e-05,3.4667,5.3333
1.7578125,-1.9037547524223684e-05,-0.00010790612028686962,-0.00011767405510032807,-8.296091569390398e-06,3.4667,5.3333
1.76171875,-1.952839851987487e-05,-0.00011376360883497366,-0.00013524652074464025,-9.269612710765229e-06,3.4667,5.3333
1.765625,-2.4412365926604094e-05,-0.00011962109738307773,-0.00014745234883649957,-7.805240573739212e-06,3.4667,5.3333
1.76953125,-2.9296333333333323e-05,-0.00013183510632486456,-0.00014208571128404668,-9.269612710765229e-06,3.4667,5.3333
1.7734375,-3.319859874876019e-05,-0.00013524652074464025,-0.00014208571128404668,-1.7082324391546492e-05,3.4667,5.3333
1.77734375,-3.515382188143739e-05,-0.00013231777647058823,-0.0001508719441062028,-1.7573175387197664e-05,3.4667,5.3333
1.78125,-3.319859874876019e-05,-0.000154291539375906,-0.00016014902792401008,-2.0992770656900886e-05,3.4667,5.3333
1.78515625,-4.003778928816662e-05,-0.00016601469732204164,-0.00016991696273746854,-1.7082324391546492e-05,3.4667,5.3333
1.7890625,-3.759171515983824e-05,-0.00014305923242542153,-0.00015575591151293202,-9.269612710765229e-06,3.4667,5.3333
1.79296875,-2.734111020065613e-05,-0.00014794319983215073,-0.00014062133914702067,-1.4644431113145643e-05,3.4667,5.3333
1.796875,-3.466297088578621e-05,-0.00014940757196917678,-0.00012841551105516137,-1.5135282108796815e-05,3.4667,5.3333
1.80078125,-3.759171515983824e-05,-0.0001396396371557183,-0.00012353154364843215,-2.2947993789578078e-05,3.4667,5.3333
1.8046875,-3.076070547035934e-05,-0.0001220671715114061,-0.00011229923669794766,-3.222507760738536e-05,3.4667,5.3333
1.80859375,-3.612734302281222e-05,-0.00010204863173876554,-8.349446410315098e-05,-2.8805482337682147e-05,3.4667,5.3333
1.8125,-4.150216142519264e-05,-9.130717578393225e-05,-7.07977850156405e-05,-3.368944974441137e-05,3.4667,5.3333
1.81640625,-3.515382188143739e-05,-6.884256188296331e-05,-7.470005043106735e-05,-4.003778928816662e-05,3.4667,5.3333
1.8203125,-3.1734226611734184e-05,-6.249422233920805e-05,-7.714612455939573e-05,-4.5895277836270694e-05,3.4667,5.3333
1.82421875,-3.076070547035934e-05,-4.785050096894788e-05,-5.9565478065156015e-05,-4.5895277836270694e-05,3.4667,5.3333
1.828125,-3.076070547035934e-05,-3.954693829251543e-05,-4.5895277836270694e-05,-4.4430905699244674e-05,3.4667,5.3333
1.83203125,-3.368944974441137e-05,-3.1734226611734184e-05,-5.2243617380025935e-05,-4.4430905699244674e-05,3.4667,5.3333
1.8359375,-4.0520459433890276e-05,-1.3670909971770796e-05,-5.6145882795452806e-05,-4.3940054703593485e-05,3.4667,5.3333
1.83984375,-4.0520459433890276e-05,-3.902975158312344e-06,-4.1984831570916296e-05,-4.101131042954145e-05,3.4667,5.3333
1.84375,-3.515382188143739e-05,-1.4569010299839675e-06,-1.854669652857251e-05,-3.85734171511406e-05,3.4667,5.3333
1.84765625,-3.710086416418707e-05,-3.902975158312344e-06,-5.858198290989534e-06,-3.85734171511406e-05,3.4667,5.3333
1.8515625,-3.5636492027161055e-05,-1.4569010299839675e-06,-1.9477520256351465e-06,-4.3449203707942316e-05,3.4667,5.3333
1.85546875,-2.5876738063630114e-05,6.838480796520954e-06,4.400587518120098e-06,-3.85734171511406e-05,3.4667,5.3333
1.859375,-2.3430663935301737e-05,7.471107042050562e-09,6.355810650797295e-06,-3.222507760738536e-05,3.4667,5.3333
1.86328125,-3.1243375616083e-05,-1.2198356984817265e-05,6.355810650797295e-06,-3.515382188143739e-05,3.4667,5.3333
1.8671875,-3.515382188143739e-05,-1.3180058976119624e-05,1.221329919890136e-05,-3.368944974441137e-05,3.4667,5.3333
1.87109375,-3.076070547035934e-05,-1.4153580117494456e-05,7.329331792172134e-06,-2.8805482337682147e-05,3.4667,5.3333
1.875,-3.076070547035934e-05,-2.1483621652552058e-05,1.954513389791728e-06,-2.9296333333333323e-05,3.4667,5.3333
1.87890625,-3.0269854474708167e-05,-2.0992770656900886e-05,5.374108659494937e-06,-3.2707747753109015e-05,3.4667,5.3333
1.8828125,-2.782378034637979e-05,-2.001106866559853e-05,-2.9212731670099853e-06,-4.3940054703593485e-05,3.4667,5.3333
1.88671875,-2.8314631342030962e-05,-1.3670909971770796e-05,-3.412124162661165e-06,-5.419065966277561e-05,3.4667,5.3333
1.890625,-2.8314631342030962e-05,-8.78694256504157e-06,-3.902975158312344e-06,-5.6145882795452806e-05,3.4667,5.3333
1.89453125,-2.5876738063630114e-05,-1.5135282108796815e-05,-1.1715686839093606e-05,-5.2243617380025935e-05,3.4667,5.3333
1.8984375,-2.8314631342030962e-05,-1.9037547524223684e-05,-2.1966291798275717e-05,-5.3217138521400766e-05,3.4667,5.3333
1.90234375,-3.0269854474708167e-05,-1.7082324391546492e-05,-1.610880325017166e-05,-4.979754325169756e-05,3.4667,5.3333
1.90625,-2.1483621652552058e-05,-1.4153580117494456e-05,9.28455492484933e-06,-3.905608729686426e-05,3.4667,5.3333
1.91015625,-1.4644431113145643e-05,-1.1715686839093606e-05,9.76722507057299e-06,-3.222507760738536e-05,3.4667,5.3333
1.9140625,-2.05019196612497e-05,-1.122483584344242e-05,-1.0251314702067588e-05,-3.85734171511406e-05,3.4667,5.3333
1.91796875,-2.8805482337682147e-05,-1.806402638284885e-05,-1.3180058976119624e-05,-4.150216142519264e-05,3.4667,5.3333
1.921875,-3.222507760738536e-05,-2.1483621652552058e-05,-7.322570428015552e-06,-3.515382188143739e-05,3.4667,5.3333
1.92578125,-3.2707747753109015e-05,-1.4644431113145643e-05,8.793703929198152e-06,-3.466297088578621e-05,3.4667,5.3333
1.9296875,-3.710086416418707e-05,-1.3670909971770796e-05,4.901412527657101e-07,-4.150216142519264e-05,3.4667,5.3333
1.93359375,-3.5636492027161055e-05,-1.2689207980468437e-05,-2.1966291798275717e-05,-4.735964997329669e-05,3.4667,5.3333
1.9375,-2.5876738063630114e-05,-9.760463706416402e-06,-2.3921514930952922e-05,-4.247568256656747e-05,3.4667,5.3333
1.94140625,-2.6359408209353773e-05,-1.2198356984817265e-05,-1.3180058976119624e-05,-4.4430905699244674e-05,3.4667,5.3333
1.9453125,-3.1734226611734184e-05,-8.78694256504157e-06,4.8914385137712766e-06,-4.4430905699244674e-05,3.4667,5.3333
1.94921875,-3.076070547035934e-05,-1.0733984847791247e-05,9.76722507057299e-06,-3.759171515983824e-05,3.4667,5.3333
1.953125,-3.466297088578621e-05,-1.7573175387197664e-05,-1.0733984847791247e-05,-3.4172119890135035e-05,3.4667,5.3333
1.95703125,-3.954693829251543e-05,-1.7573175387197664e-05,-1.7573175387197664e-05,-3.0269854474708167e-05,3.4667,5.3333
1.9609375,-4.2966533562218654e-05,-2.3921514930952922e-05,-1.3670909971770796e-05,-3.076070547035934e-05,3.4667,5.3333
1.96484375,-4.5895277836270694e-05,-3.319859874876019e-05,-1.1715686839093606e-05,-3.808256615548943e-05,3.4667,5.3333
1.96875,-4.247568256656747e-05,-3.222507760738536e-05,-9.269612710765229e-06,-4.247568256656747e-05,3.4667,5.3333
1.97265625,-3.4172119890135035e-05,-2.4895036072327754e-05,-1.1715686839093606e-05,-3.5636492027161055e-05,3.4667,5.3333
1.9765625,-3.319859874876019e-05,-2.2947993789578078e-05,-2.734111020065613e-05,-3.4172119890135035e-05,3.4667,5.3333
1.98046875,-3.515382188143739e-05,-2.6359408209353773e-05,-2.6359408209353773e-05,-3.710086416418707e-05,3.4667,5.3333
1.984375,-3.808256615548943e-05,-2.734111020065613e-05,-8.296091569390398e-06,-3.5636492027161055e-05,3.4667,5.3333
1.98828125,-4.638612883192186e-05,-2.6359408209353773e-05,-1.4644431113145643e-05,-3.808256615548943e-05,3.4667,5.3333
1.9921875,-4.5895277836270694e-05,-2.4412365926604094e-05,-2.6850259205004945e-05,-4.2966533562218654e-05,3.4667,5.3333
1.99609375,-3.710086416418707e-05,-2.4412365926604094e-05,-4.1984831570916296e-05,-4.2966533562218654e-05,3.4667,5.3333
2.0,-3.466297088578621e-05,-2.8805482337682147e-05,-4.3940054703593485e-05,-4.638612883192186e-05,3.4667,5.3333
2.00390625,-3.85734171511406e-05,-2.8314631342030962e-05,-2.3430663935301737e-05,-4.5404426840619505e-05,3.4667,5.3333
2.0078125,-3.368944974441137e-05,-2.3921514930952922e-05,-1.0733984847791247e-05,-3.612734302281222e-05,3.4667,5.3333
2.01171875,-3.4172119890135035e-05,-2.6850259205004945e-05,-1.7082324391546492e-05,-3.2707747753109015e-05,3.4667,5.3333
2.015625,-3.1734226611734184e-05,-2.3921514930952922e-05,-2.5385887067978925e-05,-3.4172119890135035e-05,3.4667,5.3333
2.01953125,-2.6850259205004945e-05,-2.2457142793926906e-05,-2.2947993789578078e-05,-3.759171515983824e-05,3.4667,5.3333
2.0234375,-2.8805482337682147e-05,-2.0992770656900886e-05,-2.0992770656900886e-05,-4.1984831570916296e-05,3.4667,5.3333
2.02734375,-3.368944974441137e-05,-2.0992770656900886e-05,-2.2457142793926906e-05,-4.2966533562218654e-05,3.4667,5.3333
2.03125,-3.1734226611734184e-05,-2.1483621652552058e-05,-2.9779003479056982e-05,-4.003778928816662e-05,3.4667,5.3333
2.03515625,-3.076070547035934e-05,-1.5617952254520476e-05,-3.2707747753109015e-05,-4.003778928816662e-05,3.4667,5.3333
2.0390625,-3.1734226611734184e-05,-9.269612710765229e-06,-3.076070547035934e-05,-3.954693829251543e-05,3.4667,5.3333
2.04296875,-3.076070547035934e-05,-2.0992770656900886e-05,-2.8805482337682147e-05,-3.808256615548943e-05,3.4667,5.3333
2.046875,-3.319859874876019e-05,-2.3921514930952922e-05,-2.2947993789578078e-05,-3.612734302281222e-05,3.4667,5.3333
2.05078125,-3.222507760738536e-05,-9.269612710765229e-06,-2.3921514930952922e-05,-3.515382188143739e-05,3.4667,5.3333
2.0546875,-2.4895036072327754e-05,-6.83171943236438e-06,-2.8805482337682147e-05,-3.612734302281222e-05,3.4667,5.3333
2.05859375,-2.6850259205004945e-05,-1.9037547524223684e-05,-3.0269854474708167e-05,-4.0520459433890276e-05,3.4667,5.3333
2.0625,-3.515382188143739e-05,-2.3921514930952922e-05,-2.3430663935301737e-05,-4.101131042954145e-05,3.4667,5.3333
2.06640625,-3.85734171511406e-05,-2.4412365926604094e-05,-1.806402638284885e-05,-3.5636492027161055e-05,3.4667,5.3333
2.0703125,-4.247568256656747e-05,-2.2947993789578078e-05,-1.7082324391546492e-05,-3.1243375616083e-05,3.4667,5.3333
2.07421875,-4.5404426840619505e-05,-1.7573175387197664e-05,-2.9296333333333323e-05,-3.466297088578621e-05,3.4667,5.3333
2.078125,-3.85734171511406e-05,-2.1483621652552058e-05,-3.5636492027161055e-05,-3.661819401846341e-05,3.4667,5.3333
2.08203125,-3.4172119890135035e-05,-3.1734226611734184e-05,-3.612734302281222e-05,-3.954693829251543e-05,3.4667,5.3333
2.0859375,-3.222507760738536e-05,-3.466297088578621e-05,-2.9779003479056982e-05,-4.4430905699244674e-05,3.4667,5.3333
2.08984375,-2.9779003479056982e-05,-3.076070547035934e-05,-2.001106866559853e-05,-4.0520459433890276e-05,3.4667,5.3333
2.09375,-3.319859874876019e-05,-2.3430663935301737e-05,-9.760463706416402e-06,-3.1243375616083e-05,3.4667,5.3333
2.09765625,-3.515382188143739e-05,-2.6850259205004945e-05,-7.805240573739212e-06,-2.5385887067978925e-05,3.4667,5.3333
2.1015625,-3.466297088578621e-05,-2.782378034637979e-05,-1.3670909971770796e-05,-3.0269854474708167e-05,3.4667,5.3333
2.10546875,-3.5636492027161055e-05,-2.2947993789578078e-05,-3.412124162661165e-06,-3.515382188143739e-05,3.4667,5.3333
2.109375,-3.612734302281222e-05,-1.4153580117494456e-05,-8.78694256504157e-06,-3.515382188143739e-05,3.4667,5.3333
2.11328125,-3.612734302281222e-05,-2.0992770656900886e-05,-3.1243375616083e-05,-3.661819401846341e-05,3.4667,5.3333
2.1171875,-3.954693829251543e-05,-3.0269854474708167e-05,-3.466297088578621e-05,-3.5636492027161055e-05,3.4667,5.3333
2.12109375,-4.1984831570916296e-05,-2.1966291798275717e-05,-2.4895036072327754e-05,-3.1734226611734184e-05,3.4667,5.3333
2.125,-4.3449203707942316e-05,-2.1966291798275717e-05,-2.2947993789578078e-05,-3.2707747753109015e-05,3.4667,5.3333
2.12890625,-4.2966533562218654e-05,-2.6850259205004945e-05,-1.4644431113145643e-05,-3.1243375616083e-05,3.4667,5.3333
2.1328125,-3.612734302281222e-05,-3.5636492027161055e-05,-2.05019196612497e-05,-2.6850259205004945e-05,3.4667,5.3333
2.13671875,-3.1734226611734184e-05,-3.612734302281222e-05,-4.1984831570916296e-05,-2.9779003479056982e-05,3.4667,5.3333
2.140625,-2.5385887067978925e-05,-2.5876738063630114e-05,-3.759171515983824e-05,-3.612734302281222e-05,3.4667,5.3333
2.14453125,-2.2457142793926906e-05,-2.4895036072327754e-05,-2.4895036072327754e-05,-3.515382188143739e-05,3.4667,5.3333
2.1484375,-3.515382188143739e-05,-3.222507760738536e-05,-2.5876738063630114e-05,-3.5636492027161055e-05,3.4667,5.3333
2.15234375,-4.2966533562218654e-05,-3.954693829251543e-05,-2.8805482337682147e-05,-3.85734171511406e-05,3.4667,5.3333
2.15625,-3.515382188143739e-05,-2.9779003479056982e-05,-2.0992770656900886e-05,-3.5636492027161055e-05,3.4667,5.3333
2.16015625,-3.222507760738536e-05,-2.6850259205004945e-05,-1.854669652857251e-05,-3.076070547035934e-05,3.4667,5.3333
2.1640625,-3.1243375616083e-05,-2.3430663935301737e-05,-1.122483584344242e-05,-3.4172119890135035e-05,3.4667,5.3333
2.16796875,-3.222507760738536e-05,-3.902975158312344e-06,4.901412527657101e-07,-4.735964997329669e-05,3.4667,5.3333
2.171875,-3.0269854474708167e-05,1.6115564614328233e-05,1.221329919890136e-05,-4.5404426840619505e-05,3.4667,5.3333
2.17578125,-3.1243375616083e-05,-1.0251314702067588e-05,-8.78694256504157e-06,-2.9779003479056982e-05,3.4667,5.3333
2.1796875,-3.808256615548943e-05,-4.4430905699244674e-05,-4.101131042954145e-05,-3.076070547035934e-05,3.4667,5.3333
2.18359375,-3.905608729686426e-05,-3.0269854474708167e-05,-1.6599654245822833e-05,-3.515382188143739e-05,3.4667,5.3333
2.1875,-4.0520459433890276e-05,-2.4412365926604094e-05,1.4718432440680686e-06,-3.1243375616083e-05,3.4667,5.3333
2.19140625,-4.101131042954145e-05,-3.319859874876019e-05,-1.2689207980468437e-05,-3.368944974441137e-05,3.4667,5.3333
2.1953125,-4.003778928816662e-05,-4.003778928816662e-05,-2.9779003479056982e-05,-3.759171515983824e-05,3.4667,5.3333
2.19921875,-4.1984831570916296e-05,-3.759171515983824e-05,-4.150216142519264e-05,-4.5895277836270694e-05,3.4667,5.3333
2.203125,-4.4430905699244674e-05,-3.5636492027161055e-05,-3.759171515983824e-05,-4.785050096894788e-05,3.4667,5.3333
2.20703125,-4.1984831570916296e-05,-3.85734171511406e-05,-3.1734226611734184e-05,-4.1984831570916296e-05,3.4667,5.3333
2.2109375,-4.003778928816662e-05,-3.1734226611734184e-05,-2.3921514930952922e-05,-3.2707747753109015e-05,3.4667,5.3333
2.21484375,-4.5895277836270694e-05,-2.6359408209353773e-05,-2.734111020065613e-05,-2.9779003479056982e-05,3.4667,5.3333
2.21875,-4.247568256656747e-05,-2.2947993789578078e-05,-3.85734171511406e-05,-3.368944974441137e-05,3.4667,5.3333
2.22265625,-3.661819401846341e-05,-2.4412365926604094e-05,-3.2707747753109015e-05,-3.5636492027161055e-05,3.4667,5.3333
2.2265625,-3.515382188143739e-05,-1.952839851987487e-05,-1.806402638284885e-05,-3.612734302281222e-05,3.4667,5.3333
2.23046875,-3.612734302281222e-05,-2.3921514930952922e-05,-6.340868436713194e-06,-3.2707747753109015e-05,3.4667,5.3333
2.234375,-2.8805482337682147e-05,-3.1734226611734184e-05,-1.4153580117494456e-05,-3.222507760738536e-05,3.4667,5.3333
2.23828125,-2.5385887067978925e-05,-2.4895036072327754e-05,-2.4412365926604094e-05,-3.368944974441137e-05,3.4667,5.3333
2.2421875,-2.9779003479056982e-05,-2.6359408209353773e-05,-1.952839851987487e-05,-3.319859874876019e-05,3.4667,5.3333
2.24609375,-2.8314631342030962e-05,-2.4895036072327754e-05,-7.322570428015552e-06,-3.2707747753109015e-05,3.4667,5.3333
2.25,-3.0269854474708167e-05,-2.8805482337682147e-05,-1.5135282108796815e-05,-3.661819401846341e-05,3.4667,5.3333
2.25390625,-2.8805482337682147e-05,-2.782378034637979e-05,-3.808256615548943e-05,-4.101131042954145e-05,3.4667,5.3333
2.2578125,-2.8314631342030962e-05,-2.9296333333333323e-05,-3.759171515983824e-05,-4.0520459433890276e-05,3.4667,5.3333
2.26171875,-2.9779003479056982e-05,-4.0520459433890276e-05,-3.0269854474708167e-05,-3.661819401846341e-05,3.4667,5.3333
2.265625,-2.9779003479056982e-05,-4.247568256656747e-05,-2.2457142793926906e-05,-3.319859874876019e-05,3.4667,5.3333
2.26953125,-3.515382188143739e-05,-4.2966533562218654e-05,-2.4412365926604094e-05,-3.319859874876019e-05,3.4667,5.3333
2.2734375,-3.515382188143739e-05,-4.5404426840619505e-05,-4.0520459433890276e-05,-3.2707747753109015e-05,3.4667,5.3333
2.27734375,-3.710086416418707e-05,-4.638612883192186e-05,-5.27262875257496e-05,-3.4172119890135035e-05,3.4667,5.3333
2.28125,-3.5636492027161055e-05,-4.5404426840619505e-05,-5.028839424734873e-05,-3.710086416418707e-05,3.4667,5.3333
2.28515625,-2.4895036072327754e-05,-3.515382188143739e-05,-3.319859874876019e-05,-3.612734302281222e-05,3.4667,5.3333
2.2890625,-2.6359408209353773e-05,-2.4412365926604094e-05,-2.2947993789578078e-05,-3.466297088578621e-05,3.4667,5.3333
2.29296875,-3.0269854474708167e-05,-2.734111020065613e-05,-4.735964997329669e-05,-3.905608729686426e-05,3.4667,5.3333
2.296875,-3.1734226611734184e-05,-2.6850259205004945e-05,-7.323567829404135e-05,-4.1984831570916296e-05,3.4667,5.3333
2.30078125,-3.710086416418707e-05,-1.5617952254520476e-05,-7.128045516136416e-05,-4.150216142519264e-05,3.4667,5.3333
2.3046875,-3.612734302281222e-05,-7.322570428015552e-06,-5.419065966277561e-05,-4.6868798977645525e-05,3.4667,5.3333
2.30859375,-3.515382188143739e-05,-7.805240573739212e-06,-4.003778928816662e-05,-4.785050096894788e-05,3.4667,5.3333
2.3125,-3.319859874876019e-05,-1.4644431113145643e-05,-4.5404426840619505e-05,-4.247568256656747e-05,3.4667,5.3333
2.31640625,-3.319859874876019e-05,-2.6359408209353773e-05,-5.0779245242999915e-05,-3.85734171511406e-05,3.4667,5.3333
2.3203125,-3.466297088578621e-05,-2.734111020065613e-05,-3.4172119890135035e-05,-3.1734226611734184e-05,3.4667,5.3333
2.32421875,-3.222507760738536e-05,-2.5876738063630114e-05,-1.6599654245822833e-05,-2.5876738063630114e-05,3.4667,5.3333
2.328125,-3.368944974441137e-05,-2.734111020065613e-05,-2.0992770656900886e-05,-3.222507760738536e-05,3.4667,5.3333
2.33203125,-3.612734302281222e-05,-2.6850259205004945e-05,-3.612734302281222e-05,-3.661819401846341e-05,3.4667,5.3333
2.3359375,-3.1243375616083e-05,-3.710086416418707e-05,-4.0520459433890276e-05,-3.2707747753109015e-05,3.4667,5.3333
2.33984375,-2.9296333333333323e-05,-4.882402211032271e-05,-4.3940054703593485e-05,-3.710086416418707e-05,3.4667,5.3333
2.34375,-3.954693829251543e-05,-5.761025493247882e-05,-4.979754325169756e-05,-3.4172119890135035e-05,3.4667,5.3333
2.34765625,-4.1984831570916296e-05,-4.2966533562218654e-05,-2.0992770656900886e-05,-3.1734226611734184e-05,3.4667,5.3333
2.3515625,-2.734111020065613e-05,-3.1734226611734184e-05,-9.760463706416402e-06,-4.0520459433890276e-05,3.4667,5.3333
2.35546875,-2.0992770656900886e-05,-6.444944547188524e-05,-6.981608302433812e-05,-3.759171515983824e-05,3.4667,5.3333
2.359375,-2.782378034637979e-05,-7.372652928969254e-05,-7.958401783779658e-05,-2.734111020065613e-05,3.4667,5.3333
2.36328125,-2.9296333333333323e-05,-6.444944547188524e-05,-5.028839424734873e-05,-3.1243375616083e-05,3.4667,5.3333
2.3671875,-2.2947993789578078e-05,-7.22621571526665e-05,-5.6636733791103975e-05,-3.1243375616083e-05,3.4667,5.3333
2.37109375,-2.2947993789578078e-05,-8.203009196612495e-05,-7.128045516136416e-05,-1.7082324391546492e-05,3.4667,5.3333
2.375,-3.4172119890135035e-05,-9.423592005798429e-05,-9.277154792095825e-05,-1.854669652857251e-05,3.4667,5.3333
2.37890625,-3.1734226611734184e-05,-9.52094411993591e-05,-0.00010302215288014037,-2.6850259205004945e-05,3.4667,5.3333
2.3828125,-2.3921514930952922e-05,-9.178984592965591e-05,-9.471859020370794e-05,-2.782378034637979e-05,3.4667,5.3333
2.38671875,-2.5876738063630114e-05,-9.667381333638513e-05,-9.178984592965591e-05,-2.734111020065613e-05,3.4667,5.3333
2.390625,-2.5385887067978925e-05,-9.862903646906233e-05,-0.00010302215288014037,-2.5385887067978925e-05,3.4667,5.3333
2.39453125,-2.1966291798275717e-05,-0.00011132571555657281,-0.00011376360883497366,-2.734111020065613e-05,3.4667,5.3333
2.3984375,-3.0269854474708167e-05,-0.00013231777647058823,-0.00012841551105516137,-3.0269854474708167e-05,3.4667,5.3333
2.40234375,-3.076070547035934e-05,-0.0001313442553292134,-0.00013183510632486456,-3.076070547035934e-05,3.4667,5.3333
2.40625,-3.222507760738536e-05,-0.0001240223946440833,-0.00012499591578545816,-2.3921514930952922e-05,3.4667,5.3333
2.41015625,-4.3449203707942316e-05,-0.00013378214860761427,-0.0001293890321965362,-2.6850259205004945e-05,3.4667,5.3333
2.4140625,-3.954693829251543e-05,-0.00014598797669947356,-0.0001308534043335622,-2.5385887067978925e-05,3.4667,5.3333
2.41796875,-3.222507760738536e-05,-0.00015331801823453115,-0.00014745234883649957,-2.4895036072327754e-05,3.4667,5.3333
2.421875,-2.6850259205004945e-05,-0.0001469696786907759,-0.00015820198564126038,-3.0269854474708167e-05,3.4667,5.3333
2.42578125,-2.4412365926604094e-05,-0.00014208571128404668,-0.0001381752650186923,-3.0269854474708167e-05,3.4667,5.3333
2.4296875,-2.6850259205004945e-05,-0.00015380068838025481,-0.00014208571128404668,-2.9296333333333323e-05,3.4667,5.3333
2.43359375,-2.734111020065613e-05,-0.00015185364609750517,-0.00015526506051728083,-2.2947993789578078e-05,3.4667,5.3333
2.4375,-2.6359408209353773e-05,-0.00014305923242542153,-0.00015038927396047913,-2.2457142793926906e-05,3.4667,5.3333
2.44140625,-2.5385887067978925e-05,-0.0001381752650186923,-0.00014404093441672388,-2.8805482337682147e-05,3.4667,5.3333
2.4453125,-2.5385887067978925e-05,-0.0001313442553292134,-0.0001313442553292134,-3.5636492027161055e-05,3.4667,5.3333
2.44921875,-2.9779003479056982e-05,-0.000127433809063859,-0.0001206027993743801,-3.515382188143739e-05,3.4667,5.3333
2.453125,-3.661819401846341e-05,-0.0001206027993743801,-0.00011474531082627604,-2.5876738063630114e-05,3.4667,5.3333
2.45703125,-3.612734302281222e-05,-0.00011132571555657281,-0.00010937049242389562,-3.222507760738536e-05,3.4667,5.3333
2.4609375,-3.466297088578621e-05,-9.813818547341114e-05,-0.00010204863173876554,-3.2707747753109015e-05,3.4667,5.3333
2.46484375,-4.003778928816662e-05,-8.788758051422902e-05,-8.593235738155183e-05,-2.2457142793926906e-05,3.4667,5.3333
2.46875,-3.2707747753109015e-05,-5.761025493247882e-05,-5.5663212649729143e-05,-2.9779003479056982e-05,3.4667,5.3333
2.47265625,-3.222507760738536e-05,-4.003778928816662e-05,-4.150216142519264e-05,-3.710086416418707e-05,3.4667,5.3333
2.4765625,-4.150216142519264e-05,-5.5172361654077955e-05,-6.591381760891126e-05,-3.954693829251543e-05,3.4667,5.3333
2.48046875,-3.222507760738536e-05,-4.5404426840619505e-05,-6.884256188296331e-05,-4.3940054703593485e-05,3.4667,5.3333
2.484375,-3.0269854474708167e-05,-1.7082324391546492e-05,-4.0520459433890276e-05,-4.247568256656747e-05,3.4667,5.3333
2.48828125,-3.2707747753109015e-05,-7.322570428015552e-06,-2.1966291798275717e-05,-3.5636492027161055e-05,3.4667,5.3333
2.4921875,-3.2707747753109015e-05,-9.269612710765229e-06,-1.952839851987487e-05,-2.8805482337682147e-05,3.4667,5.3333
2.49609375,-3.515382188143739e-05,-5.367347295338362e-06,-1.9037547524223684e-05,-3.076070547035934e-05,3.4667,5.3333
2.5,-3.222507760738536e-05,9.809922484168893e-07,-1.3180058976119624e-05,-3.5636492027161055e-05,3.4667,5.3333
2.50390625,-3.0269854474708167e-05,9.809922484168893e-07,-5.367347295338362e-06,-3.515382188143739e-05,3.4667,5.3333
2.5078125,-2.782378034637979e-05,2.4453643854429074e-06,1.3186820340276198e-05,-3.612734302281222e-05,3.4667,5.3333
2.51171875,-3.222507760738536e-05,3.9097365224689184e-06,7.471107042050562e-09,-3.954693829251543e-05,3.4667,5.3333
2.515625,-4.247568256656747e-05,-4.3938261539635166e-06,-1.5617952254520476e-05,-4.150216142519264e-05,3.4667,5.3333
2.51953125,-4.003778928816662e-05,9.809922484168893e-07,-1.3670909971770796e-05,-4.0520459433890276e-05,3.4667,5.3333
2.5234375,-3.612734302281222e-05,3.418885526817739e-06,-1.4644431113145643e-05,-4.150216142519264e-05,3.4667,5.3333
2.52734375,-3.954693829251543e-05,-1.4569010299839675e-06,9.809922484168893e-07,-4.247568256656747e-05,3.4667,5.3333
2.53125,-3.466297088578621e-05,-4.833798886091287e-07,2.9362153810940797e-06,-4.6868798977645525e-05,3.4667,5.3333
2.53515625,-2.8805482337682147e-05,3.418885526817739e-06,-3.902975158312344e-06,-5.1752766384374746e-05,3.4667,5.3333
2.5390625,-3.222507760738536e-05,5.864959655146115e-06,-1.9477520256351465e-06,-4.2966533562218654e-05,3.4667,5.3333
2.54296875,-3.2707747753109015e-05,4.8914385137712766e-06,3.9097365224689184e-06,-3.612734302281222e-05,3.4667,5.3333
2.546875,-2.734111020065613e-05,8.793703929198152e-06,2.4909978286411855e-05,-3.0269854474708167e-05,3.4667,5.3333
2.55078125,-3.076070547035934e-05,2.2463904158083478e-05,2.5392648432135514e-05,-2.3430663935301737e-05,3.4667,5.3333
2.5546875,-3.1243375616083e-05,2.6374350423437865e-05,5.864959655146115e-06,-2.3921514930952922e-05,3.4667,5.3333
2.55859375,-2.1483621652552058e-05,1.8070787747005425e-05,-4.833798886091287e-07,-3.076070547035934e-05,3.4667,5.3333
2.5625,-2.001106866559853e-05,1.7097266605630594e-05,-2.438603021286326e-06,-3.661819401846341e-05,3.4667,5.3333
2.56640625,-1.952839851987487e-05,1.7097266605630594e-05,3.9097365224689184e-06,-4.0520459433890276e-05,3.4667,5.3333
2.5703125,-1.952839851987487e-05,9.809922484168893e-07,-3.412124162661165e-06,-4.1984831570916296e-05,3.4667,5.3333
2.57421875,-2.3921514930952922e-05,-1.3180058976119624e-05,-2.2457142793926906e-05,-4.3940054703593485e-05,3.4667,5.3333
2.578125,-2.4895036072327754e-05,-6.340868436713194e-06,-2.3921514930952922e-05,-4.150216142519264e-05,3.4667,5.3333
2.58203125,-2.1966291798275717e-05,1.3186820340276198e-05,-8.296091569390398e-06,-4.003778928816662e-05,3.4667,5.3333
2.5859375,-2.2947993789578078e-05,1.5632894468604574e-05,5.374108659494937e-06,-4.4430905699244674e-05,3.4667,5.3333
2.58984375,-3.1734226611734184e-05,-7.322570428015552e-06,7.820182787823312e-06,-4.4913575844968336e-05,3.4667,5.3333
2.59375,-3.222507760738536e-05,-1.4644431113145643e-05,-4.833798886091287e-07,-3.954693829251543e-05,3.4667,5.3333
2.59765625,-3.1734226611734184e-05,-1.7573175387197664e-05,-1.9037547524223684e-05,-3.710086416418707e-05,3.4667,5.3333
2.6015625,-3.85734171511406e-05,-1.4644431113145643e-05,-1.6599654245822833e-05,-3.808256615548943e-05,3.4667,5.3333
2.60546875,-4.3940054703593485e-05,-1.122483584344242e-05,4.901412527657101e-07,-4.0520459433890276e-05,3.4667,5.3333
2.609375,-4.4430905699244674e-05,-2.4895036072327754e-05,-1.4153580117494456e-05,-4.150216142519264e-05,3.4667,5.3333
2.61328125,-4.247568256656747e-05,-2.782378034637979e-05,-3.2707747753109015e-05,-3.759171515983824e-05,3.4667,5.3333
2.6171875,-3.85734171511406e-05,-2.2457142793926906e-05,-3.1243375616083e-05,-3.5636492027161055e-05,3.4667,5.3333
2.62109375,-3.612734302281222e-05,-1.5135282108796815e-05,-2.3921514930952922e-05,-3.759171515983824e-05,3.4667,5.3333
2.625,-3.612734302281222e-05,-8.296091569390398e-06,-1.4644431113145643e-05,-3.905608729686426e-05,3.4667,5.3333
2.62890625,-3.466297088578621e-05,-1.854669652857251e-05,-1.806402638284885e-05,-4.5895277836270694e-05,3.4667,5.3333
2.6328125,-3.808256615548943e-05,-2.3430663935301737e-05,-2.4895036072327754e-05,-4.833317111467154e-05,3.4667,5.3333
2.63671875,-4.3449203707942316e-05,-2.5876738063630114e-05,-2.9296333333333323e-05,-3.954693829251543e-05,3.4667,5.3333
2.640625,-4.2966533562218654e-05,-3.1734226611734184e-05,-2.8805482337682147e-05,-4.003778928816662e-05,3.4667,5.3333
2.64453125,-3.710086416418707e-05,-1.610880325017166e-05,-1.854669652857251e-05,-3.661819401846341e-05,3.4667,5.3333
2.6484375,-3.710086416418707e-05,-1.5135282108796815e-05,-1.2689207980468437e-05,-3.368944974441137e-05,3.4667,5.3333
2.65234375,-3.5636492027161055e-05,-2.5385887067978925e-05,-1.5135282108796815e-05,-4.0520459433890276e-05,3.4667,5.3333
2.65625,-3.319859874876019e-05,-1.122483584344242e-05,-2.3921514930952922e-05,-4.4913575844968336e-05,3.4667,5.3333
2.66015625,-3.710086416418707e-05,-5.367347295338362e-06,-2.2947993789578078e-05,-4.93148731059739e-05,3.4667,5.3333
2.6640625,-3.954693829251543e-05,-2.9296333333333323e-05,-3.710086416418707e-05,-4.6868798977645525e-05,3.4667,5.3333
2.66796875,-4.1984831570916296e-05,-3.808256615548943e-05,-3.85734171511406e-05,-4.101131042954145e-05,3.4667,5.3333
2.671875,-3.661819401846341e-05,-2.6359408209353773e-05,-2.734111020065613e-05,-3.85734171511406e-05,3.4667,5.3333
2.67578125,-3.5636492027161055e-05,-2.1483621652552058e-05,-3.759171515983824e-05,-3.319859874876019e-05,3.4667,5.3333
2.6796875,-3.85734171511406e-05,-2.9779003479056982e-05,-4.4913575844968336e-05,-3.661819401846341e-05,3.4667,5.3333
2.68359375,-3.1734226611734184e-05,-2.734111020065613e-05,-3.466297088578621e-05,-4.0520459433890276e-05,3.4667,5.3333
2.6875,-3.1243375616083e-05,-2.1483621652552058e-05,-2.782378034637979e-05,-3.710086416418707e-05,3.4667,5.3333
2.69140625,-4.101131042954145e-05,-3.1243375616083e-05,-4.0520459433890276e-05,-3.612734302281222e-05,3.4667,5.3333
2.6953125,-4.150216142519264e-05,-3.319859874876019e-05,-5.27262875257496e-05,-3.076070547035934e-05,3.4667,5.3333
2.69921875,-4.150216142519264e-05,-3.808256615548943e-05,-4.93148731059739e-05,-3.076070547035934e-05,3.4667,5.3333
2.703125,-4.003778928816662e-05,-4.247568256656747e-05,-4.101131042954145e-05,-3.612734302281222e-05,3.4667,5.3333
2.70703125,-3.905608729686426e-05,-3.5636492027161055e-05,-2.6850259205004945e-05,-3.808256615548943e-05,3.4667,5.3333
2.7109375,-3.808256615548943e-05,-3.222507760738536e-05,-3.0269854474708167e-05,-4.0520459433890276e-05,3.4667,5.3333
2.71484375,-3.4172119890135035e-05,-3.515382188143739e-05,-4.882402211032271e-05,-3.85734171511406e-05,3.4667,5.3333
2.71875,-3.612734302281222e-05,-4.5404426840619505e-05,-5.3707989517051955e-05,-3.5636492027161055e-05,3.4667,5.3333
2.72265625,-4.1984831570916296e-05,-5.3217138521400766e-05,-4.247568256656747e-05,-3.368944974441137e-05,3.4667,5.3333
2.7265625,-4.5895277836270694e-05,-5.4681510658426786e-05,-4.0520459433890276e-05,-3.612734302281222e-05,3.4667,5.3333
2.73046875,-4.2966533562218654e-05,-5.859195692378118e-05,-4.785050096894788e-05,-4.1984831570916296e-05,3.4667,5.3333
2.734375,-4.003778928816662e-05,-5.5172361654077955e-05,-4.5404426840619505e-05,-4.3449203707942316e-05,3.4667,5.3333
2.73828125,-3.85734171511406e-05,-4.785050096894788e-05,-4.882402211032271e-05,-4.4913575844968336e-05,3.4667,5.3333
2.7421875,-3.85734171511406e-05,-4.150216142519264e-05,-5.27262875257496e-05,-4.247568256656747e-05,3.4667,5.3333
2.74609375,-4.1984831570916296e-05,-4.735964997329669e-05,-4.3449203707942316e-05,-4.0520459433890276e-05,3.4667,5.3333
2.75,-3.759171515983824e-05,-4.003778928816662e-05,-3.319859874876019e-05,-3.905608729686426e-05,3.4667,5.3333
2.75390625,-3.612734302281222e-05,-2.5876738063630114e-05,-5.6145882795452806e-05,-3.808256615548943e-05,3.4667,5.3333
2.7578125,-4.0520459433890276e-05,-2.0992770656900886e-05,-7.22621571526665e-05,-4.247568256656747e-05,3.4667,5.3333
2.76171875,-3.710086416418707e-05,-1.4153580117494456e-05,-6.835171088731212e-05,-4.3449203707942316e-05,3.4667,5.3333
2.765625,-3.222507760738536e-05,-1.0251314702067588e-05,-5.761025493247882e-05,-4.3940054703593485e-05,3.4667,5.3333
2.76953125,-3.2707747753109015e-05,-7.805240573739212e-06,-4.003778928816662e-05,-4.4430905699244674e-05,3.4667,5.3333
2.7734375,-3.319859874876019e-05,-1.0251314702067588e-05,-4.3940054703593485e-05,-4.3449203707942316e-05,3.4667,5.3333
2.77734375,-3.515382188143739e-05,-2.6359408209353773e-05,-5.5172361654077955e-05,-4.3940054703593485e-05,3.4667,5.3333
2.78125,-3.710086416418707e-05,-4.101131042954145e-05,-4.5404426840619505e-05,-3.954693829251543e-05,3.4667,5.3333
2.78515625,-4.0520459433890276e-05,-4.5404426840619505e-05,-2.3921514930952922e-05,-2.8805482337682147e-05,3.4667,5.3333
2.7890625,-4.735964997329669e-05,-5.1752766384374746e-05,-2.001106866559853e-05,-2.5876738063630114e-05,3.4667,5.3333
2.79296875,-4.833317111467154e-05,-4.93148731059739e-05,-2.5876738063630114e-05,-2.734111020065613e-05,3.4667,5.3333
2.796875,-4.6868798977645525e-05,-4.3449203707942316e-05,-3.466297088578621e-05,-2.734111020065613e-05,3.4667,5.3333
2.80078125,-4.638612883192186e-05,-4.4430905699244674e-05,-3.2707747753109015e-05,-2.782378034637979e-05,3.4667,5.3333
2.8046875,-4.1984831570916296e-05,-3.954693829251543e-05,-2.3921514930952922e-05,-2.8805482337682147e-05,3.4667,5.3333
2.80859375,-4.150216142519264e-05,-4.3940054703593485e-05,-1.9037547524223684e-05,-2.9779003479056982e-05,3.4667,5.3333
2.8125,-4.2966533562218654e-05,-4.93148731059739e-05,-2.1966291798275717e-05,-3.368944974441137e-05,3.4667,5.3333
2.81640625,-4.5404426840619505e-05,-5.2243617380025935e-05,-3.368944974441137e-05,-3.515382188143739e-05,3.4667,5.3333
2.8203125,-4.2966533562218654e-05,-4.785050096894788e-05,-2.2947993789578078e-05,-3.222507760738536e-05,3.4667,5.3333
2.82421875,-3.4172119890135035e-05,-2.782378034637979e-05,-8.296091569390398e-06,-3.2707747753109015e-05,3.4667,5.3333
2.828125,-3.368944974441137e-05,-1.7573175387197664e-05,-9.269612710765229e-06,-3.222507760738536e-05,3.4667,5.3333
2.83203125,-3.759171515983824e-05,-3.5636492027161055e-05,-8.296091569390398e-06,-3.2707747753109015e-05,3.4667,5.3333
2.8359375,-3.954693829251543e-05,-4.3940054703593485e-05,-1.854669652857251e-05,-3.4172119890135035e-05,3.4667,5.3333
2.83984375,-4.0520459433890276e-05,-3.5636492027161055e-05,-1.9037547524223684e-05,-2.6359408209353773e-05,3.4667,5.3333
2.84375,-4.3449203707942316e-05,-3.5636492027161055e-05,-1.1715686839093606e-05,-2.734111020065613e-05,3.4667,5.3333
2.84765625,-4.1984831570916296e-05,-3.4172119890135035e-05,-6.83171943236438e-06,-3.319859874876019e-05,3.4667,5.3333
2.8515625,-3.466297088578621e-05,-2.2457142793926906e-05,-8.78694256504157e-06,-3.222507760738536e-05,3.4667,5.3333
2.85546875,-3.368944974441137e-05,-2.0992770656900886e-05,-2.1483621652552058e-05,-3.5636492027161055e-05,3.4667,5.3333
2.859375,-3.515382188143739e-05,-3.1734226611734184e-05,-3.5636492027161055e-05,-4.101131042954145e-05,3.4667,5.3333
2.86328125,-3.5636492027161055e-05,-3.319859874876019e-05,-3.710086416418707e-05,-4.1984831570916296e-05,3.4667,5.3333
2.8671875,-3.612734302281222e-05,-3.515382188143739e-05,-1.7573175387197664e-05,-4.003778928816662e-05,3.4667,5.3333
2.87109375,-3.612734302281222e-05,-4.638612883192186e-05,-2.05019196612497e-05,-4.003778928816662e-05,3.4667,5.3333
2.875,-4.150216142519264e-05,-4.93148731059739e-05,-3.759171515983824e-05,-3.905608729686426e-05,3.4667,5.3333
2.87890625,-3.954693829251543e-05,-4.003778928816662e-05,-3.515382188143739e-05,-3.466297088578621e-05,3.4667,5.3333
2.8828125,-3.319859874876019e-05,-3.612734302281222e-05,-2.9296333333333323e-05,-3.1243375616083e-05,3.4667,5.3333
2.88671875,-3.515382188143739e-05,-4.003778928816662e-05,-2.1966291798275717e-05,-3.1243375616083e-05,3.4667,5.3333
2.890625,-3.759171515983824e-05,-4.101131042954145e-05,-2.3430663935301737e-05,-3.319859874876019e-05,3.4667,5.3333
2.89453125,-3.466297088578621e-05,-3.905608729686426e-05,-3.954693829251543e-05,-3.1734226611734184e-05,3.4667,5.3333
2.8984375,-3.1734226611734184e-05,-3.661819401846341e-05,-4.247568256656747e-05,-2.734111020065613e-05,3.4667,5.3333
2.90234375,-3.2707747753109015e-05,-3.5636492027161055e-05,-3.4172119890135035e-05,-2.782378034637979e-05,3.4667,5.3333
2.90625,-3.1734226611734184e-05,-3.1734226611734184e-05,-1.952839851987487e-05,-3.076070547035934e-05,3.4667,5.3333
2.91015625,-2.9779003479056982e-05,-3.0269854474708167e-05,-2.3921514930952922e-05,-3.368944974441137e-05,3.4667,5.3333
2.9140625,-2.782378034637979e-05,-3.661819401846341e-05,-3.661819401846341e-05,-3.612734302281222e-05,3.4667,5.3333
2.91796875,-3.0269854474708167e-05,-3.905608729686426e-05,-3.466297088578621e-05,-3.612734302281222e-05,3.4667,5.3333
2.921875,-3.710086416418707e-05,-3.612734302281222e-05,-2.5876738063630114e-05,-3.076070547035934e-05,3.4667,5.3333
2.92578125,-3.759171515983824e-05,-2.1966291798275717e-05,-8.296091569390398e-06,-3.1243375616083e-05,3.4667,5.3333
2.9296875,-2.6850259205004945e-05,-6.83171943236438e-06,-5.367347295338362e-06,-3.710086416418707e-05,3.4667,5.3333
2.93359375,-2.9779003479056982e-05,-3.1243375616083e-05,-3.905608729686426e-05,-3.0269854474708167e-05,3.4667,5.3333
2.9375,-3.759171515983824e-05,-5.126191538872358e-05,-5.7127584786755163e-05,-2.6359408209353773e-05,3.4667,5.3333
2.94140625,-3.319859874876019e-05,-3.5636492027161055e-05,-5.0779245242999915e-05,-3.2707747753109015e-05,3.4667,5.3333
2.9453125,-2.8805482337682147e-05,-3.076070547035934e-05,-3.515382188143739e-05,-3.1734226611734184e-05,3.4667,5.3333
2.94921875,-2.9296333333333323e-05,-3.5636492027161055e-05,-2.1483621652552058e-05,-2.6359408209353773e-05,3.4667,5.3333
2.953125,-2.5876738063630114e-05,-2.8314631342030962e-05,-3.0269854474708167e-05,-3.0269854474708167e-05,3.4667,5.3333
2.95703125,-2.3430663935301737e-05,-2.3430663935301737e-05,-5.1752766384374746e-05,-3.85734171511406e-05,3.4667,5.3333
2.9609375,-3.1243375616083e-05,-2.782378034637979e-05,-5.4681510658426786e-05,-3.905608729686426e-05,3.4667,5.3333
2.96484375,-3.710086416418707e-05,-3.0269854474708167e-05,-3.1734226611734184e-05,-3.466297088578621e-05,3.4667,5.3333
2.96875,-3.076070547035934e-05,-3.368944974441137e-05,-2.6850259205004945e-05,-3.368944974441137e-05,3.4667,5.3333
2.97265625,-2.5876738063630114e-05,-3.515382188143739e-05,-4.150216142519264e-05,-3.515382188143739e-05,3.4667,5.3333
2.9765625,-2.5876738063630114e-05,-3.466297088578621e-05,-4.833317111467154e-05,-3.954693829251543e-05,3.4667,5.3333
2.98046875,-2.5876738063630114e-05,-3.466297088578621e-05,-4.5404426840619505e-05,-4.003778928816662e-05,3.4667,5.3333
2.984375,-3.2707747753109015e-05,-3.905608729686426e-05,-3.759171515983824e-05,-4.1984831570916296e-05,3.4667,5.3333
2.98828125,-3.85734171511406e-05,-4.150216142519264e-05,-3.368944974441137e-05,-4.101131042954145e-05,3.4667,5.3333
2.9921875,-3.612734302281222e-05,-4.247568256656747e-05,-4.638612883192186e-05,-3.85734171511406e-05,3.4667,5.3333
2.99609375,-3.2707747753109015e-05,-4.150216142519264e-05,-5.419065966277561e-05,-3.759171515983824e-05,3.4667,5.3333
3.0,-3.2707747753109015e-05,-3.710086416418707e-05,-5.0779245242999915e-05,-3.661819401846341e-05,3.4667,5.3333
3.00390625,-3.4172119890135035e-05,-4.003778928816662e-05,-5.126191538872358e-05,-3.85734171511406e-05,3.4667,5.3333
3.0078125,-3.466297088578621e-05,-3.515382188143739e-05,-3.710086416418707e-05,-3.905608729686426e-05,3.4667,5.3333
3.01171875,-3.319859874876019e-05,-2.782378034637979e-05,-3.710086416418707e-05,-3.808256615548943e-05,3.4667,5.3333
3.015625,-3.4172119890135035e-05,-3.0269854474708167e-05,-4.735964997329669e-05,-3.5636492027161055e-05,3.4667,5.3333
3.01953125,-3.759171515983824e-05,-2.8805482337682147e-05,-3.612734302281222e-05,-3.076070547035934e-05,3.4667,5.3333
3.0234375,-4.0520459433890276e-05,-2.1483621652552058e-05,-2.3430663935301737e-05,-2.782378034637979e-05,3.4667,5.3333
3.02734375,-3.661819401846341e-05,-1.5617952254520476e-05,-1.122483584344242e-05,-3.0269854474708167e-05,3.4667,5.3333
3.03125,-3.0269854474708167e-05,-1.4153580117494456e-05,-1.122483584344242e-05,-3.0269854474708167e-05,3.4667,5.3333
3.03515625,-2.6359408209353773e-05,-2.05019196612497e-05,-2.1483621652552058e-05,-3.1243375616083e-05,3.4667,5.3333
3.0390625,-2.734111020065613e-05,-2.6850259205004945e-05,-2.5876738063630114e-05,-3.2707747753109015e-05,3.4667,5.3333
3.04296875,-2.9779003479056982e-05,-2.1966291798275717e-05,-1.0733984847791247e-05,-3.515382188143739e-05,3.4667,5.3333
3.046875,-3.2707747753109015e-05,-2.1483621652552058e-05,-9.269612710765229e-06,-3.5636492027161055e-05,3.4667,5.3333
3.05078125,-3.319859874876019e-05,-2.5385887067978925e-05,-2.2947993789578078e-05,-3.1734226611734184e-05,3.4667,5.3333
3.0546875,-3.661819401846341e-05,-2.734111020065613e-05,-2.9779003479056982e-05,-3.4172119890135035e-05,3.4667,5.3333
3.05859375,-3.5636492027161055e-05,-2.5876738063630114e-05,-2.1966291798275717e-05,-3.954693829251543e-05,3.4667,5.3333
3.0625,-2.8805482337682147e-05,-1.9037547524223684e-05,-1.1715686839093606e-05,-3.905608729686426e-05,3.4667,5.3333
3.06640625,-2.5876738063630114e-05,-1.122483584344242e-05,-9.760463706416402e-06,-3.466297088578621e-05,3.4667,5.3333
3.0703125,-2.2457142793926906e-05,-1.4644431113145643e-05,-1.1715686839093606e-05,-3.1734226611734184e-05,3.4667,5.3333
3.07421875,-2.2947993789578078e-05,-2.6850259205004945e-05,-2.4895036072327754e-05,-2.9779003479056982e-05,3.4667,5.3333
3.078125,-2.2457142793926906e-05,-2.1966291798275717e-05,-3.466297088578621e-05,-3.076070547035934e-05,3.4667,5.3333
3.08203125,-1.854669652857251e-05,-1.7082324391546492e-05,-3.808256615548943e-05,-3.759171515983824e-05,3.4667,5.3333
3.0859375,-1.7082324391546492e-05,-2.3921514930952922e-05,-2.782378034637979e-05,-4.003778928816662e-05,3.4667,5.3333
3.08984375,-1.854669652857251e-05,-2.1483621652552058e-05,-1.5135282108796815e-05,-3.466297088578621e-05,3.4667,5.3333
3.09375,-2.1483621652552058e-05,-2.3430663935301737e-05,-2.5385887067978925e-05,-3.4172119890135035e-05,3.4667,5.3333
3.09765625,-1.4153580117494456e-05,-2.782378034637979e-05,-3.076070547035934e-05,-2.8314631342030962e-05,3.4667,5.3333
3.1015625,-1.3670909971770796e-05,-2.0992770656900886e-05,-2.2947993789578078e-05,-2.2947993789578078e-05,3.4667,5.3333
3.10546875,-2.3921514930952922e-05,-2.2947993789578078e-05,-2.2947993789578078e-05,-3.222507760738536e-05,3.4667,5.3333
3.109375,-2.734111020065613e-05,-2.734111020065613e-05,-2.734111020065613e-05,-3.661819401846341e-05,3.4667,5.3333
3.11328125,-2.9779003479056982e-05,-3.076070547035934e-05,-3.466297088578621e-05,-3.319859874876019e-05,3.4667,5.3333
3.1171875,-2.9296333333333323e-05,-3.2707747753109015e-05,-3.905608729686426e-05,-2.6850259205004945e-05,3.4667,5.3333
3.12109375,-2.9296333333333323e-05,-3.0269854474708167e-05,-3.710086416418707e-05,-2.8314631342030962e-05,3.4667,5.3333
3.125,-3.319859874876019e-05,-2.9296333333333323e-05,-3.1734226611734184e-05,-3.515382188143739e-05,3.4667,5.3333
3.12890625,-3.222507760738536e-05,-4.1984831570916296e-05,-2.734111020065613e-05,-3.808256615548943e-05,3.4667,5.3333
3.1328125,-3.1734226611734184e-05,-4.4913575844968336e-05,-3.1734226611734184e-05,-3.612734302281222e-05,3.4667,5.3333
3.13671875,-2.9779003479056982e-05,-3.4172119890135035e-05,-4.2966533562218654e-05,-3.466297088578621e-05,3.4667,5.3333
3.140625,-2.8805482337682147e-05,-4.150216142519264e-05,-4.735964997329669e-05,-3.612734302281222e-05,3.4667,5.3333
3.14453125,-3.1243375616083e-05,-4.638612883192186e-05,-4.0520459433890276e-05,-3.612734302281222e-05,3.4667,5.3333
3.1484375,-3.2707747753109015e-05,-4.4430905699244674e-05,-2.734111020065613e-05,-3.661819401846341e-05,3.4667,5.3333
3.15234375,-3.85734171511406e-05,-5.4681510658426786e-05,-3.85734171511406e-05,-4.3940054703593485e-05,3.4667,5.3333
3.15625,-3.661819401846341e-05,-4.4913575844968336e-05,-5.6636733791103975e-05,-4.5404426840619505e-05,3.4667,5.3333
3.16015625,-2.9779003479056982e-05,-2.8805482337682147e-05,-5.1752766384374746e-05,-4.2966533562218654e-05,3.4667,5.3333
3.1640625,-3.0269854474708167e-05,-3.1734226611734184e-05,-4.101131042954145e-05,-4.2966533562218654e-05,3.4667,5.3333
3.16796875,-3.1243375616083e-05,-3.466297088578621e-05,-3.368944974441137e-05,-3.466297088578621e-05,3.4667,5.3333
3.171875,-3.076070547035934e-05,-3.612734302281222e-05,-4.1984831570916296e-05,-3.368944974441137e-05,3.4667,5.3333
3.17578125,-3.1734226611734184e-05,-3.905608729686426e-05,-5.028839424734873e-05,-3.2707747753109015e-05,3.4667,5.3333
3.1796875,-3.2707747753109015e-05,-3.515382188143739e-05,-4.785050096894788e-05,-3.368944974441137e-05,3.4667,5.3333
3.18359375,-3.612734302281222e-05,-3.85734171511406e-05,-4.3449203707942316e-05,-4.150216142519264e-05,3.4667,5.3333
3.1875,-4.101131042954145e-05,-4.150216142519264e-05,-3.759171515983824e-05,-4.638612883192186e-05,3.4667,5.3333
3.19140625,-3.759171515983824e-05,-4.3940054703593485e-05,-3.1243375616083e-05,-4.101131042954145e-05,3.4667,5.3333
3.1953125,-3.710086416418707e-05,-4.4913575844968336e-05,-5.028839424734873e-05,-4.2966533562218654e-05,3.4667,5.3333
3.19921875,-4.3940054703593485e-05,-4.4913575844968336e-05,-6.542296661326008e-05,-4.3449203707942316e-05,3.4667,5.3333
3.203125,-4.0520459433890276e-05,-3.661819401846341e-05,-5.0779245242999915e-05,-3.5636492027161055e-05,3.4667,5.3333
3.20703125,-4.150216142519264e-05,-3.466297088578621e-05,-4.0520459433890276e-05,-3.515382188143739e-05,3.4667,5.3333
3.2109375,-4.5404426840619505e-05,-3.319859874876019e-05,-5.6145882795452806e-05,-4.2966533562218654e-05,3.4667,5.3333
3.21484375,-3.954693829251543e-05,-2.734111020065613e-05,-7.177130615701531e-05,-4.5404426840619505e-05,3.4667,5.3333
3.21875,-3.222507760738536e-05,-3.0269854474708167e-05,-6.933341287861446e-05,-4.4430905699244674e-05,3.4667,5.3333
3.22265625,-2.9296333333333323e-05,-1.6599654245822833e-05,-5.126191538872358e-05,-4.0520459433890276e-05,3.4667,5.3333
3.2265625,-2.8805482337682147e-05,-8.78694256504157e-06,-4.882402211032271e-05,-3.85734171511406e-05,3.4667,5.3333
3.23046875,-3.368944974441137e-05,-2.5876738063630114e-05,-6.053899920653086e-05,-3.808256615548943e-05,3.4667,5.3333
3.234375,-4.0520459433890276e-05,-4.150216142519264e-05,-6.981608302433812e-05,-3.5636492027161055e-05,3.4667,5.3333
3.23828125,-3.759171515983824e-05,-4.638612883192186e-05,-7.470005043106735e-05,-3.515382188143739e-05,3.4667,5.3333
3.2421875,-3.466297088578621e-05,-5.028839424734873e-05,-6.494029646753642e-05,-3.612734302281222e-05,3.4667,5.3333
3.24609375,-3.661819401846341e-05,-7.030693401998931e-05,-5.5663212649729143e-05,-3.612734302281222e-05,3.4667,5.3333
3.25,-3.2707747753109015e-05,-8.153924097047379e-05,-5.5172361654077955e-05,-2.4895036072327754e-05,3.4667,5.3333
3.25390625,-3.0269854474708167e-05,-9.325421806668191e-05,-6.884256188296331e-05,-2.734111020065613e-05,3.4667,5.3333
3.2578125,-3.466297088578621e-05,-0.0001039956740215152,-9.423592005798429e-05,-2.3921514930952922e-05,3.4667,5.3333
3.26171875,-3.4172119890135035e-05,-0.00010546004615854125,-0.00010155778074311435,-1.5135282108796815e-05,3.4667,5.3333
3.265625,-2.9779003479056982e-05,-0.00012011194837872892,-9.37450690623331e-05,-2.05019196612497e-05,3.4667,5.3333
3.26953125,-2.2947993789578078e-05,-0.00014013048815136948,-0.00011034401356527046,-1.854669652857251e-05,3.4667,5.3333
3.2734375,-2.001106866559853e-05,-0.00014159486028839552,-0.0001455053065537499,-8.296091569390398e-06,3.4667,5.3333
3.27734375,-2.5876738063630114e-05,-0.00014794319983215073,-0.00015526506051728083,-1.1715686839093606e-05,3.4667,5.3333
3.28125,-3.1243375616083e-05,-0.0001508719441062028,-0.0001381752650186923,-1.5617952254520476e-05,3.4667,5.3333
3.28515625,-2.5385887067978925e-05,-0.0001396396371557183,-0.0001240223946440833,-2.001106866559853e-05,3.4667,5.3333
3.2890625,-2.1483621652552058e-05,-0.00015380068838025481,-0.00014598797669947356,-1.6599654245822833e-05,3.4667,5.3333
3.29296875,-2.8314631342030962e-05,-0.0001757744512855726,-0.00016210425105668726,-1.3670909971770796e-05,3.4667,5.3333
3.296875,-2.5385887067978925e-05,-0.00016210425105668726,-0.00016796173960479134,-2.3921514930952922e-05,3.4667,5.3333
3.30078125,-3.0269854474708167e-05,-0.0001664973674677653,-0.00017968489755092697,-2.1483621652552058e-05,3.4667,5.3333
3.3046875,-4.247568256656747e-05,-0.00016014902792401008,-0.00015526506051728083,-2.1966291798275717e-05,3.4667,5.3333
3.30859375,-3.808256615548943e-05,-0.0001450144555580987,-0.0001347638505989166,-2.9779003479056982e-05,3.4667,5.3333
3.3125,-3.319859874876019e-05,-0.0001435500834210727,-0.00014305923242542153,-3.2707747753109015e-05,3.4667,5.3333
3.31640625,-3.85734171511406e-05,-0.00013378214860761427,-0.0001469696786907759,-2.8314631342030962e-05,3.4667,5.3333
3.3203125,-3.710086416418707e-05,-0.00012254984165712977,-0.00013280862746623941,-3.076070547035934e-05,3.4667,5.3333
3.32421875,-3.319859874876019e-05,-0.00011034401356527046,-0.00011425445983062485,-2.734111020065613e-05,3.4667,5.3333
3.328125,-3.612734302281222e-05,-9.130717578393225e-05,-9.032547379262987e-05,-2.001106866559853e-05,3.4667,5.3333
3.33203125,-3.954693829251543e-05,-7.909316684214542e-05,-7.665527356374456e-05,-2.4412365926604094e-05,3.4667,5.3333
3.3359375,-3.954693829251543e-05,-7.616442256809339e-05,-8.788758051422902e-05,-2.3430663935301737e-05,3.4667,5.3333
3.33984375,-3.5636492027161055e-05,-7.030693401998931e-05,-8.153924097047379e-05,-2.2457142793926906e-05,3.4667,5.3333
3.34375,-3.466297088578621e-05,-6.884256188296331e-05,-6.152070119783322e-05,-2.9296333333333323e-05,3.4667,5.3333
3.34765625,-3.759171515983824e-05,-5.419065966277561e-05,-4.833317111467154e-05,-3.222507760738536e-05,3.4667,5.3333
3.3515625,-3.905608729686426e-05,-4.6868798977645525e-05,-5.5172361654077955e-05,-3.319859874876019e-05,3.4667,5.3333
3.35546875,-3.612734302281222e-05,-4.833317111467154e-05,-5.859195692378118e-05,-3.466297088578621e-05,3.4667,5.3333
3.359375,-3.466297088578621e-05,-3.515382188143739e-05,-3.954693829251543e-05,-3.612734302281222e-05,3.4667,5.3333
3.36328125,-3.759171515983824e-05,-2.1483621652552058e-05,-2.6359408209353773e-05,-3.4172119890135035e-05,3.4667,5.3333
3.3671875,-3.759171515983824e-05,-1.0251314702067588e-05,-9.269612710765229e-06,-3.1734226611734184e-05,3.4667,5.3333
3.37109375,-3.466297088578621e-05,5.374108659494937e-06,1.4718432440680686e-06,-3.5636492027161055e-05,3.4667,5.3333
3.375,-3.466297088578621e-05,6.355810650797295e-06,-2.3430663935301737e-05,-3.905608729686426e-05,3.4667,5.3333
3.37890625,-3.661819401846341e-05,-5.858198290989534e-06,-3.515382188143739e-05,-4.003778928816662e-05,3.4667,5.3333
3.3828125,-3.612734302281222e-05,-1.806402638284885e-05,-1.806402638284885e-05,-4.247568256656747e-05,3.4667,5.3333
3.38671875,-3.710086416418707e-05,-1.2689207980468437e-05,9.809922484168893e-07,-4.003778928816662e-05,3.4667,5.3333
3.390625,-3.905608729686426e-05,-2.438603021286326e-06,-3.902975158312344e-06,-4.0520459433890276e-05,3.4667,5.3333
3.39453125,-3.710086416418707e-05,3.9097365224689184e-06,-2.0992770656900886e-05,-4.5404426840619505e-05,3.4667,5.3333
3.3984375,-3.515382188143739e-05,-1.9477520256351465e-06,-2.05019196612497e-05,-4.3449203707942316e-05,3.4667,5.3333
3.40234375,-3.710086416418707e-05,-1.2689207980468437e-05,-1.3670909971770796e-05,-4.6868798977645525e-05,3.4667,5.3333
3.40625,-3.710086416418707e-05,-9.760463706416402e-06,3.418885526817739e-06,-5.0779245242999915e-05,3.4667,5.3333
3.41015625,-3.612734302281222e-05,4.8914385137712766e-06,1.269596934462502e-05,-4.3940054703593485e-05,3.4667,5.3333
3.4140625,-3.515382188143739e-05,1.025807606622417e-05,1.4718432440680686e-06,-4.003778928816662e-05,3.4667,5.3333
3.41796875,-3.4172119890135035e-05,4.8914385137712766e-06,-6.340868436713194e-06,-4.150216142519264e-05,3.4667,5.3333
3.421875,-3.368944974441137e-05,3.9097365224689184e-06,-4.876496299687176e-06,-4.3940054703593485e-05,3.4667,5.3333
3.42578125,-2.9296333333333323e-05,6.838480796520954e-06,5.374108659494937e-06,-4.150216142519264e-05,3.4667,5.3333
3.4296875,-2.782378034637979e-05,4.8914385137712766e-06,7.329331792172134e-06,-4.0520459433890276e-05,3.4667,5.3333
3.43359375,-3.076070547035934e-05,-6.83171943236438e-06,-1.4569010299839675e-06,-4.3940054703593485e-05,3.4667,5.3333
3.4375,-2.9296333333333323e-05,-3.412124162661165e-06,-6.83171943236438e-06,-4.4913575844968336e-05,3.4667,5.3333
3.44140625,-2.782378034637979e-05,3.9097365224689184e-06,-4.833798886091287e-07,-3.759171515983824e-05,3.4667,5.3333
3.4453125,-3.368944974441137e-05,4.901412527657101e-07,1.1231597207599001e-05,-3.076070547035934e-05,3.4667,5.3333
3.44921875,-3.710086416418707e-05,-5.367347295338362e-06,4.901412527657101e-07,-3.076070547035934e-05,3.4667,5.3333
3.453125,-3.466297088578621e-05,-3.902975158312344e-06,-9.269612710765229e-06,-3.4172119890135035e-05,3.4667,5.3333
3.45703125,-3.0269854474708167e-05,7.471107042050562e-09,-1.1715686839093606e-05,-4.3449203707942316e-05,3.4667,5.3333
3.4609375,-2.9779003479056982e-05,-1.9477520256351465e-06,-8.296091569390398e-06,-4.785050096894788e-05,3.4667,5.3333
3.46484375,-2.782378034637979e-05,1.4718432440680686e-06,4.400587518120098e-06,-4.833317111467154e-05,3.4667,5.3333
3.46875,-3.1734226611734184e-05,2.4453643854429074e-06,2.4453643854429074e-06,-4.882402211032271e-05,3.4667,5.3333
3.47265625,-3.612734302281222e-05,5.374108659494937e-06,-4.876496299687176e-06,-4.5404426840619505e-05,3.4667,5.3333
3.4765625,-3.808256615548943e-05,5.864959655146115e-06,-9.760463706416402e-06,-3.954693829251543e-05,3.4667,5.3333
3.48046875,-3.85734171511406e-05,-2.438603021286326e-06,-3.902975158312344e-06,-3.4172119890135035e-05,3.4667,5.3333
3.484375,-3.319859874876019e-05,-7.322570428015552e-06,7.329331792172134e-06,-3.661819401846341e-05,3.4667,5.3333
3.48828125,-3.2707747753109015e-05,-3.412124162661165e-06,1.3677671335927378e-05,-4.247568256656747e-05,3.4667,5.3333
3.4921875,-3.319859874876019e-05,7.471107042050562e-09,8.793703929198152e-06,-4.3940054703593485e-05,3.4667,5.3333
3.49609375,-3.368944974441137e-05,-8.78694256504157e-06,-1.1715686839093606e-05,-4.3449203707942316e-05,3.4667,5.3333
3.5,-3.808256615548943e-05,-1.952839851987487e-05,-2.1966291798275717e-05,-4.638612883192186e-05,3.4667,5.3333
3.50390625,-3.85734171511406e-05,-2.2457142793926906e-05,-2.05019196612497e-05,-4.4430905699244674e-05,3.4667,5.3333
3.5078125,-3.368944974441137e-05,-2.2457142793926906e-05,-2.05019196612497e-05,-4.0520459433890276e-05,3.4667,5.3333
3.51171875,-3.1734226611734184e-05,-1.610880325017166e-05,-1.854669652857251e-05,-3.954693829251543e-05,3.4667,5.3333
3.515625,-2.9779003479056982e-05,-1.2198356984817265e-05,-2.4412365926604094e-05,-3.954693829251543e-05,3.4667,5.3333
3.51953125,-3.319859874876019e-05,-2.1483621652552058e-05,-3.612734302281222e-05,-4.101131042954145e-05,3.4667,5.3333
3.5234375,-3.1243375616083e-05,-1.7082324391546492e-05,-2.8314631342030962e-05,-3.954693829251543e-05,3.4667,5.3333
3.52734375,-3.4172119890135035e-05,-7.322570428015552e-06,-1.0251314702067588e-05,-4.2966533562218654e-05,3.4667,5.3333
3.53125,-4.247568256656747e-05,-1.9037547524223684e-05,-1.0251314702067588e-05,-4.003778928816662e-05,3.4667,5.3333
3.53515625,-4.5895277836270694e-05,-3.2707747753109015e-05,-3.319859874876019e-05,-4.003778928816662e-05,3.4667,5.3333
3.5390625,-4.1984831570916296e-05,-2.4895036072327754e-05,-3.954693829251543e-05,-4.003778928816662e-05,3.4667,5.3333
3.54296875,-3.076070547035934e-05,-1.1715686839093606e-05,-2.1966291798275717e-05,-3.319859874876019e-05,3.4667,5.3333
3.546875,-2.6850259205004945e-05,-1.122483584344242e-05,-6.83171943236438e-06,-3.076070547035934e-05,3.4667,5.3333
3.55078125,-2.9296333333333323e-05,-1.9037547524223684e-05,-1.952839851987487e-05,-3.1734226611734184e-05,3.4667,5.3333
3.5546875,-3.466297088578621e-05,-1.952839851987487e-05,-2.1483621652552058e-05,-3.0269854474708167e-05,3.4667,5.3333
3.55859375,-3.076070547035934e-05,-1.2689207980468437e-05,-2.4412365926604094e-05,-3.1243375616083e-05,3.4667,5.3333
3.5625,-2.8314631342030962e-05,-2.001106866559853e-05,-3.4172119890135035e-05,-3.076070547035934e-05,3.4667,5.3333
3.56640625,-3.319859874876019e-05,-3.0269854474708167e-05,-2.5385887067978925e-05,-2.5385887067978925e-05,3.4667,5.3333
3.5703125,-3.222507760738536e-05,-3.2707747753109015e-05,-2.9296333333333323e-05,-3.1243375616083e-05,3.4667,5.3333
3.57421875,-2.8805482337682147e-05,-3.319859874876019e-05,-4.003778928816662e-05,-3.759171515983824e-05,3.4667,5.3333
3.578125,-2.6850259205004945e-05,-3.1243375616083e-05,-4.785050096894788e-05,-4.003778928816662e-05,3.4667,5.3333
3.58203125,-2.782378034637979e-05,-2.1966291798275717e-05,-3.808256615548943e-05,-3.954693829251543e-05,3.4667,5.3333
3.5859375,-3.515382188143739e-05,-1.854669652857251e-05,-2.3921514930952922e-05,-3.2707747753109015e-05,3.4667,5.3333
3.58984375,-3.710086416418707e-05,-2.2457142793926906e-05,-2.6850259205004945e-05,-3.319859874876019e-05,3.4667,5.3333
3.59375,-3.5636492027161055e-05,-1.7573175387197664e-05,-2.4895036072327754e-05,-2.9296333333333323e-05,3.4667,5.3333
3.59765625,-4.0520459433890276e-05,-2.734111020065613e-05,-2.4895036072327754e-05,-2.9296333333333323e-05,3.4667,5.3333
3.6015625,-3.710086416418707e-05,-3.1734226611734184e-05,-3.0269854474708167e-05,-3.222507760738536e-05,3.4667,5.3333
3.60546875,-2.734111020065613e-05,-1.4644431113145643e-05,-2.001106866559853e-05,-3.319859874876019e-05,3.4667,5.3333
3.609375,-2.4412365926604094e-05,-8.78694256504157e-06,-1.5617952254520476e-05,-3.466297088578621e-05,3.4667,5.3333
3.61328125,-2.5385887067978925e-05,-1.9037547524223684e-05,-2.734111020065613e-05,-3.612734302281222e-05,3.4667,5.3333
3.6171875,-3.222507760738536e-05,-3.076070547035934e-05,-3.905608729686426e-05,-4.101131042954145e-05,3.4667,5.3333
3.62109375,-3.515382188143739e-05,-3.2707747753109015e-05,-4.150216142519264e-05,-4.3449203707942316e-05,3.4667,5.3333
3.625,-3.466297088578621e-05,-3.0269854474708167e-05,-2.1483621652552058e-05,-3.515382188143739e-05,3.4667,5.3333
3.62890625,-3.1243375616083e-05,-2.6850259205004945e-05,-1.9477520256351465e-06,-3.2707747753109015e-05,3.4667,5.3333
3.6328125,-3.515382188143739e-05,-2.9296333333333323e-05,-2.4412365926604094e-05,-4.1984831570916296e-05,3.4667,5.3333
3.63671875,-3.759171515983824e-05,-3.2707747753109015e-05,-4.785050096894788e-05,-4.638612883192186e-05,3.4667,5.3333
3.640625,-2.9779003479056982e-05,-2.782378034637979e-05,-4.3449203707942316e-05,-4.150216142519264e-05,3.4667,5.3333
3.64453125,-2.9296333333333323e-05,-2.4412365926604094e-05,-2.8314631342030962e-05,-3.515382188143739e-05,3.4667,5.3333
3.6484375,-3.368944974441137e-05,-2.1483621652552058e-05,-2.05019196612497e-05,-3.466297088578621e-05,3.4667,5.3333
3.65234375,-3.661819401846341e-05,-3.4172119890135035e-05,-3.0269854474708167e-05,-3.368944974441137e-05,3.4667,5.3333
3.65625,-3.85734171511406e-05,-3.954693829251543e-05,-3.466297088578621e-05,-2.9779003479056982e-05,3.4667,5.3333
3.66015625,-3.5636492027161055e-05,-3.1243375616083e-05,-3.466297088578621e-05,-3.612734302281222e-05,3.4667,5.3333
3.6640625,-3.661819401846341e-05,-2.8805482337682147e-05,-3.319859874876019e-05,-4.3449203707942316e-05,3.4667,5.3333
3.66796875,-3.076070547035934e-05,-2.1483621652552058e-05,-2.5385887067978925e-05,-4.101131042954145e-05,3.4667,5.3333
3.671875,-2.9296333333333323e-05,-2.3430663935301737e-05,-2.9296333333333323e-05,-4.3940054703593485e-05,3.4667,5.3333
3.67578125,-3.661819401846341e-05,-2.9779003479056982e-05,-4.833317111467154e-05,-4.4913575844968336e-05,3.4667,5.3333
3.6796875,-3.710086416418707e-05,-3.1243375616083e-05,-5.3217138521400766e-05,-4.247568256656747e-05,3.4667,5.3333
3.68359375,-3.368944974441137e-05,-2.0992770656900886e-05,-4.0520459433890276e-05,-4.150216142519264e-05,3.4667,5.3333
3.6875,-2.782378034637979e-05,-4.876496299687176e-06,-1.952839851987487e-05,-3.759171515983824e-05,3.4667,5.3333
3.69140625,-2.6850259205004945e-05,-1.0733984847791247e-05,-3.1243375616083e-05,-3.710086416418707e-05,3.4667,5.3333
3.6953125,-2.9779003479056982e-05,-1.2689207980468437e-05,-5.4681510658426786e-05,-3.808256615548943e-05,3.4667,5.3333
3.69921875,-2.8314631342030962e-05,-1.7573175387197664e-05,-6.053899920653086e-05,-3.5636492027161055e-05,3.4667,5.3333
3.703125,-2.3430663935301737e-05,-2.782378034637979e-05,-4.3940054703593485e-05,-3.5636492027161055e-05,3.4667,5.3333
3.70703125,-2.782378034637979e-05,-2.8805482337682147e-05,-1.806402638284885e-05,-3.759171515983824e-05,3.4667,5.3333
3.7109375,-3.661819401846341e-05,-3.319859874876019e-05,-1.3670909971770796e-05,-3.710086416418707e-05,3.4667,5.3333
3.71484375,-3.759171515983824e-05,-3.612734302281222e-05,-1.7573175387197664e-05,-3.5636492027161055e-05,3.4667,5.3333
3.71875,-3.612734302281222e-05,-3.85734171511406e-05,-2.734111020065613e-05,-4.0520459433890276e-05,3.4667,5.3333
3.72265625,-3.368944974441137e-05,-3.2707747753109015e-05,-2.6850259205004945e-05,-3.954693829251543e-05,3.4667,5.3333
3.7265625,-2.9296333333333323e-05,-2.8314631342030962e-05,-1.6599654245822833e-05,-3.612734302281222e-05,3.4667,5.3333
3.73046875,-3.515382188143739e-05,-3.4172119890135035e-05,-1.806402638284885e-05,-4.101131042954145e-05,3.4667,5.3333
3.734375,-3.808256615548943e-05,-3.85734171511406e-05,-2.2947993789578078e-05,-3.612734302281222e-05,3.4667,5.3333
3.73828125,-3.759171515983824e-05,-3.954693829251543e-05,-3.1243375616083e-05,-3.1734226611734184e-05,3.4667,5.3333
3.7421875,-4.0520459433890276e-05,-3.808256615548943e-05,-2.4412365926604094e-05,-3.2707747753109015e-05,3.4667,5.3333
3.74609375,-3.612734302281222e-05,-3.4172119890135035e-05,-1.3180058976119624e-05,-3.466297088578621e-05,3.4667,5.3333
3.75,-3.5636492027161055e-05,-3.2707747753109015e-05,-1.9037547524223684e-05,-3.954693829251543e-05,3.4667,5.3333
3.75390625,-3.905608729686426e-05,-3.5636492027161055e-05,-3.466297088578621e-05,-4.247568256656747e-05,3.4667,5.3333
3.7578125,-3.222507760738536e-05,-2.0992770656900886e-05,-3.759171515983824e-05,-5.3217138521400766e-05,3.4667,5.3333
3.76171875,-3.0269854474708167e-05,-5.367347295338362e-06,-1.7082324391546492e-05,-5.0779245242999915e-05,3.4667,5.3333
3.765625,-4.1984831570916296e-05,-2.2457142793926906e-05,-9.269612710765229e-06,-3.466297088578621e-05,3.4667,5.3333
3.76953125,-4.150216142519264e-05,-3.368944974441137e-05,-2.3430663935301737e-05,-3.1734226611734184e-05,3.4667,5.3333
3.7734375,-3.368944974441137e-05,-2.0992770656900886e-05,-2.6359408209353773e-05,-2.8805482337682147e-05,3.4667,5.3333
3.77734375,-3.319859874876019e-05,-2.001106866559853e-05,-2.1966291798275717e-05,-2.3921514930952922e-05,3.4667,5.3333
3.78125,-4.0520459433890276e-05,-2.05019196612497e-05,-1.806402638284885e-05,-2.5385887067978925e-05,3.4667,5.3333
3.78515625,-4.003778928816662e-05,-2.4412365926604094e-05,-1.5617952254520476e-05,-2.734111020065613e-05,3.4667,5.3333
3.7890625,-3.759171515983824e-05,-1.9037547524223684e-05,-8.78694256504157e-06,-3.076070547035934e-05,3.4667,5.3333
3.79296875,-4.150216142519264e-05,-1.0251314702067588e-05,-4.833798886091287e-07,-2.4412365926604094e-05,3.4667,5.3333
3.796875,-4.3940054703593485e-05,-2.2457142793926906e-05,-2.001106866559853e-05,-1.854669652857251e-05,3.4667,5.3333
3.80078125,-4.638612883192186e-05,-2.6359408209353773e-05,-2.5876738063630114e-05,-2.1966291798275717e-05,3.4667,5.3333
3.8046875,-4.247568256656747e-05,-2.1483621652552058e-05,-4.3938261539635166e-06,-2.1483621652552058e-05,3.4667,5.3333
3.80859375,-4.003778928816662e-05,-2.05019196612497e-05,2.9362153810940797e-06,-2.1483621652552058e-05,3.4667,5.3333
3.8125,-4.4430905699244674e-05,-2.9779003479056982e-05,-2.9212731670099853e-06,-2.2457142793926906e-05,3.4667,5.3333
3.81640625,-4.150216142519264e-05,-3.0269854474708167e-05,-1.0733984847791247e-05,-1.806402638284885e-05,3.4667,5.3333
3.8203125,-3.905608729686426e-05,-2.4895036072327754e-05,-1.610880325017166e-05,-1.952839851987487e-05,3.4667,5.3333
3.82421875,-4.1984831570916296e-05,-2.782378034637979e-05,-4.3938261539635166e-06,-2.001106866559853e-05,3.4667,5.3333
3.828125,-4.247568256656747e-05,-2.3921514930952922e-05,-7.322570428015552e-06,-2.4895036072327754e-05,3.4667,5.3333
3.83203125,-3.905608729686426e-05,-1.2198356984817265e-05,-1.6599654245822833e-05,-2.5876738063630114e-05,3.4667,5.3333
3.8359375,-3.1734226611734184e-05,-1.122483584344242e-05,-2.9779003479056982e-05,-2.2947993789578078e-05,3.4667,5.3333
3.83984375,-2.9779003479056982e-05,-2.2457142793926906e-05,-3.710086416418707e-05,-2.782378034637979e-05,3.4667,5.3333
3.84375,-3.5636492027161055e-05,-3.368944974441137e-05,-2.1966291798275717e-05,-3.0269854474708167e-05,3.4667,5.3333
3.84765625,-3.612734302281222e-05,-3.222507760738536e-05,-1.7573175387197664e-05,-3.222507760738536e-05,3.4667,5.3333
3.8515625,-3.5636492027161055e-05,-3.759171515983824e-05,-3.1734226611734184e-05,-3.222507760738536e-05,3.4667,5.3333
3.85546875,-3.710086416418707e-05,-4.6868798977645525e-05,-4.3449203707942316e-05,-3.319859874876019e-05,3.4667,5.3333
3.859375,-3.5636492027161055e-05,-4.003778928816662e-05,-3.85734171511406e-05,-3.515382188143739e-05,3.4667,5.3333
3.86328125,-3.710086416418707e-05,-3.368944974441137e-05,-3.1243375616083e-05,-3.4172119890135035e-05,3.4667,5.3333
3.8671875,-3.076070547035934e-05,-2.6359408209353773e-05,-2.1483621652552058e-05,-3.661819401846341e-05,3.4667,5.3333
3.87109375,-2.782378034637979e-05,-2.2457142793926906e-05,-2.0992770656900886e-05,-3.466297088578621e-05,3.4667,5.3333
3.875,-3.076070547035934e-05,-2.6359408209353773e-05,-4.247568256656747e-05,-3.1243375616083e-05,3.4667,5.3333
3.87890625,-2.9296333333333323e-05,-2.5385887067978925e-05,-5.126191538872358e-05,-3.1734226611734184e-05,3.4667,5.3333
3.8828125,-2.6850259205004945e-05,-2.8805482337682147e-05,-3.0269854474708167e-05,-3.368944974441137e-05,3.4667,5.3333
3.88671875,-3.0269854474708167e-05,-3.612734302281222e-05,-1.854669652857251e-05,-3.612734302281222e-05,3.4667,5.3333
3.890625,-3.222507760738536e-05,-2.1483621652552058e-05,-1.2689207980468437e-05,-3.661819401846341e-05,3.4667,5.3333
3.89453125,-2.9779003479056982e-05,-6.83171943236438e-06,-2.4412365926604094e-05,-3.4172119890135035e-05,3.4667,5.3333
3.8984375,-3.222507760738536e-05,-1.3180058976119624e-05,-4.247568256656747e-05,-3.466297088578621e-05,3.4667,5.3333
3.90234375,-3.4172119890135035e-05,-1.5135282108796815e-05,-3.319859874876019e-05,-3.5636492027161055e-05,3.4667,5.3333
3.90625,-3.0269854474708167e-05,-1.3670909971770796e-05,-1.610880325017166e-05,-2.782378034637979e-05,3.4667,5.3333
3.91015625,-3.612734302281222e-05,-1.854669652857251e-05,-2.05019196612497e-05,-2.734111020065613e-05,3.4667,5.3333
3.9140625,-3.85734171511406e-05,-2.1483621652552058e-05,-3.515382188143739e-05,-2.6850259205004945e-05,3.4667,5.3333
3.91796875,-3.515382188143739e-05,-2.5385887067978925e-05,-4.3940054703593485e-05,-2.3430663935301737e-05,3.4667,5.3333
3.921875,-3.661819401846341e-05,-2.9779003479056982e-05,-3.4172119890135035e-05,-2.5385887067978925e-05,3.4667,5.3333
3.92578125,-3.85734171511406e-05,-2.8805482337682147e-05,-2.2947993789578078e-05,-3.0269854474708167e-05,3.4667,5.3333
3.9296875,-4.0520459433890276e-05,-2.6359408209353773e-05,-2.05019196612497e-05,-3.2707747753109015e-05,3.4667,5.3333
3.93359375,-3.710086416418707e-05,-3.368944974441137e-05,-2.9296333333333323e-05,-3.4172119890135035e-05,3.4667,5.3333
3.9375,-3.85734171511406e-05,-4.4430905699244674e-05,-4.150216142519264e-05,-3.759171515983824e-05,3.4667,5.3333
3.94140625,-3.954693829251543e-05,-3.808256615548943e-05,-2.1966291798275717e-05,-3.515382188143739e-05,3.4667,5.3333
3.9453125,-3.2707747753109015e-05,-3.1243375616083e-05,-1.0733984847791247e-05,-3.4172119890135035e-05,3.4667,5.3333
3.94921875,-3.5636492027161055e-05,-3.4172119890135035e-05,-2.05019196612497e-05,-3.661819401846341e-05,3.4667,5.3333
3.953125,-3.515382188143739e-05,-3.1734226611734184e-05,-3.076070547035934e-05,-3.222507760738536e-05,3.4667,5.3333
3.95703125,-3.1734226611734184e-05,-2.8314631342030962e-05,-3.612734302281222e-05,-2.9779003479056982e-05,3.4667,5.3333
3.9609375,-4.150216142519264e-05,-2.6850259205004945e-05,-2.5876738063630114e-05,-3.808256615548943e-05,3.4667,5.3333
3.96484375,-3.905608729686426e-05,-9.269612710765229e-06,-2.9212731670099853e-06,-4.3940054703593485e-05,3.4667,5.3333
3.96875,-2.3921514930952922e-05,-7.322570428015552e-06,-1.3180058976119624e-05,-3.759171515983824e-05,3.4667,5.3333
3.97265625,-2.6359408209353773e-05,-3.1734226611734184e-05,-4.5895277836270694e-05,-3.2707747753109015e-05,3.4667,5.3333
3.9765625,-2.4412365926604094e-05,-2.734111020065613e-05,-5.5663212649729143e-05,-4.003778928816662e-05,3.4667,5.3333
3.98046875,-1.806402638284885e-05,-1.4644431113145643e-05,-4.882402211032271e-05,-4.785050096894788e-05,3.4667,5.3333
