timestamp,TP9,AF7,AF8,TP10,Valence,Arousal
0.0,-3.711220194552523e-05,-5.3711011879148484e-05,-2.5886464179446036e-05,-2.539061334401458e-05,6.1333,6.2
0.00390625,-3.61367576791027e-05,-4.737062414740208e-05,-3.0275963378347383e-05,-2.1488836278324484e-05,6.1333,6.2
0.0078125,-3.467359127946892e-05,-4.541160691233685e-05,-4.49238847791256e-05,-2.343972481116954e-05,6.1333,6.2
0.01171875,-3.4185869146257656e-05,-4.49238847791256e-05,-4.0046663447012974e-05,-2.246428054474701e-05,6.1333,6.2
0.015625,-3.759992407873649e-05,-3.759992407873649e-05,-2.832507484550234e-05,-2.051339201190197e-05,6.1333,6.2
0.01953125,-3.808764621194774e-05,-3.61367576791027e-05,-2.7349630579079812e-05,-2.5886464179446036e-05,6.1333,6.2
0.0234375,-3.173912977798116e-05,-3.5161313412680185e-05,-2.6861908445868548e-05,-2.8812796978713593e-05,6.1333,6.2
0.02734375,-3.173912977798116e-05,-3.711220194552523e-05,-3.076368551155865e-05,-3.076368551155865e-05,6.1333,6.2
0.03125,-2.9788241245136118e-05,-3.272270274662388e-05,-3.759992407873649e-05,-3.272270274662388e-05,6.1333,6.2
0.03515625,-2.9788241245136118e-05,-3.222685191119243e-05,-2.051339201190197e-05,-3.5649035545891436e-05,6.1333,6.2
0.0390625,-2.832507484550234e-05,-3.272270274662388e-05,-3.0275963378347383e-05,-2.832507484550234e-05,6.1333,6.2
0.04296875,-2.5886464179446036e-05,-2.7837352712291077e-05,-4.199755197985803e-05,-2.539061334401458e-05,6.1333,6.2
0.046875,-3.5649035545891436e-05,-4.053438558022424e-05,-3.955081261158153e-05,-4.0046663447012974e-05,6.1333,6.2
0.05078125,-3.467359127946892e-05,-4.3460718379491805e-05,-4.199755197985803e-05,-3.906309047837027e-05,6.1333,6.2
0.0546875,-3.222685191119243e-05,-4.0046663447012974e-05,-4.394844051270307e-05,-3.5649035545891436e-05,6.1333,6.2
0.05859375,-4.10221077134355e-05,-4.4436162645914335e-05,-4.394844051270307e-05,-3.6624479812313965e-05,6.1333,6.2
0.0625,-3.808764621194774e-05,-3.906309047837027e-05,-5.2735567612725955e-05,-3.272270274662388e-05,6.1333,6.2
0.06640625,-3.369814701304639e-05,-3.467359127946892e-05,-4.394844051270307e-05,-3.369814701304639e-05,6.1333,6.2
0.0703125,-3.467359127946892e-05,-3.369814701304639e-05,-5.224784547951469e-05,-4.2485274113069276e-05,6.1333,6.2
0.07421875,-3.5649035545891436e-05,-2.539061334401458e-05,-6.250626768139157e-05,-4.883379054703587e-05,6.1333,6.2
0.078125,-3.906309047837027e-05,-2.4902891210803316e-05,-3.321042487983513e-05,-4.053438558022424e-05,6.1333,6.2
0.08203125,-3.808764621194774e-05,-3.272270274662388e-05,-2.343972481116954e-05,-2.343972481116954e-05,6.1333,6.2
0.0859375,-4.4436162645914335e-05,-3.906309047837027e-05,-2.6374186312657287e-05,-1.7578930510414208e-05,6.1333,6.2
0.08984375,-4.688290201419083e-05,-3.12514076447699e-05,-2.197655841153575e-05,-2.1001114145113233e-05,6.1333,6.2
0.09375,-5.078467907988092e-05,-2.832507484550234e-05,-1.611576411078043e-05,-1.5628041977569167e-05,6.1333,6.2
0.09765625,-5.859636191348128e-05,-3.369814701304639e-05,-1.3189431311512862e-05,-1.2213987045090333e-05,6.1333,6.2
0.1015625,-6.054725044632633e-05,-3.173912977798116e-05,-6.353192744335018e-06,-1.3677153444724125e-05,6.1333,6.2
0.10546875,-6.44571562142366e-05,-3.0275963378347383e-05,-1.5140319844357904e-05,-1.6603486243991696e-05,6.1333,6.2
0.109375,-6.44571562142366e-05,-3.076368551155865e-05,-2.051339201190197e-05,-1.5628041977569167e-05,6.1333,6.2
0.11328125,-6.348171194781408e-05,-3.222685191119243e-05,-1.416487557793539e-05,-1.0254969810025101e-05,6.1333,6.2
0.1171875,-6.299398981460281e-05,-2.832507484550234e-05,-8.30408127718006e-06,-2.0025669878690704e-05,6.1333,6.2
0.12109375,-7.129339478141445e-05,-3.369814701304639e-05,-2.7837352712291077e-05,-2.246428054474701e-05,6.1333,6.2
0.125,-6.836706198214688e-05,-4.053438558022424e-05,-3.759992407873649e-05,-2.197655841153575e-05,6.1333,6.2
0.12890625,-5.762091764705876e-05,-4.394844051270307e-05,-3.12514076447699e-05,-2.6374186312657287e-05,6.1333,6.2
0.1328125,-5.615775124742498e-05,-4.541160691233685e-05,-2.9300519111924854e-05,-2.2952002677958275e-05,6.1333,6.2
0.13671875,-5.5182306981002455e-05,-4.0046663447012974e-05,-2.832507484550234e-05,-1.8562503479056928e-05,6.1333,6.2
0.140625,-5.2735567612725955e-05,-4.2485274113069276e-05,-3.222685191119243e-05,-2.7349630579079812e-05,6.1333,6.2
0.14453125,-5.664547338063623e-05,-4.834606841382461e-05,-3.467359127946892e-05,-2.9788241245136118e-05,6.1333,6.2
0.1484375,-6.054725044632633e-05,-5.029695694666965e-05,-4.2485274113069276e-05,-2.6374186312657287e-05,6.1333,6.2
0.15234375,-5.5182306981002455e-05,-5.176012334630344e-05,-5.322328974593722e-05,-2.7349630579079812e-05,6.1333,6.2
0.15625,-5.078467907988092e-05,-4.834606841382461e-05,-4.688290201419083e-05,-2.4902891210803316e-05,6.1333,6.2
0.16015625,-5.469458484779119e-05,-4.737062414740208e-05,-3.808764621194774e-05,-2.343972481116954e-05,6.1333,6.2
0.1640625,-5.3711011879148484e-05,-3.759992407873649e-05,-2.3927446944380804e-05,-2.832507484550234e-05,6.1333,6.2
0.16796875,-4.834606841382461e-05,-2.8812796978713593e-05,-1.416487557793539e-05,-2.9300519111924854e-05,6.1333,6.2
0.171875,-4.394844051270307e-05,-3.369814701304639e-05,-1.7091208377202947e-05,-2.246428054474701e-05,6.1333,6.2
0.17578125,-4.053438558022424e-05,-3.321042487983513e-05,-1.1230414076447629e-05,-2.6374186312657287e-05,6.1333,6.2
0.1796875,-4.053438558022424e-05,-3.173912977798116e-05,-2.7349630579079812e-05,-2.5886464179446036e-05,6.1333,6.2
0.18359375,-4.638705117875938e-05,-3.321042487983513e-05,-3.272270274662388e-05,-2.441516907759205e-05,6.1333,6.2
0.1875,-4.980923481345839e-05,-3.5161313412680185e-05,-2.8812796978713593e-05,-2.8812796978713593e-05,6.1333,6.2
0.19140625,-4.980923481345839e-05,-3.906309047837027e-05,-2.6861908445868548e-05,-3.272270274662388e-05,6.1333,6.2
0.1953125,-4.638705117875938e-05,-3.808764621194774e-05,-3.12514076447699e-05,-3.467359127946892e-05,6.1333,6.2
0.19921875,-4.541160691233685e-05,-3.759992407873649e-05,-3.076368551155865e-05,-2.9788241245136118e-05,6.1333,6.2
0.203125,-4.834606841382461e-05,-3.808764621194774e-05,-2.1488836278324484e-05,-2.3927446944380804e-05,6.1333,6.2
0.20703125,-4.5899329045548115e-05,-3.61367576791027e-05,-2.8812796978713593e-05,-3.12514076447699e-05,6.1333,6.2
0.2109375,-4.737062414740208e-05,-3.759992407873649e-05,-3.369814701304639e-05,-3.0275963378347383e-05,6.1333,6.2
0.21484375,-4.199755197985803e-05,-3.272270274662388e-05,-3.272270274662388e-05,-1.905022561226818e-05,6.1333,6.2
0.21875,-3.808764621194774e-05,-2.9788241245136118e-05,-3.467359127946892e-05,-2.7837352712291077e-05,6.1333,6.2
0.22265625,-4.541160691233685e-05,-3.5161313412680185e-05,-4.10221077134355e-05,-3.12514076447699e-05,6.1333,6.2
0.2265625,-4.3460718379491805e-05,-3.173912977798116e-05,-3.759992407873649e-05,-2.6374186312657287e-05,6.1333,6.2
0.23046875,-4.199755197985803e-05,-3.222685191119243e-05,-5.127240121309218e-05,-3.4185869146257656e-05,6.1333,6.2
0.234375,-4.638705117875938e-05,-4.2485274113069276e-05,-4.688290201419083e-05,-2.9788241245136118e-05,6.1333,6.2
0.23828125,-4.932151268024714e-05,-4.10221077134355e-05,-2.8812796978713593e-05,-2.8812796978713593e-05,6.1333,6.2
0.2421875,-5.078467907988092e-05,-4.199755197985803e-05,-4.4436162645914335e-05,-3.272270274662388e-05,6.1333,6.2
0.24609375,-4.5899329045548115e-05,-4.883379054703587e-05,-4.394844051270307e-05,-3.076368551155865e-05,6.1333,6.2
0.25,-4.297299624628054e-05,-5.2735567612725955e-05,-3.8575368345159e-05,-3.12514076447699e-05,6.1333,6.2
0.25390625,-4.199755197985803e-05,-5.078467907988092e-05,-3.5649035545891436e-05,-3.076368551155865e-05,6.1333,6.2
0.2578125,-3.5161313412680185e-05,-4.053438558022424e-05,-3.173912977798116e-05,-2.7349630579079812e-05,6.1333,6.2
0.26171875,-3.369814701304639e-05,-3.272270274662388e-05,-3.6624479812313965e-05,-2.6861908445868548e-05,6.1333,6.2
0.265625,-3.369814701304639e-05,-3.12514076447699e-05,-3.222685191119243e-05,-3.321042487983513e-05,6.1333,6.2
0.26953125,-3.0275963378347383e-05,-3.12514076447699e-05,-3.6624479812313965e-05,-3.711220194552523e-05,6.1333,6.2
0.2734375,-3.467359127946892e-05,-3.4185869146257656e-05,-4.980923481345839e-05,-3.467359127946892e-05,6.1333,6.2
0.27734375,-3.5161313412680185e-05,-3.369814701304639e-05,-4.737062414740208e-05,-3.272270274662388e-05,6.1333,6.2
0.28125,-3.321042487983513e-05,-2.8812796978713593e-05,-3.61367576791027e-05,-3.321042487983513e-05,6.1333,6.2
0.28515625,-3.076368551155865e-05,-3.711220194552523e-05,-2.246428054474701e-05,-3.61367576791027e-05,6.1333,6.2
0.2890625,-3.0275963378347383e-05,-3.955081261158153e-05,-4.0046663447012974e-05,-4.199755197985803e-05,6.1333,6.2
0.29296875,-3.369814701304639e-05,-3.4185869146257656e-05,-5.810863978027002e-05,-3.8575368345159e-05,6.1333,6.2
0.296875,-3.272270274662388e-05,-3.222685191119243e-05,-4.297299624628054e-05,-3.0275963378347383e-05,6.1333,6.2
0.30078125,-3.12514076447699e-05,-3.222685191119243e-05,-4.785834628061334e-05,-2.832507484550234e-05,6.1333,6.2
0.3046875,-3.12514076447699e-05,-3.6624479812313965e-05,-4.638705117875938e-05,-3.222685191119243e-05,6.1333,6.2
0.30859375,-3.4185869146257656e-05,-4.297299624628054e-05,-3.8575368345159e-05,-3.906309047837027e-05,6.1333,6.2
0.3125,-3.711220194552523e-05,-5.127240121309218e-05,-3.906309047837027e-05,-4.297299624628054e-05,6.1333,6.2
0.31640625,-3.8575368345159e-05,-5.4206862714579926e-05,-4.541160691233685e-05,-4.053438558022424e-05,6.1333,6.2
0.3203125,-4.297299624628054e-05,-5.567002911421372e-05,-5.2735567612725955e-05,-3.076368551155865e-05,6.1333,6.2
0.32421875,-4.0046663447012974e-05,-5.762091764705876e-05,-4.5899329045548115e-05,-3.321042487983513e-05,6.1333,6.2
0.328125,-3.711220194552523e-05,-5.176012334630344e-05,-4.0046663447012974e-05,-3.955081261158153e-05,6.1333,6.2
0.33203125,-3.8575368345159e-05,-4.4436162645914335e-05,-2.9788241245136118e-05,-3.711220194552523e-05,6.1333,6.2
0.3359375,-3.711220194552523e-05,-4.737062414740208e-05,-3.467359127946892e-05,-3.6624479812313965e-05,6.1333,6.2
0.33984375,-3.4185869146257656e-05,-4.2485274113069276e-05,-4.932151268024714e-05,-3.759992407873649e-05,6.1333,6.2
0.34375,-3.369814701304639e-05,-3.321042487983513e-05,-4.638705117875938e-05,-3.955081261158153e-05,6.1333,6.2
0.34765625,-3.5161313412680185e-05,-4.053438558022424e-05,-4.4436162645914335e-05,-4.053438558022424e-05,6.1333,6.2
0.3515625,-3.711220194552523e-05,-4.3460718379491805e-05,-4.932151268024714e-05,-4.0046663447012974e-05,6.1333,6.2
0.35546875,-3.61367576791027e-05,-4.150982984664677e-05,-5.4206862714579926e-05,-3.6624479812313965e-05,6.1333,6.2
0.359375,-3.711220194552523e-05,-4.394844051270307e-05,-4.638705117875938e-05,-3.173912977798116e-05,6.1333,6.2
0.36328125,-3.5161313412680185e-05,-5.127240121309218e-05,-5.029695694666965e-05,-3.222685191119243e-05,6.1333,6.2
0.3671875,-2.832507484550234e-05,-4.932151268024714e-05,-5.713319551384749e-05,-3.369814701304639e-05,6.1333,6.2
0.37109375,-3.12514076447699e-05,-4.394844051270307e-05,-4.297299624628054e-05,-3.711220194552523e-05,6.1333,6.2
0.375,-3.6624479812313965e-05,-4.199755197985803e-05,-3.369814701304639e-05,-3.5649035545891436e-05,6.1333,6.2
0.37890625,-4.0046663447012974e-05,-4.3460718379491805e-05,-3.173912977798116e-05,-3.5649035545891436e-05,6.1333,6.2
0.3828125,-3.61367576791027e-05,-4.5899329045548115e-05,-3.12514076447699e-05,-3.369814701304639e-05,6.1333,6.2
0.38671875,-3.906309047837027e-05,-4.297299624628054e-05,-3.61367576791027e-05,-2.7837352712291077e-05,6.1333,6.2
0.390625,-4.3460718379491805e-05,-3.906309047837027e-05,-3.906309047837027e-05,-2.6861908445868548e-05,6.1333,6.2
0.39453125,-4.3460718379491805e-05,-4.053438558022424e-05,-4.10221077134355e-05,-2.7837352712291077e-05,6.1333,6.2
0.3984375,-4.150982984664677e-05,-3.321042487983513e-05,-3.369814701304639e-05,-3.12514076447699e-05,6.1333,6.2
0.40234375,-3.5649035545891436e-05,-3.369814701304639e-05,-3.369814701304639e-05,-3.5649035545891436e-05,6.1333,6.2
0.40625,-3.6624479812313965e-05,-3.906309047837027e-05,-4.053438558022424e-05,-4.10221077134355e-05,6.1333,6.2
0.41015625,-3.955081261158153e-05,-3.272270274662388e-05,-3.4185869146257656e-05,-4.3460718379491805e-05,6.1333,6.2
0.4140625,-3.711220194552523e-05,-3.711220194552523e-05,-3.076368551155865e-05,-4.199755197985803e-05,6.1333,6.2
0.41796875,-3.321042487983513e-05,-3.955081261158153e-05,-2.0025669878690704e-05,-3.272270274662388e-05,6.1333,6.2
0.421875,-3.12514076447699e-05,-3.467359127946892e-05,-1.0254969810025101e-05,-3.173912977798116e-05,6.1333,6.2
0.42578125,-2.7349630579079812e-05,-2.7837352712291077e-05,-1.0254969810025101e-05,-3.6624479812313965e-05,6.1333,6.2
0.4296875,-2.0025669878690704e-05,-2.6861908445868548e-05,-8.791803410391325e-06,-3.173912977798116e-05,6.1333,6.2
0.43359375,-1.9537947745479443e-05,-1.7578930510414208e-05,-1.9537947745479443e-05,-2.832507484550234e-05,6.1333,6.2
0.4375,-2.1001114145113233e-05,-1.465259771114664e-05,-1.7578930510414208e-05,-3.8575368345159e-05,6.1333,6.2
0.44140625,-2.051339201190197e-05,-2.6374186312657287e-05,-2.6374186312657287e-05,-4.150982984664677e-05,6.1333,6.2
0.4453125,-1.7578930510414208e-05,-2.9788241245136118e-05,-4.785834628061334e-05,-3.61367576791027e-05,6.1333,6.2
0.44921875,-1.8066652643625472e-05,-3.222685191119243e-05,-4.10221077134355e-05,-3.467359127946892e-05,6.1333,6.2
0.453125,-1.8562503479056928e-05,-3.759992407873649e-05,-2.7837352712291077e-05,-3.173912977798116e-05,6.1333,6.2
0.45703125,-1.5628041977569167e-05,-3.369814701304639e-05,-2.6374186312657287e-05,-2.9788241245136118e-05,6.1333,6.2
0.4609375,-1.8066652643625472e-05,-2.343972481116954e-05,-3.272270274662388e-05,-3.173912977798116e-05,6.1333,6.2
0.46484375,-2.343972481116954e-05,-2.6861908445868548e-05,-2.051339201190197e-05,-3.173912977798116e-05,6.1333,6.2
0.46875,-2.051339201190197e-05,-3.6624479812313965e-05,-2.051339201190197e-05,-2.832507484550234e-05,6.1333,6.2
0.47265625,-2.343972481116954e-05,-3.173912977798116e-05,-4.2485274113069276e-05,-2.7349630579079812e-05,6.1333,6.2
0.4765625,-2.4902891210803316e-05,-3.173912977798116e-05,-5.029695694666965e-05,-3.5161313412680185e-05,6.1333,6.2
0.48046875,-2.441516907759205e-05,-3.173912977798116e-05,-3.5649035545891436e-05,-3.5649035545891436e-05,6.1333,6.2
0.484375,-2.832507484550234e-05,-3.6624479812313965e-05,-3.222685191119243e-05,-3.222685191119243e-05,6.1333,6.2
0.48828125,-2.8812796978713593e-05,-4.150982984664677e-05,-2.9788241245136118e-05,-3.0275963378347383e-05,6.1333,6.2
0.4921875,-3.0275963378347383e-05,-3.955081261158153e-05,-1.9537947745479443e-05,-2.6861908445868548e-05,6.1333,6.2
0.49609375,-3.076368551155865e-05,-3.61367576791027e-05,-1.5140319844357904e-05,-2.6861908445868548e-05,6.1333,6.2
0.5,-3.0275963378347383e-05,-2.5886464179446036e-05,-2.539061334401458e-05,-2.9300519111924854e-05,6.1333,6.2
0.50390625,-3.0275963378347383e-05,-2.832507484550234e-05,-3.222685191119243e-05,-3.369814701304639e-05,6.1333,6.2
0.5078125,-3.467359127946892e-05,-3.5161313412680185e-05,-3.272270274662388e-05,-3.272270274662388e-05,6.1333,6.2
0.51171875,-3.173912977798116e-05,-3.6624479812313965e-05,-3.369814701304639e-05,-2.7349630579079812e-05,6.1333,6.2
0.515625,-2.7837352712291077e-05,-4.3460718379491805e-05,-3.369814701304639e-05,-3.173912977798116e-05,6.1333,6.2
0.51953125,-2.832507484550234e-05,-3.8575368345159e-05,-4.150982984664677e-05,-2.4902891210803316e-05,6.1333,6.2
0.5234375,-3.173912977798116e-05,-3.5649035545891436e-05,-3.955081261158153e-05,-2.2952002677958275e-05,6.1333,6.2
0.52734375,-3.272270274662388e-05,-3.808764621194774e-05,-3.906309047837027e-05,-3.4185869146257656e-05,6.1333,6.2
0.53125,-3.12514076447699e-05,-2.441516907759205e-05,-4.10221077134355e-05,-2.9300519111924854e-05,6.1333,6.2
0.53515625,-3.076368551155865e-05,-2.197655841153575e-05,-3.173912977798116e-05,-2.6861908445868548e-05,6.1333,6.2
0.5390625,-3.0275963378347383e-05,-2.9788241245136118e-05,-2.9788241245136118e-05,-2.7349630579079812e-05,6.1333,6.2
0.54296875,-3.272270274662388e-05,-2.0025669878690704e-05,-3.61367576791027e-05,-2.246428054474701e-05,6.1333,6.2
0.546875,-2.7837352712291077e-05,-1.7578930510414208e-05,-2.9788241245136118e-05,-2.197655841153575e-05,6.1333,6.2
0.55078125,-2.6374186312657287e-05,-2.3927446944380804e-05,-1.7578930510414208e-05,-2.246428054474701e-05,6.1333,6.2
0.5546875,-3.272270274662388e-05,-2.4902891210803316e-05,-2.3927446944380804e-05,-2.6861908445868548e-05,6.1333,6.2
0.55859375,-3.12514076447699e-05,-2.1001114145113233e-05,-3.076368551155865e-05,-2.246428054474701e-05,6.1333,6.2
0.5625,-2.9300519111924854e-05,-2.1001114145113233e-05,-1.416487557793539e-05,-1.611576411078043e-05,6.1333,6.2
0.56640625,-2.9788241245136118e-05,-2.6861908445868548e-05,-2.051339201190197e-05,-2.832507484550234e-05,6.1333,6.2
0.5703125,-3.12514076447699e-05,-3.272270274662388e-05,-4.0046663447012974e-05,-3.173912977798116e-05,6.1333,6.2
0.57421875,-3.076368551155865e-05,-3.4185869146257656e-05,-3.369814701304639e-05,-3.0275963378347383e-05,6.1333,6.2
0.578125,-3.173912977798116e-05,-3.6624479812313965e-05,-3.467359127946892e-05,-3.5649035545891436e-05,6.1333,6.2
0.58203125,-3.955081261158153e-05,-4.199755197985803e-05,-5.9084084046692544e-05,-3.61367576791027e-05,6.1333,6.2
0.5859375,-4.199755197985803e-05,-4.2485274113069276e-05,-6.299398981460281e-05,-3.467359127946892e-05,6.1333,6.2
0.58984375,-3.61367576791027e-05,-3.4185869146257656e-05,-4.5899329045548115e-05,-4.737062414740208e-05,6.1333,6.2
0.59375,-4.0046663447012974e-05,-2.441516907759205e-05,-3.369814701304639e-05,-4.834606841382461e-05,6.1333,6.2
0.59765625,-5.176012334630344e-05,-5.5182306981002455e-05,-5.3711011879148484e-05,-3.0275963378347383e-05,6.1333,6.2
0.6015625,-5.469458484779119e-05,-6.543260048065911e-05,-4.883379054703587e-05,-2.246428054474701e-05,6.1333,6.2
0.60546875,-5.469458484779119e-05,-5.2735567612725955e-05,-3.173912977798116e-05,-2.539061334401458e-05,6.1333,6.2
0.609375,-4.541160691233685e-05,-5.567002911421372e-05,-5.2735567612725955e-05,-2.246428054474701e-05,6.1333,6.2
0.61328125,-4.2485274113069276e-05,-4.394844051270307e-05,-5.2735567612725955e-05,-1.905022561226818e-05,6.1333,6.2
0.6171875,-4.49238847791256e-05,-5.029695694666965e-05,-5.567002911421372e-05,-2.1001114145113233e-05,6.1333,6.2
0.62109375,-4.10221077134355e-05,-5.957180617990381e-05,-6.104310128175778e-05,-2.539061334401458e-05,6.1333,6.2
0.625,-3.711220194552523e-05,-5.567002911421372e-05,-6.104310128175778e-05,-2.9300519111924854e-05,6.1333,6.2
0.62890625,-3.5161313412680185e-05,-5.469458484779119e-05,-6.396943408102534e-05,-2.6374186312657287e-05,6.1333,6.2
0.6328125,-3.759992407873649e-05,-5.078467907988092e-05,-5.4206862714579926e-05,-2.5886464179446036e-05,6.1333,6.2
0.63671875,-3.711220194552523e-05,-5.176012334630344e-05,-5.957180617990381e-05,-2.832507484550234e-05,6.1333,6.2
0.640625,-3.906309047837027e-05,-5.762091764705876e-05,-6.44571562142366e-05,-2.6861908445868548e-05,6.1333,6.2
0.64453125,-4.3460718379491805e-05,-5.224784547951469e-05,-4.688290201419083e-05,-2.6861908445868548e-05,6.1333,6.2
0.6484375,-4.2485274113069276e-05,-4.980923481345839e-05,-3.076368551155865e-05,-2.9788241245136118e-05,6.1333,6.2
0.65234375,-4.2485274113069276e-05,-5.3711011879148484e-05,-4.2485274113069276e-05,-2.9788241245136118e-05,6.1333,6.2
0.65625,-4.394844051270307e-05,-5.2735567612725955e-05,-5.4206862714579926e-05,-2.7837352712291077e-05,6.1333,6.2
0.66015625,-3.808764621194774e-05,-4.834606841382461e-05,-4.980923481345839e-05,-2.1488836278324484e-05,6.1333,6.2
0.6640625,-3.272270274662388e-05,-4.980923481345839e-05,-3.5161313412680185e-05,-2.246428054474701e-05,6.1333,6.2
0.66796875,-4.10221077134355e-05,-5.567002911421372e-05,-4.3460718379491805e-05,-3.8575368345159e-05,6.1333,6.2
0.671875,-4.053438558022424e-05,-5.322328974593722e-05,-7.81296333485923e-05,-3.321042487983513e-05,6.1333,6.2
0.67578125,-2.8812796978713593e-05,-4.834606841382461e-05,-7.569102268253599e-05,-2.441516907759205e-05,6.1333,6.2
0.6796875,-2.539061334401458e-05,-4.3460718379491805e-05,-4.053438558022424e-05,-2.9788241245136118e-05,6.1333,6.2
0.68359375,-2.9788241245136118e-05,-4.394844051270307e-05,-4.10221077134355e-05,-3.467359127946892e-05,6.1333,6.2
0.6875,-3.272270274662388e-05,-4.49238847791256e-05,-5.713319551384749e-05,-4.0046663447012974e-05,6.1333,6.2
0.69140625,-3.711220194552523e-05,-4.3460718379491805e-05,-4.5899329045548115e-05,-3.6624479812313965e-05,6.1333,6.2
0.6953125,-3.759992407873649e-05,-4.49238847791256e-05,-4.10221077134355e-05,-2.6374186312657287e-05,6.1333,6.2
0.69921875,-3.6624479812313965e-05,-4.737062414740208e-05,-4.2485274113069276e-05,-2.343972481116954e-05,6.1333,6.2
0.703125,-3.8575368345159e-05,-4.3460718379491805e-05,-3.5161313412680185e-05,-2.4902891210803316e-05,6.1333,6.2
0.70703125,-3.5161313412680185e-05,-4.199755197985803e-05,-3.5161313412680185e-05,-2.246428054474701e-05,6.1333,6.2
0.7109375,-3.8575368345159e-05,-5.3711011879148484e-05,-4.297299624628054e-05,-2.441516907759205e-05,6.1333,6.2
0.71484375,-4.0046663447012974e-05,-5.176012334630344e-05,-4.49238847791256e-05,-2.7837352712291077e-05,6.1333,6.2
0.71875,-3.4185869146257656e-05,-4.0046663447012974e-05,-4.2485274113069276e-05,-2.9788241245136118e-05,6.1333,6.2
0.72265625,-3.321042487983513e-05,-4.053438558022424e-05,-2.1001114145113233e-05,-3.4185869146257656e-05,6.1333,6.2
0.7265625,-3.5649035545891436e-05,-4.737062414740208e-05,-2.6374186312657287e-05,-3.467359127946892e-05,6.1333,6.2
0.73046875,-3.8575368345159e-05,-4.5899329045548115e-05,-4.150982984664677e-05,-3.467359127946892e-05,6.1333,6.2
0.734375,-3.8575368345159e-05,-3.8575368345159e-05,-3.369814701304639e-05,-3.759992407873649e-05,6.1333,6.2
0.73828125,-3.4185869146257656e-05,-3.272270274662388e-05,-3.711220194552523e-05,-4.10221077134355e-05,6.1333,6.2
0.7421875,-3.222685191119243e-05,-2.441516907759205e-05,-3.759992407873649e-05,-4.199755197985803e-05,6.1333,6.2
0.74609375,-3.272270274662388e-05,-2.4902891210803316e-05,-3.272270274662388e-05,-4.053438558022424e-05,6.1333,6.2
0.75,-3.4185869146257656e-05,-3.61367576791027e-05,-4.297299624628054e-05,-4.10221077134355e-05,6.1333,6.2
0.75390625,-3.6624479812313965e-05,-3.711220194552523e-05,-4.10221077134355e-05,-3.6624479812313965e-05,6.1333,6.2
0.7578125,-3.5161313412680185e-05,-3.759992407873649e-05,-3.12514076447699e-05,-3.467359127946892e-05,6.1333,6.2
0.76171875,-3.808764621194774e-05,-3.711220194552523e-05,-3.808764621194774e-05,-3.272270274662388e-05,6.1333,6.2
0.765625,-4.394844051270307e-05,-4.0046663447012974e-05,-4.49238847791256e-05,-3.0275963378347383e-05,6.1333,6.2
0.76953125,-4.0046663447012974e-05,-3.5649035545891436e-05,-4.150982984664677e-05,-3.467359127946892e-05,6.1333,6.2
0.7734375,-3.272270274662388e-05,-3.369814701304639e-05,-2.5886464179446036e-05,-3.6624479812313965e-05,6.1333,6.2
0.77734375,-3.5161313412680185e-05,-3.8575368345159e-05,-2.1001114145113233e-05,-3.711220194552523e-05,6.1333,6.2
0.78125,-3.6624479812313965e-05,-3.369814701304639e-05,-2.7837352712291077e-05,-3.61367576791027e-05,6.1333,6.2
0.78515625,-3.272270274662388e-05,-2.7349630579079812e-05,-1.1726264911879084e-05,-3.272270274662388e-05,6.1333,6.2
0.7890625,-3.4185869146257656e-05,-3.272270274662388e-05,-3.0275963378347383e-05,-3.222685191119243e-05,6.1333,6.2
0.79296875,-3.5649035545891436e-05,-3.906309047837027e-05,-4.980923481345839e-05,-3.61367576791027e-05,6.1333,6.2
0.796875,-3.61367576791027e-05,-2.9300519111924854e-05,-2.832507484550234e-05,-3.5649035545891436e-05,6.1333,6.2
0.80078125,-3.467359127946892e-05,-2.7349630579079812e-05,-3.222685191119243e-05,-3.5161313412680185e-05,6.1333,6.2
0.8046875,-2.6861908445868548e-05,-2.7349630579079812e-05,-3.6624479812313965e-05,-2.9300519111924854e-05,6.1333,6.2
0.80859375,-3.222685191119243e-05,-3.12514076447699e-05,-3.467359127946892e-05,-2.9300519111924854e-05,6.1333,6.2
0.8125,-3.906309047837027e-05,-3.369814701304639e-05,-3.321042487983513e-05,-3.759992407873649e-05,6.1333,6.2
0.81640625,-4.199755197985803e-05,-4.3460718379491805e-05,-3.272270274662388e-05,-4.2485274113069276e-05,6.1333,6.2
0.8203125,-4.394844051270307e-05,-5.078467907988092e-05,-2.7837352712291077e-05,-4.053438558022424e-05,6.1333,6.2
0.82421875,-3.955081261158153e-05,-4.053438558022424e-05,-4.737062414740208e-05,-3.5161313412680185e-05,6.1333,6.2
0.828125,-3.711220194552523e-05,-3.759992407873649e-05,-5.224784547951469e-05,-3.6624479812313965e-05,6.1333,6.2
0.83203125,-3.711220194552523e-05,-4.053438558022424e-05,-3.8575368345159e-05,-3.076368551155865e-05,6.1333,6.2
0.8359375,-3.955081261158153e-05,-3.955081261158153e-05,-4.10221077134355e-05,-2.5886464179446036e-05,6.1333,6.2
0.83984375,-4.10221077134355e-05,-4.2485274113069276e-05,-4.053438558022424e-05,-2.9300519111924854e-05,6.1333,6.2
0.84375,-4.053438558022424e-05,-3.759992407873649e-05,-3.173912977798116e-05,-3.222685191119243e-05,6.1333,6.2
0.84765625,-3.222685191119243e-05,-3.8575368345159e-05,-3.272270274662388e-05,-3.5649035545891436e-05,6.1333,6.2
0.8515625,-3.369814701304639e-05,-5.078467907988092e-05,-5.4206862714579926e-05,-3.5161313412680185e-05,6.1333,6.2
0.85546875,-4.053438558022424e-05,-5.176012334630344e-05,-5.029695694666965e-05,-3.8575368345159e-05,6.1333,6.2
0.859375,-3.759992407873649e-05,-4.2485274113069276e-05,-3.467359127946892e-05,-4.2485274113069276e-05,6.1333,6.2
0.86328125,-3.0275963378347383e-05,-3.6624479812313965e-05,-3.173912977798116e-05,-2.8812796978713593e-05,6.1333,6.2
0.8671875,-3.0275963378347383e-05,-3.906309047837027e-05,-3.467359127946892e-05,-1.9537947745479443e-05,6.1333,6.2
0.87109375,-3.4185869146257656e-05,-3.5161313412680185e-05,-3.0275963378347383e-05,-2.6861908445868548e-05,6.1333,6.2
0.875,-3.321042487983513e-05,-4.0046663447012974e-05,-2.197655841153575e-05,-2.5886464179446036e-05,6.1333,6.2
0.87890625,-3.321042487983513e-05,-4.4436162645914335e-05,-3.8575368345159e-05,-2.5886464179446036e-05,6.1333,6.2
0.8828125,-3.759992407873649e-05,-4.3460718379491805e-05,-3.955081261158153e-05,-3.272270274662388e-05,6.1333,6.2
0.88671875,-3.5649035545891436e-05,-4.10221077134355e-05,-3.173912977798116e-05,-3.369814701304639e-05,6.1333,6.2
0.890625,-3.222685191119243e-05,-3.61367576791027e-05,-3.5161313412680185e-05,-3.222685191119243e-05,6.1333,6.2
0.89453125,-3.222685191119243e-05,-3.61367576791027e-05,-2.3927446944380804e-05,-2.7837352712291077e-05,6.1333,6.2
0.8984375,-3.5161313412680185e-05,-3.711220194552523e-05,-2.9300519111924854e-05,-3.076368551155865e-05,6.1333,6.2
0.90234375,-3.5649035545891436e-05,-3.808764621194774e-05,-4.297299624628054e-05,-3.4185869146257656e-05,6.1333,6.2
0.90625,-3.222685191119243e-05,-3.5649035545891436e-05,-2.7349630579079812e-05,-3.467359127946892e-05,6.1333,6.2
0.91015625,-3.0275963378347383e-05,-3.0275963378347383e-05,-2.7349630579079812e-05,-2.5886464179446036e-05,6.1333,6.2
0.9140625,-2.9788241245136118e-05,-3.5161313412680185e-05,-4.199755197985803e-05,-2.4902891210803316e-05,6.1333,6.2
0.91796875,-3.12514076447699e-05,-3.5649035545891436e-05,-4.297299624628054e-05,-2.832507484550234e-05,6.1333,6.2
0.921875,-2.9300519111924854e-05,-3.12514076447699e-05,-4.053438558022424e-05,-2.343972481116954e-05,6.1333,6.2
0.92578125,-2.7837352712291077e-05,-3.272270274662388e-05,-3.369814701304639e-05,-2.051339201190197e-05,6.1333,6.2
0.9296875,-3.272270274662388e-05,-3.8575368345159e-05,-3.8575368345159e-05,-2.246428054474701e-05,6.1333,6.2
0.93359375,-3.61367576791027e-05,-3.0275963378347383e-05,-4.150982984664677e-05,-2.6374186312657287e-05,6.1333,6.2
0.9375,-3.61367576791027e-05,-2.4902891210803316e-05,-4.2485274113069276e-05,-3.0275963378347383e-05,6.1333,6.2
0.94140625,-3.369814701304639e-05,-3.272270274662388e-05,-2.6374186312657287e-05,-2.7349630579079812e-05,6.1333,6.2
0.9453125,-3.272270274662388e-05,-3.222685191119243e-05,-1.3677153444724125e-05,-2.343972481116954e-05,6.1333,6.2
0.94921875,-3.076368551155865e-05,-3.222685191119243e-05,-2.6374186312657287e-05,-2.7837352712291077e-05,6.1333,6.2
0.953125,-3.222685191119243e-05,-3.0275963378347383e-05,-3.173912977798116e-05,-2.441516907759205e-05,6.1333,6.2
0.95703125,-3.0275963378347383e-05,-3.12514076447699e-05,-2.539061334401458e-05,-2.1001114145113233e-05,6.1333,6.2
0.9609375,-2.9300519111924854e-05,-3.906309047837027e-05,-2.6861908445868548e-05,-2.6374186312657287e-05,6.1333,6.2
0.96484375,-2.9788241245136118e-05,-3.4185869146257656e-05,-3.272270274662388e-05,-2.9788241245136118e-05,6.1333,6.2
0.96875,-2.2952002677958275e-05,-3.12514076447699e-05,-3.369814701304639e-05,-3.61367576791027e-05,6.1333,6.2
0.97265625,-2.441516907759205e-05,-3.12514076447699e-05,-3.759992407873649e-05,-3.5161313412680185e-05,6.1333,6.2
0.9765625,-2.9788241245136118e-05,-3.5649035545891436e-05,-3.4185869146257656e-05,-3.12514076447699e-05,6.1333,6.2
0.98046875,-3.222685191119243e-05,-3.8575368345159e-05,-2.051339201190197e-05,-3.6624479812313965e-05,6.1333,6.2
0.984375,-2.9788241245136118e-05,-4.638705117875938e-05,-2.9300519111924854e-05,-3.759992407873649e-05,6.1333,6.2
0.98828125,-3.61367576791027e-05,-5.224784547951469e-05,-3.8575368345159e-05,-3.467359127946892e-05,6.1333,6.2
0.9921875,-3.711220194552523e-05,-4.688290201419083e-05,-4.834606841382461e-05,-3.808764621194774e-05,6.1333,6.2
0.99609375,-2.7349630579079812e-05,-4.541160691233685e-05,-5.176012334630344e-05,-3.61367576791027e-05,6.1333,6.2
1.0,-3.272270274662388e-05,-4.394844051270307e-05,-3.12514076447699e-05,-3.369814701304639e-05,6.1333,6.2
1.00390625,-3.711220194552523e-05,-4.49238847791256e-05,-1.8562503479056928e-05,-3.759992407873649e-05,6.1333,6.2
1.0078125,-3.173912977798116e-05,-3.759992407873649e-05,-2.6861908445868548e-05,-3.711220194552523e-05,6.1333,6.2
1.01171875,-2.9788241245136118e-05,-3.6624479812313965e-05,-3.5649035545891436e-05,-3.4185869146257656e-05,6.1333,6.2
1.015625,-3.5649035545891436e-05,-3.8575368345159e-05,-2.4902891210803316e-05,-2.9788241245136118e-05,6.1333,6.2
1.01953125,-3.711220194552523e-05,-3.467359127946892e-05,-1.8562503479056928e-05,-3.272270274662388e-05,6.1333,6.2
1.0234375,-3.467359127946892e-05,-3.711220194552523e-05,-3.0275963378347383e-05,-3.6624479812313965e-05,6.1333,6.2
1.02734375,-3.321042487983513e-05,-3.369814701304639e-05,-3.808764621194774e-05,-3.321042487983513e-05,6.1333,6.2
1.03125,-3.4185869146257656e-05,-2.9300519111924854e-05,-4.297299624628054e-05,-3.467359127946892e-05,6.1333,6.2
1.03515625,-3.4185869146257656e-05,-3.467359127946892e-05,-3.5161313412680185e-05,-3.369814701304639e-05,6.1333,6.2
1.0390625,-3.711220194552523e-05,-4.10221077134355e-05,-4.0046663447012974e-05,-3.4185869146257656e-05,6.1333,6.2
1.04296875,-3.955081261158153e-05,-3.4185869146257656e-05,-4.3460718379491805e-05,-3.321042487983513e-05,6.1333,6.2
1.046875,-3.906309047837027e-05,-3.61367576791027e-05,-4.053438558022424e-05,-2.4902891210803316e-05,6.1333,6.2
1.05078125,-4.199755197985803e-05,-3.272270274662388e-05,-2.7837352712291077e-05,-2.441516907759205e-05,6.1333,6.2
1.0546875,-3.5649035545891436e-05,-3.173912977798116e-05,-2.441516907759205e-05,-3.0275963378347383e-05,6.1333,6.2
1.05859375,-3.12514076447699e-05,-2.8812796978713593e-05,-4.199755197985803e-05,-2.7837352712291077e-05,6.1333,6.2
1.0625,-3.222685191119243e-05,-2.343972481116954e-05,-3.076368551155865e-05,-2.7349630579079812e-05,6.1333,6.2
1.06640625,-3.076368551155865e-05,-3.369814701304639e-05,-1.8562503479056928e-05,-2.441516907759205e-05,6.1333,6.2
1.0703125,-3.272270274662388e-05,-4.150982984664677e-05,-3.61367576791027e-05,-1.905022561226818e-05,6.1333,6.2
1.07421875,-3.321042487983513e-05,-3.321042487983513e-05,-4.5899329045548115e-05,-2.6374186312657287e-05,6.1333,6.2
1.078125,-3.5161313412680185e-05,-3.5649035545891436e-05,-3.0275963378347383e-05,-3.076368551155865e-05,6.1333,6.2
1.08203125,-3.467359127946892e-05,-3.955081261158153e-05,-3.222685191119243e-05,-2.832507484550234e-05,6.1333,6.2
1.0859375,-3.759992407873649e-05,-4.394844051270307e-05,-4.883379054703587e-05,-3.369814701304639e-05,6.1333,6.2
1.08984375,-4.4436162645914335e-05,-4.883379054703587e-05,-4.785834628061334e-05,-3.369814701304639e-05,6.1333,6.2
1.09375,-4.49238847791256e-05,-4.10221077134355e-05,-4.541160691233685e-05,-3.61367576791027e-05,6.1333,6.2
1.09765625,-4.394844051270307e-05,-3.8575368345159e-05,-4.834606841382461e-05,-4.297299624628054e-05,6.1333,6.2
1.1015625,-4.3460718379491805e-05,-4.3460718379491805e-05,-4.541160691233685e-05,-3.955081261158153e-05,6.1333,6.2
1.10546875,-3.955081261158153e-05,-4.3460718379491805e-05,-4.297299624628054e-05,-3.4185869146257656e-05,6.1333,6.2
1.109375,-3.6624479812313965e-05,-3.711220194552523e-05,-4.199755197985803e-05,-4.0046663447012974e-05,6.1333,6.2
1.11328125,-3.711220194552523e-05,-4.49238847791256e-05,-4.688290201419083e-05,-3.808764621194774e-05,6.1333,6.2
1.1171875,-3.808764621194774e-05,-4.638705117875938e-05,-4.883379054703587e-05,-3.076368551155865e-05,6.1333,6.2
1.12109375,-4.10221077134355e-05,-3.955081261158153e-05,-4.5899329045548115e-05,-3.173912977798116e-05,6.1333,6.2
1.125,-3.808764621194774e-05,-3.906309047837027e-05,-4.932151268024714e-05,-3.12514076447699e-05,6.1333,6.2
1.12890625,-3.6624479812313965e-05,-4.541160691233685e-05,-5.4206862714579926e-05,-3.076368551155865e-05,6.1333,6.2
1.1328125,-3.369814701304639e-05,-4.541160691233685e-05,-6.396943408102534e-05,-2.7837352712291077e-05,6.1333,6.2
1.13671875,-3.467359127946892e-05,-4.737062414740208e-05,-5.322328974593722e-05,-3.369814701304639e-05,6.1333,6.2
1.140625,-3.711220194552523e-05,-5.078467907988092e-05,-4.49238847791256e-05,-3.222685191119243e-05,6.1333,6.2
1.14453125,-3.759992407873649e-05,-3.808764621194774e-05,-4.5899329045548115e-05,-2.6861908445868548e-05,6.1333,6.2
1.1484375,-3.61367576791027e-05,-4.394844051270307e-05,-5.029695694666965e-05,-3.467359127946892e-05,6.1333,6.2
1.15234375,-3.173912977798116e-05,-4.49238847791256e-05,-5.3711011879148484e-05,-3.173912977798116e-05,6.1333,6.2
1.15625,-3.4185869146257656e-05,-3.906309047837027e-05,-3.5161313412680185e-05,-3.173912977798116e-05,6.1333,6.2
1.16015625,-3.61367576791027e-05,-3.906309047837027e-05,-3.321042487983513e-05,-3.906309047837027e-05,6.1333,6.2
1.1640625,-3.173912977798116e-05,-3.369814701304639e-05,-3.759992407873649e-05,-3.759992407873649e-05,6.1333,6.2
1.16796875,-2.832507484550234e-05,-4.3460718379491805e-05,-3.759992407873649e-05,-3.61367576791027e-05,6.1333,6.2
1.171875,-2.832507484550234e-05,-4.49238847791256e-05,-3.759992407873649e-05,-3.61367576791027e-05,6.1333,6.2
1.17578125,-3.222685191119243e-05,-3.808764621194774e-05,-3.467359127946892e-05,-3.0275963378347383e-05,6.1333,6.2
1.1796875,-3.711220194552523e-05,-4.150982984664677e-05,-4.541160691233685e-05,-2.7837352712291077e-05,6.1333,6.2
1.18359375,-3.61367576791027e-05,-4.2485274113069276e-05,-4.980923481345839e-05,-3.173912977798116e-05,6.1333,6.2
1.1875,-3.321042487983513e-05,-3.61367576791027e-05,-4.053438558022424e-05,-3.6624479812313965e-05,6.1333,6.2
1.19140625,-3.321042487983513e-05,-3.6624479812313965e-05,-3.711220194552523e-05,-3.6624479812313965e-05,6.1333,6.2
1.1953125,-3.321042487983513e-05,-3.759992407873649e-05,-3.6624479812313965e-05,-3.759992407873649e-05,6.1333,6.2
1.19921875,-3.173912977798116e-05,-3.4185869146257656e-05,-3.272270274662388e-05,-4.2485274113069276e-05,6.1333,6.2
1.203125,-2.9300519111924854e-05,-3.222685191119243e-05,-1.611576411078043e-05,-3.5649035545891436e-05,6.1333,6.2
1.20703125,-2.9788241245136118e-05,-2.7349630579079812e-05,-2.051339201190197e-05,-3.369814701304639e-05,6.1333,6.2
1.2109375,-3.711220194552523e-05,-2.6861908445868548e-05,-3.222685191119243e-05,-3.5649035545891436e-05,6.1333,6.2
1.21484375,-3.711220194552523e-05,-3.0275963378347383e-05,-3.076368551155865e-05,-3.076368551155865e-05,6.1333,6.2
1.21875,-3.272270274662388e-05,-3.12514076447699e-05,-2.539061334401458e-05,-3.076368551155865e-05,6.1333,6.2
1.22265625,-3.5161313412680185e-05,-3.467359127946892e-05,-2.246428054474701e-05,-2.9788241245136118e-05,6.1333,6.2
1.2265625,-3.6624479812313965e-05,-4.3460718379491805e-05,-3.076368551155865e-05,-3.808764621194774e-05,6.1333,6.2
1.23046875,-3.272270274662388e-05,-3.955081261158153e-05,-4.394844051270307e-05,-4.688290201419083e-05,6.1333,6.2
1.234375,-3.4185869146257656e-05,-3.906309047837027e-05,-5.224784547951469e-05,-4.3460718379491805e-05,6.1333,6.2
1.23828125,-3.955081261158153e-05,-4.932151268024714e-05,-3.759992407873649e-05,-4.394844051270307e-05,6.1333,6.2
1.2421875,-3.321042487983513e-05,-4.541160691233685e-05,-3.272270274662388e-05,-4.4436162645914335e-05,6.1333,6.2
1.24609375,-3.5161313412680185e-05,-4.199755197985803e-05,-4.10221077134355e-05,-3.711220194552523e-05,6.1333,6.2
1.25,-3.6624479812313965e-05,-3.369814701304639e-05,-3.076368551155865e-05,-3.6624479812313965e-05,6.1333,6.2
1.25390625,-2.9300519111924854e-05,-3.321042487983513e-05,-3.759992407873649e-05,-4.199755197985803e-05,6.1333,6.2
1.2578125,-3.711220194552523e-05,-4.688290201419083e-05,-4.541160691233685e-05,-4.10221077134355e-05,6.1333,6.2
1.26171875,-4.2485274113069276e-05,-4.932151268024714e-05,-3.222685191119243e-05,-3.8575368345159e-05,6.1333,6.2
1.265625,-3.808764621194774e-05,-4.785834628061334e-05,-3.467359127946892e-05,-3.5649035545891436e-05,6.1333,6.2
1.26953125,-3.6624479812313965e-05,-3.8575368345159e-05,-4.737062414740208e-05,-3.6624479812313965e-05,6.1333,6.2
1.2734375,-4.150982984664677e-05,-3.6624479812313965e-05,-4.980923481345839e-05,-3.711220194552523e-05,6.1333,6.2
1.27734375,-4.737062414740208e-05,-4.053438558022424e-05,-3.6624479812313965e-05,-3.906309047837027e-05,6.1333,6.2
1.28125,-4.541160691233685e-05,-4.0046663447012974e-05,-3.759992407873649e-05,-4.0046663447012974e-05,6.1333,6.2
1.28515625,-4.150982984664677e-05,-4.297299624628054e-05,-5.3711011879148484e-05,-3.808764621194774e-05,6.1333,6.2
1.2890625,-3.711220194552523e-05,-3.4185869146257656e-05,-3.0275963378347383e-05,-4.150982984664677e-05,6.1333,6.2
1.29296875,-3.0275963378347383e-05,-3.272270274662388e-05,-2.1001114145113233e-05,-3.955081261158153e-05,6.1333,6.2
1.296875,-2.6861908445868548e-05,-3.222685191119243e-05,-3.467359127946892e-05,-3.5161313412680185e-05,6.1333,6.2
1.30078125,-2.9788241245136118e-05,-2.7349630579079812e-05,-2.9300519111924854e-05,-3.808764621194774e-05,6.1333,6.2
1.3046875,-3.272270274662388e-05,-3.272270274662388e-05,-2.2952002677958275e-05,-3.808764621194774e-05,6.1333,6.2
1.30859375,-3.12514076447699e-05,-3.5161313412680185e-05,-4.2485274113069276e-05,-3.808764621194774e-05,6.1333,6.2
1.3125,-3.0275963378347383e-05,-4.2485274113069276e-05,-4.297299624628054e-05,-3.4185869146257656e-05,6.1333,6.2
1.31640625,-3.467359127946892e-05,-4.49238847791256e-05,-3.4185869146257656e-05,-3.4185869146257656e-05,6.1333,6.2
1.3203125,-3.759992407873649e-05,-3.906309047837027e-05,-5.078467907988092e-05,-4.150982984664677e-05,6.1333,6.2
1.32421875,-3.906309047837027e-05,-2.832507484550234e-05,-4.053438558022424e-05,-3.61367576791027e-05,6.1333,6.2
1.328125,-4.053438558022424e-05,-3.808764621194774e-05,-2.7837352712291077e-05,-3.222685191119243e-05,6.1333,6.2
1.33203125,-4.49238847791256e-05,-4.932151268024714e-05,-3.321042487983513e-05,-3.6624479812313965e-05,6.1333,6.2
1.3359375,-4.49238847791256e-05,-4.150982984664677e-05,-3.906309047837027e-05,-3.4185869146257656e-05,6.1333,6.2
1.33984375,-3.711220194552523e-05,-3.222685191119243e-05,-3.711220194552523e-05,-3.076368551155865e-05,6.1333,6.2
1.34375,-3.759992407873649e-05,-3.467359127946892e-05,-3.61367576791027e-05,-3.6624479812313965e-05,6.1333,6.2
1.34765625,-4.199755197985803e-05,-3.321042487983513e-05,-4.053438558022424e-05,-4.2485274113069276e-05,6.1333,6.2
1.3515625,-4.150982984664677e-05,-3.222685191119243e-05,-4.150982984664677e-05,-3.8575368345159e-05,6.1333,6.2
1.35546875,-3.4185869146257656e-05,-4.10221077134355e-05,-3.272270274662388e-05,-3.369814701304639e-05,6.1333,6.2
1.359375,-3.955081261158153e-05,-4.638705117875938e-05,-3.12514076447699e-05,-3.6624479812313965e-05,6.1333,6.2
1.36328125,-4.49238847791256e-05,-4.737062414740208e-05,-2.0025669878690704e-05,-3.808764621194774e-05,6.1333,6.2
1.3671875,-4.3460718379491805e-05,-5.2735567612725955e-05,-6.8409148775462826e-06,-3.61367576791027e-05,6.1333,6.2
1.37109375,-4.834606841382461e-05,-4.834606841382461e-05,-3.173912977798116e-05,-3.272270274662388e-05,6.1333,6.2
1.375,-4.394844051270307e-05,-2.6861908445868548e-05,-3.076368551155865e-05,-2.4902891210803316e-05,6.1333,6.2
1.37890625,-2.6861908445868548e-05,-2.4902891210803316e-05,-1.8562503479056928e-05,-3.0275963378347383e-05,6.1333,6.2
1.3828125,-1.6603486243991696e-05,-3.8575368345159e-05,-3.8575368345159e-05,-3.272270274662388e-05,6.1333,6.2
1.38671875,-1.1230414076447629e-05,-4.053438558022424e-05,-4.834606841382461e-05,-3.369814701304639e-05,6.1333,6.2
1.390625,-4.89002634470124e-06,-3.272270274662388e-05,-4.2485274113069276e-05,-4.0046663447012974e-05,6.1333,6.2
1.39453125,5.368395857175628e-06,-1.465259771114664e-05,-2.1488836278324484e-05,-3.759992407873649e-05,6.1333,6.2
1.3984375,1.1229190157930958e-05,-1.2701709178301598e-05,-2.2952002677958275e-05,-4.199755197985803e-05,6.1333,6.2
1.40234375,1.7577706591897536e-05,-1.8562503479056928e-05,-3.12514076447699e-05,-4.737062414740208e-05,6.1333,6.2
1.40625,2.4413945159075383e-05,-2.0025669878690704e-05,-4.3460718379491805e-05,-5.3711011879148484e-05,6.1333,6.2
1.41015625,1.5618689356832304e-05,-2.4902891210803316e-05,-5.322328974593722e-05,-5.567002911421372e-05,6.1333,6.2
1.4140625,1.1229190157930958e-05,-2.246428054474701e-05,-4.49238847791256e-05,-5.664547338063623e-05,6.1333,6.2
1.41796875,1.610641149004357e-05,-1.7578930510414208e-05,-3.711220194552523e-05,-5.4206862714579926e-05,6.1333,6.2
1.421875,1.0741468024719694e-05,-1.8562503479056928e-05,-3.369814701304639e-05,-4.883379054703587e-05,6.1333,6.2
1.42578125,5.856117990386892e-06,-2.051339201190197e-05,-4.2485274113069276e-05,-4.883379054703587e-05,6.1333,6.2
1.4296875,4.880673723964363e-06,-2.0025669878690704e-05,-3.808764621194774e-05,-4.0046663447012974e-05,6.1333,6.2
1.43359375,-4.923984435796882e-07,-1.6603486243991696e-05,-3.61367576791027e-05,-4.4436162645914335e-05,6.1333,6.2
1.4375,-2.443286976424744e-06,-2.197655841153575e-05,-4.834606841382461e-05,-5.4206862714579926e-05,6.1333,6.2
1.44140625,-3.9064533760585216e-06,-3.173912977798116e-05,-4.638705117875938e-05,-4.883379054703587e-05,6.1333,6.2
1.4453125,-4.676310368438407e-09,-3.222685191119243e-05,-3.61367576791027e-05,-4.638705117875938e-05,6.1333,6.2
1.44921875,3.9052294575418494e-06,-3.12514076447699e-05,-4.4436162645914335e-05,-4.541160691233685e-05,6.1333,6.2
1.453125,2.9216564888991314e-06,-2.539061334401458e-05,-4.49238847791256e-05,-4.5899329045548115e-05,6.1333,6.2
1.45703125,1.9462122224766176e-06,-2.8812796978713593e-05,-3.5161313412680185e-05,-4.541160691233685e-05,6.1333,6.2
1.4609375,-3.9064533760585216e-06,-3.369814701304639e-05,-3.272270274662388e-05,-4.2485274113069276e-05,6.1333,6.2
1.46484375,-4.402304211489977e-06,-2.4902891210803316e-05,-3.808764621194774e-05,-4.199755197985803e-05,6.1333,6.2
1.46875,-3.9064533760585216e-06,-2.246428054474701e-05,-4.2485274113069276e-05,-3.955081261158153e-05,6.1333,6.2
1.47265625,-6.8409148775462826e-06,-2.6374186312657287e-05,-3.272270274662388e-05,-4.053438558022424e-05,6.1333,6.2
1.4765625,-6.353192744335018e-06,-2.6374186312657287e-05,-3.5161313412680185e-05,-4.5899329045548115e-05,6.1333,6.2
1.48046875,4.830458228428256e-07,-2.1001114145113233e-05,-4.0046663447012974e-05,-4.3460718379491805e-05,6.1333,6.2
1.484375,-4.676310368438407e-09,-1.465259771114664e-05,-2.343972481116954e-05,-4.199755197985803e-05,6.1333,6.2
1.48828125,-7.328637010757546e-06,-1.416487557793539e-05,-1.9537947745479443e-05,-3.6624479812313965e-05,6.1333,6.2
1.4921875,-4.402304211489977e-06,-1.416487557793539e-05,-3.12514076447699e-05,-3.321042487983513e-05,6.1333,6.2
1.49609375,-7.816359143968796e-06,-1.1726264911879084e-05,-4.980923481345839e-05,-3.808764621194774e-05,6.1333,6.2
1.5,-1.3677153444724125e-05,-1.2213987045090333e-05,-3.906309047837027e-05,-3.467359127946892e-05,6.1333,6.2
1.50390625,-1.7091208377202947e-05,-1.8066652643625472e-05,-2.6374186312657287e-05,-3.61367576791027e-05,6.1333,6.2
1.5078125,-2.2952002677958275e-05,-1.9537947745479443e-05,-2.9788241245136118e-05,-3.61367576791027e-05,6.1333,6.2
1.51171875,-2.246428054474701e-05,-1.465259771114664e-05,-2.051339201190197e-05,-3.4185869146257656e-05,6.1333,6.2
1.515625,-2.3927446944380804e-05,-2.197655841153575e-05,-2.9300519111924854e-05,-4.10221077134355e-05,6.1333,6.2
1.51953125,-1.7578930510414208e-05,-2.7349630579079812e-05,-4.297299624628054e-05,-4.688290201419083e-05,6.1333,6.2
1.5234375,-1.3677153444724125e-05,-2.0025669878690704e-05,-3.222685191119243e-05,-3.321042487983513e-05,6.1333,6.2
1.52734375,-1.9537947745479443e-05,-2.197655841153575e-05,-2.6861908445868548e-05,-2.7349630579079812e-05,6.1333,6.2
1.53125,-2.5886464179446036e-05,-2.8812796978713593e-05,-2.6861908445868548e-05,-3.711220194552523e-05,6.1333,6.2
1.53515625,-2.6861908445868548e-05,-3.222685191119243e-05,-1.9537947745479443e-05,-3.759992407873649e-05,6.1333,6.2
1.5390625,-2.441516907759205e-05,-2.8812796978713593e-05,-2.4902891210803316e-05,-3.467359127946892e-05,6.1333,6.2
1.54296875,-2.9788241245136118e-05,-2.832507484550234e-05,-3.321042487983513e-05,-3.6624479812313965e-05,6.1333,6.2
1.546875,-3.321042487983513e-05,-3.321042487983513e-05,-3.272270274662388e-05,-3.906309047837027e-05,6.1333,6.2
1.55078125,-3.0275963378347383e-05,-3.076368551155865e-05,-2.1001114145113233e-05,-3.5649035545891436e-05,6.1333,6.2
1.5546875,-2.8812796978713593e-05,-2.343972481116954e-05,-2.197655841153575e-05,-3.369814701304639e-05,6.1333,6.2
1.55859375,-2.8812796978713593e-05,-1.8562503479056928e-05,-3.272270274662388e-05,-3.4185869146257656e-05,6.1333,6.2
1.5625,-3.272270274662388e-05,-2.441516907759205e-05,-3.369814701304639e-05,-3.467359127946892e-05,6.1333,6.2
1.56640625,-3.321042487983513e-05,-2.2952002677958275e-05,-3.0275963378347383e-05,-3.955081261158153e-05,6.1333,6.2
1.5703125,-2.5886464179446036e-05,-2.8812796978713593e-05,-3.12514076447699e-05,-4.297299624628054e-05,6.1333,6.2
1.57421875,-3.0275963378347383e-05,-3.759992407873649e-05,-3.076368551155865e-05,-4.883379054703587e-05,6.1333,6.2
1.578125,-3.6624479812313965e-05,-3.369814701304639e-05,-2.4902891210803316e-05,-5.322328974593722e-05,6.1333,6.2
1.58203125,-3.12514076447699e-05,-2.539061334401458e-05,-2.7349630579079812e-05,-4.834606841382461e-05,6.1333,6.2
1.5859375,-3.5649035545891436e-05,-2.5886464179446036e-05,-2.7349630579079812e-05,-4.199755197985803e-05,6.1333,6.2
1.58984375,-3.5161313412680185e-05,-3.8575368345159e-05,-3.759992407873649e-05,-3.711220194552523e-05,6.1333,6.2
1.59375,-2.9788241245136118e-05,-3.808764621194774e-05,-4.4436162645914335e-05,-3.0275963378347383e-05,6.1333,6.2
1.59765625,-3.369814701304639e-05,-3.906309047837027e-05,-4.199755197985803e-05,-3.272270274662388e-05,6.1333,6.2
1.6015625,-3.8575368345159e-05,-4.49238847791256e-05,-4.638705117875938e-05,-3.759992407873649e-05,6.1333,6.2
1.60546875,-4.0046663447012974e-05,-3.8575368345159e-05,-4.638705117875938e-05,-3.076368551155865e-05,6.1333,6.2
1.609375,-3.61367576791027e-05,-3.955081261158153e-05,-5.127240121309218e-05,-2.832507484550234e-05,6.1333,6.2
1.61328125,-3.808764621194774e-05,-4.150982984664677e-05,-5.4206862714579926e-05,-3.759992407873649e-05,6.1333,6.2
1.6171875,-4.0046663447012974e-05,-4.10221077134355e-05,-5.224784547951469e-05,-4.053438558022424e-05,6.1333,6.2
1.62109375,-3.808764621194774e-05,-4.2485274113069276e-05,-3.467359127946892e-05,-4.5899329045548115e-05,6.1333,6.2
1.625,-3.6624479812313965e-05,-4.4436162645914335e-05,-2.197655841153575e-05,-4.3460718379491805e-05,6.1333,6.2
1.62890625,-3.321042487983513e-05,-3.321042487983513e-05,-3.4185869146257656e-05,-3.6624479812313965e-05,6.1333,6.2
1.6328125,-3.12514076447699e-05,-2.539061334401458e-05,-3.173912977798116e-05,-3.61367576791027e-05,6.1333,6.2
1.63671875,-3.808764621194774e-05,-3.12514076447699e-05,-3.0275963378347383e-05,-3.467359127946892e-05,6.1333,6.2
1.640625,-3.8575368345159e-05,-3.0275963378347383e-05,-3.6624479812313965e-05,-3.6624479812313965e-05,6.1333,6.2
1.64453125,-3.906309047837027e-05,-2.7349630579079812e-05,-3.076368551155865e-05,-3.272270274662388e-05,6.1333,6.2
1.6484375,-3.808764621194774e-05,-2.6861908445868548e-05,-3.222685191119243e-05,-2.4902891210803316e-05,6.1333,6.2
1.65234375,-3.5161313412680185e-05,-1.6603486243991696e-05,-4.49238847791256e-05,-2.9788241245136118e-05,6.1333,6.2
1.65625,-3.5161313412680185e-05,-1.611576411078043e-05,-3.467359127946892e-05,-2.8812796978713593e-05,6.1333,6.2
1.66015625,-3.808764621194774e-05,-3.61367576791027e-05,-2.1488836278324484e-05,-2.246428054474701e-05,6.1333,6.2
1.6640625,-4.394844051270307e-05,-3.61367576791027e-05,-2.197655841153575e-05,-2.6374186312657287e-05,6.1333,6.2
1.66796875,-3.5649035545891436e-05,-3.5161313412680185e-05,-3.076368551155865e-05,-3.173912977798116e-05,6.1333,6.2
1.671875,-2.6374186312657287e-05,-3.076368551155865e-05,-2.9300519111924854e-05,-2.832507484550234e-05,6.1333,6.2
1.67578125,-3.12514076447699e-05,-2.7349630579079812e-05,-2.246428054474701e-05,-2.246428054474701e-05,6.1333,6.2
1.6796875,-2.8812796978713593e-05,-2.5886464179446036e-05,-2.7349630579079812e-05,-2.197655841153575e-05,6.1333,6.2
1.68359375,-2.441516907759205e-05,-2.5886464179446036e-05,-3.12514076447699e-05,-2.6374186312657287e-05,6.1333,6.2
1.6875,-2.7837352712291077e-05,-2.5886464179446036e-05,-3.759992407873649e-05,-2.9300519111924854e-05,6.1333,6.2
1.69140625,-3.5161313412680185e-05,-2.6861908445868548e-05,-4.737062414740208e-05,-2.832507484550234e-05,6.1333,6.2
1.6953125,-3.808764621194774e-05,-3.173912977798116e-05,-4.0046663447012974e-05,-2.9300519111924854e-05,6.1333,6.2
1.69921875,-3.272270274662388e-05,-3.321042487983513e-05,-4.053438558022424e-05,-3.272270274662388e-05,6.1333,6.2
1.703125,-2.9788241245136118e-05,-3.906309047837027e-05,-3.759992407873649e-05,-3.0275963378347383e-05,6.1333,6.2
1.70703125,-3.5161313412680185e-05,-3.8575368345159e-05,-3.5161313412680185e-05,-2.832507484550234e-05,6.1333,6.2
1.7109375,-3.906309047837027e-05,-3.955081261158153e-05,-4.053438558022424e-05,-2.9300519111924854e-05,6.1333,6.2
1.71484375,-4.053438558022424e-05,-3.906309047837027e-05,-3.369814701304639e-05,-3.321042487983513e-05,6.1333,6.2
1.71875,-3.955081261158153e-05,-3.5649035545891436e-05,-2.6861908445868548e-05,-3.467359127946892e-05,6.1333,6.2
1.72265625,-4.0046663447012974e-05,-3.321042487983513e-05,-3.0275963378347383e-05,-2.9788241245136118e-05,6.1333,6.2
1.7265625,-3.6624479812313965e-05,-2.9788241245136118e-05,-3.272270274662388e-05,-2.3927446944380804e-05,6.1333,6.2
1.73046875,-2.7837352712291077e-05,-3.711220194552523e-05,-3.5649035545891436e-05,-2.6861908445868548e-05,6.1333,6.2
1.734375,-2.9788241245136118e-05,-4.49238847791256e-05,-4.297299624628054e-05,-2.832507484550234e-05,6.1333,6.2
1.73828125,-3.5161313412680185e-05,-4.4436162645914335e-05,-4.737062414740208e-05,-2.9788241245136118e-05,6.1333,6.2
1.7421875,-3.759992407873649e-05,-4.394844051270307e-05,-4.541160691233685e-05,-3.5161313412680185e-05,6.1333,6.2
1.74609375,-3.4185869146257656e-05,-4.932151268024714e-05,-2.0025669878690704e-05,-3.173912977798116e-05,6.1333,6.2
1.75,-3.711220194552523e-05,-5.469458484779119e-05,-2.8812796978713593e-05,-3.12514076447699e-05,6.1333,6.2
1.75390625,-4.5899329045548115e-05,-5.029695694666965e-05,-5.176012334630344e-05,-3.272270274662388e-05,6.1333,6.2
1.7578125,-4.638705117875938e-05,-4.0046663447012974e-05,-4.053438558022424e-05,-2.9300519111924854e-05,6.1333,6.2
1.76171875,-4.541160691233685e-05,-4.4436162645914335e-05,-4.0046663447012974e-05,-3.0275963378347383e-05,6.1333,6.2
1.765625,-4.10221077134355e-05,-4.737062414740208e-05,-3.711220194552523e-05,-3.222685191119243e-05,6.1333,6.2
1.76953125,-4.3460718379491805e-05,-3.8575368345159e-05,-2.8812796978713593e-05,-2.832507484550234e-05,6.1333,6.2
1.7734375,-4.541160691233685e-05,-3.6624479812313965e-05,-3.5161313412680185e-05,-2.6861908445868548e-05,6.1333,6.2
1.77734375,-4.053438558022424e-05,-3.906309047837027e-05,-2.1488836278324484e-05,-2.4902891210803316e-05,6.1333,6.2
1.78125,-4.199755197985803e-05,-3.321042487983513e-05,-7.816359143968796e-06,-2.6374186312657287e-05,6.1333,6.2
1.78515625,-3.8575368345159e-05,-2.7837352712291077e-05,-2.9788241245136118e-05,-2.6374186312657287e-05,6.1333,6.2
1.7890625,-3.272270274662388e-05,-3.173912977798116e-05,-2.6374186312657287e-05,-2.3927446944380804e-05,6.1333,6.2
1.79296875,-3.5161313412680185e-05,-3.467359127946892e-05,-3.222685191119243e-05,-2.6374186312657287e-05,6.1333,6.2
1.796875,-3.321042487983513e-05,-3.12514076447699e-05,-4.4436162645914335e-05,-2.5886464179446036e-05,6.1333,6.2
1.80078125,-2.9300519111924854e-05,-2.4902891210803316e-05,-2.6374186312657287e-05,-2.6861908445868548e-05,6.1333,6.2
1.8046875,-3.076368551155865e-05,-3.222685191119243e-05,-4.053438558022424e-05,-3.173912977798116e-05,6.1333,6.2
1.80859375,-3.12514076447699e-05,-3.808764621194774e-05,-5.3711011879148484e-05,-3.12514076447699e-05,6.1333,6.2
1.8125,-3.0275963378347383e-05,-3.906309047837027e-05,-3.8575368345159e-05,-2.832507484550234e-05,6.1333,6.2
1.81640625,-3.12514076447699e-05,-4.10221077134355e-05,-2.4902891210803316e-05,-3.173912977798116e-05,6.1333,6.2
1.8203125,-3.321042487983513e-05,-3.6624479812313965e-05,-3.0275963378347383e-05,-3.6624479812313965e-05,6.1333,6.2
1.82421875,-3.222685191119243e-05,-3.5161313412680185e-05,-4.394844051270307e-05,-3.711220194552523e-05,6.1333,6.2
1.828125,-3.808764621194774e-05,-4.0046663447012974e-05,-5.224784547951469e-05,-3.8575368345159e-05,6.1333,6.2
1.83203125,-4.394844051270307e-05,-3.6624479812313965e-05,-4.5899329045548115e-05,-3.8575368345159e-05,6.1333,6.2
1.8359375,-4.394844051270307e-05,-3.5649035545891436e-05,-3.222685191119243e-05,-3.808764621194774e-05,6.1333,6.2
1.83984375,-4.638705117875938e-05,-4.2485274113069276e-05,-2.7349630579079812e-05,-3.906309047837027e-05,6.1333,6.2
1.84375,-5.2735567612725955e-05,-4.785834628061334e-05,-3.467359127946892e-05,-3.6624479812313965e-05,6.1333,6.2
1.84765625,-5.2735567612725955e-05,-5.078467907988092e-05,-2.7837352712291077e-05,-3.4185869146257656e-05,6.1333,6.2
1.8515625,-4.737062414740208e-05,-5.176012334630344e-05,-4.394844051270307e-05,-3.759992407873649e-05,6.1333,6.2
1.85546875,-4.150982984664677e-05,-5.127240121309218e-05,-5.859636191348128e-05,-3.808764621194774e-05,6.1333,6.2
1.859375,-4.5899329045548115e-05,-5.322328974593722e-05,-4.834606841382461e-05,-4.150982984664677e-05,6.1333,6.2
1.86328125,-4.4436162645914335e-05,-5.664547338063623e-05,-3.5161313412680185e-05,-4.2485274113069276e-05,6.1333,6.2
1.8671875,-3.467359127946892e-05,-4.785834628061334e-05,-3.369814701304639e-05,-3.321042487983513e-05,6.1333,6.2
1.87109375,-3.808764621194774e-05,-4.297299624628054e-05,-2.4902891210803316e-05,-2.9788241245136118e-05,6.1333,6.2
1.875,-4.0046663447012974e-05,-4.150982984664677e-05,-2.2952002677958275e-05,-2.8812796978713593e-05,6.1333,6.2
1.87890625,-3.759992407873649e-05,-3.076368551155865e-05,-4.541160691233685e-05,-3.076368551155865e-05,6.1333,6.2
1.8828125,-4.297299624628054e-05,-3.6624479812313965e-05,-3.5649035545891436e-05,-3.467359127946892e-05,6.1333,6.2
1.88671875,-4.688290201419083e-05,-4.541160691233685e-05,-3.4185869146257656e-05,-3.711220194552523e-05,6.1333,6.2
1.890625,-4.297299624628054e-05,-4.541160691233685e-05,-2.5886464179446036e-05,-3.8575368345159e-05,6.1333,6.2
1.89453125,-3.759992407873649e-05,-3.711220194552523e-05,-2.3927446944380804e-05,-3.272270274662388e-05,6.1333,6.2
1.8984375,-3.467359127946892e-05,-2.9300519111924854e-05,-4.297299624628054e-05,-2.4902891210803316e-05,6.1333,6.2
1.90234375,-3.369814701304639e-05,-3.8575368345159e-05,-2.6374186312657287e-05,-2.4902891210803316e-05,6.1333,6.2
1.90625,-3.321042487983513e-05,-3.5161313412680185e-05,-7.328637010757546e-06,-2.7349630579079812e-05,6.1333,6.2
1.91015625,-2.6861908445868548e-05,-2.6861908445868548e-05,-1.7578930510414208e-05,-2.6861908445868548e-05,6.1333,6.2
1.9140625,-2.1488836278324484e-05,-2.1488836278324484e-05,-2.2952002677958275e-05,-2.343972481116954e-05,6.1333,6.2
1.91796875,-2.7837352712291077e-05,-2.7349630579079812e-05,-2.5886464179446036e-05,-2.4902891210803316e-05,6.1333,6.2
1.921875,-3.4185869146257656e-05,-4.053438558022424e-05,-4.10221077134355e-05,-2.9788241245136118e-05,6.1333,6.2
1.92578125,-3.4185869146257656e-05,-3.467359127946892e-05,-2.3927446944380804e-05,-2.441516907759205e-05,6.1333,6.2
1.9296875,-3.6624479812313965e-05,-3.4185869146257656e-05,-1.1726264911879084e-05,-2.4902891210803316e-05,6.1333,6.2
1.93359375,-4.053438558022424e-05,-3.8575368345159e-05,-3.272270274662388e-05,-3.12514076447699e-05,6.1333,6.2
1.9375,-3.8575368345159e-05,-2.9788241245136118e-05,-3.173912977798116e-05,-3.222685191119243e-05,6.1333,6.2
1.94140625,-3.4185869146257656e-05,-2.051339201190197e-05,-1.416487557793539e-05,-2.6374186312657287e-05,6.1333,6.2
1.9453125,-3.076368551155865e-05,-2.7349630579079812e-05,-4.0046663447012974e-05,-2.7349630579079812e-05,6.1333,6.2
1.94921875,-3.6624479812313965e-05,-3.711220194552523e-05,-5.9084084046692544e-05,-3.4185869146257656e-05,6.1333,6.2
1.953125,-4.150982984664677e-05,-4.3460718379491805e-05,-4.4436162645914335e-05,-4.199755197985803e-05,6.1333,6.2
1.95703125,-4.0046663447012974e-05,-3.955081261158153e-05,-4.638705117875938e-05,-4.053438558022424e-05,6.1333,6.2
1.9609375,-3.467359127946892e-05,-2.246428054474701e-05,-3.808764621194774e-05,-2.9788241245136118e-05,6.1333,6.2
1.96484375,-3.4185869146257656e-05,-2.441516907759205e-05,-2.6861908445868548e-05,-3.272270274662388e-05,6.1333,6.2
1.96875,-3.4185869146257656e-05,-2.4902891210803316e-05,-2.1488836278324484e-05,-3.61367576791027e-05,6.1333,6.2
1.97265625,-3.076368551155865e-05,-2.246428054474701e-05,-2.9300519111924854e-05,-2.7349630579079812e-05,6.1333,6.2
1.9765625,-3.467359127946892e-05,-2.832507484550234e-05,-4.10221077134355e-05,-2.7837352712291077e-05,6.1333,6.2
1.98046875,-3.8575368345159e-05,-2.6861908445868548e-05,-4.638705117875938e-05,-3.4185869146257656e-05,6.1333,6.2
1.984375,-3.4185869146257656e-05,-3.076368551155865e-05,-4.5899329045548115e-05,-3.5161313412680185e-05,6.1333,6.2
1.98828125,-3.5649035545891436e-05,-2.8812796978713593e-05,-3.5649035545891436e-05,-3.6624479812313965e-05,6.1333,6.2
1.9921875,-3.711220194552523e-05,-2.8812796978713593e-05,-3.759992407873649e-05,-3.369814701304639e-05,6.1333,6.2
1.99609375,-3.6624479812313965e-05,-3.5161313412680185e-05,-3.906309047837027e-05,-3.5161313412680185e-05,6.1333,6.2
2.0,-3.955081261158153e-05,-3.173912977798116e-05,-3.0275963378347383e-05,-3.173912977798116e-05,6.1333,6.2
2.00390625,-3.61367576791027e-05,-2.4902891210803316e-05,-3.076368551155865e-05,-2.539061334401458e-05,6.1333,6.2
2.0078125,-4.150982984664677e-05,-3.076368551155865e-05,-4.10221077134355e-05,-3.4185869146257656e-05,6.1333,6.2
2.01171875,-4.638705117875938e-05,-3.5161313412680185e-05,-5.029695694666965e-05,-4.199755197985803e-05,6.1333,6.2
2.015625,-4.2485274113069276e-05,-3.321042487983513e-05,-4.49238847791256e-05,-3.8575368345159e-05,6.1333,6.2
2.01953125,-4.199755197985803e-05,-3.173912977798116e-05,-3.173912977798116e-05,-3.61367576791027e-05,6.1333,6.2
2.0234375,-4.10221077134355e-05,-2.5886464179446036e-05,-1.7578930510414208e-05,-3.076368551155865e-05,6.1333,6.2
2.02734375,-4.4436162645914335e-05,-2.7349630579079812e-05,-3.272270274662388e-05,-3.6624479812313965e-05,6.1333,6.2
2.03125,-4.394844051270307e-05,-1.7091208377202947e-05,-5.176012334630344e-05,-3.711220194552523e-05,6.1333,6.2
2.03515625,-3.759992407873649e-05,-2.4902891210803316e-05,-3.759992407873649e-05,-3.467359127946892e-05,6.1333,6.2
2.0390625,-4.297299624628054e-05,-3.955081261158153e-05,-3.5649035545891436e-05,-4.150982984664677e-05,6.1333,6.2
2.04296875,-4.737062414740208e-05,-2.8812796978713593e-05,-3.711220194552523e-05,-4.2485274113069276e-05,6.1333,6.2
2.046875,-4.541160691233685e-05,-3.272270274662388e-05,-3.272270274662388e-05,-4.297299624628054e-05,6.1333,6.2
2.05078125,-4.541160691233685e-05,-3.12514076447699e-05,-3.321042487983513e-05,-3.759992407873649e-05,6.1333,6.2
2.0546875,-4.297299624628054e-05,-2.7837352712291077e-05,-3.272270274662388e-05,-3.12514076447699e-05,6.1333,6.2
2.05859375,-3.906309047837027e-05,-3.467359127946892e-05,-3.321042487983513e-05,-3.4185869146257656e-05,6.1333,6.2
2.0625,-4.297299624628054e-05,-3.222685191119243e-05,-3.759992407873649e-05,-3.272270274662388e-05,6.1333,6.2
2.06640625,-4.4436162645914335e-05,-3.711220194552523e-05,-3.12514076447699e-05,-3.5649035545891436e-05,6.1333,6.2
2.0703125,-4.150982984664677e-05,-4.2485274113069276e-05,-3.5649035545891436e-05,-3.711220194552523e-05,6.1333,6.2
2.07421875,-3.61367576791027e-05,-3.906309047837027e-05,-4.541160691233685e-05,-3.076368551155865e-05,6.1333,6.2
2.078125,-3.467359127946892e-05,-3.906309047837027e-05,-3.759992407873649e-05,-2.832507484550234e-05,6.1333,6.2
2.08203125,-4.297299624628054e-05,-4.0046663447012974e-05,-3.955081261158153e-05,-3.12514076447699e-05,6.1333,6.2
2.0859375,-4.541160691233685e-05,-3.808764621194774e-05,-3.076368551155865e-05,-3.173912977798116e-05,6.1333,6.2
2.08984375,-4.4436162645914335e-05,-3.808764621194774e-05,-2.1001114145113233e-05,-2.9788241245136118e-05,6.1333,6.2
2.09375,-4.199755197985803e-05,-3.076368551155865e-05,-3.0275963378347383e-05,-2.9300519111924854e-05,6.1333,6.2
2.09765625,-4.10221077134355e-05,-2.343972481116954e-05,-2.6861908445868548e-05,-2.832507484550234e-05,6.1333,6.2
2.1015625,-4.2485274113069276e-05,-2.7837352712291077e-05,-2.9788241245136118e-05,-2.9300519111924854e-05,6.1333,6.2
2.10546875,-4.3460718379491805e-05,-3.5649035545891436e-05,-2.8812796978713593e-05,-3.906309047837027e-05,6.1333,6.2
2.109375,-4.199755197985803e-05,-4.541160691233685e-05,-2.5886464179446036e-05,-4.2485274113069276e-05,6.1333,6.2
2.11328125,-3.955081261158153e-05,-4.297299624628054e-05,-4.688290201419083e-05,-3.955081261158153e-05,6.1333,6.2
2.1171875,-3.808764621194774e-05,-2.8812796978713593e-05,-4.053438558022424e-05,-3.906309047837027e-05,6.1333,6.2
2.12109375,-3.8575368345159e-05,-2.7349630579079812e-05,-3.12514076447699e-05,-3.5161313412680185e-05,6.1333,6.2
2.125,-3.759992407873649e-05,-3.467359127946892e-05,-3.955081261158153e-05,-2.7837352712291077e-05,6.1333,6.2
2.12890625,-4.10221077134355e-05,-2.9788241245136118e-05,-3.759992407873649e-05,-2.6861908445868548e-05,6.1333,6.2
2.1328125,-4.834606841382461e-05,-2.8812796978713593e-05,-3.5649035545891436e-05,-3.0275963378347383e-05,6.1333,6.2
2.13671875,-4.49238847791256e-05,-3.61367576791027e-05,-3.467359127946892e-05,-3.321042487983513e-05,6.1333,6.2
2.140625,-4.394844051270307e-05,-3.076368551155865e-05,-3.8575368345159e-05,-3.369814701304639e-05,6.1333,6.2
2.14453125,-4.688290201419083e-05,-2.441516907759205e-05,-3.6624479812313965e-05,-3.222685191119243e-05,6.1333,6.2
2.1484375,-4.297299624628054e-05,-2.7349630579079812e-05,-2.9788241245136118e-05,-3.5161313412680185e-05,6.1333,6.2
2.15234375,-3.759992407873649e-05,-3.272270274662388e-05,-2.343972481116954e-05,-3.6624479812313965e-05,6.1333,6.2
2.15625,-3.6624479812313965e-05,-3.6624479812313965e-05,-1.8562503479056928e-05,-3.6624479812313965e-05,6.1333,6.2
2.16015625,-4.150982984664677e-05,-4.10221077134355e-05,-2.5886464179446036e-05,-4.0046663447012974e-05,6.1333,6.2
2.1640625,-4.834606841382461e-05,-4.150982984664677e-05,-2.9300519111924854e-05,-4.4436162645914335e-05,6.1333,6.2
2.16796875,-5.127240121309218e-05,-4.0046663447012974e-05,-3.467359127946892e-05,-4.49238847791256e-05,6.1333,6.2
2.171875,-5.029695694666965e-05,-4.297299624628054e-05,-3.321042487983513e-05,-4.541160691233685e-05,6.1333,6.2
2.17578125,-4.49238847791256e-05,-3.8575368345159e-05,-2.441516907759205e-05,-3.5649035545891436e-05,6.1333,6.2
2.1796875,-4.49238847791256e-05,-3.321042487983513e-05,-3.12514076447699e-05,-3.12514076447699e-05,6.1333,6.2
2.18359375,-4.0046663447012974e-05,-2.9300519111924854e-05,-2.9300519111924854e-05,-3.222685191119243e-05,6.1333,6.2
2.1875,-3.61367576791027e-05,-3.222685191119243e-05,-2.8812796978713593e-05,-3.076368551155865e-05,6.1333,6.2
2.19140625,-4.2485274113069276e-05,-3.4185869146257656e-05,-2.1488836278324484e-05,-3.272270274662388e-05,6.1333,6.2
2.1953125,-4.688290201419083e-05,-3.0275963378347383e-05,-1.465259771114664e-05,-3.173912977798116e-05,6.1333,6.2
2.19921875,-4.541160691233685e-05,-3.076368551155865e-05,-3.4185869146257656e-05,-3.12514076447699e-05,6.1333,6.2
2.203125,-4.297299624628054e-05,-2.539061334401458e-05,-2.9300519111924854e-05,-2.6861908445868548e-05,6.1333,6.2
2.20703125,-4.394844051270307e-05,-3.272270274662388e-05,-2.343972481116954e-05,-2.4902891210803316e-05,6.1333,6.2
2.2109375,-3.808764621194774e-05,-3.906309047837027e-05,-3.272270274662388e-05,-2.9300519111924854e-05,6.1333,6.2
2.21484375,-3.5649035545891436e-05,-4.150982984664677e-05,-3.6624479812313965e-05,-3.0275963378347383e-05,6.1333,6.2
2.21875,-4.053438558022424e-05,-4.297299624628054e-05,-3.321042487983513e-05,-3.173912977798116e-05,6.1333,6.2
2.22265625,-4.2485274113069276e-05,-3.955081261158153e-05,-3.369814701304639e-05,-3.4185869146257656e-05,6.1333,6.2
2.2265625,-4.199755197985803e-05,-3.5649035545891436e-05,-4.053438558022424e-05,-3.321042487983513e-05,6.1333,6.2
2.23046875,-4.737062414740208e-05,-3.6624479812313965e-05,-4.737062414740208e-05,-3.467359127946892e-05,6.1333,6.2
2.234375,-5.176012334630344e-05,-3.8575368345159e-05,-4.053438558022424e-05,-3.61367576791027e-05,6.1333,6.2
2.23828125,-5.2735567612725955e-05,-3.0275963378347383e-05,-2.197655841153575e-05,-3.12514076447699e-05,6.1333,6.2
2.2421875,-5.078467907988092e-05,-3.369814701304639e-05,-1.7578930510414208e-05,-2.9788241245136118e-05,6.1333,6.2
2.24609375,-4.541160691233685e-05,-3.076368551155865e-05,-3.12514076447699e-05,-2.9300519111924854e-05,6.1333,6.2
2.25,-4.541160691233685e-05,-2.9788241245136118e-05,-3.8575368345159e-05,-2.6861908445868548e-05,6.1333,6.2
2.25390625,-4.3460718379491805e-05,-3.272270274662388e-05,-3.12514076447699e-05,-2.5886464179446036e-05,6.1333,6.2
2.2578125,-4.150982984664677e-05,-3.12514076447699e-05,-1.9537947745479443e-05,-2.6374186312657287e-05,6.1333,6.2
2.26171875,-4.053438558022424e-05,-3.0275963378347383e-05,-1.8562503479056928e-05,-2.539061334401458e-05,6.1333,6.2
2.265625,-4.0046663447012974e-05,-3.6624479812313965e-05,-2.8812796978713593e-05,-2.343972481116954e-05,6.1333,6.2
2.26953125,-4.150982984664677e-05,-3.272270274662388e-05,-3.61367576791027e-05,-2.246428054474701e-05,6.1333,6.2
2.2734375,-4.10221077134355e-05,-3.61367576791027e-05,-1.465259771114664e-05,-2.0025669878690704e-05,6.1333,6.2
2.27734375,-4.0046663447012974e-05,-3.5161313412680185e-05,-1.8562503479056928e-05,-2.343972481116954e-05,6.1333,6.2
2.28125,-4.3460718379491805e-05,-2.4902891210803316e-05,1.4584900892653536e-06,-1.905022561226818e-05,6.1333,6.2
2.28515625,-4.053438558022424e-05,-2.6861908445868548e-05,1.9462122224766176e-06,-1.1726264911879084e-05,6.1333,6.2
2.2890625,-3.321042487983513e-05,-2.7837352712291077e-05,-2.7837352712291077e-05,-1.2701709178301598e-05,6.1333,6.2
2.29296875,-3.61367576791027e-05,-3.4185869146257656e-05,-1.905022561226818e-05,-1.9537947745479443e-05,6.1333,6.2
2.296875,-3.808764621194774e-05,-3.467359127946892e-05,-2.5886464179446036e-05,-2.5886464179446036e-05,6.1333,6.2
2.30078125,-3.5161313412680185e-05,-3.0275963378347383e-05,-2.9300519111924854e-05,-2.343972481116954e-05,6.1333,6.2
2.3046875,-3.272270274662388e-05,-1.9537947745479443e-05,-1.5140319844357904e-05,-1.7091208377202947e-05,6.1333,6.2
2.30859375,-3.5649035545891436e-05,-2.5886464179446036e-05,-1.9537947745479443e-05,-1.611576411078043e-05,6.1333,6.2
2.3125,-3.906309047837027e-05,-3.6624479812313965e-05,-3.369814701304639e-05,-2.197655841153575e-05,6.1333,6.2
2.31640625,-3.8575368345159e-05,-3.467359127946892e-05,-3.076368551155865e-05,-2.0025669878690704e-05,6.1333,6.2
2.3203125,-3.6624479812313965e-05,-3.808764621194774e-05,-3.955081261158153e-05,-2.2952002677958275e-05,6.1333,6.2
2.32421875,-4.10221077134355e-05,-2.9788241245136118e-05,-3.272270274662388e-05,-2.7837352712291077e-05,6.1333,6.2
2.328125,-4.3460718379491805e-05,-9.279525543602588e-06,4.3929515907531e-06,-2.4902891210803316e-05,6.1333,6.2
2.33203125,-4.199755197985803e-05,-2.2952002677958275e-05,-6.353192744335018e-06,-2.197655841153575e-05,6.1333,6.2
2.3359375,-4.834606841382461e-05,-6.689576688029291e-05,-5.4206862714579926e-05,-2.443286976424744e-06,6.1333,6.2
2.33984375,-6.0059528313115066e-05,-9.03389440833142e-05,-8.105596614785987e-05,1.1716912291142221e-05,6.1333,6.2
2.34375,-6.93425062485694e-05,-9.228983261615924e-05,-9.082666621652547e-05,4.3929515907531e-06,6.1333,6.2
2.34765625,-6.787121114671543e-05,-9.961379331654835e-05,-0.00010498686548409242,1.4584900892653536e-06,6.1333,6.2
2.3515625,-6.836706198214688e-05,-0.0001088886425497825,-0.00011914706475165936,3.9052294575418494e-06,6.1333,6.2
2.35546875,-7.470744971389328e-05,-0.00011084765978484773,-0.00011914706475165936,4.880673723964363e-06,6.1333,6.2
2.359375,-8.008052188143734e-05,-0.00012841378528267333,-0.00012206526884870674,8.294728656443197e-06,6.1333,6.2
2.36328125,-8.301498338292509e-05,-0.00013573774598306244,-0.00010693775401693745,6.343840123598155e-06,6.1333,6.2
2.3671875,-8.301498338292509e-05,-0.00014550031734950782,-0.0001088886425497825,7.319284390020669e-06,6.1333,6.2
2.37109375,-8.252726124971383e-05,-0.00013378685745021738,-0.00011914706475165936,1.025374589150843e-05,6.1333,6.2
2.375,-7.373200544747075e-05,-0.0001064500318837262,-0.00011279854831769278,3.4175073243305857e-06,6.1333,6.2
2.37890625,-6.543260048065911e-05,-0.00010351557038223844,-0.00010547458761730368,-4.676310368438407e-09,6.1333,6.2
2.3828125,-6.885478411535814e-05,-0.00010107695971618213,-9.03389440833142e-05,-4.676310368438407e-09,6.1333,6.2
2.38671875,-6.93425062485694e-05,-9.619160968184933e-05,-8.935537111467149e-05,-5.3777484779124906e-06,6.1333,6.2
2.390625,-6.640804474708164e-05,-9.131438834973673e-05,-8.05682440146486e-05,-1.0254969810025101e-05,6.1333,6.2
2.39453125,-7.129339478141445e-05,-8.64290383154039e-05,-7.226883904783698e-05,-1.1230414076447629e-05,6.1333,6.2
2.3984375,-7.666646694895852e-05,-7.861735548180355e-05,-7.617874481574725e-05,-1.3189431311512862e-05,6.1333,6.2
2.40234375,-7.275656118104822e-05,-6.689576688029291e-05,-6.983022838178066e-05,-1.611576411078043e-05,6.1333,6.2
2.40625,-6.543260048065911e-05,-6.494487834744787e-05,-6.543260048065911e-05,-1.8562503479056928e-05,6.1333,6.2
2.41015625,-6.93425062485694e-05,-6.592032261387038e-05,-6.93425062485694e-05,-2.1001114145113233e-05,6.1333,6.2
2.4140625,-7.421972758068201e-05,-6.983022838178066e-05,-5.3711011879148484e-05,-2.1488836278324484e-05,6.1333,6.2
2.41796875,-6.640804474708164e-05,-6.93425062485694e-05,-4.541160691233685e-05,-1.8562503479056928e-05,6.1333,6.2
2.421875,-6.299398981460281e-05,-5.4206862714579926e-05,-4.883379054703587e-05,-1.416487557793539e-05,6.1333,6.2
2.42578125,-6.299398981460281e-05,-5.127240121309218e-05,-3.272270274662388e-05,-1.3677153444724125e-05,6.1333,6.2
2.4296875,-5.615775124742498e-05,-4.541160691233685e-05,-4.199755197985803e-05,-1.6603486243991696e-05,6.1333,6.2
2.43359375,-5.859636191348128e-05,-3.711220194552523e-05,-4.883379054703587e-05,-2.051339201190197e-05,6.1333,6.2
2.4375,-5.9084084046692544e-05,-3.5161313412680185e-05,-3.808764621194774e-05,-1.9537947745479443e-05,6.1333,6.2
2.44140625,-5.713319551384749e-05,-3.0275963378347383e-05,-3.6624479812313965e-05,-2.2952002677958275e-05,6.1333,6.2
2.4453125,-6.543260048065911e-05,-3.6624479812313965e-05,-3.8575368345159e-05,-2.4902891210803316e-05,6.1333,6.2
2.44921875,-6.348171194781408e-05,-3.222685191119243e-05,-3.906309047837027e-05,-2.1001114145113233e-05,6.1333,6.2
2.453125,-5.957180617990381e-05,-3.173912977798116e-05,-4.0046663447012974e-05,-1.8562503479056928e-05,6.1333,6.2
2.45703125,-6.299398981460281e-05,-4.932151268024714e-05,-3.369814701304639e-05,-2.4902891210803316e-05,6.1333,6.2
2.4609375,-6.0059528313115066e-05,-4.737062414740208e-05,-2.832507484550234e-05,-2.441516907759205e-05,6.1333,6.2
2.46484375,-5.664547338063623e-05,-4.2485274113069276e-05,-1.611576411078043e-05,-1.6603486243991696e-05,6.1333,6.2
2.46875,-5.762091764705876e-05,-4.883379054703587e-05,-2.4902891210803316e-05,-2.539061334401458e-05,6.1333,6.2
2.47265625,-5.859636191348128e-05,-4.199755197985803e-05,-5.176012334630344e-05,-2.832507484550234e-05,6.1333,6.2
2.4765625,-5.4206862714579926e-05,-2.6374186312657287e-05,-4.541160691233685e-05,-2.832507484550234e-05,6.1333,6.2
2.48046875,-5.713319551384749e-05,-3.12514076447699e-05,-3.906309047837027e-05,-3.369814701304639e-05,6.1333,6.2
2.484375,-6.054725044632633e-05,-4.3460718379491805e-05,-3.955081261158153e-05,-3.369814701304639e-05,6.1333,6.2
2.48828125,-5.762091764705876e-05,-3.711220194552523e-05,-4.3460718379491805e-05,-3.4185869146257656e-05,6.1333,6.2
2.4921875,-5.713319551384749e-05,-3.808764621194774e-05,-5.713319551384749e-05,-3.222685191119243e-05,6.1333,6.2
2.49609375,-5.713319551384749e-05,-4.4436162645914335e-05,-5.176012334630344e-05,-2.9300519111924854e-05,6.1333,6.2
2.5,-5.664547338063623e-05,-4.883379054703587e-05,-3.955081261158153e-05,-3.0275963378347383e-05,6.1333,6.2
2.50390625,-5.224784547951469e-05,-4.785834628061334e-05,-2.9300519111924854e-05,-2.8812796978713593e-05,6.1333,6.2
2.5078125,-4.688290201419083e-05,-4.150982984664677e-05,-2.9300519111924854e-05,-3.321042487983513e-05,6.1333,6.2
2.51171875,-4.394844051270307e-05,-4.10221077134355e-05,-3.272270274662388e-05,-3.272270274662388e-05,6.1333,6.2
2.515625,-4.5899329045548115e-05,-3.4185869146257656e-05,-2.9300519111924854e-05,-3.0275963378347383e-05,6.1333,6.2
2.51953125,-5.2735567612725955e-05,-2.6374186312657287e-05,-2.3927446944380804e-05,-3.076368551155865e-05,6.1333,6.2
2.5234375,-5.567002911421372e-05,-3.5161313412680185e-05,-2.832507484550234e-05,-2.8812796978713593e-05,6.1333,6.2
2.52734375,-4.785834628061334e-05,-3.906309047837027e-05,-3.173912977798116e-05,-3.0275963378347383e-05,6.1333,6.2
2.53125,-4.883379054703587e-05,-5.127240121309218e-05,-3.906309047837027e-05,-3.076368551155865e-05,6.1333,6.2
2.53515625,-5.4206862714579926e-05,-5.615775124742498e-05,-3.906309047837027e-05,-2.6374186312657287e-05,6.1333,6.2
2.5390625,-4.932151268024714e-05,-5.224784547951469e-05,-3.8575368345159e-05,-2.7837352712291077e-05,6.1333,6.2
2.54296875,-4.688290201419083e-05,-5.957180617990381e-05,-4.541160691233685e-05,-3.369814701304639e-05,6.1333,6.2
2.546875,-5.469458484779119e-05,-6.054725044632633e-05,-4.0046663447012974e-05,-3.369814701304639e-05,6.1333,6.2
2.55078125,-5.957180617990381e-05,-5.224784547951469e-05,-2.246428054474701e-05,-3.0275963378347383e-05,6.1333,6.2
2.5546875,-5.176012334630344e-05,-4.688290201419083e-05,-3.222685191119243e-05,-2.197655841153575e-05,6.1333,6.2
2.55859375,-4.834606841382461e-05,-4.932151268024714e-05,-4.49238847791256e-05,-1.7578930510414208e-05,6.1333,6.2
2.5625,-5.127240121309218e-05,-4.980923481345839e-05,-3.61367576791027e-05,-1.7091208377202947e-05,6.1333,6.2
2.56640625,-5.4206862714579926e-05,-6.20185455481803e-05,-3.955081261158153e-05,-2.051339201190197e-05,6.1333,6.2
2.5703125,-5.224784547951469e-05,-7.324428331425948e-05,-4.0046663447012974e-05,-2.343972481116954e-05,6.1333,6.2
2.57421875,-4.5899329045548115e-05,-6.299398981460281e-05,-3.5161313412680185e-05,-2.1488836278324484e-05,6.1333,6.2
2.578125,-4.49238847791256e-05,-5.762091764705876e-05,-3.61367576791027e-05,-2.7349630579079812e-05,6.1333,6.2
2.58203125,-5.078467907988092e-05,-5.810863978027002e-05,-3.6624479812313965e-05,-3.222685191119243e-05,6.1333,6.2
2.5859375,-5.664547338063623e-05,-5.127240121309218e-05,-4.199755197985803e-05,-2.832507484550234e-05,6.1333,6.2
2.58984375,-5.567002911421372e-05,-5.2735567612725955e-05,-4.199755197985803e-05,-2.5886464179446036e-05,6.1333,6.2
2.59375,-5.615775124742498e-05,-6.396943408102534e-05,-4.2485274113069276e-05,-2.6861908445868548e-05,6.1333,6.2
2.59765625,-5.127240121309218e-05,-5.957180617990381e-05,-4.394844051270307e-05,-2.6374186312657287e-05,6.1333,6.2
2.6015625,-4.394844051270307e-05,-4.394844051270307e-05,-3.8575368345159e-05,-2.3927446944380804e-05,6.1333,6.2
2.60546875,-4.4436162645914335e-05,-4.5899329045548115e-05,-4.199755197985803e-05,-2.051339201190197e-05,6.1333,6.2
2.609375,-4.980923481345839e-05,-6.44571562142366e-05,-3.5161313412680185e-05,-2.2952002677958275e-05,6.1333,6.2
2.61328125,-5.078467907988092e-05,-6.592032261387038e-05,-3.6624479812313965e-05,-2.6374186312657287e-05,6.1333,6.2
2.6171875,-4.785834628061334e-05,-5.762091764705876e-05,-3.5161313412680185e-05,-2.6861908445868548e-05,6.1333,6.2
2.62109375,-5.029695694666965e-05,-5.762091764705876e-05,-2.441516907759205e-05,-2.7837352712291077e-05,6.1333,6.2
2.625,-5.029695694666965e-05,-5.469458484779119e-05,-5.176012334630344e-05,-2.8812796978713593e-05,6.1333,6.2
2.62890625,-4.638705117875938e-05,-4.883379054703587e-05,-5.957180617990381e-05,-3.0275963378347383e-05,6.1333,6.2
2.6328125,-4.785834628061334e-05,-3.711220194552523e-05,-3.8575368345159e-05,-3.61367576791027e-05,6.1333,6.2
2.63671875,-5.078467907988092e-05,-3.711220194552523e-05,-3.076368551155865e-05,-3.61367576791027e-05,6.1333,6.2
2.640625,-4.4436162645914335e-05,-4.2485274113069276e-05,-2.8812796978713593e-05,-2.8812796978713593e-05,6.1333,6.2
2.64453125,-4.541160691233685e-05,-3.808764621194774e-05,-1.905022561226818e-05,-2.1488836278324484e-05,6.1333,6.2
2.6484375,-5.078467907988092e-05,-3.6624479812313965e-05,-8.791803410391325e-06,-2.539061334401458e-05,6.1333,6.2
2.65234375,-5.224784547951469e-05,-2.343972481116954e-05,-1.9555648432134803e-06,-3.076368551155865e-05,6.1333,6.2
2.65625,-5.5182306981002455e-05,-1.5140319844357904e-05,4.880673723964363e-06,-2.1488836278324484e-05,6.1333,6.2
2.66015625,-6.054725044632633e-05,-2.441516907759205e-05,7.319284390020669e-06,-1.1230414076447629e-05,6.1333,6.2
2.6640625,-6.153082341496904e-05,-1.9537947745479443e-05,1.7081855756466098e-05,-5.3777484779124906e-06,6.1333,6.2
2.66796875,-6.20185455481803e-05,-1.7578930510414208e-05,1.6594133623254833e-05,-6.353192744335018e-06,6.1333,6.2
2.671875,-6.592032261387038e-05,-2.5886464179446036e-05,-1.9555648432134803e-06,-8.30408127718006e-06,6.1333,6.2
2.67578125,-6.20185455481803e-05,-3.076368551155865e-05,-5.865470611123754e-06,-3.418731242847258e-06,6.1333,6.2
2.6796875,-6.153082341496904e-05,-3.321042487983513e-05,-1.2213987045090333e-05,-3.418731242847258e-06,6.1333,6.2
2.68359375,-6.494487834744787e-05,-2.5886464179446036e-05,-6.353192744335018e-06,-5.865470611123754e-06,6.1333,6.2
2.6875,-5.957180617990381e-05,-2.539061334401458e-05,7.807006523231933e-06,-5.865470611123754e-06,6.1333,6.2
2.69140625,-5.567002911421372e-05,-2.1488836278324484e-05,-4.676310368438407e-09,-9.767247676813852e-06,6.1333,6.2
2.6953125,-6.0059528313115066e-05,-2.0025669878690704e-05,-7.816359143968796e-06,-1.416487557793539e-05,6.1333,6.2
2.69921875,-5.9084084046692544e-05,-3.173912977798116e-05,-8.791803410391325e-06,-1.7578930510414208e-05,6.1333,6.2
2.703125,-5.615775124742498e-05,-3.321042487983513e-05,-1.0742691943236366e-05,-1.5628041977569167e-05,6.1333,6.2
2.70703125,-5.322328974593722e-05,-3.467359127946892e-05,-1.2213987045090333e-05,-1.3189431311512862e-05,6.1333,6.2
2.7109375,-4.932151268024714e-05,-3.808764621194774e-05,-2.197655841153575e-05,-1.611576411078043e-05,6.1333,6.2
2.71484375,-4.5899329045548115e-05,-3.173912977798116e-05,-9.767247676813852e-06,-1.8066652643625472e-05,6.1333,6.2
2.71875,-4.638705117875938e-05,-3.272270274662388e-05,4.880673723964363e-06,-1.611576411078043e-05,6.1333,6.2
2.72265625,-4.688290201419083e-05,-3.369814701304639e-05,-9.279525543602588e-06,-2.0025669878690704e-05,6.1333,6.2
2.7265625,-4.49238847791256e-05,-2.7349630579079812e-05,-1.0742691943236366e-05,-2.2952002677958275e-05,6.1333,6.2
2.73046875,-4.737062414740208e-05,-3.0275963378347383e-05,-9.279525543602588e-06,-2.1001114145113233e-05,6.1333,6.2
2.734375,-5.2735567612725955e-05,-3.0275963378347383e-05,-5.865470611123754e-06,-2.539061334401458e-05,6.1333,6.2
2.73828125,-5.127240121309218e-05,-2.7349630579079812e-05,-2.7837352712291077e-05,-2.7349630579079812e-05,6.1333,6.2
2.7421875,-4.834606841382461e-05,-3.222685191119243e-05,-2.9788241245136118e-05,-1.8562503479056928e-05,6.1333,6.2
2.74609375,-4.394844051270307e-05,-3.321042487983513e-05,-8.791803410391325e-06,-1.8562503479056928e-05,6.1333,6.2
2.75,-4.0046663447012974e-05,-3.467359127946892e-05,-1.7091208377202947e-05,-2.197655841153575e-05,6.1333,6.2
2.75390625,-4.2485274113069276e-05,-3.173912977798116e-05,-1.5140319844357904e-05,-1.6603486243991696e-05,6.1333,6.2
2.7578125,-4.5899329045548115e-05,-2.9300519111924854e-05,-1.3677153444724125e-05,-2.343972481116954e-05,6.1333,6.2
2.76171875,-3.8575368345159e-05,-2.7837352712291077e-05,1.9462122224766176e-06,-2.6861908445868548e-05,6.1333,6.2
2.765625,-4.0046663447012974e-05,-3.076368551155865e-05,2.9216564888991314e-06,-2.6374186312657287e-05,6.1333,6.2
2.76953125,-4.2485274113069276e-05,-4.053438558022424e-05,-1.416487557793539e-05,-2.441516907759205e-05,6.1333,6.2
2.7734375,-3.8575368345159e-05,-3.808764621194774e-05,-1.1230414076447629e-05,-2.0025669878690704e-05,6.1333,6.2
2.77734375,-3.61367576791027e-05,-3.369814701304639e-05,-1.7091208377202947e-05,-2.197655841153575e-05,6.1333,6.2
2.78125,-3.8575368345159e-05,-3.222685191119243e-05,-2.343972481116954e-05,-2.441516907759205e-05,6.1333,6.2
2.78515625,-4.150982984664677e-05,-2.9300519111924854e-05,-1.3189431311512862e-05,-2.832507484550234e-05,6.1333,6.2
2.7890625,-3.759992407873649e-05,-3.4185869146257656e-05,-1.3189431311512862e-05,-2.7349630579079812e-05,6.1333,6.2
2.79296875,-2.9788241245136118e-05,-2.343972481116954e-05,-1.2701709178301598e-05,-1.8562503479056928e-05,6.1333,6.2
2.796875,-2.7349630579079812e-05,-2.0025669878690704e-05,-6.353192744335018e-06,-1.1726264911879084e-05,6.1333,6.2
2.80078125,-3.906309047837027e-05,-3.222685191119243e-05,3.9052294575418494e-06,-1.5140319844357904e-05,6.1333,6.2
2.8046875,-4.541160691233685e-05,-3.0275963378347383e-05,-3.418731242847258e-06,-2.246428054474701e-05,6.1333,6.2
2.80859375,-4.5899329045548115e-05,-3.5161313412680185e-05,-3.173912977798116e-05,-2.197655841153575e-05,6.1333,6.2
2.8125,-4.49238847791256e-05,-3.61367576791027e-05,-3.0275963378347383e-05,-2.2952002677958275e-05,6.1333,6.2
2.81640625,-4.4436162645914335e-05,-2.832507484550234e-05,-2.7837352712291077e-05,-2.6374186312657287e-05,6.1333,6.2
2.8203125,-4.688290201419083e-05,-3.5649035545891436e-05,-3.076368551155865e-05,-2.2952002677958275e-05,6.1333,6.2
2.82421875,-4.932151268024714e-05,-3.759992407873649e-05,-2.4902891210803316e-05,-2.4902891210803316e-05,6.1333,6.2
2.828125,-4.883379054703587e-05,-3.321042487983513e-05,-1.7578930510414208e-05,-2.4902891210803316e-05,6.1333,6.2
2.83203125,-5.3711011879148484e-05,-3.6624479812313965e-05,-1.8562503479056928e-05,-2.7837352712291077e-05,6.1333,6.2
2.8359375,-5.322328974593722e-05,-3.222685191119243e-05,-1.7091208377202947e-05,-3.6624479812313965e-05,6.1333,6.2
2.83984375,-4.49238847791256e-05,-2.6374186312657287e-05,-5.865470611123754e-06,-3.272270274662388e-05,6.1333,6.2
2.84375,-4.199755197985803e-05,-3.321042487983513e-05,-4.3460718379491805e-05,-3.222685191119243e-05,6.1333,6.2
2.84765625,-4.3460718379491805e-05,-3.808764621194774e-05,-5.127240121309218e-05,-3.8575368345159e-05,6.1333,6.2
2.8515625,-4.883379054703587e-05,-4.0046663447012974e-05,-3.222685191119243e-05,-3.759992407873649e-05,6.1333,6.2
2.85546875,-5.127240121309218e-05,-3.8575368345159e-05,-3.222685191119243e-05,-3.711220194552523e-05,6.1333,6.2
2.859375,-4.49238847791256e-05,-3.5649035545891436e-05,-3.759992407873649e-05,-3.759992407873649e-05,6.1333,6.2
2.86328125,-4.3460718379491805e-05,-4.2485274113069276e-05,-3.955081261158153e-05,-3.61367576791027e-05,6.1333,6.2
2.8671875,-4.541160691233685e-05,-3.467359127946892e-05,-4.10221077134355e-05,-3.759992407873649e-05,6.1333,6.2
2.87109375,-4.199755197985803e-05,-3.759992407873649e-05,-3.906309047837027e-05,-3.906309047837027e-05,6.1333,6.2
2.875,-3.8575368345159e-05,-3.8575368345159e-05,-2.5886464179446036e-05,-3.6624479812313965e-05,6.1333,6.2
2.87890625,-3.61367576791027e-05,-2.832507484550234e-05,-2.2952002677958275e-05,-2.4902891210803316e-05,6.1333,6.2
2.8828125,-3.808764621194774e-05,-3.076368551155865e-05,-2.5886464179446036e-05,-2.4902891210803316e-05,6.1333,6.2
2.88671875,-4.199755197985803e-05,-3.173912977798116e-05,-3.076368551155865e-05,-3.0275963378347383e-05,6.1333,6.2
2.890625,-4.10221077134355e-05,-3.711220194552523e-05,-2.9788241245136118e-05,-3.12514076447699e-05,6.1333,6.2
2.89453125,-4.0046663447012974e-05,-3.61367576791027e-05,-3.173912977798116e-05,-3.12514076447699e-05,6.1333,6.2
2.8984375,-3.8575368345159e-05,-3.4185869146257656e-05,-3.272270274662388e-05,-2.441516907759205e-05,6.1333,6.2
2.90234375,-3.906309047837027e-05,-2.9300519111924854e-05,-3.0275963378347383e-05,-2.197655841153575e-05,6.1333,6.2
2.90625,-4.3460718379491805e-05,-3.467359127946892e-05,-4.737062414740208e-05,-2.4902891210803316e-05,6.1333,6.2
2.91015625,-4.541160691233685e-05,-4.199755197985803e-05,-4.0046663447012974e-05,-2.4902891210803316e-05,6.1333,6.2
2.9140625,-4.4436162645914335e-05,-3.321042487983513e-05,-3.4185869146257656e-05,-2.9300519111924854e-05,6.1333,6.2
2.91796875,-4.688290201419083e-05,-3.173912977798116e-05,-4.638705117875938e-05,-3.369814701304639e-05,6.1333,6.2
2.921875,-4.10221077134355e-05,-3.5649035545891436e-05,-5.4206862714579926e-05,-3.61367576791027e-05,6.1333,6.2
2.92578125,-4.3460718379491805e-05,-4.394844051270307e-05,-6.104310128175778e-05,-3.61367576791027e-05,6.1333,6.2
2.9296875,-4.688290201419083e-05,-4.785834628061334e-05,-5.224784547951469e-05,-3.222685191119243e-05,6.1333,6.2
2.93359375,-4.0046663447012974e-05,-3.955081261158153e-05,-3.4185869146257656e-05,-2.7837352712291077e-05,6.1333,6.2
2.9375,-4.49238847791256e-05,-3.4185869146257656e-05,-2.7349630579079812e-05,-2.3927446944380804e-05,6.1333,6.2
2.94140625,-5.176012334630344e-05,-3.808764621194774e-05,-3.467359127946892e-05,-2.3927446944380804e-05,6.1333,6.2
2.9453125,-4.150982984664677e-05,-3.321042487983513e-05,-5.322328974593722e-05,-3.0275963378347383e-05,6.1333,6.2
2.94921875,-3.808764621194774e-05,-3.5161313412680185e-05,-3.808764621194774e-05,-3.5649035545891436e-05,6.1333,6.2
2.953125,-4.297299624628054e-05,-4.2485274113069276e-05,-4.4436162645914335e-05,-3.272270274662388e-05,6.1333,6.2
2.95703125,-4.297299624628054e-05,-2.6374186312657287e-05,-4.834606841382461e-05,-2.9788241245136118e-05,6.1333,6.2
2.9609375,-4.49238847791256e-05,-3.272270274662388e-05,-4.10221077134355e-05,-2.8812796978713593e-05,6.1333,6.2
2.96484375,-4.834606841382461e-05,-4.834606841382461e-05,-4.834606841382461e-05,-2.9300519111924854e-05,6.1333,6.2
2.96875,-4.638705117875938e-05,-4.053438558022424e-05,-4.688290201419083e-05,-3.5161313412680185e-05,6.1333,6.2
2.97265625,-4.980923481345839e-05,-4.932151268024714e-05,-6.054725044632633e-05,-3.808764621194774e-05,6.1333,6.2
2.9765625,-5.762091764705876e-05,-4.737062414740208e-05,-4.150982984664677e-05,-3.5161313412680185e-05,6.1333,6.2
2.98046875,-5.127240121309218e-05,-1.905022561226818e-05,-7.328637010757546e-06,-3.222685191119243e-05,6.1333,6.2
2.984375,-4.3460718379491805e-05,-3.6624479812313965e-05,-3.955081261158153e-05,-2.6374186312657287e-05,6.1333,6.2
2.98828125,-4.541160691233685e-05,-7.81296333485923e-05,-7.08056726482032e-05,-2.246428054474701e-05,6.1333,6.2
2.9921875,-4.5899329045548115e-05,-0.00010058923758297087,-0.00010302784824902719,-2.3927446944380804e-05,6.1333,6.2
2.99609375,-5.029695694666965e-05,-0.00010498686548409242,-0.00012012250901808188,-2.343972481116954e-05,6.1333,6.2
3.0,-5.127240121309218e-05,-0.00010791319828335997,-0.00011133538191805899,-2.2952002677958275e-05,6.1333,6.2
3.00390625,-5.2735567612725955e-05,-0.00012548745248340575,-0.00013182784021515214,-2.8812796978713593e-05,6.1333,6.2
3.0078125,-5.322328974593722e-05,-0.0001289015074158846,-0.00013720091238269622,-3.4185869146257656e-05,6.1333,6.2
3.01171875,-5.078467907988092e-05,-0.0001362254681162737,-0.00014892250098420685,-3.906309047837027e-05,6.1333,6.2
3.015625,-5.469458484779119e-05,-0.00014013537388418397,-0.00016747219945067516,-4.199755197985803e-05,6.1333,6.2
3.01953125,-5.713319551384749e-05,-0.0001362254681162737,-0.00015136111165026318,-4.834606841382461e-05,6.1333,6.2
3.0234375,-5.810863978027002e-05,-0.00011572488111696034,-0.0001298769516823071,-4.541160691233685e-05,6.1333,6.2
3.02734375,-5.810863978027002e-05,-8.985122195010294e-05,-0.00011035180894941628,-3.8575368345159e-05,6.1333,6.2
3.03125,-5.2735567612725955e-05,-9.472844328221555e-05,-9.27775547493705e-05,-3.5649035545891436e-05,6.1333,6.2
3.03515625,-5.078467907988092e-05,-9.619160968184933e-05,-9.082666621652547e-05,-3.467359127946892e-05,6.1333,6.2
3.0390625,-5.4206862714579926e-05,-8.399042764934762e-05,-9.228983261615924e-05,-4.0046663447012974e-05,6.1333,6.2
3.04296875,-5.762091764705876e-05,-8.105596614785987e-05,-7.764191121538103e-05,-4.3460718379491805e-05,6.1333,6.2
3.046875,-5.615775124742498e-05,-8.54535940489814e-05,-8.78922047150377e-05,-4.150982984664677e-05,6.1333,6.2
3.05078125,-5.322328974593722e-05,-7.861735548180355e-05,-8.594131618219266e-05,-4.053438558022424e-05,6.1333,6.2
3.0546875,-5.4206862714579926e-05,-6.543260048065911e-05,-7.470744971389328e-05,-4.49238847791256e-05,6.1333,6.2
3.05859375,-5.810863978027002e-05,-5.810863978027002e-05,-8.54535940489814e-05,-4.4436162645914335e-05,6.1333,6.2
3.0625,-6.0059528313115066e-05,-6.543260048065911e-05,-8.008052188143734e-05,-4.0046663447012974e-05,6.1333,6.2
3.06640625,-5.664547338063623e-05,-6.983022838178066e-05,-7.324428331425948e-05,-3.955081261158153e-05,6.1333,6.2
3.0703125,-5.176012334630344e-05,-5.078467907988092e-05,-6.250626768139157e-05,-3.711220194552523e-05,6.1333,6.2
3.07421875,-4.980923481345839e-05,-4.297299624628054e-05,-4.5899329045548115e-05,-3.5649035545891436e-05,6.1333,6.2
3.078125,-5.2735567612725955e-05,-5.176012334630344e-05,-4.688290201419083e-05,-3.5161313412680185e-05,6.1333,6.2
3.08203125,-4.737062414740208e-05,-5.615775124742498e-05,-4.49238847791256e-05,-2.7349630579079812e-05,6.1333,6.2
3.0859375,-4.4436162645914335e-05,-6.20185455481803e-05,-4.980923481345839e-05,-2.7837352712291077e-05,6.1333,6.2
3.08984375,-4.737062414740208e-05,-5.762091764705876e-05,-7.373200544747075e-05,-3.4185869146257656e-05,6.1333,6.2
3.09375,-4.541160691233685e-05,-4.834606841382461e-05,-6.689576688029291e-05,-3.5649035545891436e-05,6.1333,6.2
3.09765625,-4.2485274113069276e-05,-4.394844051270307e-05,-5.3711011879148484e-05,-3.321042487983513e-05,6.1333,6.2
3.1015625,-4.49238847791256e-05,-3.467359127946892e-05,-3.955081261158153e-05,-2.5886464179446036e-05,6.1333,6.2
3.10546875,-5.567002911421372e-05,-3.4185869146257656e-05,-4.785834628061334e-05,-2.8812796978713593e-05,6.1333,6.2
3.109375,-6.153082341496904e-05,-3.759992407873649e-05,-5.029695694666965e-05,-3.076368551155865e-05,6.1333,6.2
3.11328125,-5.957180617990381e-05,-4.394844051270307e-05,-3.4185869146257656e-05,-2.343972481116954e-05,6.1333,6.2
3.1171875,-5.224784547951469e-05,-3.8575368345159e-05,-3.173912977798116e-05,-1.7578930510414208e-05,6.1333,6.2
3.12109375,-4.932151268024714e-05,-3.5161313412680185e-05,-2.441516907759205e-05,-1.2701709178301598e-05,6.1333,6.2
3.125,-4.541160691233685e-05,-4.2485274113069276e-05,-2.5886464179446036e-05,-1.2701709178301598e-05,6.1333,6.2
3.12890625,-3.8575368345159e-05,-2.5886464179446036e-05,-3.4185869146257656e-05,-7.816359143968796e-06,6.1333,6.2
3.1328125,-4.883379054703587e-05,-3.0275963378347383e-05,-5.5182306981002455e-05,-4.89002634470124e-06,6.1333,6.2
3.13671875,-6.543260048065911e-05,-6.104310128175778e-05,-7.324428331425948e-05,-4.89002634470124e-06,6.1333,6.2
3.140625,-7.373200544747075e-05,-8.496587191577015e-05,-7.959279974822606e-05,-6.353192744335018e-06,6.1333,6.2
3.14453125,-7.520330054932472e-05,-8.691676044861518e-05,-9.03389440833142e-05,-4.676310368438407e-09,6.1333,6.2
3.1484375,-6.640804474708164e-05,-8.350270551613636e-05,-8.399042764934762e-05,1.7577706591897536e-05,6.1333,6.2
3.15234375,-6.44571562142366e-05,-9.815062691691457e-05,-8.447814978255889e-05,2.8315722224765465e-05,6.1333,6.2
3.15625,-8.496587191577015e-05,-0.0001289015074158846,-9.03389440833142e-05,3.2225627992675755e-05,6.1333,6.2
3.16015625,-9.180211048294799e-05,-0.0001264628967498283,-8.691676044861518e-05,4.4914532158388736e-05,6.1333,6.2
3.1640625,-7.569102268253599e-05,-0.00012352843524834052,-0.00010401142121766989,4.296364362554368e-05,6.1333,6.2
3.16796875,-5.4206862714579926e-05,-0.00016014823875028605,-0.00014013537388418397,3.9061866559853596e-05,6.1333,6.2
3.171875,-4.688290201419083e-05,-0.0001889644881208514,-0.0001791937880521858,4.833671579308773e-05,6.1333,6.2
3.17578125,-4.394844051270307e-05,-0.00018212824955367359,-0.0001914030987869077,5.809928715953316e-05,6.1333,6.2
3.1796875,-2.6861908445868548e-05,-0.0001816323987182421,-0.0001943294315861753,6.396008146028847e-05,6.1333,6.2
3.18359375,-6.353192744335018e-06,-0.00018407913808651862,-0.00021435042515449752,5.5660676493476836e-05,6.1333,6.2
3.1875,8.782450789654462e-06,-0.0002026288365529869,-0.00024120765728999767,4.442681002517747e-05,6.1333,6.2
3.19140625,1.3180078690775984e-05,-0.00022655973588921944,-0.0002387690466239414,4.736127152666523e-05,6.1333,6.2
3.1953125,1.5618689356832304e-05,-0.00021386270302128628,-0.0002197234973220416,4.5402254291599974e-05,6.1333,6.2
3.19921875,2.929116649118799e-05,-0.0002104486480888075,-0.00023632230725566489,4.2475921492332414e-05,6.1333,6.2
3.203125,3.857414442664233e-05,-0.000209952797253376,-0.00023729775152208737,4.0037310826276125e-05,6.1333,6.2
3.20703125,4.393908789196621e-05,-0.00021678903582055385,-0.0002446217122224765,3.66151271915771e-05,6.1333,6.2
3.2109375,5.4685232227054314e-05,-0.00023290825232318604,-0.0002646427057907988,3.417651652552078e-05,6.1333,6.2
3.21484375,7.079632002746632e-05,-0.00020946507512016474,-0.00023827319578850992,3.124205502403305e-05,6.1333,6.2
3.21875,8.203018649576572e-05,-0.0002065387423208972,-0.000247068451590753,3.9061866559853596e-05,6.1333,6.2
3.22265625,8.739512996108959e-05,-0.00019970250375371933,-0.00024218310155642018,2.7340277958342936e-05,6.1333,6.2
3.2265625,8.984186932936606e-05,-0.00018993993238727391,-0.00023583458512245361,1.7081855756466098e-05,6.1333,6.2
3.23046875,8.788285209430082e-05,-0.00019921478162050808,-0.0002578064672236209,2.2454927924010147e-05,6.1333,6.2
3.234375,9.179275786221112e-05,-0.00017333299375143048,-0.00021678903582055385,9.270172922865725e-06,6.1333,6.2
3.23828125,9.911671856260023e-05,-0.00015917279448386353,-0.00021826033092240782,1.4584900892653536e-06,6.1333,6.2
3.2421875,9.619038576333267e-05,-0.00015917279448386353,-0.0002534169680247196,2.9216564888991314e-06,6.1333,6.2
3.24609375,9.276820212863364e-05,-0.00013427457958342865,-0.00022216210798809793,-6.353192744335018e-06,6.1333,6.2
3.25,9.374364639505617e-05,-0.00013281141318379484,-0.00022069894158846415,-1.3677153444724125e-05,6.1333,6.2
3.25390625,8.544424142824453e-05,-0.0001210979532845044,-0.00019970250375371933,-1.9537947745479443e-05,6.1333,6.2
3.2578125,8.398107502861075e-05,-0.00011231082618448152,-0.00018945221025406264,-2.7349630579079812e-05,6.1333,6.2
3.26171875,8.104661352712298e-05,-0.00011817162048523684,-0.0001914030987869077,-4.150982984664677e-05,6.1333,6.2
3.265625,7.665711432822163e-05,-8.64290383154039e-05,-0.0001469716124513618,-4.785834628061334e-05,6.1333,6.2
3.26953125,7.421850366216535e-05,-9.472844328221555e-05,-0.00015233655591668566,-4.394844051270307e-05,6.1333,6.2
3.2734375,6.347235932707721e-05,-9.424072114900429e-05,-0.00015380785101853968,-5.2735567612725955e-05,6.1333,6.2
3.27734375,5.517295436026558e-05,-6.104310128175778e-05,-0.00011718804751659414,-6.44571562142366e-05,6.1333,6.2
3.28125,4.736127152666523e-05,-6.885478411535814e-05,-0.00012597517461661702,-6.885478411535814e-05,6.1333,6.2
3.28515625,4.638582726024271e-05,-5.615775124742498e-05,-0.0001210979532845044,-7.226883904783698e-05,6.1333,6.2
3.2890625,4.784899365987647e-05,-2.8812796978713593e-05,-9.03389440833142e-05,-8.252726124971383e-05,6.1333,6.2
3.29296875,4.198819935912115e-05,-3.173912977798116e-05,-8.399042764934762e-05,-8.935537111467149e-05,6.1333,6.2
3.296875,3.612740505836584e-05,-1.0742691943236366e-05,-6.592032261387038e-05,-9.180211048294799e-05,6.1333,6.2
3.30078125,4.150047722590989e-05,4.830458228428256e-07,-4.785834628061334e-05,-8.985122195010294e-05,6.1333,6.2
3.3046875,4.345136575875494e-05,-9.767247676813852e-06,-4.541160691233685e-05,-9.180211048294799e-05,6.1333,6.2
3.30859375,3.4664238658732044e-05,2.0016317257953828e-05,-3.8575368345159e-05,-9.472844328221555e-05,6.1333,6.2
3.3125,2.78280000915542e-05,1.80654287251088e-05,-3.4185869146257656e-05,-9.961379331654835e-05,6.1333,6.2
3.31640625,2.4901667292286644e-05,6.343840123598155e-06,-1.8562503479056928e-05,-0.00010254012611581591,6.1333,6.2
3.3203125,1.80654287251088e-05,2.5877111558709173e-05,-2.051339201190197e-05,-9.570388754863807e-05,6.1333,6.2
3.32421875,1.5618689356832304e-05,7.807006523231933e-06,-3.272270274662388e-05,-8.691676044861518e-05,6.1333,6.2
3.328125,1.025374589150843e-05,-9.801205767909522e-07,-2.246428054474701e-05,-9.082666621652547e-05,6.1333,6.2
3.33203125,1.4584900892653536e-06,1.904087299153133e-05,-9.279525543602588e-06,-9.180211048294799e-05,6.1333,6.2
3.3359375,8.294728656443197e-06,1.9528595124742563e-05,-6.353192744335018e-06,-7.910507761501482e-05,6.1333,6.2
3.33984375,3.4175073243305857e-06,2.3430372190432677e-05,-3.9064533760585216e-06,-8.203141041428238e-05,6.1333,6.2
3.34375,-1.3189431311512862e-05,3.320107225909828e-05,1.4584900892653536e-06,-8.886764898146023e-05,6.1333,6.2
3.34765625,-2.197655841153575e-05,2.6364833691920438e-05,2.9778888624399256e-05,-8.447814978255889e-05,6.1333,6.2
3.3515625,-2.197655841153575e-05,2.7340277958342936e-05,2.2454927924010147e-05,-7.81296333485923e-05,6.1333,6.2
3.35546875,-2.539061334401458e-05,4.5402254291599974e-05,2.2454927924010147e-05,-7.569102268253599e-05,6.1333,6.2
3.359375,-3.0275963378347383e-05,5.273434369420928e-05,5.322206582742055e-05,-7.324428331425948e-05,6.1333,6.2
3.36328125,-2.7349630579079812e-05,3.857414442664233e-05,3.4664238658732044e-05,-7.421972758068201e-05,6.1333,6.2
3.3671875,-3.321042487983513e-05,3.9061866559853596e-05,2.7340277958342936e-05,-7.324428331425948e-05,6.1333,6.2
3.37109375,-3.5649035545891436e-05,4.736127152666523e-05,4.198819935912115e-05,-7.129339478141445e-05,6.1333,6.2
3.375,-3.12514076447699e-05,4.296364362554368e-05,4.687354939345397e-05,-7.373200544747075e-05,6.1333,6.2
3.37890625,-3.6624479812313965e-05,4.296364362554368e-05,5.907473142595569e-05,-7.421972758068201e-05,6.1333,6.2
3.3828125,-4.150982984664677e-05,4.5402254291599974e-05,4.589810512703144e-05,-7.275656118104822e-05,6.1333,6.2
3.38671875,-4.297299624628054e-05,5.175077072556658e-05,2.391809432364394e-05,-7.178111691462571e-05,6.1333,6.2
3.390625,-4.737062414740208e-05,5.7611565026321894e-05,2.929116649118799e-05,-7.275656118104822e-05,6.1333,6.2
3.39453125,-4.688290201419083e-05,4.736127152666523e-05,3.66151271915771e-05,-6.983022838178066e-05,6.1333,6.2
3.3984375,-4.638705117875938e-05,4.5402254291599974e-05,4.5402254291599974e-05,-6.396943408102534e-05,6.1333,6.2
3.40234375,-5.029695694666965e-05,4.5402254291599974e-05,5.028760432593279e-05,-6.396943408102534e-05,6.1333,6.2
3.40625,-5.078467907988092e-05,3.857414442664233e-05,5.907473142595569e-05,-6.543260048065911e-05,6.1333,6.2
3.41015625,-4.688290201419083e-05,3.807829359121089e-05,6.054602652780966e-05,-6.44571562142366e-05,6.1333,6.2
3.4140625,-4.688290201419083e-05,3.66151271915771e-05,2.2942650057221412e-05,-6.250626768139157e-05,6.1333,6.2
3.41796875,-4.5899329045548115e-05,3.173790585946449e-05,1.4155522957198514e-05,-6.153082341496904e-05,6.1333,6.2
3.421875,-4.49238847791256e-05,3.5639682925154573e-05,3.4664238658732044e-05,-5.957180617990381e-05,6.1333,6.2
3.42578125,-4.883379054703587e-05,3.9061866559853596e-05,2.2454927924010147e-05,-5.762091764705876e-05,6.1333,6.2
3.4296875,-4.638705117875938e-05,3.4664238658732044e-05,1.7577706591897536e-05,-5.615775124742498e-05,6.1333,6.2
3.43359375,-4.3460718379491805e-05,3.0754332890821785e-05,1.904087299153133e-05,-5.615775124742498e-05,6.1333,6.2
3.4375,-4.737062414740208e-05,3.9061866559853596e-05,2.391809432364394e-05,-5.224784547951469e-05,6.1333,6.2
3.44140625,-4.785834628061334e-05,4.150047722590989e-05,2.685255582513167e-05,-5.615775124742498e-05,6.1333,6.2
3.4453125,-4.49238847791256e-05,2.538938942549791e-05,1.8553150858320065e-05,-5.810863978027002e-05,6.1333,6.2
3.44921875,-4.4436162645914335e-05,2.538938942549791e-05,2.4901667292286644e-05,-5.5182306981002455e-05,6.1333,6.2
3.453125,-4.5899329045548115e-05,2.880344435797673e-05,3.710284932478837e-05,-5.713319551384749e-05,6.1333,6.2
3.45703125,-4.2485274113069276e-05,2.2454927924010147e-05,3.7590571457999625e-05,-5.3711011879148484e-05,6.1333,6.2
3.4609375,-3.808764621194774e-05,2.6364833691920438e-05,3.857414442664233e-05,-5.127240121309218e-05,6.1333,6.2
3.46484375,-3.808764621194774e-05,2.685255582513167e-05,1.9528595124742563e-05,-5.5182306981002455e-05,6.1333,6.2
3.46875,-3.6624479812313965e-05,2.78280000915542e-05,1.5618689356832304e-05,-5.2735567612725955e-05,6.1333,6.2
3.47265625,-3.369814701304639e-05,2.0504039391165093e-05,3.124205502403305e-05,-5.2735567612725955e-05,6.1333,6.2
3.4765625,-3.222685191119243e-05,8.782450789654462e-06,1.6594133623254833e-05,-5.615775124742498e-05,6.1333,6.2
3.48046875,-3.222685191119243e-05,2.4339343556878673e-06,9.707679560540895e-07,-4.980923481345839e-05,6.1333,6.2
3.484375,-3.12514076447699e-05,5.368395857175628e-06,1.4155522957198514e-05,-4.5899329045548115e-05,6.1333,6.2
3.48828125,-3.6624479812313965e-05,3.4175073243305857e-06,1.8553150858320065e-05,-4.297299624628054e-05,6.1333,6.2
3.4921875,-4.2485274113069276e-05,-1.9555648432134803e-06,2.9216564888991314e-06,-4.883379054703587e-05,6.1333,6.2
3.49609375,-4.10221077134355e-05,9.707679560540895e-07,3.9052294575418494e-06,-5.5182306981002455e-05,6.1333,6.2
3.5,-3.61367576791027e-05,-4.923984435796882e-07,1.1716912291142221e-05,-5.4206862714579926e-05,6.1333,6.2
3.50390625,-3.61367576791027e-05,-4.676310368438407e-09,1.1716912291142221e-05,-5.615775124742498e-05,6.1333,6.2
3.5078125,-3.955081261158153e-05,1.9462122224766176e-06,4.830458228428256e-07,-5.322328974593722e-05,6.1333,6.2
3.51171875,-3.4185869146257656e-05,8.782450789654462e-06,-9.279525543602588e-06,-5.078467907988092e-05,6.1333,6.2
3.515625,-3.272270274662388e-05,9.75789505607699e-06,-1.3189431311512862e-05,-4.834606841382461e-05,6.1333,6.2
3.51953125,-3.759992407873649e-05,-1.2701709178301598e-05,-9.279525543602588e-06,-4.3460718379491805e-05,6.1333,6.2
3.5234375,-4.0046663447012974e-05,-1.7091208377202947e-05,-3.9064533760585216e-06,-4.49238847791256e-05,6.1333,6.2
3.52734375,-3.808764621194774e-05,-1.1230414076447629e-05,-9.279525543602588e-06,-4.5899329045548115e-05,6.1333,6.2
3.53125,-3.8575368345159e-05,-1.6603486243991696e-05,-1.3677153444724125e-05,-4.3460718379491805e-05,6.1333,6.2
3.53515625,-3.8575368345159e-05,-1.905022561226818e-05,1.9462122224766176e-06,-4.150982984664677e-05,6.1333,6.2
3.5390625,-3.8575368345159e-05,-2.051339201190197e-05,4.880673723964363e-06,-3.906309047837027e-05,6.1333,6.2
3.54296875,-3.222685191119243e-05,-1.7578930510414208e-05,-1.3189431311512862e-05,-3.321042487983513e-05,6.1333,6.2
3.546875,-2.4902891210803316e-05,-1.0742691943236366e-05,-7.816359143968796e-06,-2.6861908445868548e-05,6.1333,6.2
3.55078125,-1.465259771114664e-05,-1.8066652643625472e-05,-9.767247676813852e-06,-1.8066652643625472e-05,6.1333,6.2
3.5546875,-9.801205767909522e-07,-1.5140319844357904e-05,-9.279525543602588e-06,-8.30408127718006e-06,6.1333,6.2
3.55859375,-2.0025669878690704e-05,-4.10221077134355e-05,-4.10221077134355e-05,-2.343972481116954e-05,6.1333,6.2
3.5625,-2.6861908445868548e-05,-7.666646694895852e-05,-8.252726124971383e-05,-2.0025669878690704e-05,6.1333,6.2
3.56640625,-1.2213987045090333e-05,-9.815062691691457e-05,-0.00011231082618448152,3.4175073243305857e-06,6.1333,6.2
3.5703125,-5.3777484779124906e-06,-0.0001298769516823071,-0.00014013537388418397,1.80654287251088e-05,6.1333,6.2
3.57421875,-1.4678427100022161e-06,-0.00015770962808422974,-0.00015966051661707478,3.7590571457999625e-05,6.1333,6.2
3.578125,-4.676310368438407e-09,-0.00019237854305333024,-0.00018700547088578616,5.517295436026558e-05,6.1333,6.2
3.58203125,4.880673723964363e-06,-0.00022851062442206448,-0.00021435042515449752,7.128404216067758e-05,6.1333,6.2
3.5859375,2.4339343556878673e-06,-0.0002534169680247196,-0.00024169537942320894,8.4468797161822e-05,6.1333,6.2
3.58984375,4.830458228428256e-07,-0.0002646427057907988,-0.000263179539391165,9.471909066147868e-05,6.1333,6.2
3.59375,8.782450789654462e-06,-0.0002700157779583428,-0.0002749011279926756,9.081731359578859e-05,6.1333,6.2
3.59765625,8.294728656443197e-06,-0.0002661058721904326,-0.0002788029050583657,8.690740782787832e-05,6.1333,6.2
3.6015625,3.4175073243305857e-06,-0.00025390469015793086,-0.0002661058721904326,8.690740782787832e-05,6.1333,6.2
3.60546875,1.1229190157930958e-05,-0.0002319328080567635,-0.0002529292458915083,7.665711432822163e-05,6.1333,6.2
3.609375,1.7577706591897536e-05,-0.00021532586942092007,-0.00024364626795605397,6.98208757610438e-05,6.1333,6.2
3.61328125,1.1229190157930958e-05,-0.00021093637022201873,-0.0002172848866559853,6.200919292744343e-05,6.1333,6.2
3.6171875,2.9216564888991314e-06,-0.00018945221025406264,-0.00019726389308766303,6.152147079423215e-05,6.1333,6.2
3.62109375,-1.9555648432134803e-06,-0.00017138210521858545,-0.0001791937880521858,5.61483986266881e-05,6.1333,6.2
3.625,-9.801205767909522e-07,-0.00016210725598535128,-0.00016259497811856255,3.66151271915771e-05,6.1333,6.2
3.62890625,-4.89002634470124e-06,-0.0001381763566491187,-0.0001533201288853284,2.1967205790798886e-05,6.1333,6.2
3.6328125,-7.816359143968796e-06,-0.00011182310405127026,-0.00012499973035019448,8.294728656443197e-06,6.1333,6.2
3.63671875,-7.328637010757546e-06,-9.570388754863807e-05,-8.64290383154039e-05,7.319284390020669e-06,6.1333,6.2
3.640625,-1.1230414076447629e-05,-7.275656118104822e-05,-7.031795051499194e-05,6.343840123598155e-06,6.1333,6.2
3.64453125,-1.2701709178301598e-05,-4.737062414740208e-05,-6.054725044632633e-05,-1.2213987045090333e-05,6.1333,6.2
3.6484375,-1.7091208377202947e-05,-5.078467907988092e-05,-6.396943408102534e-05,-2.051339201190197e-05,6.1333,6.2
3.65234375,-2.441516907759205e-05,-4.394844051270307e-05,-5.224784547951469e-05,-2.5886464179446036e-05,6.1333,6.2
3.65625,-2.5886464179446036e-05,-1.5140319844357904e-05,-2.4902891210803316e-05,-4.0046663447012974e-05,6.1333,6.2
3.66015625,-2.9300519111924854e-05,-4.676310368438407e-09,-2.9310091096359937e-06,-4.883379054703587e-05,6.1333,6.2
3.6640625,-3.222685191119243e-05,1.4643245090409776e-05,2.538938942549791e-05,-4.4436162645914335e-05,6.1333,6.2
3.66796875,-3.61367576791027e-05,2.2942650057221412e-05,4.052503295948736e-05,-4.5899329045548115e-05,6.1333,6.2
3.671875,-4.3460718379491805e-05,1.2692356557564722e-05,3.124205502403305e-05,-5.176012334630344e-05,6.1333,6.2
3.67578125,-4.688290201419083e-05,1.2692356557564722e-05,2.1479483657587622e-05,-5.762091764705876e-05,6.1333,6.2
3.6796875,-4.785834628061334e-05,2.7340277958342936e-05,2.4413945159075383e-05,-6.543260048065911e-05,6.1333,6.2
3.68359375,-5.029695694666965e-05,3.5639682925154573e-05,3.0754332890821785e-05,-6.250626768139157e-05,6.1333,6.2
3.6875,-5.664547338063623e-05,3.857414442664233e-05,3.710284932478837e-05,-6.543260048065911e-05,6.1333,6.2
3.69140625,-5.713319551384749e-05,3.807829359121089e-05,3.417651652552078e-05,-7.764191121538103e-05,6.1333,6.2
3.6953125,-5.224784547951469e-05,4.296364362554368e-05,4.9799882192721525e-05,-7.715418908216978e-05,6.1333,6.2
3.69921875,-5.322328974593722e-05,4.784899365987647e-05,5.4685232227054314e-05,-7.373200544747075e-05,6.1333,6.2
3.703125,-5.4206862714579926e-05,4.198819935912115e-05,4.589810512703144e-05,-7.470744971389328e-05,6.1333,6.2
3.70703125,-6.104310128175778e-05,3.710284932478837e-05,5.175077072556658e-05,-8.05682440146486e-05,6.1333,6.2
3.7109375,-5.762091764705876e-05,4.2475921492332414e-05,6.200919292744343e-05,-8.301498338292509e-05,6.1333,6.2
3.71484375,-5.3711011879148484e-05,4.736127152666523e-05,4.393908789196621e-05,-7.910507761501482e-05,6.1333,6.2
3.71875,-5.5182306981002455e-05,5.6636120759899365e-05,3.954958869306486e-05,-7.910507761501482e-05,6.1333,6.2
3.72265625,-5.810863978027002e-05,6.73822650949875e-05,5.028760432593279e-05,-7.764191121538103e-05,6.1333,6.2
3.7265625,-6.0059528313115066e-05,6.98208757610438e-05,4.4914532158388736e-05,-8.008052188143734e-05,6.1333,6.2
3.73046875,-5.810863978027002e-05,6.542324785992227e-05,4.687354939345397e-05,-8.399042764934762e-05,6.1333,6.2
3.734375,-5.713319551384749e-05,6.884543149462127e-05,5.126304859235532e-05,-8.05682440146486e-05,6.1333,6.2
3.73828125,-5.957180617990381e-05,6.884543149462127e-05,4.9799882192721525e-05,-7.81296333485923e-05,6.1333,6.2
3.7421875,-5.957180617990381e-05,3.0754332890821785e-05,4.589810512703144e-05,-7.275656118104822e-05,6.1333,6.2
3.74609375,-5.957180617990381e-05,1.1716912291142221e-05,5.6636120759899365e-05,-6.983022838178066e-05,6.1333,6.2
3.75,-5.713319551384749e-05,1.80654287251088e-05,3.9061866559853596e-05,-6.787121114671543e-05,6.1333,6.2
3.75390625,-4.932151268024714e-05,1.3667800823987249e-05,2.2942650057221412e-05,-6.983022838178066e-05,6.1333,6.2
3.7578125,-4.688290201419083e-05,1.4155522957198514e-05,2.78280000915542e-05,-7.569102268253599e-05,6.1333,6.2
3.76171875,-4.688290201419083e-05,2.391809432364394e-05,2.929116649118799e-05,-7.275656118104822e-05,6.1333,6.2
3.765625,-4.737062414740208e-05,2.6364833691920438e-05,4.393908789196621e-05,-7.031795051499194e-05,6.1333,6.2
3.76953125,-4.688290201419083e-05,1.5130967223621041e-05,3.173790585946449e-05,-7.666646694895852e-05,6.1333,6.2
3.7734375,-4.2485274113069276e-05,9.270172922865725e-06,7.807006523231933e-06,-7.861735548180355e-05,6.1333,6.2
3.77734375,-4.2485274113069276e-05,1.9528595124742563e-05,1.4643245090409776e-05,-7.031795051499194e-05,6.1333,6.2
3.78125,-4.4436162645914335e-05,2.4901667292286644e-05,1.2204634424353486e-05,-7.08056726482032e-05,6.1333,6.2
3.78515625,-4.150982984664677e-05,2.9778888624399256e-05,1.8553150858320065e-05,-6.592032261387038e-05,6.1333,6.2
3.7890625,-3.5649035545891436e-05,2.4901667292286644e-05,2.4901667292286644e-05,-6.0059528313115066e-05,6.1333,6.2
3.79296875,-2.9788241245136118e-05,1.904087299153133e-05,1.2204634424353486e-05,-6.250626768139157e-05,6.1333,6.2
3.796875,-3.222685191119243e-05,2.2942650057221412e-05,3.320107225909828e-05,-5.957180617990381e-05,6.1333,6.2
3.80078125,-3.61367576791027e-05,2.1479483657587622e-05,3.4664238658732044e-05,-5.9084084046692544e-05,6.1333,6.2
3.8046875,-3.906309047837027e-05,1.2692356557564722e-05,7.319284390020669e-06,-6.054725044632633e-05,6.1333,6.2
3.80859375,-3.808764621194774e-05,1.5130967223621041e-05,1.904087299153133e-05,-5.5182306981002455e-05,6.1333,6.2
3.8125,-3.711220194552523e-05,1.7577706591897536e-05,2.2454927924010147e-05,-5.762091764705876e-05,6.1333,6.2
3.81640625,-3.808764621194774e-05,9.270172922865725e-06,-1.9555648432134803e-06,-6.689576688029291e-05,6.1333,6.2
3.8203125,-3.4185869146257656e-05,5.856117990386892e-06,-1.1726264911879084e-05,-6.592032261387038e-05,6.1333,6.2
3.82421875,-3.467359127946892e-05,1.0741468024719694e-05,1.4155522957198514e-05,-6.054725044632633e-05,6.1333,6.2
3.828125,-3.321042487983513e-05,1.025374589150843e-05,1.904087299153133e-05,-5.9084084046692544e-05,6.1333,6.2
3.83203125,-2.8812796978713593e-05,5.856117990386892e-06,4.880673723964363e-06,-5.810863978027002e-05,6.1333,6.2
3.8359375,-3.222685191119243e-05,2.9216564888991314e-06,5.368395857175628e-06,-6.0059528313115066e-05,6.1333,6.2
3.83984375,-3.5161313412680185e-05,7.319284390020669e-06,1.4584900892653536e-06,-5.567002911421372e-05,6.1333,6.2
3.84375,-3.173912977798116e-05,1.3180078690775984e-05,8.294728656443197e-06,-5.5182306981002455e-05,6.1333,6.2
3.84765625,-2.8812796978713593e-05,7.319284390020669e-06,1.2692356557564722e-05,-6.054725044632633e-05,6.1333,6.2
3.8515625,-2.6861908445868548e-05,1.0741468024719694e-05,4.830458228428256e-07,-5.127240121309218e-05,6.1333,6.2
3.85546875,-2.7837352712291077e-05,1.2204634424353486e-05,-1.3189431311512862e-05,-5.224784547951469e-05,6.1333,6.2
3.859375,-3.12514076447699e-05,7.807006523231933e-06,-1.4678427100022161e-06,-5.9084084046692544e-05,6.1333,6.2
3.86328125,-3.5649035545891436e-05,4.3929515907531e-06,-6.8409148775462826e-06,-5.127240121309218e-05,6.1333,6.2
3.8671875,-3.8575368345159e-05,-5.865470611123754e-06,-9.279525543602588e-06,-4.297299624628054e-05,6.1333,6.2
3.87109375,-3.8575368345159e-05,-1.416487557793539e-05,7.807006523231933e-06,-4.199755197985803e-05,6.1333,6.2
3.875,-4.053438558022424e-05,-1.7578930510414208e-05,-1.0254969810025101e-05,-4.0046663447012974e-05,6.1333,6.2
3.87890625,-4.150982984664677e-05,-1.0742691943236366e-05,-2.2952002677958275e-05,-4.638705117875938e-05,6.1333,6.2
3.8828125,-3.906309047837027e-05,-1.2701709178301598e-05,-1.416487557793539e-05,-5.127240121309218e-05,6.1333,6.2
3.88671875,-3.808764621194774e-05,-2.051339201190197e-05,-2.1488836278324484e-05,-4.5899329045548115e-05,6.1333,6.2
3.890625,-3.759992407873649e-05,-1.416487557793539e-05,-1.905022561226818e-05,-5.029695694666965e-05,6.1333,6.2
3.89453125,-3.4185869146257656e-05,-4.89002634470124e-06,-1.9555648432134803e-06,-5.5182306981002455e-05,6.1333,6.2
3.8984375,-3.955081261158153e-05,-5.865470611123754e-06,-5.3777484779124906e-06,-4.49238847791256e-05,6.1333,6.2
3.90234375,-5.224784547951469e-05,-3.173912977798116e-05,-3.467359127946892e-05,-3.4185869146257656e-05,6.1333,6.2
3.90625,-5.078467907988092e-05,-3.5161313412680185e-05,-4.199755197985803e-05,-3.076368551155865e-05,6.1333,6.2
3.91015625,-5.469458484779119e-05,-2.7837352712291077e-05,-3.321042487983513e-05,-3.12514076447699e-05,6.1333,6.2
3.9140625,-7.178111691462571e-05,-4.5899329045548115e-05,-2.8812796978713593e-05,-2.9788241245136118e-05,6.1333,6.2
3.91796875,-7.764191121538103e-05,-4.394844051270307e-05,-2.0025669878690704e-05,-3.12514076447699e-05,6.1333,6.2
3.921875,-7.569102268253599e-05,-3.173912977798116e-05,-2.6861908445868548e-05,-2.5886464179446036e-05,6.1333,6.2
3.92578125,-7.910507761501482e-05,-4.053438558022424e-05,-2.9300519111924854e-05,-2.1001114145113233e-05,6.1333,6.2
3.9296875,-7.861735548180355e-05,-4.2485274113069276e-05,-2.1488836278324484e-05,-2.3927446944380804e-05,6.1333,6.2
3.93359375,-7.373200544747075e-05,-3.759992407873649e-05,-2.197655841153575e-05,-2.2952002677958275e-05,6.1333,6.2
3.9375,-6.885478411535814e-05,-3.272270274662388e-05,-2.343972481116954e-05,-3.222685191119243e-05,6.1333,6.2
3.94140625,-6.738348901350417e-05,-3.369814701304639e-05,-2.9300519111924854e-05,-3.369814701304639e-05,6.1333,6.2
3.9453125,-6.494487834744787e-05,-3.272270274662388e-05,-2.3927446944380804e-05,-2.6374186312657287e-05,6.1333,6.2
3.94921875,-5.9084084046692544e-05,-1.8562503479056928e-05,-2.197655841153575e-05,-2.5886464179446036e-05,6.1333,6.2
3.953125,-4.980923481345839e-05,-1.2213987045090333e-05,-2.9788241245136118e-05,-2.197655841153575e-05,6.1333,6.2
3.95703125,-4.49238847791256e-05,-7.328637010757546e-06,-1.7091208377202947e-05,-2.1488836278324484e-05,6.1333,6.2
3.9609375,-4.5899329045548115e-05,-6.8409148775462826e-06,1.9462122224766176e-06,-2.197655841153575e-05,6.1333,6.2
3.96484375,-4.541160691233685e-05,-2.1488836278324484e-05,-4.676310368438407e-09,-2.4902891210803316e-05,6.1333,6.2
3.96875,-5.224784547951469e-05,-3.955081261158153e-05,-2.6861908445868548e-05,-2.9788241245136118e-05,6.1333,6.2
3.97265625,-5.664547338063623e-05,-3.711220194552523e-05,-2.8812796978713593e-05,-3.4185869146257656e-05,6.1333,6.2
3.9765625,-5.469458484779119e-05,-3.272270274662388e-05,-2.343972481116954e-05,-3.4185869146257656e-05,6.1333,6.2
3.98046875,-5.2735567612725955e-05,-3.222685191119243e-05,-1.3677153444724125e-05,-3.369814701304639e-05,6.1333,6.2
3.984375,-4.883379054703587e-05,-3.5649035545891436e-05,-1.0742691943236366e-05,-4.053438558022424e-05,6.1333,6.2
3.98828125,-5.029695694666965e-05,-4.053438558022424e-05,-1.0254969810025101e-05,-4.297299624628054e-05,6.1333,6.2
3.9921875,-5.176012334630344e-05,-3.076368551155865e-05,-2.0025669878690704e-05,-3.906309047837027e-05,6.1333,6.2
3.99609375,-4.737062414740208e-05,-2.1001114145113233e-05,-1.0742691943236366e-05,-3.467359127946892e-05,6.1333,6.2
4.0,-4.688290201419083e-05,-1.7578930510414208e-05,-5.865470611123754e-06,-3.272270274662388e-05,6.1333,6.2
4.00390625,-4.834606841382461e-05,-1.3677153444724125e-05,-2.441516907759205e-05,-3.369814701304639e-05,6.1333,6.2
4.0078125,-4.834606841382461e-05,-2.7349630579079812e-05,-1.8066652643625472e-05,-3.12514076447699e-05,6.1333,6.2
4.01171875,-4.737062414740208e-05,-3.5161313412680185e-05,-2.8812796978713593e-05,-2.9788241245136118e-05,6.1333,6.2
4.015625,-4.297299624628054e-05,-2.197655841153575e-05,-3.272270274662388e-05,-3.0275963378347383e-05,6.1333,6.2
4.01953125,-3.759992407873649e-05,-2.197655841153575e-05,-2.6861908445868548e-05,-3.076368551155865e-05,6.1333,6.2
4.0234375,-3.906309047837027e-05,-3.61367576791027e-05,-1.7578930510414208e-05,-3.61367576791027e-05,6.1333,6.2
4.02734375,-4.638705117875938e-05,-3.0275963378347383e-05,-1.465259771114664e-05,-4.199755197985803e-05,6.1333,6.2
4.03125,-4.834606841382461e-05,-3.369814701304639e-05,-3.5161313412680185e-05,-3.8575368345159e-05,6.1333,6.2
4.03515625,-4.688290201419083e-05,-4.4436162645914335e-05,-3.8575368345159e-05,-4.053438558022424e-05,6.1333,6.2
4.0390625,-4.3460718379491805e-05,-3.4185869146257656e-05,-3.8575368345159e-05,-3.8575368345159e-05,6.1333,6.2
4.04296875,-4.0046663447012974e-05,-2.4902891210803316e-05,-3.808764621194774e-05,-3.808764621194774e-05,6.1333,6.2
4.046875,-4.150982984664677e-05,-2.6861908445868548e-05,-3.4185869146257656e-05,-4.3460718379491805e-05,6.1333,6.2
4.05078125,-4.541160691233685e-05,-4.10221077134355e-05,-3.5649035545891436e-05,-4.49238847791256e-05,6.1333,6.2
4.0546875,-4.638705117875938e-05,-4.0046663447012974e-05,-2.441516907759205e-05,-4.49238847791256e-05,6.1333,6.2
4.05859375,-3.759992407873649e-05,-2.7349630579079812e-05,-1.0254969810025101e-05,-4.297299624628054e-05,6.1333,6.2
4.0625,-3.12514076447699e-05,-2.7349630579079812e-05,-1.465259771114664e-05,-3.6624479812313965e-05,6.1333,6.2
4.06640625,-3.321042487983513e-05,-3.321042487983513e-05,-1.2213987045090333e-05,-3.369814701304639e-05,6.1333,6.2
4.0703125,-3.4185869146257656e-05,-3.955081261158153e-05,-1.3677153444724125e-05,-3.808764621194774e-05,6.1333,6.2
4.07421875,-3.906309047837027e-05,-4.4436162645914335e-05,-2.7349630579079812e-05,-3.4185869146257656e-05,6.1333,6.2
4.078125,-4.0046663447012974e-05,-4.785834628061334e-05,-3.6624479812313965e-05,-3.61367576791027e-05,6.1333,6.2
4.08203125,-3.808764621194774e-05,-4.5899329045548115e-05,-3.173912977798116e-05,-4.2485274113069276e-05,6.1333,6.2
4.0859375,-3.61367576791027e-05,-4.2485274113069276e-05,-3.955081261158153e-05,-3.808764621194774e-05,6.1333,6.2
4.08984375,-3.173912977798116e-05,-4.150982984664677e-05,-5.615775124742498e-05,-3.61367576791027e-05,6.1333,6.2
4.09375,-3.4185869146257656e-05,-3.906309047837027e-05,-4.3460718379491805e-05,-3.5649035545891436e-05,6.1333,6.2
4.09765625,-3.12514076447699e-05,-4.49238847791256e-05,-2.9300519111924854e-05,-3.222685191119243e-05,6.1333,6.2
4.1015625,-2.6374186312657287e-05,-4.834606841382461e-05,-3.222685191119243e-05,-3.272270274662388e-05,6.1333,6.2
4.10546875,-2.5886464179446036e-05,-4.0046663447012974e-05,-2.343972481116954e-05,-3.61367576791027e-05,6.1333,6.2
4.109375,-2.832507484550234e-05,-3.906309047837027e-05,-1.416487557793539e-05,-3.808764621194774e-05,6.1333,6.2
4.11328125,-3.12514076447699e-05,-4.10221077134355e-05,-1.5628041977569167e-05,-3.4185869146257656e-05,6.1333,6.2
