timestamp,TP9,AF7,AF8,TP10,Valence,Arousal
0.0,-2.5391292271305375e-05,-2.685803468375674e-05,-3.5162385107194594e-05,-3.4673470969710807e-05,7.0667,6.4
0.00390625,-2.5391292271305375e-05,-6.841314702067564e-06,-4.3459545616845926e-05,-3.0762157869840506e-05,7.0667,6.4
0.0078125,-1.8560874174105406e-05,-9.278695475699976e-06,-4.0044336568245934e-05,-2.636912054627295e-05,7.0667,6.4
0.01171875,-1.9531512535286453e-05,-1.5138475211718898e-05,-2.4420653910124328e-05,-2.8813691233691884e-05,7.0667,6.4
0.015625,-2.393173977264054e-05,-1.709413176165404e-05,-1.2212180300602696e-05,-2.979151950865946e-05,7.0667,6.4
0.01953125,-2.4902378133821584e-05,-3.0762157869840506e-05,-3.906650829327837e-05,-3.7110851743343216e-05,7.0667,6.4
0.0234375,-3.2228900282291876e-05,-4.0044336568245934e-05,-3.5162385107194594e-05,-3.906650829327837e-05,7.0667,6.4
0.02734375,-2.685803468375674e-05,-3.0762157869840506e-05,-1.3190008575570274e-05,-3.565129924467838e-05,7.0667,6.4
0.03125,-2.148716908522161e-05,-7.330228839551352e-06,-3.9078298771648436e-06,-2.979151950865946e-05,7.0667,6.4
0.03515625,-2.002042667277024e-05,-2.5391292271305375e-05,-1.1234352025635117e-05,-2.4420653910124328e-05,7.0667,6.4
0.0390625,-1.416064693675132e-05,-3.0762157869840506e-05,-2.8813691233691884e-05,-2.9302605371175672e-05,7.0667,6.4
0.04296875,-1.1234352025635117e-05,-7.819142977035141e-06,-3.565129924467838e-05,-2.8324777096208093e-05,7.0667,6.4
0.046875,-7.819142977035141e-06,2.9225882200351233e-06,-2.734694882124053e-05,-2.8813691233691884e-05,7.0667,6.4
0.05078125,-8.789781338216186e-06,-5.863486427099985e-06,-3.565129924467838e-05,-3.320672855725945e-05,7.0667,6.4
0.0546875,-1.2212180300602696e-05,-2.5391292271305375e-05,-2.344282563515675e-05,-3.2228900282291876e-05,7.0667,6.4
0.05859375,-1.9531512535286453e-05,-4.053325070572973e-05,-1.416064693675132e-05,-2.246499736018917e-05,7.0667,6.4
0.0625,-2.050934081025403e-05,-3.173998614480808e-05,-2.8324777096208093e-05,-1.5627389349202687e-05,7.0667,6.4
0.06640625,-1.8071960036621618e-05,-1.1234352025635117e-05,-2.734694882124053e-05,-2.002042667277024e-05,7.0667,6.4
0.0703125,-1.8560874174105406e-05,-1.2212180300602696e-05,-2.8813691233691884e-05,-2.979151950865946e-05,7.0667,6.4
0.07421875,-1.8560874174105406e-05,-2.099825494773782e-05,-2.8324777096208093e-05,-3.028043364614325e-05,7.0667,6.4
0.078125,-2.002042667277024e-05,-2.979151950865946e-05,-1.9049788311589197e-05,-2.734694882124053e-05,7.0667,6.4
0.08203125,-2.734694882124053e-05,-4.5415202166781076e-05,-2.783586295872432e-05,-2.734694882124053e-05,7.0667,6.4
0.0859375,-2.2953911497672962e-05,-1.0256523750667554e-05,9.741215838865002e-07,-3.80886800183108e-05,7.0667,6.4
0.08984375,-1.1234352025635117e-05,1.9524099153124325e-05,1.5619975967040546e-05,-3.7110851743343216e-05,7.0667,6.4
0.09375,-1.8071960036621618e-05,-2.1976083222705397e-05,-3.662193760585943e-05,-2.050934081025403e-05,7.0667,6.4
0.09765625,-3.5162385107194594e-05,-7.324735843442432e-05,-5.12749819028e-05,-1.660521762417025e-05,7.0667,6.4
0.1015625,-4.199280320439457e-05,-7.129170188448919e-05,-4.053325070572973e-05,-1.1723266163118907e-05,7.0667,6.4
0.10546875,-4.639303044174866e-05,-7.66625674830243e-05,-5.811258991378649e-05,1.9519498588540783e-06,7.0667,6.4
0.109375,-6.103888482490269e-05,-9.570864910353244e-05,-8.35001754940108e-05,8.30064373235679e-06,7.0667,6.4
0.11328125,-6.836540697337298e-05,-9.619756324101622e-05,-6.836540697337298e-05,2.4408639963378675e-06,7.0667,6.4
0.1171875,-6.982495947203782e-05,-0.00011181405598535131,-8.154451894407566e-05,7.322815457389211e-06,7.0667,6.4
0.12109375,-7.715148162050809e-05,-9.716820160219727e-05,-0.00010010168642709998,1.4153233554589192e-05,7.0667,6.4
0.125,-7.324735843442432e-05,-0.000121577958907454,-9.179733600366214e-05,1.4630357213702892e-06,7.0667,6.4
0.12890625,-6.640975042343782e-05,-0.00012060013063248644,-9.668647737850001e-05,-9.767609613183765e-06,7.0667,6.4
0.1328125,-6.885432111085676e-05,-0.00010936948529793236,-8.154451894407566e-05,-8.300867200732397e-06,7.0667,6.4
0.13671875,-6.787649283588919e-05,-0.0001347642607919432,-8.203343308155944e-05,-3.9078298771648436e-06,7.0667,6.4
0.140625,-6.885432111085676e-05,-0.00011132514184786753,-7.129170188448919e-05,-4.926208285648527e-07,7.0667,6.4
0.14453125,-6.885432111085676e-05,-9.03377835049973e-05,-7.03138736095216e-05,-5.374572289616196e-06,7.0667,6.4
0.1484375,-5.615693336385134e-05,-8.39890896314946e-05,-8.105560480659187e-05,-8.300867200732397e-06,7.0667,6.4
0.15234375,-5.273453440146483e-05,-6.738757869840541e-05,-6.543192214847025e-05,-7.330228839551352e-06,7.0667,6.4
0.15625,-4.688194457923244e-05,-6.396517973601889e-05,-7.178061602197296e-05,-1.660521762417025e-05,7.0667,6.4
0.16015625,-4.1503889066910776e-05,-6.103888482490269e-05,-5.469019095139998e-05,-1.9531512535286453e-05,7.0667,6.4
0.1640625,-4.931932535286485e-05,-6.250562723735406e-05,-1.5138475211718898e-05,-1.2701094438086485e-05,7.0667,6.4
0.16796875,-5.1763896040283786e-05,-7.422518670939189e-05,-4.394845975432971e-05,-1.8071960036621618e-05,7.0667,6.4
0.171875,-5.029715362783243e-05,-6.982495947203782e-05,-3.5162385107194594e-05,-2.246499736018917e-05,7.0667,6.4
0.17578125,-5.8594314137483755e-05,-6.836540697337298e-05,-3.1251072007324294e-05,-2.148716908522161e-05,7.0667,6.4
0.1796875,-5.664584750133513e-05,-6.250562723735406e-05,-4.492628802929729e-05,-2.246499736018917e-05,7.0667,6.4
0.18359375,-4.834149707789728e-05,-4.1022164843213516e-05,-2.148716908522161e-05,-2.393173977264054e-05,7.0667,6.4
0.1875,-5.517910508888377e-05,-5.029715362783243e-05,-4.3459545616845926e-05,-2.246499736018917e-05,7.0667,6.4
0.19140625,-4.9808239490348636e-05,-6.152779896238648e-05,-4.73636688029297e-05,-3.418455683222701e-05,7.0667,6.4
0.1953125,-4.053325070572973e-05,-5.908322827496754e-05,-4.9808239490348636e-05,-3.80886800183108e-05,7.0667,6.4
0.19921875,-4.9808239490348636e-05,-5.029715362783243e-05,-5.615693336385134e-05,-2.783586295872432e-05,7.0667,6.4
0.203125,-5.517910508888377e-05,-4.0044336568245934e-05,-2.9302605371175672e-05,-3.0762157869840506e-05,7.0667,6.4
0.20703125,-4.5415202166781076e-05,-3.7110851743343216e-05,-2.393173977264054e-05,-4.3459545616845926e-05,7.0667,6.4
0.2109375,-4.199280320439457e-05,-4.199280320439457e-05,-4.883041121538106e-05,-3.955542243076216e-05,7.0667,6.4
0.21484375,-4.73636688029297e-05,-4.1503889066910776e-05,-5.078606776531621e-05,-2.8324777096208093e-05,7.0667,6.4
0.21875,-5.225281017776757e-05,-2.9302605371175672e-05,-3.1251072007324294e-05,-3.565129924467838e-05,7.0667,6.4
0.22265625,-4.1022164843213516e-05,-1.9049788311589197e-05,-3.4673470969710807e-05,-4.1022164843213516e-05,7.0667,6.4
0.2265625,-2.8813691233691884e-05,-1.7583045899137827e-05,-1.6116303486686475e-05,-3.369564269474324e-05,7.0667,6.4
0.23046875,-4.1503889066910776e-05,-3.028043364614325e-05,5.367158907454069e-06,-3.271781441977566e-05,7.0667,6.4
0.234375,-4.199280320439457e-05,-2.9302605371175672e-05,-2.8324777096208093e-05,-3.418455683222701e-05,7.0667,6.4
0.23828125,-2.4420653910124328e-05,-2.246499736018917e-05,-4.3459545616845926e-05,-3.613302346837564e-05,7.0667,6.4
0.2421875,-2.344282563515675e-05,-7.819142977035141e-06,-1.3190008575570274e-05,-3.613302346837564e-05,7.0667,6.4
0.24609375,-3.5162385107194594e-05,-1.2701094438086485e-05,2.4408639963378675e-06,-2.4420653910124328e-05,7.0667,6.4
0.25,-3.2228900282291876e-05,-3.662193760585943e-05,-2.783586295872432e-05,-2.685803468375674e-05,7.0667,6.4
0.25390625,-3.369564269474324e-05,-2.783586295872432e-05,-3.028043364614325e-05,-2.783586295872432e-05,7.0667,6.4
0.2578125,-3.906650829327837e-05,-1.7583045899137827e-05,-3.4189157396810543e-06,-2.685803468375674e-05,7.0667,6.4
0.26171875,-3.173998614480808e-05,-4.053325070572973e-05,-2.636912054627295e-05,-3.80886800183108e-05,7.0667,6.4
0.265625,-3.2228900282291876e-05,-5.908322827496754e-05,-5.811258991378649e-05,-3.7599765880827003e-05,7.0667,6.4
0.26953125,-3.0762157869840506e-05,-2.979151950865946e-05,-3.80886800183108e-05,-3.565129924467838e-05,7.0667,6.4
0.2734375,-3.320672855725945e-05,-3.7599765880827003e-05,-4.492628802929729e-05,-3.613302346837564e-05,7.0667,6.4
0.27734375,-3.7599765880827003e-05,-5.664584750133513e-05,-4.297063147936214e-05,-3.7110851743343216e-05,7.0667,6.4
0.28125,-3.4673470969710807e-05,-5.029715362783243e-05,-3.80886800183108e-05,-4.5415202166781076e-05,7.0667,6.4
0.28515625,-3.369564269474324e-05,-3.2228900282291876e-05,-1.5138475211718898e-05,-4.3459545616845926e-05,7.0667,6.4
0.2890625,-3.613302346837564e-05,-3.4673470969710807e-05,-3.320672855725945e-05,-3.5162385107194594e-05,7.0667,6.4
0.29296875,-3.662193760585943e-05,-4.688194457923244e-05,-6.494300801098645e-05,-3.80886800183108e-05,7.0667,6.4
0.296875,-4.0044336568245934e-05,-3.418455683222701e-05,-5.12749819028e-05,-4.053325070572973e-05,7.0667,6.4
0.30078125,-4.297063147936214e-05,-3.369564269474324e-05,-4.1022164843213516e-05,-3.369564269474324e-05,7.0667,6.4
0.3046875,-3.906650829327837e-05,-2.4902378133821584e-05,-3.80886800183108e-05,-3.369564269474324e-05,7.0667,6.4
0.30859375,-4.3459545616845926e-05,-2.2953911497672962e-05,-1.1723266163118907e-05,-3.418455683222701e-05,7.0667,6.4
0.3125,-4.5904116304264863e-05,-2.5880206408789162e-05,5.367158907454069e-06,-2.979151950865946e-05,7.0667,6.4
0.31640625,-3.5162385107194594e-05,-4.394845975432971e-05,-4.639303044174866e-05,-3.2228900282291876e-05,7.0667,6.4
0.3203125,-2.8813691233691884e-05,-3.8577594155794585e-05,-3.906650829327837e-05,-3.5162385107194594e-05,7.0667,6.4
0.32421875,-2.4420653910124328e-05,-1.8560874174105406e-05,8.782367956054045e-06,-3.028043364614325e-05,7.0667,6.4
0.328125,-1.7583045899137827e-05,-1.1723266163118907e-05,-2.783586295872432e-05,-2.979151950865946e-05,7.0667,6.4
0.33203125,-1.7583045899137827e-05,-1.95936324101622e-06,-4.9808239490348636e-05,-3.565129924467838e-05,7.0667,6.4
0.3359375,-2.099825494773782e-05,-1.7583045899137827e-05,-2.1976083222705397e-05,-3.1251072007324294e-05,7.0667,6.4
0.33984375,-2.8813691233691884e-05,-5.371236267643241e-05,2.9225882200351233e-06,-1.8560874174105406e-05,7.0667,6.4
0.34375,-3.5162385107194594e-05,-2.099825494773782e-05,-9.278695475699976e-06,-1.5138475211718898e-05,7.0667,6.4
0.34765625,-2.2953911497672962e-05,-3.9078298771648436e-06,-5.029715362783243e-05,-1.5627389349202687e-05,7.0667,6.4
0.3515625,-1.8560874174105406e-05,-2.979151950865946e-05,-5.1763896040283786e-05,-2.050934081025403e-05,7.0667,6.4
0.35546875,-2.636912054627295e-05,-3.7110851743343216e-05,-1.0745437888151328e-05,-2.344282563515675e-05,7.0667,6.4
0.359375,-2.344282563515675e-05,-5.811258991378649e-05,-7.330228839551352e-06,-1.709413176165404e-05,7.0667,6.4
0.36328125,-2.5880206408789162e-05,-4.443737389181351e-05,-3.418455683222701e-05,-1.1723266163118907e-05,7.0667,6.4
0.3671875,-2.783586295872432e-05,-2.002042667277024e-05,-3.906650829327837e-05,-1.1723266163118907e-05,7.0667,6.4
0.37109375,-2.148716908522161e-05,-5.517910508888377e-05,-4.834149707789728e-05,-2.5880206408789162e-05,7.0667,6.4
0.375,-2.4902378133821584e-05,-6.982495947203782e-05,-3.80886800183108e-05,-3.1251072007324294e-05,7.0667,6.4
0.37890625,-1.8560874174105406e-05,-3.0762157869840506e-05,-2.9302605371175672e-05,-2.4902378133821584e-05,7.0667,6.4
0.3828125,-9.767609613183765e-06,-2.246499736018917e-05,-5.1763896040283786e-05,-2.685803468375674e-05,7.0667,6.4
0.38671875,-1.2212180300602696e-05,-5.713476163881892e-05,-6.396517973601889e-05,-2.050934081025403e-05,7.0667,6.4
0.390625,-2.2953911497672962e-05,-7.812930989547566e-05,-7.617365334554051e-05,-1.5138475211718898e-05,7.0667,6.4
0.39453125,-3.7110851743343216e-05,-8.252234721904324e-05,-9.96127722896162e-05,-2.2953911497672962e-05,7.0667,6.4
0.3984375,-3.8577594155794585e-05,-0.00011718492158388644,-8.887104109254593e-05,-2.246499736018917e-05,7.0667,6.4
0.40234375,-2.8813691233691884e-05,-0.0001347642607919432,-9.814602987716485e-05,-1.416064693675132e-05,7.0667,6.4
0.40625,-2.002042667277024e-05,-0.0001469655444876783,-0.0001513657717250324,-1.0745437888151328e-05,7.0667,6.4
0.41015625,-1.5627389349202687e-05,-0.0001606407605096513,-0.0001772422714427405,5.8560730449378575e-06,7.0667,6.4
0.4140625,-1.6116303486686475e-05,-0.00018407987945372702,-0.0001997035621118486,2.0990841565575677e-05,7.0667,6.4
0.41796875,-2.148716908522161e-05,-0.00018896183091477833,-0.00019188812582589455,2.5383878889143233e-05,7.0667,6.4
0.421875,-2.393173977264054e-05,-0.0002006813903868162,-0.00017040466343175398,3.564388586251624e-05,7.0667,6.4
0.42578125,-2.979151950865946e-05,-0.0002490191807736324,-0.00021386050235751885,4.442996050965138e-05,7.0667,6.4
0.4296875,-2.979151950865946e-05,-0.0002397441919890135,-0.00023192875570305943,5.028974024567029e-05,7.0667,6.4
0.43359375,-2.8324777096208093e-05,-0.00021240094985885402,-0.00022020919623102155,6.444668049134054e-05,7.0667,6.4
0.4375,-3.2228900282291876e-05,-0.0002221648527809567,-0.0002221648527809567,6.493559462882433e-05,7.0667,6.4
0.44140625,-3.662193760585943e-05,-0.00021972028209353776,-0.00019286595410086208,6.103147144274055e-05,7.0667,6.4
0.4453125,-2.2953911497672962e-05,-0.00018359096531624322,-0.00018896183091477833,5.956472903028918e-05,7.0667,6.4
0.44921875,-7.330228839551352e-06,-0.00016161858878461886,-0.00019677007728694586,4.833408369573513e-05,7.0667,6.4
0.453125,-1.5138475211718898e-05,-0.00017479770075532155,-0.00020360768529793238,4.34521322346838e-05,7.0667,6.4
0.45703125,-1.9049788311589197e-05,-0.00017284923411917293,-0.0001694268351567864,4.1985389822232435e-05,7.0667,6.4
0.4609375,-1.4649561074235109e-05,-0.00016698945438315402,-0.00014355033543907833,4.1503665598535176e-05,7.0667,6.4
0.46484375,-1.7583045899137827e-05,-0.00016796728265812159,-0.00018114639462882428,4.1503665598535176e-05,7.0667,6.4
0.46875,-2.099825494773782e-05,-0.00016845619679560535,-0.00017187140584420534,3.8570180773632444e-05,7.0667,6.4
0.47265625,-1.3190008575570274e-05,-0.00015526989491111617,-0.0001474544586251621,2.050192742809189e-05,7.0667,6.4
0.4765625,-2.4902378133821584e-05,-0.00014257250716411075,-0.0001474544586251621,1.75756325169757e-05,7.0667,6.4
0.48046875,-3.0762157869840506e-05,-0.0001513657717250324,-0.00014452816371404592,1.6597804242008124e-05,7.0667,6.4
0.484375,-1.709413176165404e-05,-0.0001347642607919432,-0.00014648382026398105,2.9225882200351233e-06,7.0667,6.4
0.48828125,-1.1234352025635117e-05,-9.668647737850001e-05,-0.00013280860424200807,-5.863486427099985e-06,7.0667,6.4
0.4921875,-1.3678922713054064e-05,-0.00010790993279926753,-0.0001245114437323567,-8.789781338216186e-06,7.0667,6.4
0.49609375,-2.148716908522161e-05,-0.00010936948529793236,-9.765711573968105e-05,-1.4649561074235109e-05,7.0667,6.4
0.5,-2.783586295872432e-05,-8.935995523002973e-05,-7.03138736095216e-05,-1.8560874174105406e-05,7.0667,6.4
0.50390625,-2.099825494773782e-05,-8.496691790646217e-05,-8.789321281757836e-05,-2.4902378133821584e-05,7.0667,6.4
0.5078125,-6.841314702067564e-06,-6.885432111085676e-05,-0.00010302798133821619,-4.0044336568245934e-05,7.0667,6.4
0.51171875,-7.819142977035141e-06,-5.273453440146483e-05,-5.517910508888377e-05,-3.906650829327837e-05,7.0667,6.4
0.515625,-8.789781338216186e-06,-3.5162385107194594e-05,-2.344282563515675e-05,-3.613302346837564e-05,7.0667,6.4
0.51953125,-7.819142977035141e-06,9.741215838865002e-07,-1.4649561074235109e-05,-4.3459545616845926e-05,7.0667,6.4
0.5234375,-1.2701094438086485e-05,9.741215838865002e-07,9.760196231021624e-06,-4.492628802929729e-05,7.0667,6.4
0.52734375,-1.7583045899137827e-05,-1.1723266163118907e-05,-2.930001602197265e-06,-4.3459545616845926e-05,7.0667,6.4
0.53125,-2.099825494773782e-05,-8.789781338216186e-06,-8.300867200732397e-06,-5.322344853894862e-05,7.0667,6.4
0.53515625,-1.9049788311589197e-05,-9.278695475699976e-06,-3.271781441977566e-05,-6.787649283588919e-05,7.0667,6.4
0.5390625,-1.8071960036621618e-05,8.30064373235679e-06,-1.4649561074235109e-05,-6.348345551232163e-05,7.0667,6.4
0.54296875,-2.344282563515675e-05,1.0249110368505413e-05,1.8553460791943264e-05,-6.103888482490269e-05,7.0667,6.4
0.546875,-2.344282563515675e-05,4.87824476997028e-06,1.3671509330891922e-05,-6.543192214847025e-05,7.0667,6.4
0.55078125,-2.050934081025403e-05,2.0990841565575677e-05,3.900416495002701e-06,-7.226953015945675e-05,7.0667,6.4
0.5546875,-2.099825494773782e-05,2.4413240527962187e-05,1.9519498588540783e-06,-7.471410084687568e-05,7.0667,6.4
0.55859375,-2.783586295872432e-05,1.7086718379491912e-05,1.9519498588540783e-06,-6.933604533455402e-05,7.0667,6.4
0.5625,-2.8813691233691884e-05,2.0990841565575677e-05,4.389330632486491e-06,-7.226953015945675e-05,7.0667,6.4
0.56640625,-3.2228900282291876e-05,1.7086718379491912e-05,2.1479755703059468e-05,-6.982495947203782e-05,7.0667,6.4
0.5703125,-3.418455683222701e-05,2.0013013290608112e-05,2.636170716411081e-05,-6.348345551232163e-05,7.0667,6.4
0.57421875,-3.7599765880827003e-05,2.4413240527962187e-05,2.8806277851529756e-05,-6.836540697337298e-05,7.0667,6.4
0.578125,-4.394845975432971e-05,1.9042374929427055e-05,3.075474448767838e-05,-6.396517973601889e-05,7.0667,6.4
0.58203125,-4.394845975432971e-05,8.30064373235679e-06,1.5619975967040546e-05,-6.250562723735406e-05,7.0667,6.4
0.5859375,-3.906650829327837e-05,1.2693681055924344e-05,6.344987182421647e-06,-6.836540697337298e-05,7.0667,6.4
0.58984375,-4.3459545616845926e-05,2.636170716411081e-05,2.4902154665445974e-05,-6.152779896238648e-05,7.0667,6.4
0.59375,-4.5904116304264863e-05,2.9295191989013544e-05,3.8570180773632444e-05,-5.517910508888377e-05,7.0667,6.4
0.59765625,-3.7110851743343216e-05,1.6108890104524333e-05,3.368822931258108e-05,-5.615693336385134e-05,7.0667,6.4
0.6015625,-3.2228900282291876e-05,2.7339535439078387e-05,2.8806277851529756e-05,-5.517910508888377e-05,7.0667,6.4
0.60546875,-2.9302605371175672e-05,4.882299783321892e-05,7.322815457389211e-06,-5.713476163881892e-05,7.0667,6.4
0.609375,-3.173998614480808e-05,4.833408369573513e-05,1.4153233554589192e-05,-6.0549970687418905e-05,7.0667,6.4
0.61328125,-3.8577594155794585e-05,3.1732572762645953e-05,5.367158907454069e-06,-5.8594314137483755e-05,7.0667,6.4
0.6171875,-4.0044336568245934e-05,6.833901319905422e-06,2.8317363714045966e-05,-5.273453440146483e-05,7.0667,6.4
0.62109375,-3.7110851743343216e-05,3.4666057587548665e-05,5.712734825665677e-05,-5.1763896040283786e-05,7.0667,6.4
0.625,-3.173998614480808e-05,6.34760421301595e-05,3.4666057587548665e-05,-5.566801922636756e-05,7.0667,6.4
0.62890625,-2.783586295872432e-05,4.1985389822232435e-05,9.271282093537834e-06,-5.566801922636756e-05,7.0667,6.4
0.6328125,-2.636912054627295e-05,4.882299783321892e-05,5.8560730449378575e-06,-5.811258991378649e-05,7.0667,6.4
0.63671875,-3.1251072007324294e-05,3.905909491111623e-05,2.1479755703059468e-05,-5.762367577630271e-05,7.0667,6.4
0.640625,-2.979151950865946e-05,4.931191197070271e-05,4.442996050965138e-05,-5.517910508888377e-05,7.0667,6.4
0.64453125,-2.4902378133821584e-05,6.152038558022435e-05,4.931191197070271e-05,-5.762367577630271e-05,7.0667,6.4
0.6484375,-2.783586295872432e-05,3.905909491111623e-05,2.9784106126497335e-05,-5.615693336385134e-05,7.0667,6.4
0.65234375,-3.2228900282291876e-05,5.3216035156786485e-05,3.661452422369729e-05,-5.225281017776757e-05,7.0667,6.4
0.65625,-3.8577594155794585e-05,4.1503665598535176e-05,4.63856170595865e-05,-4.9808239490348636e-05,7.0667,6.4
0.66015625,-4.1503889066910776e-05,9.760196231021624e-06,3.417714345006487e-05,-4.639303044174866e-05,7.0667,6.4
0.6640625,-3.7599765880827003e-05,3.905909491111623e-05,4.296321809720001e-05,-4.248171734187836e-05,7.0667,6.4
0.66796875,-3.173998614480808e-05,5.224539679560544e-05,4.9800826108186494e-05,-4.834149707789728e-05,7.0667,6.4
0.671875,-3.565129924467838e-05,1.6597804242008124e-05,1.806454665445949e-05,-5.029715362783243e-05,7.0667,6.4
0.67578125,-4.5415202166781076e-05,1.806454665445949e-05,8.30064373235679e-06,-4.1503889066910776e-05,7.0667,6.4
0.6796875,-4.5904116304264863e-05,2.8806277851529756e-05,3.900416495002701e-06,-4.1022164843213516e-05,7.0667,6.4
0.68359375,-3.4673470969710807e-05,3.661452422369729e-05,2.7339535439078387e-05,-4.3459545616845926e-05,7.0667,6.4
0.6875,-2.344282563515675e-05,3.1732572762645953e-05,3.759235249866486e-05,-4.1503889066910776e-05,7.0667,6.4
0.69140625,-2.148716908522161e-05,1.75756325169757e-05,9.741215838865002e-07,-4.3459545616845926e-05,7.0667,6.4
0.6953125,-2.5391292271305375e-05,2.7828449576562178e-05,-1.95936324101622e-06,-5.225281017776757e-05,7.0667,6.4
0.69921875,-2.783586295872432e-05,4.491887464713517e-05,1.8553460791943264e-05,-5.029715362783243e-05,7.0667,6.4
0.703125,-2.344282563515675e-05,3.8081266636148656e-05,3.319931517509732e-05,-4.3459545616845926e-05,7.0667,6.4
0.70703125,-2.9302605371175672e-05,4.784516955825134e-05,2.9784106126497335e-05,-4.394845975432971e-05,7.0667,6.4
0.7109375,-3.7110851743343216e-05,4.63856170595865e-05,2.4413240527962187e-05,-4.1503889066910776e-05,7.0667,6.4
0.71484375,-2.2953911497672962e-05,3.8570180773632444e-05,2.68506213015946e-05,-3.955542243076216e-05,7.0667,6.4
0.71875,-1.2701094438086485e-05,4.394104637216759e-05,3.0273020263981123e-05,-3.662193760585943e-05,7.0667,6.4
0.72265625,-2.1976083222705397e-05,5.0778654383154076e-05,3.417714345006487e-05,-3.271781441977566e-05,7.0667,6.4
0.7265625,-2.5880206408789162e-05,6.493559462882433e-05,4.833408369573513e-05,-3.173998614480808e-05,7.0667,6.4
0.73046875,-2.246499736018917e-05,4.003692318608381e-05,3.368822931258108e-05,-3.418455683222701e-05,7.0667,6.4
0.734375,-1.9049788311589197e-05,1.6108890104524333e-05,3.075474448767838e-05,-2.4902378133821584e-05,7.0667,6.4
0.73828125,-2.002042667277024e-05,2.636170716411081e-05,4.931191197070271e-05,-1.8560874174105406e-05,7.0667,6.4
0.7421875,-2.344282563515675e-05,2.2457583978027043e-05,3.319931517509732e-05,-2.099825494773782e-05,7.0667,6.4
0.74609375,-2.393173977264054e-05,1.0738024505989202e-05,3.4666057587548665e-05,-2.050934081025403e-05,7.0667,6.4
0.75,-3.320672855725945e-05,3.4115023575189125e-06,4.05258373235676e-05,-1.709413176165404e-05,7.0667,6.4
0.75390625,-3.613302346837564e-05,8.782367956054045e-06,6.833901319905422e-06,-1.8071960036621618e-05,7.0667,6.4
0.7578125,-2.5880206408789162e-05,2.587279302662702e-05,-6.3524005645837746e-06,-2.1976083222705397e-05,7.0667,6.4
0.76171875,-2.148716908522161e-05,3.1732572762645953e-05,3.900416495002701e-06,-1.8071960036621618e-05,7.0667,6.4
0.765625,-2.8813691233691884e-05,2.2457583978027043e-05,7.322815457389211e-06,-1.4649561074235109e-05,7.0667,6.4
0.76953125,-4.1503889066910776e-05,4.87824476997028e-06,9.741215838865002e-07,-1.6116303486686475e-05,7.0667,6.4
0.7734375,-3.028043364614325e-05,4.87824476997028e-06,7.811729594873e-06,-1.9049788311589197e-05,7.0667,6.4
0.77734375,-1.5138475211718898e-05,1.75756325169757e-05,1.0738024505989202e-05,-1.9049788311589197e-05,7.0667,6.4
0.78125,-3.028043364614325e-05,8.782367956054045e-06,-6.3524005645837746e-06,-1.6116303486686475e-05,7.0667,6.4
0.78515625,-3.80886800183108e-05,9.741215838865002e-07,-1.2212180300602696e-05,-2.002042667277024e-05,7.0667,6.4
0.7890625,-3.0762157869840506e-05,3.319931517509732e-05,-5.374572289616196e-06,-2.002042667277024e-05,7.0667,6.4
0.79296875,-3.028043364614325e-05,3.564388586251624e-05,7.322815457389211e-06,-1.660521762417025e-05,7.0667,6.4
0.796875,-3.418455683222701e-05,-2.783586295872432e-05,8.30064373235679e-06,-1.5627389349202687e-05,7.0667,6.4
0.80078125,-3.662193760585943e-05,-3.565129924467838e-05,-3.4189157396810543e-06,-1.416064693675132e-05,7.0667,6.4
0.8046875,-3.613302346837564e-05,-1.2212180300602696e-05,-4.885658152132421e-06,-1.1234352025635117e-05,7.0667,6.4
0.80859375,-3.7110851743343216e-05,-6.841314702067564e-06,1.0738024505989202e-05,-1.1723266163118907e-05,7.0667,6.4
0.8125,-3.80886800183108e-05,-7.330228839551352e-06,2.4413240527962187e-05,-1.7583045899137827e-05,7.0667,6.4
0.81640625,-4.199280320439457e-05,4.389330632486491e-06,1.75756325169757e-05,-2.050934081025403e-05,7.0667,6.4
0.8203125,-3.7599765880827003e-05,1.0249110368505413e-05,1.6597804242008124e-05,-1.7583045899137827e-05,7.0667,6.4
0.82421875,-2.734694882124053e-05,-1.470449103532431e-06,1.6597804242008124e-05,-2.2953911497672962e-05,7.0667,6.4
0.828125,-2.734694882124053e-05,2.587279302662702e-05,7.322815457389211e-06,-2.002042667277024e-05,7.0667,6.4
0.83203125,-2.393173977264054e-05,3.368822931258108e-05,4.852074464027254e-07,-2.002042667277024e-05,7.0667,6.4
0.8359375,-1.9531512535286453e-05,1.2693681055924344e-05,2.050192742809189e-05,-2.734694882124053e-05,7.0667,6.4
0.83984375,-1.416064693675132e-05,9.760196231021624e-06,3.368822931258108e-05,-2.5391292271305375e-05,7.0667,6.4
0.84375,-1.0745437888151328e-05,2.68506213015946e-05,1.7086718379491912e-05,-1.9049788311589197e-05,7.0667,6.4
0.84765625,-1.8071960036621618e-05,4.247430395971622e-05,5.367158907454069e-06,-2.1976083222705397e-05,7.0667,6.4
0.8515625,-2.050934081025403e-05,2.4408639963378675e-06,-1.2212180300602696e-05,-2.246499736018917e-05,7.0667,6.4
0.85546875,-2.1976083222705397e-05,-1.0256523750667554e-05,-6.3524005645837746e-06,-2.344282563515675e-05,7.0667,6.4
0.859375,-3.955542243076216e-05,-1.470449103532431e-06,-2.099825494773782e-05,-2.4902378133821584e-05,7.0667,6.4
0.86328125,-5.664584750133513e-05,-1.8071960036621618e-05,-2.8324777096208093e-05,-8.300867200732397e-06,7.0667,6.4
0.8671875,-5.517910508888377e-05,-2.344282563515675e-05,-1.3678922713054064e-05,-2.448277378500009e-06,7.0667,6.4
0.87109375,-6.152779896238648e-05,-2.2953911497672962e-05,-1.1723266163118907e-05,9.741215838865002e-07,7.0667,6.4
0.875,-6.689866456092161e-05,-4.492628802929729e-05,-9.767609613183765e-06,-3.9078298771648436e-06,7.0667,6.4
0.87890625,-7.03138736095216e-05,-4.5904116304264863e-05,-1.0256523750667554e-05,-6.841314702067564e-06,7.0667,6.4
0.8828125,-7.66625674830243e-05,-3.173998614480808e-05,6.344987182421647e-06,-9.815349660486418e-07,7.0667,6.4
0.88671875,-6.445409387350267e-05,-1.9049788311589197e-05,-1.5627389349202687e-05,-2.448277378500009e-06,7.0667,6.4
0.890625,-5.713476163881892e-05,-2.5391292271305375e-05,-2.393173977264054e-05,-4.885658152132421e-06,7.0667,6.4
0.89453125,-6.201671309987026e-05,-4.199280320439457e-05,-2.4902378133821584e-05,-9.767609613183765e-06,7.0667,6.4
0.8984375,-6.006105654993512e-05,-3.2228900282291876e-05,-2.099825494773782e-05,-2.930001602197265e-06,7.0667,6.4
0.90234375,-7.178061602197296e-05,-1.709413176165404e-05,-6.3524005645837746e-06,8.30064373235679e-06,7.0667,6.4
0.90625,-8.105560480659187e-05,-4.1503889066910776e-05,5.367158907454069e-06,1.4153233554589192e-05,7.0667,6.4
0.91015625,-7.373627257190812e-05,-6.006105654993512e-05,4.389330632486491e-06,9.271282093537834e-06,7.0667,6.4
0.9140625,-6.592083628595404e-05,-2.4902378133821584e-05,-3.80886800183108e-05,2.9225882200351233e-06,7.0667,6.4
0.91796875,-5.566801922636756e-05,-3.2228900282291876e-05,-3.80886800183108e-05,-3.706691081063695e-09,7.0667,6.4
0.921875,-5.566801922636756e-05,-5.517910508888377e-05,9.741215838865002e-07,9.741215838865002e-07,7.0667,6.4
0.92578125,-5.762367577630271e-05,-4.834149707789728e-05,-6.3524005645837746e-06,2.4408639963378675e-06,7.0667,6.4
0.9296875,-5.322344853894862e-05,-4.443737389181351e-05,-2.148716908522161e-05,-1.0256523750667554e-05,7.0667,6.4
0.93359375,-4.785258294041349e-05,-2.636912054627295e-05,1.9042374929427055e-05,-7.819142977035141e-06,7.0667,6.4
0.9375,-4.834149707789728e-05,-3.0762157869840506e-05,1.2693681055924344e-05,-6.841314702067564e-06,7.0667,6.4
0.94140625,-4.639303044174866e-05,-3.7599765880827003e-05,-3.173998614480808e-05,-9.278695475699976e-06,7.0667,6.4
0.9453125,-4.492628802929729e-05,-2.5391292271305375e-05,-3.0762157869840506e-05,-3.4189157396810543e-06,7.0667,6.4
0.94921875,-5.078606776531621e-05,-1.660521762417025e-05,-1.5138475211718898e-05,-8.300867200732397e-06,7.0667,6.4
0.953125,-5.322344853894862e-05,-2.5880206408789162e-05,-1.416064693675132e-05,-1.8560874174105406e-05,7.0667,6.4
0.95703125,-5.322344853894862e-05,-2.2953911497672962e-05,-2.783586295872432e-05,-1.9531512535286453e-05,7.0667,6.4
0.9609375,-5.029715362783243e-05,-4.396744014648632e-06,-2.8813691233691884e-05,-1.8560874174105406e-05,7.0667,6.4
0.96484375,-4.73636688029297e-05,-3.4189157396810543e-06,4.852074464027254e-07,-1.660521762417025e-05,7.0667,6.4
0.96875,-5.273453440146483e-05,-2.246499736018917e-05,1.2693681055924344e-05,-1.416064693675132e-05,7.0667,6.4
0.97265625,-4.5415202166781076e-05,-4.297063147936214e-05,-2.002042667277024e-05,-2.148716908522161e-05,7.0667,6.4
0.9765625,-3.7599765880827003e-05,-3.1251072007324294e-05,2.4408639963378675e-06,-2.393173977264054e-05,7.0667,6.4
0.98046875,-4.297063147936214e-05,-2.393173977264054e-05,5.367158907454069e-06,-1.3190008575570274e-05,7.0667,6.4
0.984375,-4.73636688029297e-05,-4.394845975432971e-05,-2.2953911497672962e-05,-8.789781338216186e-06,7.0667,6.4
0.98828125,-4.248171734187836e-05,-4.0044336568245934e-05,-1.2212180300602696e-05,-9.767609613183765e-06,7.0667,6.4
0.9921875,-4.443737389181351e-05,-3.2228900282291876e-05,-2.148716908522161e-05,-1.416064693675132e-05,7.0667,6.4
0.99609375,-4.834149707789728e-05,-4.0044336568245934e-05,-2.148716908522161e-05,-1.9531512535286453e-05,7.0667,6.4
1.0,-4.443737389181351e-05,-3.955542243076216e-05,-2.5391292271305375e-05,-1.6116303486686475e-05,7.0667,6.4
1.00390625,-4.1022164843213516e-05,-2.783586295872432e-05,-3.1251072007324294e-05,-2.050934081025403e-05,7.0667,6.4
1.0078125,-3.662193760585943e-05,-3.028043364614325e-05,-2.246499736018917e-05,-2.685803468375674e-05,7.0667,6.4
1.01171875,-3.955542243076216e-05,-3.7110851743343216e-05,-2.002042667277024e-05,-2.734694882124053e-05,7.0667,6.4
1.015625,-4.199280320439457e-05,-4.053325070572973e-05,-2.344282563515675e-05,-2.783586295872432e-05,7.0667,6.4
1.01953125,-3.369564269474324e-05,-4.1022164843213516e-05,-2.9302605371175672e-05,-2.8324777096208093e-05,7.0667,6.4
1.0234375,-3.613302346837564e-05,-3.5162385107194594e-05,-2.685803468375674e-05,-2.9302605371175672e-05,7.0667,6.4
1.02734375,-4.053325070572973e-05,-2.8324777096208093e-05,-3.5162385107194594e-05,-3.271781441977566e-05,7.0667,6.4
1.03125,-4.5904116304264863e-05,-2.636912054627295e-05,-2.393173977264054e-05,-3.0762157869840506e-05,7.0667,6.4
1.03515625,-4.9808239490348636e-05,-4.394845975432971e-05,-2.8324777096208093e-05,-2.685803468375674e-05,7.0667,6.4
1.0390625,-4.3459545616845926e-05,-5.517910508888377e-05,-3.369564269474324e-05,-3.418455683222701e-05,7.0667,6.4
1.04296875,-3.8577594155794585e-05,-5.1763896040283786e-05,4.852074464027254e-07,-2.9302605371175672e-05,7.0667,6.4
1.046875,-3.8577594155794585e-05,-4.9808239490348636e-05,-1.2212180300602696e-05,-1.6116303486686475e-05,7.0667,6.4
1.05078125,-3.80886800183108e-05,-4.834149707789728e-05,-4.0044336568245934e-05,-1.3678922713054064e-05,7.0667,6.4
1.0546875,-3.565129924467838e-05,-5.469019095139998e-05,-3.8577594155794585e-05,-1.7583045899137827e-05,7.0667,6.4
1.05859375,-3.369564269474324e-05,-4.785258294041349e-05,-3.565129924467838e-05,-2.5880206408789162e-05,7.0667,6.4
1.0625,-3.320672855725945e-05,-4.0044336568245934e-05,-3.320672855725945e-05,-2.9302605371175672e-05,7.0667,6.4
1.06640625,-3.271781441977566e-05,-4.834149707789728e-05,-4.1022164843213516e-05,-3.028043364614325e-05,7.0667,6.4
1.0703125,-3.271781441977566e-05,-5.078606776531621e-05,-5.078606776531621e-05,-3.1251072007324294e-05,7.0667,6.4
1.07421875,-2.8324777096208093e-05,-5.225281017776757e-05,-5.664584750133513e-05,-3.613302346837564e-05,7.0667,6.4
1.078125,-2.979151950865946e-05,-5.371236267643241e-05,-5.713476163881892e-05,-3.613302346837564e-05,7.0667,6.4
1.08203125,-3.662193760585943e-05,-4.73636688029297e-05,-4.639303044174866e-05,-3.662193760585943e-05,7.0667,6.4
1.0859375,-4.1022164843213516e-05,-5.273453440146483e-05,-3.271781441977566e-05,-3.369564269474324e-05,7.0667,6.4
1.08984375,-4.297063147936214e-05,-4.443737389181351e-05,-2.4902378133821584e-05,-3.2228900282291876e-05,7.0667,6.4
1.09375,-4.297063147936214e-05,-4.639303044174866e-05,-3.4673470969710807e-05,-3.1251072007324294e-05,7.0667,6.4
1.09765625,-3.8577594155794585e-05,-7.226953015945675e-05,-5.12749819028e-05,-3.0762157869840506e-05,7.0667,6.4
1.1015625,-2.8324777096208093e-05,-5.8594314137483755e-05,-3.369564269474324e-05,-3.320672855725945e-05,7.0667,6.4
1.10546875,-2.5880206408789162e-05,-5.322344853894862e-05,-2.685803468375674e-05,-3.369564269474324e-05,7.0667,6.4
1.109375,-2.5880206408789162e-05,-6.592083628595404e-05,-4.248171734187836e-05,-3.271781441977566e-05,7.0667,6.4
1.11328125,-3.028043364614325e-05,-6.982495947203782e-05,-5.322344853894862e-05,-2.2953911497672962e-05,7.0667,6.4
1.1171875,-2.8324777096208093e-05,-6.006105654993512e-05,-5.1763896040283786e-05,-1.7583045899137827e-05,7.0667,6.4
1.12109375,-2.4902378133821584e-05,-5.1763896040283786e-05,-6.543192214847025e-05,-2.393173977264054e-05,7.0667,6.4
1.125,-2.685803468375674e-05,-4.5415202166781076e-05,-5.957214241245133e-05,-3.1251072007324294e-05,7.0667,6.4
1.12890625,-1.9531512535286453e-05,-4.834149707789728e-05,-4.492628802929729e-05,-2.685803468375674e-05,7.0667,6.4
1.1328125,-2.050934081025403e-05,-4.5904116304264863e-05,-6.836540697337298e-05,-2.5880206408789162e-05,7.0667,6.4
1.13671875,-2.8324777096208093e-05,-3.418455683222701e-05,-5.615693336385134e-05,-3.2228900282291876e-05,7.0667,6.4
1.140625,-2.636912054627295e-05,-3.80886800183108e-05,-3.7110851743343216e-05,-3.271781441977566e-05,7.0667,6.4
1.14453125,-2.050934081025403e-05,-4.053325070572973e-05,-5.713476163881892e-05,-3.173998614480808e-05,7.0667,6.4
1.1484375,-2.393173977264054e-05,-4.931932535286485e-05,-6.103888482490269e-05,-3.1251072007324294e-05,7.0667,6.4
1.15234375,-2.1976083222705397e-05,-6.103888482490269e-05,-4.5904116304264863e-05,-3.369564269474324e-05,7.0667,6.4
1.15625,-2.148716908522161e-05,-4.1503889066910776e-05,-2.636912054627295e-05,-3.2228900282291876e-05,7.0667,6.4
1.16015625,-3.2228900282291876e-05,-3.320672855725945e-05,-4.5904116304264863e-05,-2.4902378133821584e-05,7.0667,6.4
1.1640625,-4.0044336568245934e-05,-3.906650829327837e-05,-2.734694882124053e-05,-1.9531512535286453e-05,7.0667,6.4
1.16796875,-3.173998614480808e-05,-4.1022164843213516e-05,-2.5391292271305375e-05,-2.002042667277024e-05,7.0667,6.4
1.171875,-2.246499736018917e-05,-4.9808239490348636e-05,-6.885432111085676e-05,-2.393173977264054e-05,7.0667,6.4
1.17578125,-2.734694882124053e-05,-5.225281017776757e-05,-6.445409387350267e-05,-3.418455683222701e-05,7.0667,6.4
1.1796875,-2.8813691233691884e-05,-6.640975042343782e-05,-7.617365334554051e-05,-3.80886800183108e-05,7.0667,6.4
1.18359375,-2.246499736018917e-05,-7.568473920805673e-05,-7.66625674830243e-05,-4.0044336568245934e-05,7.0667,6.4
1.1875,-2.2953911497672962e-05,-6.299454137483784e-05,-6.348345551232163e-05,-4.1503889066910776e-05,7.0667,6.4
1.19140625,-2.685803468375674e-05,-6.250562723735406e-05,-7.08027877470054e-05,-4.199280320439457e-05,7.0667,6.4
1.1953125,-2.685803468375674e-05,-7.422518670939189e-05,-7.519582507057295e-05,-4.73636688029297e-05,7.0667,6.4
1.19921875,-2.344282563515675e-05,-6.0549970687418905e-05,-5.908322827496754e-05,-3.955542243076216e-05,7.0667,6.4
1.203125,-2.4420653910124328e-05,-5.322344853894862e-05,-5.273453440146483e-05,-3.4673470969710807e-05,7.0667,6.4
1.20703125,-2.5391292271305375e-05,-2.393173977264054e-05,-7.226953015945675e-05,-4.0044336568245934e-05,7.0667,6.4
1.2109375,-1.3678922713054064e-05,-9.767609613183765e-06,-5.517910508888377e-05,-3.5162385107194594e-05,7.0667,6.4
1.21484375,-1.3190008575570274e-05,-4.688194457923244e-05,-3.173998614480808e-05,-2.8324777096208093e-05,7.0667,6.4
1.21875,-2.734694882124053e-05,-5.4201276813916195e-05,-3.613302346837564e-05,-2.4902378133821584e-05,7.0667,6.4
1.22265625,-2.685803468375674e-05,-3.662193760585943e-05,-4.1022164843213516e-05,-2.4420653910124328e-05,7.0667,6.4
1.2265625,-1.3678922713054064e-05,-3.5162385107194594e-05,-5.566801922636756e-05,-2.8324777096208093e-05,7.0667,6.4
1.23046875,-1.4649561074235109e-05,-5.078606776531621e-05,-5.517910508888377e-05,-3.271781441977566e-05,7.0667,6.4
1.234375,-2.002042667277024e-05,-3.80886800183108e-05,-4.639303044174866e-05,-3.369564269474324e-05,7.0667,6.4
1.23828125,-1.3678922713054064e-05,-2.5880206408789162e-05,-3.369564269474324e-05,-3.320672855725945e-05,7.0667,6.4
1.2421875,-5.863486427099985e-06,-3.662193760585943e-05,-3.5162385107194594e-05,-3.271781441977566e-05,7.0667,6.4
1.24609375,-1.4649561074235109e-05,-3.7110851743343216e-05,-4.053325070572973e-05,-3.028043364614325e-05,7.0667,6.4
1.25,-2.050934081025403e-05,-2.2953911497672962e-05,-3.4673470969710807e-05,-2.636912054627295e-05,7.0667,6.4
1.25390625,-1.9531512535286453e-05,-3.613302346837564e-05,-3.028043364614325e-05,-2.8813691233691884e-05,7.0667,6.4
1.2578125,-1.7583045899137827e-05,-5.029715362783243e-05,-2.246499736018917e-05,-3.2228900282291876e-05,7.0667,6.4
1.26171875,-1.1234352025635117e-05,-3.662193760585943e-05,-3.80886800183108e-05,-2.685803468375674e-05,7.0667,6.4
1.265625,-1.6116303486686475e-05,-4.053325070572973e-05,-4.053325070572973e-05,-2.5880206408789162e-05,7.0667,6.4
1.26953125,-2.5880206408789162e-05,-4.1503889066910776e-05,-1.0745437888151328e-05,-2.4420653910124328e-05,7.0667,6.4
1.2734375,-3.028043364614325e-05,-3.662193760585943e-05,3.900416495002701e-06,-2.148716908522161e-05,7.0667,6.4
1.27734375,-2.050934081025403e-05,-4.785258294041349e-05,-4.883041121538106e-05,-2.4902378133821584e-05,7.0667,6.4
1.28125,-1.416064693675132e-05,-3.955542243076216e-05,-7.812930989547566e-05,-3.565129924467838e-05,7.0667,6.4
1.28515625,-1.0745437888151328e-05,-2.246499736018917e-05,-7.129170188448919e-05,-3.0762157869840506e-05,7.0667,6.4
1.2890625,-1.709413176165404e-05,-3.906650829327837e-05,-7.959605230792703e-05,-2.5391292271305375e-05,7.0667,6.4
1.29296875,-2.783586295872432e-05,-6.006105654993512e-05,-6.201671309987026e-05,-2.979151950865946e-05,7.0667,6.4
1.296875,-2.099825494773782e-05,-4.883041121538106e-05,-6.543192214847025e-05,-1.709413176165404e-05,7.0667,6.4
1.30078125,-2.4420653910124328e-05,-7.226953015945675e-05,-6.201671309987026e-05,-1.4649561074235109e-05,7.0667,6.4
1.3046875,-2.734694882124053e-05,-0.00010156842883955135,-8.008496644541083e-05,-1.709413176165404e-05,7.0667,6.4
1.30859375,-2.5391292271305375e-05,-0.00010059060056458378,-0.00013183077596704048,-9.767609613183765e-06,7.0667,6.4
1.3125,-1.7583045899137827e-05,-0.0001123029701228351,-0.00014208359302662695,-1.95936324101622e-06,7.0667,6.4
1.31640625,-1.2701094438086485e-05,-0.0001245114437323567,-0.00013671272742809182,1.3671509330891922e-05,7.0667,6.4
1.3203125,-1.2212180300602696e-05,-0.0001513657717250324,-0.00014941011517509724,2.9784106126497335e-05,7.0667,6.4
1.32421875,-1.709413176165404e-05,-0.00017138249170672157,-0.00016015184637216753,3.564388586251624e-05,7.0667,6.4
1.328125,-2.344282563515675e-05,-0.00017870901385519185,-0.00017138249170672157,3.759235249866486e-05,7.0667,6.4
1.33203125,-2.5391292271305375e-05,-0.00018310205117875943,-0.00018700617436484318,4.1503665598535176e-05,7.0667,6.4
1.3359375,-2.4420653910124328e-05,-0.00019091748746471345,-0.00018505770772869455,4.05258373235676e-05,7.0667,6.4
1.33984375,-1.709413176165404e-05,-0.00019725899142442965,-0.00018310205117875943,3.368822931258108e-05,7.0667,6.4
1.34375,-2.148716908522161e-05,-0.00018310205117875943,-0.00017968684213015944,2.7339535439078387e-05,7.0667,6.4
1.34765625,-2.734694882124053e-05,-0.00017089357756923778,-0.0001762644431677729,3.2710401037613535e-05,7.0667,6.4
1.3515625,-2.636912054627295e-05,-0.00016894511093308915,-0.00015624772318608375,4.1985389822232435e-05,7.0667,6.4
1.35546875,-2.8324777096208093e-05,-0.00016796728265812159,-0.00017138249170672157,3.4666057587548665e-05,7.0667,6.4
1.359375,-2.148716908522161e-05,-0.00015575880904859996,-0.00015917401809719994,3.1243658625162166e-05,7.0667,6.4
1.36328125,-1.7583045899137827e-05,-0.00011718492158388644,-0.00014208359302662695,3.2710401037613535e-05,7.0667,6.4
1.3671875,-2.9302605371175672e-05,-0.00013622381329060805,-0.00016601162610818644,2.4902154665445974e-05,7.0667,6.4
1.37109375,-3.955542243076216e-05,-0.0001767533573052567,-0.00015038794345006483,1.6108890104524333e-05,7.0667,6.4
1.375,-3.662193760585943e-05,-0.00017528661489280535,-0.00014794337276264588,1.5131061829556757e-05,7.0667,6.4
1.37890625,-4.199280320439457e-05,-0.00016210750292210266,-0.00014257250716411075,2.050192742809189e-05,7.0667,6.4
1.3828125,-3.955542243076216e-05,-0.00013622381329060805,-0.00013280860424200807,1.75756325169757e-05,7.0667,6.4
1.38671875,-4.1022164843213516e-05,-0.00014501707785152966,-0.00012206687304493778,2.0013013290608112e-05,7.0667,6.4
1.390625,-4.3459545616845926e-05,-0.0001347642607919432,-9.424190669108107e-05,2.294649811551082e-05,7.0667,6.4
1.39453125,-3.320672855725945e-05,-0.00012353361545738915,-0.00011328079839780266,1.7086718379491912e-05,7.0667,6.4
1.3984375,-2.8813691233691884e-05,-0.00013231969010452427,-0.00014013512639047835,6.833901319905422e-06,7.0667,6.4
1.40234375,-3.906650829327837e-05,-0.00011669600744640266,-0.00012645991036850534,9.760196231021624e-06,7.0667,6.4
1.40625,-4.785258294041349e-05,-9.131561177996488e-05,-7.910713817044324e-05,2.0013013290608112e-05,7.0667,6.4
1.41015625,-3.4673470969710807e-05,-6.201671309987026e-05,-7.812930989547566e-05,6.833901319905422e-06,7.0667,6.4
1.4140625,-2.8813691233691884e-05,-7.129170188448919e-05,-8.056669066910807e-05,-5.374572289616196e-06,7.0667,6.4
1.41796875,-2.9302605371175672e-05,-0.00010400580961318376,-8.252234721904324e-05,-6.841314702067564e-06,7.0667,6.4
1.421875,-3.0762157869840506e-05,-9.521973496604864e-05,-9.765711573968105e-05,-1.660521762417025e-05,7.0667,6.4
1.42578125,-3.80886800183108e-05,-7.178061602197296e-05,-7.471410084687568e-05,-1.7583045899137827e-05,7.0667,6.4
1.4296875,-3.80886800183108e-05,-3.8577594155794585e-05,-5.469019095139998e-05,-1.7583045899137827e-05,7.0667,6.4
1.43359375,-3.320672855725945e-05,-4.785258294041349e-05,-2.636912054627295e-05,-2.4902378133821584e-05,7.0667,6.4
1.4375,-3.2228900282291876e-05,-4.492628802929729e-05,-3.2228900282291876e-05,-2.5880206408789162e-05,7.0667,6.4
1.44140625,-3.271781441977566e-05,-1.709413176165404e-05,-2.685803468375674e-05,-3.4673470969710807e-05,7.0667,6.4
1.4453125,-3.4673470969710807e-05,-1.5138475211718898e-05,-1.1234352025635117e-05,-4.1503889066910776e-05,7.0667,6.4
1.44921875,-3.173998614480808e-05,3.4115023575189125e-06,-2.734694882124053e-05,-4.1503889066910776e-05,7.0667,6.4
1.453125,-3.0762157869840506e-05,-3.706691081063695e-09,-1.709413176165404e-05,-3.613302346837564e-05,7.0667,6.4
1.45703125,-3.8577594155794585e-05,1.6108890104524333e-05,-2.2953911497672962e-05,-3.2228900282291876e-05,7.0667,6.4
1.4609375,-3.418455683222701e-05,2.2457583978027043e-05,-3.9078298771648436e-06,-4.1022164843213516e-05,7.0667,6.4
1.46484375,-2.344282563515675e-05,1.4642147692072967e-05,2.4408639963378675e-06,-4.785258294041349e-05,7.0667,6.4
1.46875,-2.685803468375674e-05,9.760196231021624e-06,1.4630357213702892e-06,-4.785258294041349e-05,7.0667,6.4
1.47265625,-3.565129924467838e-05,9.741215838865002e-07,1.806454665445949e-05,-5.12749819028e-05,7.0667,6.4
1.4765625,-3.8577594155794585e-05,2.294649811551082e-05,1.7086718379491912e-05,-5.469019095139998e-05,7.0667,6.4
1.48046875,-3.955542243076216e-05,2.587279302662702e-05,3.8081266636148656e-05,-5.908322827496754e-05,7.0667,6.4
1.484375,-3.1251072007324294e-05,2.7339535439078387e-05,9.52123215838865e-05,-6.592083628595404e-05,7.0667,6.4
1.48828125,-2.8324777096208093e-05,4.247430395971622e-05,6.0542557305256764e-05,-6.885432111085676e-05,7.0667,6.4
1.4921875,-3.173998614480808e-05,3.8081266636148656e-05,-2.5391292271305375e-05,-7.324735843442432e-05,7.0667,6.4
1.49609375,-2.9302605371175672e-05,2.587279302662702e-05,-1.7583045899137827e-05,-7.764039575799188e-05,7.0667,6.4
1.5,-2.393173977264054e-05,4.882299783321892e-05,8.30064373235679e-06,-7.568473920805673e-05,7.0667,6.4
1.50390625,-2.099825494773782e-05,6.29871279926757e-05,2.1968669840543256e-05,-7.373627257190812e-05,7.0667,6.4
1.5078125,-2.734694882124053e-05,3.0273020263981123e-05,2.8317363714045966e-05,-6.787649283588919e-05,7.0667,6.4
1.51171875,-3.613302346837564e-05,2.0013013290608112e-05,2.4413240527962187e-05,-6.250562723735406e-05,7.0667,6.4
1.515625,-3.7110851743343216e-05,2.587279302662702e-05,2.587279302662702e-05,-6.689866456092161e-05,7.0667,6.4
1.51953125,-4.199280320439457e-05,9.271282093537834e-06,1.7086718379491912e-05,-7.08027877470054e-05,7.0667,6.4
1.5234375,-4.297063147936214e-05,2.8806277851529756e-05,2.0013013290608112e-05,-6.592083628595404e-05,7.0667,6.4
1.52734375,-3.7599765880827003e-05,2.0013013290608112e-05,4.1503665598535176e-05,-6.250562723735406e-05,7.0667,6.4
1.53125,-4.199280320439457e-05,2.4413240527962187e-05,2.9295191989013544e-05,-6.494300801098645e-05,7.0667,6.4
1.53515625,-4.1022164843213516e-05,2.7339535439078387e-05,7.811729594873e-06,-6.885432111085676e-05,7.0667,6.4
1.5390625,-3.173998614480808e-05,1.9519498588540783e-06,-1.1723266163118907e-05,-6.982495947203782e-05,7.0667,6.4
1.54296875,-3.7599765880827003e-05,7.811729594873e-06,-1.8071960036621618e-05,-6.787649283588919e-05,7.0667,6.4
1.546875,-4.053325070572973e-05,2.3435412252994608e-05,8.782367956054045e-06,-7.519582507057295e-05,7.0667,6.4
1.55078125,-3.906650829327837e-05,1.5131061829556757e-05,2.7828449576562178e-05,-7.178061602197296e-05,7.0667,6.4
1.5546875,-3.613302346837564e-05,9.271282093537834e-06,2.8806277851529756e-05,-5.8594314137483755e-05,7.0667,6.4
1.55859375,-3.369564269474324e-05,1.3671509330891922e-05,1.0738024505989202e-05,-6.152779896238648e-05,7.0667,6.4
1.5625,-3.565129924467838e-05,2.1479755703059468e-05,4.87824476997028e-06,-6.348345551232163e-05,7.0667,6.4
1.56640625,-3.662193760585943e-05,1.9524099153124325e-05,7.322815457389211e-06,-6.006105654993512e-05,7.0667,6.4
1.5703125,-4.443737389181351e-05,4.389330632486491e-06,1.0249110368505413e-05,-5.322344853894862e-05,7.0667,6.4
1.57421875,-3.955542243076216e-05,-4.926208285648527e-07,1.4642147692072967e-05,-4.883041121538106e-05,7.0667,6.4
1.578125,-2.393173977264054e-05,9.271282093537834e-06,-2.1976083222705397e-05,-5.273453440146483e-05,7.0667,6.4
1.58203125,-2.1976083222705397e-05,3.222148690012975e-05,-9.767609613183765e-06,-5.469019095139998e-05,7.0667,6.4
1.5859375,-1.9049788311589197e-05,2.5383878889143233e-05,1.4642147692072967e-05,-5.1763896040283786e-05,7.0667,6.4
1.58984375,-2.1976083222705397e-05,-9.815349660486418e-07,8.30064373235679e-06,-5.713476163881892e-05,7.0667,6.4
1.59375,-3.271781441977566e-05,3.4115023575189125e-06,-4.396744014648632e-06,-5.713476163881892e-05,7.0667,6.4
1.59765625,-3.028043364614325e-05,1.4153233554589192e-05,-2.930001602197265e-06,-5.1763896040283786e-05,7.0667,6.4
1.6015625,-2.685803468375674e-05,-4.926208285648527e-07,1.4630357213702892e-06,-5.4201276813916195e-05,7.0667,6.4
1.60546875,-1.9531512535286453e-05,-4.926208285648527e-07,5.8560730449378575e-06,-5.957214241245133e-05,7.0667,6.4
1.609375,-2.099825494773782e-05,-1.95936324101622e-06,2.0990841565575677e-05,-5.762367577630271e-05,7.0667,6.4
1.61328125,-2.685803468375674e-05,-1.1723266163118907e-05,1.3671509330891922e-05,-5.12749819028e-05,7.0667,6.4
1.6171875,-2.2953911497672962e-05,-5.863486427099985e-06,6.344987182421647e-06,-4.73636688029297e-05,7.0667,6.4
1.62109375,-2.4902378133821584e-05,2.4408639963378675e-06,-4.396744014648632e-06,-4.1022164843213516e-05,7.0667,6.4
1.625,-2.783586295872432e-05,3.1732572762645953e-05,4.389330632486491e-06,-4.053325070572973e-05,7.0667,6.4
1.62890625,-2.636912054627295e-05,1.3182595193408133e-05,8.30064373235679e-06,-4.834149707789728e-05,7.0667,6.4
1.6328125,-2.4420653910124328e-05,3.4115023575189125e-06,-9.767609613183765e-06,-5.1763896040283786e-05,7.0667,6.4
1.63671875,-2.685803468375674e-05,-5.863486427099985e-06,-1.416064693675132e-05,-4.492628802929729e-05,7.0667,6.4
1.640625,-3.1251072007324294e-05,-1.416064693675132e-05,-2.246499736018917e-05,-4.443737389181351e-05,7.0667,6.4
1.64453125,-3.369564269474324e-05,2.4408639963378675e-06,-3.9078298771648436e-06,-4.394845975432971e-05,7.0667,6.4
1.6484375,-2.4902378133821584e-05,-3.4189157396810543e-06,1.75756325169757e-05,-4.394845975432971e-05,7.0667,6.4
1.65234375,-2.5391292271305375e-05,-2.002042667277024e-05,-1.0745437888151328e-05,-4.785258294041349e-05,7.0667,6.4
1.65625,-2.393173977264054e-05,-2.9302605371175672e-05,-2.5880206408789162e-05,-4.248171734187836e-05,7.0667,6.4
1.66015625,-1.416064693675132e-05,-7.330228839551352e-06,2.4408639963378675e-06,-3.5162385107194594e-05,7.0667,6.4
1.6640625,-1.2212180300602696e-05,8.30064373235679e-06,-1.8071960036621618e-05,-3.5162385107194594e-05,7.0667,6.4
1.66796875,-1.7583045899137827e-05,-1.8560874174105406e-05,-3.0762157869840506e-05,-4.248171734187836e-05,7.0667,6.4
1.671875,-2.393173977264054e-05,-2.148716908522161e-05,5.367158907454069e-06,-3.955542243076216e-05,7.0667,6.4
1.67578125,-2.685803468375674e-05,1.9519498588540783e-06,-1.0745437888151328e-05,-4.3459545616845926e-05,7.0667,6.4
1.6796875,-2.5391292271305375e-05,-1.1723266163118907e-05,-1.4649561074235109e-05,-4.443737389181351e-05,7.0667,6.4
1.68359375,-2.783586295872432e-05,-2.148716908522161e-05,-4.926208285648527e-07,-3.8577594155794585e-05,7.0667,6.4
1.6875,-2.8813691233691884e-05,6.833901319905422e-06,-6.841314702067564e-06,-3.80886800183108e-05,7.0667,6.4
1.69140625,-2.8813691233691884e-05,1.4630357213702892e-06,-3.9078298771648436e-06,-3.8577594155794585e-05,7.0667,6.4
1.6953125,-3.613302346837564e-05,-2.4420653910124328e-05,-2.979151950865946e-05,-4.0044336568245934e-05,7.0667,6.4
1.69921875,-3.613302346837564e-05,-2.783586295872432e-05,-1.5138475211718898e-05,-3.8577594155794585e-05,7.0667,6.4
1.703125,-3.7599765880827003e-05,-1.0745437888151328e-05,1.9524099153124325e-05,-3.5162385107194594e-05,7.0667,6.4
1.70703125,-3.8577594155794585e-05,-1.3678922713054064e-05,-9.815349660486418e-07,-3.955542243076216e-05,7.0667,6.4
1.7109375,-2.734694882124053e-05,-2.4420653910124328e-05,-2.246499736018917e-05,-4.248171734187836e-05,7.0667,6.4
1.71484375,-2.246499736018917e-05,-1.4649561074235109e-05,-8.789781338216186e-06,-4.1022164843213516e-05,7.0667,6.4
1.71875,-3.028043364614325e-05,-1.709413176165404e-05,-1.5138475211718898e-05,-4.297063147936214e-05,7.0667,6.4
1.72265625,-2.9302605371175672e-05,-1.2212180300602696e-05,-8.300867200732397e-06,-4.834149707789728e-05,7.0667,6.4
1.7265625,-2.9302605371175672e-05,-1.2212180300602696e-05,-1.2701094438086485e-05,-5.517910508888377e-05,7.0667,6.4
1.73046875,-3.955542243076216e-05,-3.173998614480808e-05,-4.1503889066910776e-05,-5.273453440146483e-05,7.0667,6.4
1.734375,-3.565129924467838e-05,-3.7110851743343216e-05,-2.734694882124053e-05,-4.492628802929729e-05,7.0667,6.4
1.73828125,-2.783586295872432e-05,-2.246499736018917e-05,-2.148716908522161e-05,-4.785258294041349e-05,7.0667,6.4
1.7421875,-3.2228900282291876e-05,-6.841314702067564e-06,-1.4649561074235109e-05,-4.883041121538106e-05,7.0667,6.4
1.74609375,-3.0762157869840506e-05,-1.709413176165404e-05,2.9225882200351233e-06,-4.5904116304264863e-05,7.0667,6.4
1.75,-2.8324777096208093e-05,-1.9049788311589197e-05,-2.4420653910124328e-05,-5.12749819028e-05,7.0667,6.4
1.75390625,-3.0762157869840506e-05,-3.320672855725945e-05,-2.734694882124053e-05,-4.9808239490348636e-05,7.0667,6.4
1.7578125,-2.734694882124053e-05,-2.636912054627295e-05,-1.6116303486686475e-05,-4.248171734187836e-05,7.0667,6.4
1.76171875,-2.9302605371175672e-05,-1.709413176165404e-05,-2.8813691233691884e-05,-4.297063147936214e-05,7.0667,6.4
1.765625,-3.028043364614325e-05,-1.9049788311589197e-05,-1.8071960036621618e-05,-4.639303044174866e-05,7.0667,6.4
1.76953125,-3.028043364614325e-05,-1.7583045899137827e-05,1.3182595193408133e-05,-4.1503889066910776e-05,7.0667,6.4
1.7734375,-2.9302605371175672e-05,-2.734694882124053e-05,-2.002042667277024e-05,-3.565129924467838e-05,7.0667,6.4
1.77734375,-2.783586295872432e-05,-2.4420653910124328e-05,-1.4649561074235109e-05,-3.2228900282291876e-05,7.0667,6.4
1.78125,-2.8813691233691884e-05,1.0249110368505413e-05,1.6108890104524333e-05,-3.4673470969710807e-05,7.0667,6.4
1.78515625,-2.5391292271305375e-05,7.322815457389211e-06,-2.8324777096208093e-05,-3.906650829327837e-05,7.0667,6.4
1.7890625,-2.4420653910124328e-05,-4.0044336568245934e-05,-3.7599765880827003e-05,-3.565129924467838e-05,7.0667,6.4
1.79296875,-2.979151950865946e-05,-4.394845975432971e-05,-1.3678922713054064e-05,-2.734694882124053e-05,7.0667,6.4
1.796875,-2.783586295872432e-05,-2.8813691233691884e-05,-2.148716908522161e-05,-2.783586295872432e-05,7.0667,6.4
1.80078125,-2.979151950865946e-05,-2.783586295872432e-05,-2.783586295872432e-05,-3.369564269474324e-05,7.0667,6.4
1.8046875,-3.271781441977566e-05,-2.4902378133821584e-05,-2.8324777096208093e-05,-3.7110851743343216e-05,7.0667,6.4
1.80859375,-2.5391292271305375e-05,-4.394845975432971e-05,-2.1976083222705397e-05,-4.297063147936214e-05,7.0667,6.4
1.8125,-2.344282563515675e-05,-4.5904116304264863e-05,-2.979151950865946e-05,-4.053325070572973e-05,7.0667,6.4
1.81640625,-2.4902378133821584e-05,-2.4902378133821584e-05,-3.5162385107194594e-05,-3.4673470969710807e-05,7.0667,6.4
1.8203125,-2.9302605371175672e-05,-2.050934081025403e-05,-3.320672855725945e-05,-3.565129924467838e-05,7.0667,6.4
1.82421875,-3.369564269474324e-05,-2.4420653910124328e-05,-2.734694882124053e-05,-3.7599765880827003e-05,7.0667,6.4
1.828125,-2.734694882124053e-05,-3.906650829327837e-05,-1.709413176165404e-05,-3.7599765880827003e-05,7.0667,6.4
1.83203125,-2.344282563515675e-05,-3.2228900282291876e-05,-1.9531512535286453e-05,-3.613302346837564e-05,7.0667,6.4
1.8359375,-3.418455683222701e-05,-4.688194457923244e-05,-3.1251072007324294e-05,-4.1503889066910776e-05,7.0667,6.4
1.83984375,-3.8577594155794585e-05,-3.7599765880827003e-05,-6.592083628595404e-05,-3.955542243076216e-05,7.0667,6.4
1.84375,-3.369564269474324e-05,-2.246499736018917e-05,-6.640975042343782e-05,-2.636912054627295e-05,7.0667,6.4
1.84765625,-3.173998614480808e-05,-6.006105654993512e-05,-3.2228900282291876e-05,-2.393173977264054e-05,7.0667,6.4
1.8515625,-2.8813691233691884e-05,-4.3459545616845926e-05,-4.5415202166781076e-05,-2.8813691233691884e-05,7.0667,6.4
1.85546875,-2.636912054627295e-05,-3.418455683222701e-05,-5.371236267643241e-05,-2.9302605371175672e-05,7.0667,6.4
1.859375,-2.4420653910124328e-05,-3.565129924467838e-05,-5.1763896040283786e-05,-2.685803468375674e-05,7.0667,6.4
1.86328125,-2.8324777096208093e-05,-2.734694882124053e-05,-1.660521762417025e-05,-2.4420653910124328e-05,7.0667,6.4
1.8671875,-3.369564269474324e-05,-3.4673470969710807e-05,-1.5138475211718898e-05,-2.246499736018917e-05,7.0667,6.4
1.87109375,-3.028043364614325e-05,-4.1503889066910776e-05,-3.906650829327837e-05,-2.393173977264054e-05,7.0667,6.4
1.875,-2.685803468375674e-05,-3.0762157869840506e-05,-4.1503889066910776e-05,-2.9302605371175672e-05,7.0667,6.4
1.87890625,-2.685803468375674e-05,-3.955542243076216e-05,-6.494300801098645e-05,-2.685803468375674e-05,7.0667,6.4
1.8828125,-2.783586295872432e-05,-5.517910508888377e-05,-3.1251072007324294e-05,-2.4902378133821584e-05,7.0667,6.4
1.88671875,-2.9302605371175672e-05,-5.762367577630271e-05,-3.5162385107194594e-05,-2.2953911497672962e-05,7.0667,6.4
1.890625,-2.9302605371175672e-05,-6.250562723735406e-05,-6.836540697337298e-05,-2.148716908522161e-05,7.0667,6.4
1.89453125,-3.418455683222701e-05,-7.324735843442432e-05,-7.08027877470054e-05,-2.5391292271305375e-05,7.0667,6.4
1.8984375,-2.783586295872432e-05,-7.275844429694053e-05,-6.0549970687418905e-05,-1.2701094438086485e-05,7.0667,6.4
1.90234375,-2.4420653910124328e-05,-6.103888482490269e-05,-7.910713817044324e-05,-8.300867200732397e-06,7.0667,6.4
1.90625,-3.5162385107194594e-05,-6.885432111085676e-05,-9.424190669108107e-05,-1.4649561074235109e-05,7.0667,6.4
1.91015625,-3.4673470969710807e-05,-8.838212695506214e-05,-9.03377835049973e-05,-3.9078298771648436e-06,7.0667,6.4
1.9140625,-3.418455683222701e-05,-8.984886936751351e-05,-9.179733600366214e-05,8.30064373235679e-06,7.0667,6.4
1.91796875,-3.320672855725945e-05,-6.689866456092161e-05,-7.129170188448919e-05,1.6108890104524333e-05,7.0667,6.4
1.921875,-2.2953911497672962e-05,-7.129170188448919e-05,-6.103888482490269e-05,1.5131061829556757e-05,7.0667,6.4
1.92578125,-2.8324777096208093e-05,-7.959605230792703e-05,-3.8577594155794585e-05,2.39243263904784e-05,7.0667,6.4
1.9296875,-3.906650829327837e-05,-6.982495947203782e-05,-4.785258294041349e-05,2.9784106126497335e-05,7.0667,6.4
1.93359375,-3.5162385107194594e-05,-6.396517973601889e-05,-8.056669066910807e-05,3.222148690012975e-05,7.0667,6.4
1.9375,-3.613302346837564e-05,-5.664584750133513e-05,-6.689866456092161e-05,3.0273020263981123e-05,7.0667,6.4
1.94140625,-4.394845975432971e-05,-2.979151950865946e-05,-4.394845975432971e-05,1.1715852780956779e-05,7.0667,6.4
1.9453125,-4.0044336568245934e-05,-1.2701094438086485e-05,-2.783586295872432e-05,4.87824476997028e-06,7.0667,6.4
1.94921875,-2.734694882124053e-05,-1.416064693675132e-05,-3.2228900282291876e-05,-2.448277378500009e-06,7.0667,6.4
1.953125,-2.783586295872432e-05,-1.709413176165404e-05,-3.271781441977566e-05,-1.3190008575570274e-05,7.0667,6.4
1.95703125,-3.320672855725945e-05,-1.3190008575570274e-05,-4.396744014648632e-06,-9.278695475699976e-06,7.0667,6.4
1.9609375,-2.734694882124053e-05,1.0249110368505413e-05,1.9042374929427055e-05,-1.1234352025635117e-05,7.0667,6.4
1.96484375,-1.660521762417025e-05,2.3435412252994608e-05,3.4115023575189125e-06,-2.148716908522161e-05,7.0667,6.4
1.96875,-2.1976083222705397e-05,2.9295191989013544e-05,6.344987182421647e-06,-2.5391292271305375e-05,7.0667,6.4
1.97265625,-2.8813691233691884e-05,2.294649811551082e-05,2.0990841565575677e-05,-3.028043364614325e-05,7.0667,6.4
1.9765625,-2.2953911497672962e-05,1.8553460791943264e-05,5.566060584420543e-05,-3.5162385107194594e-05,7.0667,6.4
1.98046875,-2.1976083222705397e-05,4.68745311970703e-05,6.395776635385675e-05,-4.1022164843213516e-05,7.0667,6.4
1.984375,-2.002042667277024e-05,3.564388586251624e-05,2.587279302662702e-05,-4.492628802929729e-05,7.0667,6.4
1.98828125,-2.4420653910124328e-05,8.30064373235679e-06,1.75756325169757e-05,-3.613302346837564e-05,7.0667,6.4
1.9921875,-2.393173977264054e-05,1.6108890104524333e-05,3.368822931258108e-05,-2.979151950865946e-05,7.0667,6.4
1.99609375,-1.1723266163118907e-05,3.0273020263981123e-05,2.5383878889143233e-05,-3.0762157869840506e-05,7.0667,6.4
2.0,-1.5138475211718898e-05,1.2693681055924344e-05,-7.330228839551352e-06,-3.613302346837564e-05,7.0667,6.4
2.00390625,-1.4649561074235109e-05,4.852074464027254e-07,3.900416495002701e-06,-3.80886800183108e-05,7.0667,6.4
2.0078125,-1.3190008575570274e-05,1.9042374929427055e-05,1.806454665445949e-05,-3.8577594155794585e-05,7.0667,6.4
2.01171875,-1.660521762417025e-05,1.4153233554589192e-05,9.760196231021624e-06,-4.1503889066910776e-05,7.0667,6.4
2.015625,-1.2701094438086485e-05,6.833901319905422e-06,9.271282093537834e-06,-4.443737389181351e-05,7.0667,6.4
2.01953125,-1.660521762417025e-05,1.2693681055924344e-05,6.833901319905422e-06,-4.5904116304264863e-05,7.0667,6.4
2.0234375,-2.344282563515675e-05,2.1479755703059468e-05,-1.1234352025635117e-05,-4.248171734187836e-05,7.0667,6.4
2.02734375,-2.344282563515675e-05,2.636170716411081e-05,-1.6116303486686475e-05,-4.1503889066910776e-05,7.0667,6.4
2.03125,-2.685803468375674e-05,3.900416495002701e-06,9.741215838865002e-07,-3.955542243076216e-05,7.0667,6.4
2.03515625,-3.0762157869840506e-05,-1.709413176165404e-05,1.5619975967040546e-05,-4.1022164843213516e-05,7.0667,6.4
2.0390625,-2.9302605371175672e-05,-1.1723266163118907e-05,4.389330632486491e-06,-4.1503889066910776e-05,7.0667,6.4
2.04296875,-2.5391292271305375e-05,6.833901319905422e-06,-1.2212180300602696e-05,-3.4673470969710807e-05,7.0667,6.4
2.046875,-3.0762157869840506e-05,5.367158907454069e-06,-4.396744014648632e-06,-3.0762157869840506e-05,7.0667,6.4
2.05078125,-3.662193760585943e-05,-2.930001602197265e-06,2.1479755703059468e-05,-2.4420653910124328e-05,7.0667,6.4
2.0546875,-3.0762157869840506e-05,-1.1723266163118907e-05,6.833901319905422e-06,-2.636912054627295e-05,7.0667,6.4
2.05859375,-2.8813691233691884e-05,-1.2212180300602696e-05,-2.783586295872432e-05,-2.8324777096208093e-05,7.0667,6.4
2.0625,-3.4673470969710807e-05,2.4408639963378675e-06,-3.4189157396810543e-06,-2.734694882124053e-05,7.0667,6.4
2.06640625,-3.369564269474324e-05,-5.374572289616196e-06,2.1479755703059468e-05,-3.173998614480808e-05,7.0667,6.4
2.0703125,-3.369564269474324e-05,-2.636912054627295e-05,-1.8560874174105406e-05,-3.271781441977566e-05,7.0667,6.4
2.07421875,-3.0762157869840506e-05,-2.685803468375674e-05,-3.173998614480808e-05,-3.271781441977566e-05,7.0667,6.4
2.078125,-2.2953911497672962e-05,-1.2701094438086485e-05,-1.5627389349202687e-05,-3.662193760585943e-05,7.0667,6.4
2.08203125,-2.002042667277024e-05,-6.3524005645837746e-06,-1.2701094438086485e-05,-3.2228900282291876e-05,7.0667,6.4
2.0859375,-2.4420653910124328e-05,1.9519498588540783e-06,-3.706691081063695e-09,-2.1976083222705397e-05,7.0667,6.4
2.08984375,-2.636912054627295e-05,2.8317363714045966e-05,-1.95936324101622e-06,-2.734694882124053e-05,7.0667,6.4
2.09375,-2.050934081025403e-05,4.87824476997028e-06,-1.9049788311589197e-05,-3.028043364614325e-05,7.0667,6.4
2.09765625,-2.2953911497672962e-05,-1.9531512535286453e-05,8.30064373235679e-06,-1.8071960036621618e-05,7.0667,6.4
2.1015625,-2.4902378133821584e-05,1.4630357213702892e-06,1.9524099153124325e-05,-2.148716908522161e-05,7.0667,6.4
2.10546875,-2.393173977264054e-05,1.2693681055924344e-05,1.4642147692072967e-05,-2.4420653910124328e-05,7.0667,6.4
2.109375,-2.099825494773782e-05,4.389330632486491e-06,-1.470449103532431e-06,-3.0762157869840506e-05,7.0667,6.4
2.11328125,-1.6116303486686475e-05,2.39243263904784e-05,1.4642147692072967e-05,-4.73636688029297e-05,7.0667,6.4
2.1171875,-2.099825494773782e-05,2.1968669840543256e-05,6.833901319905422e-06,-4.931932535286485e-05,7.0667,6.4
2.12109375,-2.2953911497672962e-05,1.9042374929427055e-05,-2.148716908522161e-05,-4.73636688029297e-05,7.0667,6.4
2.125,-1.9531512535286453e-05,2.2457583978027043e-05,-4.396744014648632e-06,-5.1763896040283786e-05,7.0667,6.4
2.12890625,-2.9302605371175672e-05,2.2457583978027043e-05,8.30064373235679e-06,-5.1763896040283786e-05,7.0667,6.4
2.1328125,-3.662193760585943e-05,3.075474448767838e-05,1.122693864347299e-05,-5.078606776531621e-05,7.0667,6.4
2.13671875,-2.9302605371175672e-05,2.68506213015946e-05,1.806454665445949e-05,-4.785258294041349e-05,7.0667,6.4
2.140625,-2.2953911497672962e-05,1.3671509330891922e-05,4.442996050965138e-05,-4.394845975432971e-05,7.0667,6.4
2.14453125,-3.028043364614325e-05,2.1479755703059468e-05,3.075474448767838e-05,-4.297063147936214e-05,7.0667,6.4
2.1484375,-3.418455683222701e-05,3.0273020263981123e-05,1.0249110368505413e-05,-4.0044336568245934e-05,7.0667,6.4
2.15234375,-2.5880206408789162e-05,1.3182595193408133e-05,1.122693864347299e-05,-4.3459545616845926e-05,7.0667,6.4
2.15625,-2.148716908522161e-05,1.0738024505989202e-05,-4.885658152132421e-06,-5.273453440146483e-05,7.0667,6.4
2.16015625,-2.148716908522161e-05,1.9042374929427055e-05,-1.3678922713054064e-05,-4.883041121538106e-05,7.0667,6.4
2.1640625,-2.5880206408789162e-05,1.9042374929427055e-05,-1.470449103532431e-06,-4.3459545616845926e-05,7.0667,6.4
2.16796875,-2.4902378133821584e-05,1.5619975967040546e-05,2.1968669840543256e-05,-4.053325070572973e-05,7.0667,6.4
2.171875,-1.7583045899137827e-05,2.39243263904784e-05,2.4413240527962187e-05,-3.7110851743343216e-05,7.0667,6.4
2.17578125,-1.2212180300602696e-05,1.5619975967040546e-05,-1.3190008575570274e-05,-4.199280320439457e-05,7.0667,6.4
2.1796875,-1.3678922713054064e-05,3.0273020263981123e-05,-1.9531512535286453e-05,-4.3459545616845926e-05,7.0667,6.4
2.18359375,-1.5627389349202687e-05,4.1503665598535176e-05,-5.863486427099985e-06,-4.199280320439457e-05,7.0667,6.4
2.1875,-1.3678922713054064e-05,2.68506213015946e-05,2.4408639963378675e-06,-3.7110851743343216e-05,7.0667,6.4
2.19140625,-1.8071960036621618e-05,2.636170716411081e-05,-1.95936324101622e-06,-3.369564269474324e-05,7.0667,6.4
2.1953125,-2.002042667277024e-05,4.852074464027254e-07,-1.6116303486686475e-05,-3.320672855725945e-05,7.0667,6.4
2.19921875,-1.9049788311589197e-05,-2.1976083222705397e-05,-9.767609613183765e-06,-3.955542243076216e-05,7.0667,6.4
2.203125,-1.9531512535286453e-05,-9.278695475699976e-06,-6.841314702067564e-06,-4.492628802929729e-05,7.0667,6.4
2.20703125,-1.709413176165404e-05,9.271282093537834e-06,-4.885658152132421e-06,-4.443737389181351e-05,7.0667,6.4
2.2109375,-1.416064693675132e-05,1.7086718379491912e-05,9.741215838865002e-07,-3.662193760585943e-05,7.0667,6.4
2.21484375,-1.5138475211718898e-05,1.6597804242008124e-05,-8.789781338216186e-06,-3.4673470969710807e-05,7.0667,6.4
2.21875,-2.246499736018917e-05,1.5619975967040546e-05,-1.95936324101622e-06,-2.9302605371175672e-05,7.0667,6.4
2.22265625,-3.2228900282291876e-05,1.2204766918440568e-05,-1.470449103532431e-06,-2.5880206408789162e-05,7.0667,6.4
2.2265625,-2.9302605371175672e-05,1.2693681055924344e-05,-2.930001602197265e-06,-3.1251072007324294e-05,7.0667,6.4
2.23046875,-2.636912054627295e-05,-8.300867200732397e-06,1.9524099153124325e-05,-3.1251072007324294e-05,7.0667,6.4
2.234375,-2.5391292271305375e-05,-2.4902378133821584e-05,4.389330632486491e-06,-3.173998614480808e-05,7.0667,6.4
2.23828125,-2.099825494773782e-05,-7.819142977035141e-06,-1.1234352025635117e-05,-3.028043364614325e-05,7.0667,6.4
2.2421875,-2.148716908522161e-05,3.900416495002701e-06,2.9225882200351233e-06,-2.9302605371175672e-05,7.0667,6.4
2.24609375,-1.8071960036621618e-05,-1.5138475211718898e-05,-3.9078298771648436e-06,-3.028043364614325e-05,7.0667,6.4
2.25,-2.148716908522161e-05,-2.4420653910124328e-05,-1.2701094438086485e-05,-3.369564269474324e-05,7.0667,6.4
2.25390625,-2.4420653910124328e-05,-1.709413176165404e-05,-3.9078298771648436e-06,-3.7110851743343216e-05,7.0667,6.4
2.2578125,-2.5880206408789162e-05,-3.706691081063695e-09,-9.278695475699976e-06,-4.297063147936214e-05,7.0667,6.4
2.26171875,-2.246499736018917e-05,-1.0256523750667554e-05,-2.148716908522161e-05,-4.1022164843213516e-05,7.0667,6.4
2.265625,-1.4649561074235109e-05,-3.955542243076216e-05,-3.5162385107194594e-05,-3.8577594155794585e-05,7.0667,6.4
2.26953125,-2.4420653910124328e-05,-2.2953911497672962e-05,-5.517910508888377e-05,-3.613302346837564e-05,7.0667,6.4
2.2734375,-3.565129924467838e-05,-8.789781338216186e-06,-4.297063147936214e-05,-3.1251072007324294e-05,7.0667,6.4
2.27734375,-2.344282563515675e-05,-2.099825494773782e-05,-3.320672855725945e-05,-3.662193760585943e-05,7.0667,6.4
2.28125,-1.660521762417025e-05,-3.7110851743343216e-05,-1.660521762417025e-05,-3.2228900282291876e-05,7.0667,6.4
2.28515625,-2.636912054627295e-05,-2.246499736018917e-05,1.4630357213702892e-06,-2.783586295872432e-05,7.0667,6.4
2.2890625,-2.4420653910124328e-05,-2.4420653910124328e-05,-2.979151950865946e-05,-3.5162385107194594e-05,7.0667,6.4
2.29296875,-1.9531512535286453e-05,-3.2228900282291876e-05,-4.248171734187836e-05,-3.565129924467838e-05,7.0667,6.4
2.296875,-1.9531512535286453e-05,-2.2953911497672962e-05,-2.734694882124053e-05,-3.2228900282291876e-05,7.0667,6.4
2.30078125,-2.2953911497672962e-05,-2.636912054627295e-05,-4.053325070572973e-05,-3.2228900282291876e-05,7.0667,6.4
2.3046875,-2.099825494773782e-05,-2.8324777096208093e-05,-3.7599765880827003e-05,-3.369564269474324e-05,7.0667,6.4
2.30859375,-1.660521762417025e-05,-2.8813691233691884e-05,-3.173998614480808e-05,-3.028043364614325e-05,7.0667,6.4
2.3125,-1.8071960036621618e-05,-2.636912054627295e-05,-4.5415202166781076e-05,-3.271781441977566e-05,7.0667,6.4
2.31640625,-2.050934081025403e-05,-2.2953911497672962e-05,-3.5162385107194594e-05,-3.173998614480808e-05,7.0667,6.4
2.3203125,-2.246499736018917e-05,-3.1251072007324294e-05,-1.5138475211718898e-05,-2.9302605371175672e-05,7.0667,6.4
2.32421875,-2.393173977264054e-05,-4.053325070572973e-05,-3.906650829327837e-05,-3.1251072007324294e-05,7.0667,6.4
2.328125,-2.685803468375674e-05,-3.955542243076216e-05,-3.565129924467838e-05,-3.173998614480808e-05,7.0667,6.4
2.33203125,-2.979151950865946e-05,-3.173998614480808e-05,-3.7599765880827003e-05,-3.1251072007324294e-05,7.0667,6.4
2.3359375,-2.344282563515675e-05,-4.297063147936214e-05,-7.519582507057295e-05,-2.9302605371175672e-05,7.0667,6.4
2.33984375,-2.4902378133821584e-05,-5.811258991378649e-05,-5.566801922636756e-05,-2.246499736018917e-05,7.0667,6.4
2.34375,-3.0762157869840506e-05,-5.811258991378649e-05,-5.273453440146483e-05,-1.9049788311589197e-05,7.0667,6.4
2.34765625,-2.148716908522161e-05,-6.494300801098645e-05,-7.66625674830243e-05,-1.5138475211718898e-05,7.0667,6.4
2.3515625,-2.5391292271305375e-05,-7.226953015945675e-05,-7.08027877470054e-05,-7.330228839551352e-06,7.0667,6.4
2.35546875,-2.2953911497672962e-05,-7.08027877470054e-05,-6.396517973601889e-05,-2.448277378500009e-06,7.0667,6.4
2.359375,-1.9049788311589197e-05,-7.66625674830243e-05,-5.713476163881892e-05,-3.706691081063695e-09,7.0667,6.4
2.36328125,-3.1251072007324294e-05,-6.885432111085676e-05,-3.955542243076216e-05,-4.885658152132421e-06,7.0667,6.4
2.3671875,-2.5391292271305375e-05,-7.617365334554051e-05,-8.6426470405127e-05,4.87824476997028e-06,7.0667,6.4
2.37109375,-2.5391292271305375e-05,-0.00012353361545738915,-0.00014355033543907833,2.2457583978027043e-05,7.0667,6.4
2.375,-4.5415202166781076e-05,-0.0001547809807736324,-0.00015624772318608375,3.1243658625162166e-05,7.0667,6.4
2.37890625,-5.225281017776757e-05,-0.00018114639462882428,-0.00014403924957656213,4.003692318608381e-05,7.0667,6.4
2.3828125,-4.3459545616845926e-05,-0.00017822009971770806,-0.00017528661489280535,5.517169170672164e-05,7.0667,6.4
2.38671875,-5.12749819028e-05,-0.00018749508850232697,-0.00022997309915312426,6.395776635385675e-05,7.0667,6.4
2.390625,-6.689866456092161e-05,-0.0002221648527809567,-0.00020165921866178375,6.884690772869462e-05,7.0667,6.4
2.39453125,-5.469019095139998e-05,-0.00022412050933089188,-0.00018945074505226212,6.29871279926757e-05,7.0667,6.4
2.3984375,-5.029715362783243e-05,-0.00022606897596704048,-0.00022167593864347293,6.444668049134054e-05,7.0667,6.4
2.40234375,-6.787649283588919e-05,-0.00022900246079194322,-0.00021777181545738915,6.0542557305256764e-05,7.0667,6.4
2.40625,-7.959605230792703e-05,-0.00021874964373235672,-0.00021630507304493777,4.442996050965138e-05,7.0667,6.4
2.41015625,-7.812930989547566e-05,-0.000219231367956054,-0.0002153272447699702,4.882299783321892e-05,7.0667,6.4
2.4140625,-7.275844429694053e-05,-0.00021044529330891887,-0.00022606897596704048,4.296321809720001e-05,7.0667,6.4
2.41796875,-7.812930989547566e-05,-0.0001923770399633783,-0.00022118702450598914,2.39243263904784e-05,7.0667,6.4
2.421875,-8.35001754940108e-05,-0.0002001924762493324,-0.00020556334184786753,2.1479755703059468e-05,7.0667,6.4
2.42578125,-7.178061602197296e-05,-0.00017822009971770806,-0.0001699157492942702,1.2693681055924344e-05,7.0667,6.4
2.4296875,-5.762367577630271e-05,-0.00015917401809719994,-0.00014648382026398105,4.852074464027254e-07,7.0667,6.4
2.43359375,-6.640975042343782e-05,-0.0001606407605096513,-0.00015087685758754862,1.9519498588540783e-06,7.0667,6.4
2.4375,-7.08027877470054e-05,-0.00014501707785152966,-0.00012743773864347293,-5.374572289616196e-06,7.0667,6.4
2.44140625,-6.640975042343782e-05,-0.00012353361545738915,-0.00014452816371404592,-2.246499736018917e-05,7.0667,6.4
2.4453125,-6.152779896238648e-05,-0.00011767383572137024,-0.00014257250716411075,-3.320672855725945e-05,7.0667,6.4
2.44921875,-5.811258991378649e-05,-0.00012743773864347293,-8.984886936751351e-05,-3.8577594155794585e-05,7.0667,6.4
2.453125,-6.250562723735406e-05,-0.00011913338822003507,-7.910713817044324e-05,-4.0044336568245934e-05,7.0667,6.4
2.45703125,-6.738757869840541e-05,-9.668647737850001e-05,-9.131561177996488e-05,-3.8577594155794585e-05,7.0667,6.4
2.4609375,-5.8594314137483755e-05,-8.69153845426108e-05,-7.519582507057295e-05,-3.418455683222701e-05,7.0667,6.4
2.46484375,-5.029715362783243e-05,-7.861822403295946e-05,-6.543192214847025e-05,-4.5904116304264863e-05,7.0667,6.4
2.46875,-6.0549970687418905e-05,-6.299454137483784e-05,-8.39890896314946e-05,-5.469019095139998e-05,7.0667,6.4
2.47265625,-5.517910508888377e-05,-5.8594314137483755e-05,-6.933604533455402e-05,-4.834149707789728e-05,7.0667,6.4
2.4765625,-4.5415202166781076e-05,-4.443737389181351e-05,-4.883041121538106e-05,-4.688194457923244e-05,7.0667,6.4
2.48046875,-4.9808239490348636e-05,-3.320672855725945e-05,-7.129170188448919e-05,-4.883041121538106e-05,7.0667,6.4
2.484375,-5.078606776531621e-05,-5.322344853894862e-05,-4.785258294041349e-05,-5.566801922636756e-05,7.0667,6.4
2.48828125,-4.883041121538106e-05,-5.371236267643241e-05,-7.819142977035141e-06,-5.957214241245133e-05,7.0667,6.4
2.4921875,-4.688194457923244e-05,-3.320672855725945e-05,-4.688194457923244e-05,-5.664584750133513e-05,7.0667,6.4
2.49609375,-4.3459545616845926e-05,-3.7110851743343216e-05,-8.887104109254593e-05,-5.029715362783243e-05,7.0667,6.4
2.5,-4.3459545616845926e-05,-4.5415202166781076e-05,-6.640975042343782e-05,-4.199280320439457e-05,7.0667,6.4
2.50390625,-4.883041121538106e-05,-3.955542243076216e-05,-4.492628802929729e-05,-3.8577594155794585e-05,7.0667,6.4
2.5078125,-4.5904116304264863e-05,-2.734694882124053e-05,-4.688194457923244e-05,-3.8577594155794585e-05,7.0667,6.4
2.51171875,-3.565129924467838e-05,-1.709413176165404e-05,-5.1763896040283786e-05,-3.80886800183108e-05,7.0667,6.4
2.515625,-3.418455683222701e-05,-2.4420653910124328e-05,-1.6116303486686475e-05,-3.271781441977566e-05,7.0667,6.4
2.51953125,-3.7110851743343216e-05,-2.685803468375674e-05,7.322815457389211e-06,-3.271781441977566e-05,7.0667,6.4
2.5234375,-3.7599765880827003e-05,-1.1723266163118907e-05,-1.1234352025635117e-05,-3.418455683222701e-05,7.0667,6.4
2.52734375,-3.8577594155794585e-05,3.4115023575189125e-06,1.0249110368505413e-05,-2.8324777096208093e-05,7.0667,6.4
2.53125,-3.565129924467838e-05,-8.789781338216186e-06,1.6108890104524333e-05,-2.783586295872432e-05,7.0667,6.4
2.53515625,-4.394845975432971e-05,-1.8071960036621618e-05,-3.173998614480808e-05,-3.028043364614325e-05,7.0667,6.4
2.5390625,-5.517910508888377e-05,9.741215838865002e-07,-3.906650829327837e-05,-3.2228900282291876e-05,7.0667,6.4
2.54296875,-4.443737389181351e-05,-2.448277378500009e-06,-1.2701094438086485e-05,-3.5162385107194594e-05,7.0667,6.4
2.546875,-3.369564269474324e-05,-2.002042667277024e-05,-2.246499736018917e-05,-3.4673470969710807e-05,7.0667,6.4
2.55078125,-3.418455683222701e-05,-5.863486427099985e-06,-3.565129924467838e-05,-3.662193760585943e-05,7.0667,6.4
2.5546875,-3.80886800183108e-05,-1.1234352025635117e-05,-2.1976083222705397e-05,-4.0044336568245934e-05,7.0667,6.4
2.55859375,-4.5904116304264863e-05,-2.734694882124053e-05,3.900416495002701e-06,-3.955542243076216e-05,7.0667,6.4
2.5625,-4.688194457923244e-05,-1.8071960036621618e-05,-9.278695475699976e-06,-3.028043364614325e-05,7.0667,6.4
2.56640625,-4.394845975432971e-05,-1.3678922713054064e-05,4.389330632486491e-06,-2.685803468375674e-05,7.0667,6.4
2.5703125,-4.1503889066910776e-05,-2.2953911497672962e-05,2.4413240527962187e-05,-3.1251072007324294e-05,7.0667,6.4
2.57421875,-3.955542243076216e-05,-2.099825494773782e-05,-4.1503889066910776e-05,-3.613302346837564e-05,7.0667,6.4
2.578125,-3.662193760585943e-05,-1.5627389349202687e-05,-5.273453440146483e-05,-3.369564269474324e-05,7.0667,6.4
2.58203125,-3.4673470969710807e-05,-1.8560874174105406e-05,-9.767609613183765e-06,-2.783586295872432e-05,7.0667,6.4
2.5859375,-3.7110851743343216e-05,-3.2228900282291876e-05,-1.0745437888151328e-05,-3.173998614480808e-05,7.0667,6.4
2.58984375,-3.955542243076216e-05,-3.5162385107194594e-05,-3.662193760585943e-05,-3.320672855725945e-05,7.0667,6.4
2.59375,-4.199280320439457e-05,-3.320672855725945e-05,-4.1022164843213516e-05,-2.979151950865946e-05,7.0667,6.4
2.59765625,-3.7599765880827003e-05,-2.636912054627295e-05,-3.028043364614325e-05,-3.418455683222701e-05,7.0667,6.4
2.6015625,-2.5391292271305375e-05,-1.3678922713054064e-05,4.852074464027254e-07,-3.173998614480808e-05,7.0667,6.4
2.60546875,-1.8560874174105406e-05,-3.2228900282291876e-05,-9.278695475699976e-06,-1.8560874174105406e-05,7.0667,6.4
2.609375,-3.271781441977566e-05,-6.738757869840541e-05,-6.103888482490269e-05,-2.002042667277024e-05,7.0667,6.4
2.61328125,-3.8577594155794585e-05,-7.422518670939189e-05,-8.203343308155944e-05,-2.5391292271305375e-05,7.0667,6.4
2.6171875,-2.9302605371175672e-05,-9.326407841611351e-05,-8.935995523002973e-05,-1.5138475211718898e-05,7.0667,6.4
2.62109375,-2.734694882124053e-05,-0.00012645991036850534,-0.00012645991036850534,-4.396744014648632e-06,7.0667,6.4
2.625,-2.246499736018917e-05,-0.00014159467888914318,-0.00012988230933089188,2.9225882200351233e-06,7.0667,6.4
2.62890625,-2.1976083222705397e-05,-0.00016454488369573508,-0.0001513657717250324,1.122693864347299e-05,7.0667,6.4
2.6328125,-2.148716908522161e-05,-0.0001801685663538567,-0.00016259641705958645,2.2457583978027043e-05,7.0667,6.4
2.63671875,-2.5391292271305375e-05,-0.00019188812582589455,-0.00017528661489280535,2.7828449576562178e-05,7.0667,6.4
2.640625,-2.344282563515675e-05,-0.00018993965918974592,-0.00021728290131990536,2.8317363714045966e-05,7.0667,6.4
2.64453125,-2.099825494773782e-05,-0.00018749508850232697,-0.00021337158822003506,3.075474448767838e-05,7.0667,6.4
2.6484375,-2.8813691233691884e-05,-0.00019823681969939724,-0.00018993965918974592,4.34521322346838e-05,7.0667,6.4
2.65234375,-3.1251072007324294e-05,-0.00018945074505226212,-0.00018407987945372702,5.712734825665677e-05,7.0667,6.4
2.65625,-2.685803468375674e-05,-0.00021679398718242157,-0.00019579943892576482,5.175648265812165e-05,7.0667,6.4
2.66015625,-2.8324777096208093e-05,-0.00022363159519340808,-0.00019384378237582967,4.735625542076755e-05,7.0667,6.4
2.6640625,-3.271781441977566e-05,-0.0002075189983978027,-0.00019531052478828103,4.540778878461893e-05,7.0667,6.4
2.66796875,-2.783586295872432e-05,-0.00019677007728694586,-0.00019433269651331346,3.7103438361181075e-05,7.0667,6.4
2.671875,-2.5391292271305375e-05,-0.00017528661489280535,-0.00019774790556191345,3.4666057587548665e-05,7.0667,6.4
2.67578125,-2.783586295872432e-05,-0.0001577144655985351,-0.00017479770075532155,3.613280000000003e-05,7.0667,6.4
2.6796875,-3.613302346837564e-05,-0.00015185468586251618,-0.00014355033543907833,2.636170716411081e-05,7.0667,6.4
2.68359375,-3.662193760585943e-05,-0.00014648382026398105,-0.00010449472375066756,1.3182595193408133e-05,7.0667,6.4
2.6875,-3.5162385107194594e-05,-0.0001376905557030594,-0.00012353361545738915,4.87824476997028e-06,7.0667,6.4
2.69140625,-4.639303044174866e-05,-0.00011767383572137024,-0.0001538031524986648,-7.819142977035141e-06,7.0667,6.4
2.6953125,-4.0044336568245934e-05,-8.69153845426108e-05,-0.00012548208209353778,-1.7583045899137827e-05,7.0667,6.4
2.69921875,-3.4673470969710807e-05,-6.543192214847025e-05,-0.00010644319038681617,-2.4420653910124328e-05,7.0667,6.4
2.703125,-3.662193760585943e-05,-7.519582507057295e-05,-8.6426470405127e-05,-3.369564269474324e-05,7.0667,6.4
2.70703125,-4.199280320439457e-05,-7.03138736095216e-05,-6.445409387350267e-05,-3.906650829327837e-05,7.0667,6.4
2.7109375,-4.785258294041349e-05,-4.1503889066910776e-05,-4.199280320439457e-05,-4.0044336568245934e-05,7.0667,6.4
2.71484375,-3.1251072007324294e-05,-4.0044336568245934e-05,-3.2228900282291876e-05,-5.1763896040283786e-05,7.0667,6.4
2.71875,-2.734694882124053e-05,-3.4673470969710807e-05,-2.344282563515675e-05,-6.0549970687418905e-05,7.0667,6.4
2.72265625,-3.7599765880827003e-05,-2.8324777096208093e-05,-2.050934081025403e-05,-5.762367577630271e-05,7.0667,6.4
2.7265625,-3.0762157869840506e-05,-2.099825494773782e-05,-6.841314702067564e-06,-5.908322827496754e-05,7.0667,6.4
2.73046875,-2.5880206408789162e-05,-1.9531512535286453e-05,2.1479755703059468e-05,-6.689866456092161e-05,7.0667,6.4
2.734375,-3.418455683222701e-05,-1.8560874174105406e-05,-3.4189157396810543e-06,-6.787649283588919e-05,7.0667,6.4
2.73828125,-4.1022164843213516e-05,-1.95936324101622e-06,-1.660521762417025e-05,-7.226953015945675e-05,7.0667,6.4
2.7421875,-3.4673470969710807e-05,8.782367956054045e-06,-7.819142977035141e-06,-8.447800376897837e-05,7.0667,6.4
2.74609375,-3.418455683222701e-05,-3.706691081063695e-09,-7.819142977035141e-06,-8.496691790646217e-05,7.0667,6.4
2.75,-3.7110851743343216e-05,-1.470449103532431e-06,-1.0745437888151328e-05,-8.35001754940108e-05,7.0667,6.4
2.75390625,-2.979151950865946e-05,2.294649811551082e-05,1.2204766918440568e-05,-8.35001754940108e-05,7.0667,6.4
2.7578125,-2.5880206408789162e-05,2.4413240527962187e-05,5.175648265812165e-05,-7.910713817044324e-05,7.0667,6.4
2.76171875,-3.271781441977566e-05,2.0013013290608112e-05,4.1503665598535176e-05,-7.959605230792703e-05,7.0667,6.4
2.765625,-3.271781441977566e-05,1.9042374929427055e-05,-3.4189157396810543e-06,-8.545583204394596e-05,7.0667,6.4
2.76953125,-3.418455683222701e-05,1.5131061829556757e-05,-3.706691081063695e-09,-7.910713817044324e-05,7.0667,6.4
2.7734375,-4.0044336568245934e-05,4.05258373235676e-05,9.760196231021624e-06,-8.154451894407566e-05,7.0667,6.4
2.77734375,-3.662193760585943e-05,4.05258373235676e-05,2.1968669840543256e-05,-9.228625014114592e-05,7.0667,6.4
2.78125,-3.80886800183108e-05,2.7828449576562178e-05,5.224539679560544e-05,-8.740429868009458e-05,7.0667,6.4
2.78515625,-3.8577594155794585e-05,2.1968669840543256e-05,2.7339535439078387e-05,-8.447800376897837e-05,7.0667,6.4
2.7890625,-3.320672855725945e-05,3.1243658625162166e-05,-2.344282563515675e-05,-8.447800376897837e-05,7.0667,6.4
2.79296875,-3.271781441977566e-05,3.417714345006487e-05,2.4408639963378675e-06,-8.496691790646217e-05,7.0667,6.4
2.796875,-3.8577594155794585e-05,1.4630357213702892e-06,2.587279302662702e-05,-8.203343308155944e-05,7.0667,6.4
2.80078125,-4.443737389181351e-05,2.1968669840543256e-05,3.954800904860002e-05,-7.324735843442432e-05,7.0667,6.4
2.8046875,-3.8577594155794585e-05,3.613280000000003e-05,4.735625542076755e-05,-6.885432111085676e-05,7.0667,6.4
2.80859375,-3.271781441977566e-05,3.0273020263981123e-05,2.7339535439078387e-05,-6.933604533455402e-05,7.0667,6.4
2.8125,-3.1251072007324294e-05,2.5383878889143233e-05,1.6597804242008124e-05,-7.226953015945675e-05,7.0667,6.4
2.81640625,-2.050934081025403e-05,3.2710401037613535e-05,2.8806277851529756e-05,-7.178061602197296e-05,7.0667,6.4
2.8203125,-1.9531512535286453e-05,4.5896702922102715e-05,2.8806277851529756e-05,-6.933604533455402e-05,7.0667,6.4
2.82421875,-2.5391292271305375e-05,3.8570180773632444e-05,3.1732572762645953e-05,-7.129170188448919e-05,7.0667,6.4
2.828125,-3.028043364614325e-05,3.0273020263981123e-05,4.735625542076755e-05,-6.787649283588919e-05,7.0667,6.4
2.83203125,-2.8324777096208093e-05,3.515497172503245e-05,4.1985389822232435e-05,-5.957214241245133e-05,7.0667,6.4
2.8359375,-2.1976083222705397e-05,4.735625542076755e-05,9.271282093537834e-06,-5.762367577630271e-05,7.0667,6.4
2.83984375,-2.4902378133821584e-05,2.8317363714045966e-05,2.1479755703059468e-05,-5.957214241245133e-05,7.0667,6.4
2.84375,-2.685803468375674e-05,2.7339535439078387e-05,4.1985389822232435e-05,-6.201671309987026e-05,7.0667,6.4
2.84765625,-3.1251072007324294e-05,3.4666057587548665e-05,3.4115023575189125e-06,-6.933604533455402e-05,7.0667,6.4
2.8515625,-3.173998614480808e-05,2.5383878889143233e-05,4.389330632486491e-06,-6.933604533455402e-05,7.0667,6.4
2.85546875,-3.5162385107194594e-05,1.2204766918440568e-05,9.271282093537834e-06,-6.592083628595404e-05,7.0667,6.4
2.859375,-4.053325070572973e-05,2.68506213015946e-05,1.2204766918440568e-05,-6.201671309987026e-05,7.0667,6.4
2.86328125,-3.4673470969710807e-05,3.515497172503245e-05,3.954800904860002e-05,-5.225281017776757e-05,7.0667,6.4
2.8671875,-3.5162385107194594e-05,3.222148690012975e-05,2.1479755703059468e-05,-4.883041121538106e-05,7.0667,6.4
2.87109375,-3.8577594155794585e-05,1.9042374929427055e-05,-9.815349660486418e-07,-5.469019095139998e-05,7.0667,6.4
2.875,-4.1022164843213516e-05,-5.374572289616196e-06,-2.734694882124053e-05,-5.957214241245133e-05,7.0667,6.4
2.87890625,-4.053325070572973e-05,1.0249110368505413e-05,-2.4902378133821584e-05,-6.201671309987026e-05,7.0667,6.4
2.8828125,-3.4673470969710807e-05,1.3182595193408133e-05,1.2693681055924344e-05,-6.0549970687418905e-05,7.0667,6.4
2.88671875,-3.906650829327837e-05,-1.416064693675132e-05,1.9519498588540783e-06,-5.762367577630271e-05,7.0667,6.4
2.890625,-3.955542243076216e-05,-6.841314702067564e-06,6.833901319905422e-06,-5.615693336385134e-05,7.0667,6.4
2.89453125,-2.783586295872432e-05,2.4408639963378675e-06,3.0273020263981123e-05,-5.1763896040283786e-05,7.0667,6.4
2.8984375,-2.685803468375674e-05,1.122693864347299e-05,3.900416495002701e-06,-4.297063147936214e-05,7.0667,6.4
2.90234375,-2.979151950865946e-05,2.0013013290608112e-05,-1.6116303486686475e-05,-4.73636688029297e-05,7.0667,6.4
2.90625,-3.565129924467838e-05,1.9042374929427055e-05,-1.95936324101622e-06,-5.566801922636756e-05,7.0667,6.4
2.91015625,-3.906650829327837e-05,-4.396744014648632e-06,-9.767609613183765e-06,-5.225281017776757e-05,7.0667,6.4
2.9140625,-3.173998614480808e-05,9.271282093537834e-06,-2.4902378133821584e-05,-5.566801922636756e-05,7.0667,6.4
2.91796875,-3.1251072007324294e-05,2.9295191989013544e-05,-2.344282563515675e-05,-5.517910508888377e-05,7.0667,6.4
2.921875,-2.8813691233691884e-05,4.389330632486491e-06,-1.470449103532431e-06,-4.883041121538106e-05,7.0667,6.4
2.92578125,-2.5391292271305375e-05,-6.3524005645837746e-06,-1.2212180300602696e-05,-5.762367577630271e-05,7.0667,6.4
2.9296875,-2.2953911497672962e-05,-2.930001602197265e-06,-9.767609613183765e-06,-6.152779896238648e-05,7.0667,6.4
2.93359375,-2.5880206408789162e-05,-8.300867200732397e-06,1.9524099153124325e-05,-5.469019095139998e-05,7.0667,6.4
2.9375,-3.1251072007324294e-05,6.344987182421647e-06,-1.7583045899137827e-05,-4.883041121538106e-05,7.0667,6.4
2.94140625,-2.9302605371175672e-05,1.1715852780956779e-05,-4.199280320439457e-05,-4.785258294041349e-05,7.0667,6.4
2.9453125,-3.662193760585943e-05,-1.3190008575570274e-05,-7.819142977035141e-06,-3.906650829327837e-05,7.0667,6.4
2.94921875,-3.613302346837564e-05,-2.393173977264054e-05,-6.3524005645837746e-06,-3.7599765880827003e-05,7.0667,6.4
2.953125,-3.369564269474324e-05,-1.9049788311589197e-05,-5.322344853894862e-05,-4.785258294041349e-05,7.0667,6.4
2.95703125,-3.613302346837564e-05,-6.3524005645837746e-06,-5.615693336385134e-05,-4.5415202166781076e-05,7.0667,6.4
2.9609375,-3.662193760585943e-05,-2.099825494773782e-05,-3.7599765880827003e-05,-4.0044336568245934e-05,7.0667,6.4
2.96484375,-3.1251072007324294e-05,-3.173998614480808e-05,-1.7583045899137827e-05,-4.1503889066910776e-05,7.0667,6.4
2.96875,-2.636912054627295e-05,-1.3190008575570274e-05,-1.3190008575570274e-05,-4.1503889066910776e-05,7.0667,6.4
2.97265625,-3.271781441977566e-05,-1.5627389349202687e-05,-3.369564269474324e-05,-3.8577594155794585e-05,7.0667,6.4
2.9765625,-3.955542243076216e-05,-2.9302605371175672e-05,-3.320672855725945e-05,-4.199280320439457e-05,7.0667,6.4
2.98046875,-2.8813691233691884e-05,-2.099825494773782e-05,-1.9049788311589197e-05,-4.3459545616845926e-05,7.0667,6.4
2.984375,-2.4902378133821584e-05,-2.246499736018917e-05,-4.396744014648632e-06,-3.8577594155794585e-05,7.0667,6.4
2.98828125,-3.8577594155794585e-05,-2.636912054627295e-05,-8.300867200732397e-06,-3.5162385107194594e-05,7.0667,6.4
2.9921875,-3.565129924467838e-05,-2.002042667277024e-05,-5.029715362783243e-05,-3.565129924467838e-05,7.0667,6.4
2.99609375,-3.369564269474324e-05,-9.278695475699976e-06,-5.762367577630271e-05,-4.053325070572973e-05,7.0667,6.4
3.0,-3.662193760585943e-05,-5.374572289616196e-06,-1.3678922713054064e-05,-3.906650829327837e-05,7.0667,6.4
3.00390625,-3.565129924467838e-05,-9.815349660486418e-07,-2.930001602197265e-06,-3.613302346837564e-05,7.0667,6.4
3.0078125,-3.173998614480808e-05,-1.660521762417025e-05,-3.4673470969710807e-05,-3.955542243076216e-05,7.0667,6.4
3.01171875,-2.8324777096208093e-05,-3.320672855725945e-05,-2.636912054627295e-05,-4.5904116304264863e-05,7.0667,6.4
3.015625,-3.565129924467838e-05,-2.4420653910124328e-05,-1.1723266163118907e-05,-4.883041121538106e-05,7.0667,6.4
3.01953125,-3.8577594155794585e-05,-2.636912054627295e-05,-3.2228900282291876e-05,-4.492628802929729e-05,7.0667,6.4
3.0234375,-2.8324777096208093e-05,-2.5880206408789162e-05,-4.9808239490348636e-05,-4.443737389181351e-05,7.0667,6.4
3.02734375,-3.1251072007324294e-05,-2.8324777096208093e-05,-5.371236267643241e-05,-4.492628802929729e-05,7.0667,6.4
3.03125,-3.4673470969710807e-05,-3.1251072007324294e-05,-1.8560874174105406e-05,-3.80886800183108e-05,7.0667,6.4
3.03515625,-3.271781441977566e-05,-2.393173977264054e-05,-1.3190008575570274e-05,-3.369564269474324e-05,7.0667,6.4
3.0390625,-3.271781441977566e-05,-3.4673470969710807e-05,-5.273453440146483e-05,-4.053325070572973e-05,7.0667,6.4
3.04296875,-3.271781441977566e-05,-2.5391292271305375e-05,-3.320672855725945e-05,-4.1022164843213516e-05,7.0667,6.4
3.046875,-3.173998614480808e-05,-2.1976083222705397e-05,-3.0762157869840506e-05,-4.0044336568245934e-05,7.0667,6.4
3.05078125,-2.979151950865946e-05,-4.394845975432971e-05,-3.8577594155794585e-05,-4.297063147936214e-05,7.0667,6.4
3.0546875,-2.979151950865946e-05,-4.5415202166781076e-05,-5.322344853894862e-05,-4.3459545616845926e-05,7.0667,6.4
3.05859375,-2.734694882124053e-05,-2.393173977264054e-05,-2.1976083222705397e-05,-3.955542243076216e-05,7.0667,6.4
3.0625,-3.4673470969710807e-05,-2.5391292271305375e-05,-3.9078298771648436e-06,-4.394845975432971e-05,7.0667,6.4
3.06640625,-3.80886800183108e-05,-4.248171734187836e-05,-4.5904116304264863e-05,-4.5415202166781076e-05,7.0667,6.4
3.0703125,-3.320672855725945e-05,-4.0044336568245934e-05,-2.8813691233691884e-05,-3.369564269474324e-05,7.0667,6.4
3.07421875,-2.734694882124053e-05,-3.7110851743343216e-05,-3.613302346837564e-05,-3.369564269474324e-05,7.0667,6.4
3.078125,-2.734694882124053e-05,-3.955542243076216e-05,-2.685803468375674e-05,-3.80886800183108e-05,7.0667,6.4
3.08203125,-2.8324777096208093e-05,-3.028043364614325e-05,-2.5880206408789162e-05,-3.2228900282291876e-05,7.0667,6.4
3.0859375,-2.8324777096208093e-05,-1.5627389349202687e-05,-5.517910508888377e-05,-3.2228900282291876e-05,7.0667,6.4
3.08984375,-2.783586295872432e-05,-2.148716908522161e-05,-4.688194457923244e-05,-3.369564269474324e-05,7.0667,6.4
3.09375,-3.320672855725945e-05,-2.636912054627295e-05,-4.883041121538106e-05,-3.271781441977566e-05,7.0667,6.4
3.09765625,-3.565129924467838e-05,-4.0044336568245934e-05,-4.1022164843213516e-05,-3.955542243076216e-05,7.0667,6.4
3.1015625,-3.271781441977566e-05,-3.8577594155794585e-05,-2.050934081025403e-05,-3.7110851743343216e-05,7.0667,6.4
3.10546875,-2.5391292271305375e-05,-2.4902378133821584e-05,-2.8324777096208093e-05,-3.173998614480808e-05,7.0667,6.4
3.109375,-2.685803468375674e-05,-3.028043364614325e-05,-4.1022164843213516e-05,-3.662193760585943e-05,7.0667,6.4
3.11328125,-3.2228900282291876e-05,-2.002042667277024e-05,-2.5391292271305375e-05,-3.7599765880827003e-05,7.0667,6.4
3.1171875,-2.8813691233691884e-05,-2.002042667277024e-05,-4.1503889066910776e-05,-3.4673470969710807e-05,7.0667,6.4
3.12109375,-2.636912054627295e-05,-3.7110851743343216e-05,-4.883041121538106e-05,-2.4420653910124328e-05,7.0667,6.4
3.125,-2.2953911497672962e-05,-5.12749819028e-05,-5.566801922636756e-05,-1.9531512535286453e-05,7.0667,6.4
3.12890625,-2.8813691233691884e-05,-4.5415202166781076e-05,-4.785258294041349e-05,-2.5880206408789162e-05,7.0667,6.4
3.1328125,-3.2228900282291876e-05,-4.834149707789728e-05,-2.734694882124053e-05,-2.636912054627295e-05,7.0667,6.4
3.13671875,-3.2228900282291876e-05,-4.9808239490348636e-05,-4.1022164843213516e-05,-2.636912054627295e-05,7.0667,6.4
3.140625,-3.418455683222701e-05,-5.908322827496754e-05,-4.053325070572973e-05,-3.271781441977566e-05,7.0667,6.4
3.14453125,-2.636912054627295e-05,-6.836540697337298e-05,-4.5904116304264863e-05,-3.7110851743343216e-05,7.0667,6.4
3.1484375,-2.783586295872432e-05,-5.615693336385134e-05,-7.764039575799188e-05,-3.7599765880827003e-05,7.0667,6.4
3.15234375,-4.1022164843213516e-05,-6.250562723735406e-05,-7.178061602197296e-05,-3.906650829327837e-05,7.0667,6.4
3.15625,-4.297063147936214e-05,-6.103888482490269e-05,-7.08027877470054e-05,-3.5162385107194594e-05,7.0667,6.4
3.16015625,-4.639303044174866e-05,-6.445409387350267e-05,-7.764039575799188e-05,-3.4673470969710807e-05,7.0667,6.4
3.1640625,-4.492628802929729e-05,-7.08027877470054e-05,-7.178061602197296e-05,-3.565129924467838e-05,7.0667,6.4
3.16796875,-4.1022164843213516e-05,-6.006105654993512e-05,-5.12749819028e-05,-2.979151950865946e-05,7.0667,6.4
3.171875,-4.73636688029297e-05,-4.1022164843213516e-05,-2.5391292271305375e-05,-3.418455683222701e-05,7.0667,6.4
3.17578125,-3.955542243076216e-05,-4.248171734187836e-05,-5.811258991378649e-05,-3.613302346837564e-05,7.0667,6.4
3.1796875,-3.2228900282291876e-05,-5.713476163881892e-05,-6.543192214847025e-05,-2.979151950865946e-05,7.0667,6.4
3.18359375,-3.662193760585943e-05,-4.0044336568245934e-05,-4.492628802929729e-05,-2.002042667277024e-05,7.0667,6.4
3.1875,-3.80886800183108e-05,-2.148716908522161e-05,-1.1234352025635117e-05,-2.1976083222705397e-05,7.0667,6.4
3.19140625,-2.9302605371175672e-05,-2.930001602197265e-06,2.9225882200351233e-06,-3.320672855725945e-05,7.0667,6.4
3.1953125,-2.685803468375674e-05,4.852074464027254e-07,-1.5627389349202687e-05,-3.7110851743343216e-05,7.0667,6.4
3.19921875,-4.248171734187836e-05,-2.783586295872432e-05,-1.2212180300602696e-05,-3.7599765880827003e-05,7.0667,6.4
3.203125,-5.029715362783243e-05,-2.734694882124053e-05,-6.3524005645837746e-06,-2.9302605371175672e-05,7.0667,6.4
3.20703125,-5.225281017776757e-05,-1.7583045899137827e-05,-4.926208285648527e-07,-3.2228900282291876e-05,7.0667,6.4
3.2109375,-5.517910508888377e-05,-7.330228839551352e-06,1.4642147692072967e-05,-3.418455683222701e-05,7.0667,6.4
3.21484375,-6.006105654993512e-05,-1.4649561074235109e-05,-1.2701094438086485e-05,-2.5880206408789162e-05,7.0667,6.4
3.21875,-7.03138736095216e-05,-8.789781338216186e-06,-1.5627389349202687e-05,-2.5880206408789162e-05,7.0667,6.4
3.22265625,-7.08027877470054e-05,-7.819142977035141e-06,2.7339535439078387e-05,-2.685803468375674e-05,7.0667,6.4
3.2265625,-6.933604533455402e-05,-3.173998614480808e-05,2.1968669840543256e-05,-2.050934081025403e-05,7.0667,6.4
3.23046875,-8.008496644541083e-05,-2.8324777096208093e-05,-2.448277378500009e-06,-8.789781338216186e-06,7.0667,6.4
3.234375,-8.935995523002973e-05,-1.709413176165404e-05,2.9225882200351233e-06,-3.9078298771648436e-06,7.0667,6.4
3.23828125,-9.131561177996488e-05,-1.3678922713054064e-05,1.9042374929427055e-05,-3.9078298771648436e-06,7.0667,6.4
3.2421875,-9.03377835049973e-05,-1.660521762417025e-05,6.833901319905422e-06,-1.2212180300602696e-05,7.0667,6.4
3.24609375,-9.619756324101622e-05,-1.2212180300602696e-05,1.2693681055924344e-05,-1.1234352025635117e-05,7.0667,6.4
3.25,-0.0001054653621118486,-2.5880206408789162e-05,3.2710401037613535e-05,9.741215838865002e-07,7.0667,6.4
3.25390625,-0.00010644319038681617,-2.5391292271305375e-05,2.636170716411081e-05,-1.470449103532431e-06,7.0667,6.4
3.2578125,-0.0001083916570229648,-2.050934081025403e-05,1.4642147692072967e-05,-6.3524005645837746e-06,7.0667,6.4
3.26171875,-0.00011425143675898373,-2.734694882124053e-05,4.296321809720001e-05,-1.95936324101622e-06,7.0667,6.4
3.265625,-0.00010693210452429997,-2.636912054627295e-05,3.4666057587548665e-05,2.4408639963378675e-06,7.0667,6.4
3.26953125,-9.668647737850001e-05,-1.3190008575570274e-05,7.811729594873e-06,2.9225882200351233e-06,7.0667,6.4
3.2734375,-9.277516427862971e-05,-2.344282563515675e-05,4.1985389822232435e-05,-2.448277378500009e-06,7.0667,6.4
3.27734375,-9.521973496604864e-05,-3.369564269474324e-05,2.4413240527962187e-05,-3.9078298771648436e-06,7.0667,6.4
3.28125,-8.789321281757836e-05,-1.6116303486686475e-05,1.9042374929427055e-05,-5.374572289616196e-06,7.0667,6.4
3.28515625,-8.35001754940108e-05,-1.5138475211718898e-05,2.39243263904784e-05,-1.0256523750667554e-05,7.0667,6.4
3.2890625,-8.69153845426108e-05,-2.636912054627295e-05,4.389330632486491e-06,-1.1234352025635117e-05,7.0667,6.4
3.29296875,-8.6426470405127e-05,-8.300867200732397e-06,9.271282093537834e-06,-1.5138475211718898e-05,7.0667,6.4
3.296875,-8.154451894407566e-05,1.6108890104524333e-05,1.3671509330891922e-05,-1.5627389349202687e-05,7.0667,6.4
3.30078125,-7.812930989547566e-05,-9.278695475699976e-06,-2.448277378500009e-06,-1.8560874174105406e-05,7.0667,6.4
3.3046875,-6.885432111085676e-05,-2.2953911497672962e-05,4.87824476997028e-06,-2.4902378133821584e-05,7.0667,6.4
3.30859375,-6.494300801098645e-05,-1.5627389349202687e-05,2.4902154665445974e-05,-2.148716908522161e-05,7.0667,6.4
3.3125,-6.152779896238648e-05,-1.416064693675132e-05,-7.819142977035141e-06,-1.3190008575570274e-05,7.0667,6.4
3.31640625,-5.762367577630271e-05,-7.330228839551352e-06,-9.278695475699976e-06,-1.5627389349202687e-05,7.0667,6.4
3.3203125,-6.836540697337298e-05,-2.5880206408789162e-05,7.811729594873e-06,-1.9531512535286453e-05,7.0667,6.4
3.32421875,-6.348345551232163e-05,-2.5880206408789162e-05,1.6597804242008124e-05,-2.050934081025403e-05,7.0667,6.4
3.328125,-5.4201276813916195e-05,-6.841314702067564e-06,-2.246499736018917e-05,-2.5391292271305375e-05,7.0667,6.4
3.33203125,-5.762367577630271e-05,-8.300867200732397e-06,-2.5880206408789162e-05,-2.9302605371175672e-05,7.0667,6.4
3.3359375,-5.273453440146483e-05,-7.819142977035141e-06,-8.789781338216186e-06,-3.320672855725945e-05,7.0667,6.4
3.33984375,-4.834149707789728e-05,-1.95936324101622e-06,-7.330228839551352e-06,-3.418455683222701e-05,7.0667,6.4
3.34375,-5.078606776531621e-05,-8.789781338216186e-06,-1.2212180300602696e-05,-3.369564269474324e-05,7.0667,6.4
3.34765625,-5.078606776531621e-05,-1.5138475211718898e-05,-1.8071960036621618e-05,-3.173998614480808e-05,7.0667,6.4
3.3515625,-4.248171734187836e-05,-1.0256523750667554e-05,1.7086718379491912e-05,-2.979151950865946e-05,7.0667,6.4
3.35546875,-3.173998614480808e-05,-3.9078298771648436e-06,-4.885658152132421e-06,-3.1251072007324294e-05,7.0667,6.4
3.359375,-3.2228900282291876e-05,-1.0745437888151328e-05,-1.0745437888151328e-05,-2.5880206408789162e-05,7.0667,6.4
3.36328125,-4.053325070572973e-05,-1.2701094438086485e-05,2.5383878889143233e-05,-2.344282563515675e-05,7.0667,6.4
3.3671875,-3.80886800183108e-05,-6.3524005645837746e-06,-1.95936324101622e-06,-2.979151950865946e-05,7.0667,6.4
3.37109375,-3.613302346837564e-05,-2.4420653910124328e-05,-3.662193760585943e-05,-3.173998614480808e-05,7.0667,6.4
3.375,-4.1503889066910776e-05,-3.662193760585943e-05,-3.8577594155794585e-05,-3.418455683222701e-05,7.0667,6.4
3.37890625,-3.80886800183108e-05,-9.278695475699976e-06,-8.300867200732397e-06,-3.7599765880827003e-05,7.0667,6.4
3.3828125,-4.1503889066910776e-05,-1.660521762417025e-05,-6.841314702067564e-06,-3.80886800183108e-05,7.0667,6.4
3.38671875,-4.0044336568245934e-05,-3.2228900282291876e-05,-4.5415202166781076e-05,-3.369564269474324e-05,7.0667,6.4
3.390625,-3.5162385107194594e-05,-9.278695475699976e-06,-9.815349660486418e-07,-3.2228900282291876e-05,7.0667,6.4
3.39453125,-3.613302346837564e-05,-1.6116303486686475e-05,-3.4189157396810543e-06,-3.565129924467838e-05,7.0667,6.4
3.3984375,-4.73636688029297e-05,-2.002042667277024e-05,-2.783586295872432e-05,-2.050934081025403e-05,7.0667,6.4
3.40234375,-4.785258294041349e-05,-1.8560874174105406e-05,-1.95936324101622e-06,-1.1723266163118907e-05,7.0667,6.4
3.40625,-4.1503889066910776e-05,-8.789781338216186e-06,1.4630357213702892e-06,-1.8071960036621618e-05,7.0667,6.4
3.41015625,-4.834149707789728e-05,-7.819142977035141e-06,-1.660521762417025e-05,-1.6116303486686475e-05,7.0667,6.4
3.4140625,-5.029715362783243e-05,-2.734694882124053e-05,-9.815349660486418e-07,-1.0745437888151328e-05,7.0667,6.4
3.41796875,-5.615693336385134e-05,-3.173998614480808e-05,1.9042374929427055e-05,-8.300867200732397e-06,7.0667,6.4
3.421875,-6.592083628595404e-05,-2.783586295872432e-05,1.5131061829556757e-05,-9.278695475699976e-06,7.0667,6.4
3.42578125,-7.129170188448919e-05,-3.5162385107194594e-05,-9.278695475699976e-06,-1.2701094438086485e-05,7.0667,6.4
3.4296875,-8.447800376897837e-05,-4.5904116304264863e-05,-5.225281017776757e-05,-1.0745437888151328e-05,7.0667,6.4
3.43359375,-8.252234721904324e-05,-4.297063147936214e-05,-3.9078298771648436e-06,-9.815349660486418e-07,7.0667,6.4
3.4375,-8.154451894407566e-05,-3.955542243076216e-05,1.0738024505989202e-05,1.9519498588540783e-06,7.0667,6.4
3.44140625,-8.838212695506214e-05,-2.8813691233691884e-05,5.8560730449378575e-06,-9.815349660486418e-07,7.0667,6.4
3.4453125,-8.154451894407566e-05,-2.734694882124053e-05,2.3435412252994608e-05,-4.926208285648527e-07,7.0667,6.4
3.44921875,-7.568473920805673e-05,-3.4673470969710807e-05,-1.9531512535286453e-05,9.741215838865002e-07,7.0667,6.4
3.453125,-7.568473920805673e-05,-3.4673470969710807e-05,-3.4189157396810543e-06,-9.815349660486418e-07,7.0667,6.4
3.45703125,-7.471410084687568e-05,-1.5138475211718898e-05,6.344987182421647e-06,-7.330228839551352e-06,7.0667,6.4
3.4609375,-6.396517973601889e-05,-4.885658152132421e-06,-1.416064693675132e-05,-1.416064693675132e-05,7.0667,6.4
3.46484375,-5.8594314137483755e-05,-2.344282563515675e-05,-9.278695475699976e-06,-1.7583045899137827e-05,7.0667,6.4
3.46875,-6.787649283588919e-05,-1.1723266163118907e-05,4.87824476997028e-06,-1.1234352025635117e-05,7.0667,6.4
3.47265625,-6.543192214847025e-05,-2.5880206408789162e-05,1.4630357213702892e-06,-8.789781338216186e-06,7.0667,6.4
3.4765625,-6.396517973601889e-05,-4.1022164843213516e-05,-3.0762157869840506e-05,-1.1234352025635117e-05,7.0667,6.4
3.48046875,-5.8594314137483755e-05,-1.1723266163118907e-05,1.9519498588540783e-06,-1.5138475211718898e-05,7.0667,6.4
3.484375,-5.029715362783243e-05,-1.3190008575570274e-05,2.0990841565575677e-05,-2.2953911497672962e-05,7.0667,6.4
3.48828125,-4.9808239490348636e-05,-2.734694882124053e-05,-2.4902378133821584e-05,-2.393173977264054e-05,7.0667,6.4
3.4921875,-5.273453440146483e-05,-1.1234352025635117e-05,-4.5415202166781076e-05,-1.9049788311589197e-05,7.0667,6.4
3.49609375,-4.785258294041349e-05,9.741215838865002e-07,-1.7583045899137827e-05,-2.002042667277024e-05,7.0667,6.4
3.5,-4.639303044174866e-05,-2.148716908522161e-05,-1.6116303486686475e-05,-2.734694882124053e-05,7.0667,6.4
3.50390625,-5.566801922636756e-05,-2.2953911497672962e-05,-2.099825494773782e-05,-2.685803468375674e-05,7.0667,6.4
3.5078125,-5.12749819028e-05,-1.709413176165404e-05,-1.95936324101622e-06,-2.636912054627295e-05,7.0667,6.4
3.51171875,-4.443737389181351e-05,-2.636912054627295e-05,-1.3678922713054064e-05,-2.636912054627295e-05,7.0667,6.4
3.515625,-4.785258294041349e-05,-1.7583045899137827e-05,-5.078606776531621e-05,-2.5391292271305375e-05,7.0667,6.4
3.51953125,-4.5904116304264863e-05,-2.5391292271305375e-05,-3.613302346837564e-05,-2.636912054627295e-05,7.0667,6.4
3.5234375,-4.688194457923244e-05,-2.4420653910124328e-05,-7.330228839551352e-06,-2.1976083222705397e-05,7.0667,6.4
3.52734375,-5.273453440146483e-05,-1.709413176165404e-05,-3.80886800183108e-05,-2.1976083222705397e-05,7.0667,6.4
3.53125,-5.078606776531621e-05,-2.2953911497672962e-05,-2.8813691233691884e-05,-2.246499736018917e-05,7.0667,6.4
3.53515625,-4.492628802929729e-05,-8.300867200732397e-06,-1.8071960036621618e-05,-2.246499736018917e-05,7.0667,6.4
3.5390625,-3.662193760585943e-05,-8.300867200732397e-06,-3.906650829327837e-05,-2.1976083222705397e-05,7.0667,6.4
3.54296875,-3.8577594155794585e-05,-3.662193760585943e-05,-5.371236267643241e-05,-2.393173977264054e-05,7.0667,6.4
3.546875,-4.443737389181351e-05,-2.050934081025403e-05,-7.819142977035141e-06,-2.8324777096208093e-05,7.0667,6.4
3.55078125,-3.955542243076216e-05,-2.099825494773782e-05,2.294649811551082e-05,-2.783586295872432e-05,7.0667,6.4
3.5546875,-4.3459545616845926e-05,-3.955542243076216e-05,-4.492628802929729e-05,-2.8813691233691884e-05,7.0667,6.4
3.55859375,-4.785258294041349e-05,-4.785258294041349e-05,-6.348345551232163e-05,-2.734694882124053e-05,7.0667,6.4
3.5625,-4.053325070572973e-05,-3.613302346837564e-05,-4.785258294041349e-05,-2.734694882124053e-05,7.0667,6.4
3.56640625,-4.1022164843213516e-05,-1.8560874174105406e-05,-3.418455683222701e-05,-2.8324777096208093e-05,7.0667,6.4
3.5703125,-3.613302346837564e-05,-1.8071960036621618e-05,-2.5880206408789162e-05,-3.320672855725945e-05,7.0667,6.4
3.57421875,-3.5162385107194594e-05,-3.565129924467838e-05,-5.615693336385134e-05,-3.565129924467838e-05,7.0667,6.4
3.578125,-3.955542243076216e-05,-5.273453440146483e-05,-4.9808239490348636e-05,-3.613302346837564e-05,7.0667,6.4
3.58203125,-3.4673470969710807e-05,-4.394845975432971e-05,-4.639303044174866e-05,-4.053325070572973e-05,7.0667,6.4
3.5859375,-4.1022164843213516e-05,-4.297063147936214e-05,-6.543192214847025e-05,-3.5162385107194594e-05,7.0667,6.4
3.58984375,-4.248171734187836e-05,-3.662193760585943e-05,-4.5415202166781076e-05,-3.1251072007324294e-05,7.0667,6.4
3.59375,-3.80886800183108e-05,-3.1251072007324294e-05,-1.2212180300602696e-05,-3.0762157869840506e-05,7.0667,6.4
3.59765625,-3.662193760585943e-05,-4.73636688029297e-05,-4.297063147936214e-05,-3.271781441977566e-05,7.0667,6.4
3.6015625,-3.80886800183108e-05,-3.028043364614325e-05,-7.422518670939189e-05,-3.7599765880827003e-05,7.0667,6.4
3.60546875,-4.297063147936214e-05,-1.8560874174105406e-05,-4.5904116304264863e-05,-3.320672855725945e-05,7.0667,6.4
3.609375,-4.394845975432971e-05,-3.5162385107194594e-05,-3.80886800183108e-05,-3.2228900282291876e-05,7.0667,6.4
3.61328125,-4.1022164843213516e-05,-5.4201276813916195e-05,-2.5391292271305375e-05,-3.173998614480808e-05,7.0667,6.4
3.6171875,-4.394845975432971e-05,-4.248171734187836e-05,-4.834149707789728e-05,-2.5880206408789162e-05,7.0667,6.4
3.62109375,-4.9808239490348636e-05,-4.443737389181351e-05,-7.764039575799188e-05,-2.2953911497672962e-05,7.0667,6.4
3.625,-4.639303044174866e-05,-5.078606776531621e-05,-6.250562723735406e-05,-2.246499736018917e-05,7.0667,6.4
3.62890625,-5.078606776531621e-05,-4.785258294041349e-05,-3.028043364614325e-05,-2.344282563515675e-05,7.0667,6.4
3.6328125,-4.834149707789728e-05,-4.5415202166781076e-05,-5.371236267643241e-05,-2.9302605371175672e-05,7.0667,6.4
3.63671875,-4.5904116304264863e-05,-4.5904116304264863e-05,-5.4201276813916195e-05,-2.4420653910124328e-05,7.0667,6.4
3.640625,-4.639303044174866e-05,-5.078606776531621e-05,-2.002042667277024e-05,-1.5138475211718898e-05,7.0667,6.4
3.64453125,-3.80886800183108e-05,-4.883041121538106e-05,-2.9302605371175672e-05,-1.0745437888151328e-05,7.0667,6.4
3.6484375,-3.5162385107194594e-05,-4.199280320439457e-05,-3.320672855725945e-05,-1.2212180300602696e-05,7.0667,6.4
3.65234375,-3.7599765880827003e-05,-3.1251072007324294e-05,-1.3678922713054064e-05,-1.6116303486686475e-05,7.0667,6.4
3.65625,-3.7110851743343216e-05,-2.4902378133821584e-05,-3.80886800183108e-05,-2.1976083222705397e-05,7.0667,6.4
3.66015625,-3.173998614480808e-05,-6.3524005645837746e-06,-6.006105654993512e-05,-2.246499736018917e-05,7.0667,6.4
3.6640625,-2.734694882124053e-05,-2.734694882124053e-05,-3.320672855725945e-05,-1.3678922713054064e-05,7.0667,6.4
3.66796875,-3.5162385107194594e-05,-6.103888482490269e-05,-6.152779896238648e-05,-2.148716908522161e-05,7.0667,6.4
3.671875,-4.9808239490348636e-05,-6.933604533455402e-05,-3.8577594155794585e-05,-2.685803468375674e-05,7.0667,6.4
3.67578125,-6.152779896238648e-05,-7.226953015945675e-05,-1.4649561074235109e-05,-2.2953911497672962e-05,7.0667,6.4
3.6796875,-5.371236267643241e-05,-6.0549970687418905e-05,-8.496691790646217e-05,-1.416064693675132e-05,7.0667,6.4
3.68359375,-4.931932535286485e-05,-7.764039575799188e-05,-0.00011816274985885402,-5.374572289616196e-06,7.0667,6.4
3.6875,-6.299454137483784e-05,-0.00013378643251697565,-0.00011328079839780266,9.760196231021624e-06,7.0667,6.4
3.69140625,-7.66625674830243e-05,-0.00014941011517509724,-0.00010742101866178375,2.1479755703059468e-05,7.0667,6.4
3.6953125,-7.275844429694053e-05,-0.00012548208209353778,-9.863494401464863e-05,1.4642147692072967e-05,7.0667,6.4
3.69921875,-4.785258294041349e-05,-0.0001547809807736324,-0.0001513657717250324,1.122693864347299e-05,7.0667,6.4
3.703125,-3.906650829327837e-05,-0.00019286595410086208,-0.00017968684213015944,3.515497172503245e-05,7.0667,6.4
3.70703125,-3.5162385107194594e-05,-0.0001767533573052567,-0.00015087685758754862,4.68745311970703e-05,7.0667,6.4
3.7109375,-3.369564269474324e-05,-0.00018847291677729454,-0.00020360768529793238,3.564388586251624e-05,7.0667,6.4
3.71484375,-2.979151950865946e-05,-0.00022118702450598914,-0.0002490191807736324,3.564388586251624e-05,7.0667,6.4
3.71875,-1.5627389349202687e-05,-0.00023827744957656213,-0.00023192875570305943,3.8570180773632444e-05,7.0667,6.4
3.72265625,-4.396744014648632e-06,-0.0002480413524986648,-0.00023143984156557564,4.882299783321892e-05,7.0667,6.4
3.7265625,-4.885658152132421e-06,-0.0002480413524986648,-0.0002802665460898756,4.833408369573513e-05,7.0667,6.4
3.73046875,-7.819142977035141e-06,-0.0002514637514610513,-0.00027587350876630805,4.296321809720001e-05,7.0667,6.4
3.734375,-9.815349660486418e-07,-0.00024120374448767832,-0.00024413722931258103,4.34521322346838e-05,7.0667,6.4
3.73828125,9.760196231021624e-06,-0.00022509114769207292,-0.00028759306823834596,3.8081266636148656e-05,7.0667,6.4
3.7421875,1.8553460791943264e-05,-0.00025829416955825123,-0.0003027278367589837,4.247430395971622e-05,7.0667,6.4
3.74609375,1.2204766918440568e-05,-0.00027050264316777294,-0.0002807554602273594,4.491887464713517e-05,7.0667,6.4
3.75,2.2457583978027043e-05,-0.0002641539492942702,-0.00029638633279926757,3.2710401037613535e-05,7.0667,6.4
3.75390625,2.9784106126497335e-05,-0.0002680652623941405,-0.00031249892959487295,2.4902154665445974e-05,7.0667,6.4
3.7578125,3.0273020263981123e-05,-0.0002680652623941405,-0.0003207960901045243,1.9042374929427055e-05,7.0667,6.4
3.76171875,3.8081266636148656e-05,-0.0002480413524986648,-0.0003037056650339513,1.4153233554589192e-05,7.0667,6.4
3.765625,4.1503665598535176e-05,-0.0002221648527809567,-0.00026952481489280535,1.5131061829556757e-05,7.0667,6.4
3.76953125,4.63856170595865e-05,-0.00021728290131990536,-0.0002597609119707026,6.833901319905422e-06,7.0667,6.4
3.7734375,4.882299783321892e-05,-0.00021874964373235672,-0.0002602498261081864,1.4630357213702892e-06,7.0667,6.4
3.77734375,5.9075814892805394e-05,-0.00022460223355458912,-0.00027636242290379184,-1.2701094438086485e-05,7.0667,6.4
3.78125,4.833408369573513e-05,-0.00021191203572137022,-0.00027099155730525673,-2.246499736018917e-05,7.0667,6.4
3.78515625,3.564388586251624e-05,-0.00018261313704127563,-0.00020262985702296482,-2.246499736018917e-05,7.0667,6.4
3.7890625,4.101475146105139e-05,-0.00017382706239414051,-0.00023046201329060805,-3.565129924467838e-05,7.0667,6.4
3.79296875,4.931191197070271e-05,-0.00018065748049134048,-0.00026659851998168916,-4.443737389181351e-05,7.0667,6.4
3.796875,5.419386343175407e-05,-0.00017040466343175398,-0.0001997035621118486,-4.785258294041349e-05,7.0667,6.4
3.80078125,4.247430395971622e-05,-0.0001372016415655756,-0.00019384378237582967,-5.371236267643241e-05,7.0667,6.4
3.8046875,3.417714345006487e-05,-0.00012011121649500265,-0.00019823681969939724,-5.957214241245133e-05,7.0667,6.4
3.80859375,4.34521322346838e-05,-0.00011571817917143507,-0.00016015184637216753,-6.592083628595404e-05,7.0667,6.4
3.8125,4.101475146105139e-05,-0.0001127918842603189,-0.0001513657717250324,-7.66625674830243e-05,7.0667,6.4
3.81640625,3.075474448767838e-05,-8.984886936751351e-05,-0.00010107951470206756,-7.617365334554051e-05,7.0667,6.4
3.8203125,3.564388586251624e-05,-5.566801922636756e-05,-5.908322827496754e-05,-7.910713817044324e-05,7.0667,6.4
3.82421875,4.833408369573513e-05,-5.273453440146483e-05,-9.619756324101622e-05,-9.912385815213242e-05,7.0667,6.4
3.828125,4.5896702922102715e-05,-3.7110851743343216e-05,-0.00013329751837949186,-0.00010693210452429997,7.0667,6.4
3.83203125,3.613280000000003e-05,-2.1976083222705397e-05,-0.00011328079839780266,-0.00010936948529793236,7.0667,6.4
3.8359375,3.222148690012975e-05,-2.4420653910124328e-05,-8.6426470405127e-05,-0.0001127918842603189,7.0667,6.4
3.83984375,3.4666057587548665e-05,-1.470449103532431e-06,-7.471410084687568e-05,-0.00010985839943541616,7.0667,6.4
3.84375,4.003692318608381e-05,-9.815349660486418e-07,-6.543192214847025e-05,-0.00010742101866178375,7.0667,6.4
3.84765625,3.759235249866486e-05,6.833901319905422e-06,-4.688194457923244e-05,-0.0001083916570229648,7.0667,6.4
3.8515625,3.613280000000003e-05,1.6597804242008124e-05,-3.369564269474324e-05,-0.00010742101866178375,7.0667,6.4
3.85546875,3.8081266636148656e-05,8.30064373235679e-06,-3.5162385107194594e-05,-0.00011181405598535131,7.0667,6.4
3.859375,3.075474448767838e-05,1.0249110368505413e-05,-2.4902378133821584e-05,-0.00011718492158388644,7.0667,6.4
3.86328125,2.7828449576562178e-05,2.2457583978027043e-05,-3.4189157396810543e-06,-0.00011865166399633781,7.0667,6.4
3.8671875,2.68506213015946e-05,3.2710401037613535e-05,-2.344282563515675e-05,-0.00011328079839780266,7.0667,6.4
3.87109375,1.9524099153124325e-05,3.564388586251624e-05,-1.0256523750667554e-05,-0.00010985839943541616,7.0667,6.4
3.875,1.5619975967040546e-05,3.661452422369729e-05,4.87824476997028e-06,-0.00011034731357289994,7.0667,6.4
3.87890625,9.271282093537834e-06,5.028974024567029e-05,-1.3190008575570274e-05,-0.0001088805711604486,7.0667,6.4
3.8828125,7.322815457389211e-06,4.1985389822232435e-05,2.9225882200351233e-06,-0.00010302798133821619,7.0667,6.4
3.88671875,1.2693681055924344e-05,5.712734825665677e-05,2.1479755703059468e-05,-9.716820160219727e-05,7.0667,6.4
3.890625,9.271282093537834e-06,6.395776635385675e-05,1.9042374929427055e-05,-9.521973496604864e-05,7.0667,6.4
3.89453125,-2.448277378500009e-06,2.68506213015946e-05,2.294649811551082e-05,-9.326407841611351e-05,7.0667,6.4
3.8984375,3.4115023575189125e-06,3.075474448767838e-05,2.8317363714045966e-05,-9.277516427862971e-05,7.0667,6.4
3.90234375,-3.706691081063695e-09,4.1503665598535176e-05,2.7828449576562178e-05,-9.375299255359729e-05,7.0667,6.4
3.90625,-9.767609613183765e-06,4.9800826108186494e-05,9.271282093537834e-06,-9.424190669108107e-05,7.0667,6.4
3.91015625,-8.300867200732397e-06,5.8586900755321634e-05,1.122693864347299e-05,-9.131561177996488e-05,7.0667,6.4
3.9140625,1.4630357213702892e-06,5.1267568520637864e-05,9.760196231021624e-06,-9.03377835049973e-05,7.0667,6.4
3.91796875,2.9225882200351233e-06,5.0778654383154076e-05,1.9042374929427055e-05,-8.593755626764321e-05,7.0667,6.4
3.921875,-8.789781338216186e-06,4.9800826108186494e-05,3.1243658625162166e-05,-7.910713817044324e-05,7.0667,6.4
3.92578125,-1.3190008575570274e-05,4.68745311970703e-05,3.1243658625162166e-05,-7.959605230792703e-05,7.0667,6.4
3.9296875,-1.5627389349202687e-05,4.784516955825134e-05,3.075474448767838e-05,-7.861822403295946e-05,7.0667,6.4
3.93359375,-1.6116303486686475e-05,3.417714345006487e-05,4.1985389822232435e-05,-7.715148162050809e-05,7.0667,6.4
3.9375,-1.416064693675132e-05,5.370494929427027e-05,3.1243658625162166e-05,-8.203343308155944e-05,7.0667,6.4
3.94140625,-7.819142977035141e-06,4.9800826108186494e-05,-3.9078298771648436e-06,-7.715148162050809e-05,7.0667,6.4
3.9453125,-1.3678922713054064e-05,4.1985389822232435e-05,3.4115023575189125e-06,-6.738757869840541e-05,7.0667,6.4
3.94921875,-2.099825494773782e-05,2.9784106126497335e-05,1.2693681055924344e-05,-6.689866456092161e-05,7.0667,6.4
3.953125,-2.050934081025403e-05,2.587279302662702e-05,3.759235249866486e-05,-6.445409387350267e-05,7.0667,6.4
3.95703125,-2.5391292271305375e-05,4.882299783321892e-05,2.1968669840543256e-05,-6.592083628595404e-05,7.0667,6.4
3.9609375,-2.2953911497672962e-05,3.1732572762645953e-05,3.515497172503245e-05,-6.348345551232163e-05,7.0667,6.4
3.96484375,-2.246499736018917e-05,1.6597804242008124e-05,4.05258373235676e-05,-5.566801922636756e-05,7.0667,6.4
3.96875,-3.1251072007324294e-05,9.271282093537834e-06,3.222148690012975e-05,-5.8594314137483755e-05,7.0667,6.4
3.97265625,-3.028043364614325e-05,1.9524099153124325e-05,2.9225882200351233e-06,-7.178061602197296e-05,7.0667,6.4
3.9765625,-2.685803468375674e-05,2.1968669840543256e-05,-2.979151950865946e-05,-7.519582507057295e-05,7.0667,6.4
3.98046875,-2.979151950865946e-05,2.68506213015946e-05,-4.396744014648632e-06,-6.006105654993512e-05,7.0667,6.4
3.984375,-2.734694882124053e-05,2.8317363714045966e-05,1.5131061829556757e-05,-5.615693336385134e-05,7.0667,6.4
3.98828125,-2.4420653910124328e-05,8.782367956054045e-06,6.344987182421647e-06,-6.103888482490269e-05,7.0667,6.4
3.9921875,-3.271781441977566e-05,1.3182595193408133e-05,3.319931517509732e-05,-6.006105654993512e-05,7.0667,6.4
3.99609375,-3.028043364614325e-05,1.75756325169757e-05,2.9784106126497335e-05,-5.908322827496754e-05,7.0667,6.4
4.0,-2.636912054627295e-05,9.760196231021624e-06,-6.3524005645837746e-06,-5.811258991378649e-05,7.0667,6.4
4.00390625,-3.1251072007324294e-05,4.389330632486491e-06,2.9225882200351233e-06,-4.883041121538106e-05,7.0667,6.4
4.0078125,-2.8813691233691884e-05,2.4408639963378675e-06,-1.3678922713054064e-05,-4.688194457923244e-05,7.0667,6.4
4.01171875,-3.1251072007324294e-05,-9.278695475699976e-06,6.344987182421647e-06,-5.225281017776757e-05,7.0667,6.4
4.015625,-3.8577594155794585e-05,9.741215838865002e-07,3.417714345006487e-05,-4.931932535286485e-05,7.0667,6.4
4.01953125,-3.7599765880827003e-05,1.6108890104524333e-05,-4.885658152132421e-06,-5.1763896040283786e-05,7.0667,6.4
4.0234375,-3.320672855725945e-05,8.782367956054045e-06,-2.393173977264054e-05,-5.1763896040283786e-05,7.0667,6.4
4.02734375,-3.613302346837564e-05,2.9225882200351233e-06,-3.028043364614325e-05,-4.639303044174866e-05,7.0667,6.4
4.03125,-4.492628802929729e-05,-7.819142977035141e-06,-2.930001602197265e-06,-4.5415202166781076e-05,7.0667,6.4
4.03515625,-4.1022164843213516e-05,-2.448277378500009e-06,3.4666057587548665e-05,-4.5415202166781076e-05,7.0667,6.4
4.0390625,-3.565129924467838e-05,2.0013013290608112e-05,-1.2212180300602696e-05,-4.639303044174866e-05,7.0667,6.4
4.04296875,-2.5880206408789162e-05,5.367158907454069e-06,-4.199280320439457e-05,-4.3459545616845926e-05,7.0667,6.4
4.046875,-2.344282563515675e-05,-1.0745437888151328e-05,-2.783586295872432e-05,-3.8577594155794585e-05,7.0667,6.4
4.05078125,-3.173998614480808e-05,-4.926208285648527e-07,-9.278695475699976e-06,-3.5162385107194594e-05,7.0667,6.4
4.0546875,-3.0762157869840506e-05,1.4630357213702892e-06,-9.767609613183765e-06,-4.0044336568245934e-05,7.0667,6.4
4.05859375,-3.2228900282291876e-05,-8.789781338216186e-06,-7.819142977035141e-06,-4.443737389181351e-05,7.0667,6.4
4.0625,-3.2228900282291876e-05,-5.374572289616196e-06,2.4408639963378675e-06,-4.785258294041349e-05,7.0667,6.4
4.06640625,-2.5391292271305375e-05,-5.863486427099985e-06,-4.926208285648527e-07,-4.785258294041349e-05,7.0667,6.4
4.0703125,-3.369564269474324e-05,-1.2701094438086485e-05,2.050192742809189e-05,-4.443737389181351e-05,7.0667,6.4
4.07421875,-3.418455683222701e-05,-1.416064693675132e-05,-1.660521762417025e-05,-3.80886800183108e-05,7.0667,6.4
4.078125,-2.8813691233691884e-05,-1.1723266163118907e-05,-4.5415202166781076e-05,-3.369564269474324e-05,7.0667,6.4
4.08203125,-3.320672855725945e-05,-1.3190008575570274e-05,-1.8071960036621618e-05,-4.0044336568245934e-05,7.0667,6.4
4.0859375,-3.955542243076216e-05,-1.7583045899137827e-05,-1.8071960036621618e-05,-4.5415202166781076e-05,7.0667,6.4
4.08984375,-4.199280320439457e-05,-6.841314702067564e-06,-9.767609613183765e-06,-4.248171734187836e-05,7.0667,6.4
4.09375,-4.1503889066910776e-05,-1.470449103532431e-06,-1.1723266163118907e-05,-4.1022164843213516e-05,7.0667,6.4
4.09765625,-3.7599765880827003e-05,-1.6116303486686475e-05,-1.7583045899137827e-05,-4.492628802929729e-05,7.0667,6.4
4.1015625,-3.955542243076216e-05,-1.7583045899137827e-05,-3.706691081063695e-09,-4.5415202166781076e-05,7.0667,6.4
4.10546875,-3.662193760585943e-05,-9.278695475699976e-06,1.2204766918440568e-05,-3.7110851743343216e-05,7.0667,6.4
4.109375,-2.5880206408789162e-05,-1.3190008575570274e-05,-8.789781338216186e-06,-3.906650829327837e-05,7.0667,6.4
