timestamp,TP9,AF7,AF8,TP10,Valence,Arousal
0.0,-5.66396914381628e-05,-3.85694505989166e-05,-3.368916657663846e-05,-2.6359319145494794e-05,7.0,5.9333
0.00390625,-6.444060875562679e-05,-3.5140061826504906e-05,-3.123960316777294e-05,-3.270934121309221e-05,7.0,5.9333
0.0078125,-6.395069607385364e-05,-3.9059363280689696e-05,-4.0020345848783104e-05,-3.0259777804226757e-05,7.0,5.9333
0.01171875,-5.7600674006256214e-05,-4.2959821939421656e-05,-4.0020345848783104e-05,-2.5869406463721644e-05,7.0,5.9333
0.015625,-4.442955998474099e-05,-3.709971255359733e-05,-3.5629974508277995e-05,-2.9769865122453665e-05,7.0,5.9333
0.01953125,-4.100017121232929e-05,-5.3700215347524193e-05,-4.930984400701913e-05,-3.6119887190051084e-05,7.0,5.9333
0.0234375,-4.442955998474099e-05,-5.125065193865873e-05,-5.4190128029297336e-05,-3.9059363280689696e-05,7.0,5.9333
0.02734375,-3.660979987182423e-05,-2.147903512321659e-05,-4.0020345848783104e-05,-4.3939647302967894e-05,7.0,5.9333
0.03125,-3.123960316777294e-05,-2.6359319145494794e-05,-2.9769865122453665e-05,-4.3939647302967894e-05,7.0,5.9333
0.03515625,-4.05102585305562e-05,-1.4149187692072928e-05,-1.1228554396887147e-05,-3.4179079258411546e-05,7.0,5.9333
0.0390625,-5.4190128029297336e-05,-3.9549275962462785e-05,-3.270934121309221e-05,-2.0009297077897314e-05,7.0,5.9333
0.04296875,-5.077958205233841e-05,-9.521089373006788e-05,-7.763056557259477e-05,-1.5618925737392202e-05,7.0,5.9333
0.046875,-4.100017121232929e-05,-9.813152702525365e-05,-8.349067495841915e-05,-1.7088663782711535e-05,7.0,5.9333
0.05078125,-3.5629974508277995e-05,-7.957137350423436e-05,-7.324019423208972e-05,-2.488958110017546e-05,7.0,5.9333
0.0546875,-3.5140061826504906e-05,-7.861039093614096e-05,-6.591034680094606e-05,-2.0009297077897314e-05,7.0,5.9333
0.05859375,-5.3700215347524193e-05,-8.251084959487298e-05,-6.883098009613183e-05,-1.9029471714351076e-05,7.0,5.9333
0.0625,-5.272038998397801e-05,-7.91003036179141e-05,-6.786999752803843e-05,-2.7829057190814066e-05,7.0,5.9333
0.06640625,-4.588045523460744e-05,-8.349067495841915e-05,-6.834106741435874e-05,-2.0989122441443498e-05,7.0,5.9333
0.0703125,-6.395069607385364e-05,-8.592139557183185e-05,-6.493052143739987e-05,-1.0738641715114055e-05,7.0,5.9333
0.07421875,-8.690122093537802e-05,-7.469108948195622e-05,-5.516995339284352e-05,-7.79916562447545e-06,7.0,5.9333
0.078125,-7.861039093614096e-05,-6.200988814221409e-05,-4.8819931325246044e-05,-1.3659275010299836e-05,7.0,5.9333
0.08203125,-4.6860280598153676e-05,-6.346078339208054e-05,-4.6370367916380526e-05,-5.858357692835881e-06,7.0,5.9333
0.0859375,-3.9549275962462785e-05,-6.981080545967802e-05,-5.6149778756389704e-05,-1.610883841916535e-05,7.0,5.9333
0.08984375,-3.758962523537042e-05,-6.738008484626533e-05,-5.3700215347524193e-05,-3.319925389486531e-05,7.0,5.9333
0.09375,-3.807953791714351e-05,-5.077958205233841e-05,-4.588045523460744e-05,-2.9769865122453665e-05,7.0,5.9333
0.09765625,-4.8330018643472955e-05,-4.05102585305562e-05,-4.0020345848783104e-05,-2.488958110017546e-05,7.0,5.9333
0.1015625,-5.077958205233841e-05,-4.540938534828717e-05,-3.5140061826504906e-05,-2.0499209759670406e-05,7.0,5.9333
0.10546875,-3.5629974508277995e-05,-4.540938534828717e-05,-3.660979987182423e-05,-3.0259777804226757e-05,7.0,5.9333
0.109375,-2.439966841840237e-05,-4.588045523460744e-05,-4.8819931325246044e-05,-3.9059363280689696e-05,7.0,5.9333
0.11328125,-2.0989122441443498e-05,-4.930984400701913e-05,-4.784010596169986e-05,-2.5869406463721644e-05,7.0,5.9333
0.1171875,-3.270934121309221e-05,-5.66396914381628e-05,-4.784010596169986e-05,-1.8049646350804892e-05,7.0,5.9333
0.12109375,-4.735019327992677e-05,-5.2230477302204914e-05,-4.442955998474099e-05,-1.6598751100938443e-05,7.0,5.9333
0.125,-5.077958205233841e-05,-4.05102585305562e-05,-4.0020345848783104e-05,-2.6359319145494794e-05,7.0,5.9333
0.12890625,-3.709971255359733e-05,-3.758962523537042e-05,-3.465014914473181e-05,-2.9279952440680515e-05,7.0,5.9333
0.1328125,-1.9029471714351076e-05,-3.4179079258411546e-05,-2.9279952440680515e-05,-2.2458860486762774e-05,7.0,5.9333
0.13671875,-1.6598751100938443e-05,-3.4179079258411546e-05,-2.9279952440680515e-05,-2.3419843054856185e-05,7.0,5.9333
0.140625,-2.488958110017546e-05,-4.149008389410238e-05,-1.7088663782711535e-05,-1.9519384396124222e-05,7.0,5.9333
0.14453125,-4.784010596169986e-05,-3.368916657663846e-05,-2.7829057190814066e-05,-1.9519384396124222e-05,7.0,5.9333
0.1484375,-5.7600674006256214e-05,-3.0749690485999845e-05,-3.709971255359733e-05,-2.5869406463721644e-05,7.0,5.9333
0.15234375,-5.3700215347524193e-05,-3.465014914473181e-05,-2.6849231827267886e-05,-3.5140061826504906e-05,7.0,5.9333
0.15625,-4.3939647302967894e-05,-3.270934121309221e-05,-2.3909755736629277e-05,-3.0749690485999845e-05,7.0,5.9333
0.16015625,-1.8539559032577984e-05,-4.3939647302967894e-05,-2.9279952440680515e-05,-2.147903512321659e-05,7.0,5.9333
0.1640625,-9.758816351567844e-06,-4.784010596169986e-05,-4.05102585305562e-05,-2.1968947804989682e-05,7.0,5.9333
0.16796875,-3.0259777804226757e-05,-4.8330018643472955e-05,-4.540938534828717e-05,-2.6359319145494794e-05,7.0,5.9333
0.171875,-4.8330018643472955e-05,-4.588045523460744e-05,-4.2959821939421656e-05,-3.0259777804226757e-05,7.0,5.9333
0.17578125,-4.930984400701913e-05,-4.8819931325246044e-05,-3.123960316777294e-05,-2.7829057190814066e-05,7.0,5.9333
0.1796875,-3.85694505989166e-05,-4.930984400701913e-05,-2.7829057190814066e-05,-2.0989122441443498e-05,7.0,5.9333
0.18359375,-3.709971255359733e-05,-3.2219428531319124e-05,-3.660979987182423e-05,-2.831896987258716e-05,7.0,5.9333
0.1875,-3.9549275962462785e-05,-2.9279952440680515e-05,-2.8790039758907423e-05,-4.344973462119475e-05,7.0,5.9333
0.19140625,-3.758962523537042e-05,-3.319925389486531e-05,-3.709971255359733e-05,-4.442955998474099e-05,7.0,5.9333
0.1953125,-3.5629974508277995e-05,-2.9769865122453665e-05,-4.540938534828717e-05,-3.319925389486531e-05,7.0,5.9333
0.19921875,-3.0749690485999845e-05,-2.9769865122453665e-05,-3.9549275962462785e-05,-3.270934121309221e-05,7.0,5.9333
0.203125,-2.7339144509040978e-05,-3.172951584954603e-05,-3.85694505989166e-05,-3.319925389486531e-05,7.0,5.9333
0.20703125,-4.491947266651408e-05,-3.0259777804226757e-05,-2.9769865122453665e-05,-2.147903512321659e-05,7.0,5.9333
0.2109375,-5.9070412051575486e-05,-3.123960316777294e-05,-3.270934121309221e-05,-1.75597336690318e-05,7.0,5.9333
0.21484375,-4.6860280598153676e-05,-2.7339144509040978e-05,-3.9549275962462785e-05,-2.147903512321659e-05,7.0,5.9333
0.21875,-4.979975668879223e-05,-3.5140061826504906e-05,-3.709971255359733e-05,-2.7339144509040978e-05,7.0,5.9333
0.22265625,-5.272038998397801e-05,-4.3939647302967894e-05,-2.8790039758907423e-05,-2.8790039758907423e-05,7.0,5.9333
0.2265625,-3.5629974508277995e-05,-3.9549275962462785e-05,-2.439966841840237e-05,-3.0749690485999845e-05,7.0,5.9333
0.23046875,-1.4149187692072928e-05,-3.6119887190051084e-05,-2.7339144509040978e-05,-2.7339144509040978e-05,7.0,5.9333
0.234375,-3.408794283970394e-06,-2.2458860486762774e-05,-2.9769865122453665e-05,-2.0499209759670406e-05,7.0,5.9333
0.23828125,-9.758816351567844e-06,-1.8539559032577984e-05,-3.0749690485999845e-05,-2.147903512321659e-05,7.0,5.9333
0.2421875,-2.0009297077897314e-05,-2.2458860486762774e-05,-3.4179079258411546e-05,-2.3909755736629277e-05,7.0,5.9333
0.24609375,-4.149008389410238e-05,-2.3419843054856185e-05,-3.123960316777294e-05,-2.3909755736629277e-05,7.0,5.9333
0.25,-4.197999657587547e-05,-2.6849231827267886e-05,-2.5379493781948552e-05,-2.0499209759670406e-05,7.0,5.9333
0.25390625,-2.6359319145494794e-05,-3.270934121309221e-05,-2.9769865122453665e-05,-2.9769865122453665e-05,7.0,5.9333
0.2578125,-2.9769865122453665e-05,-3.9549275962462785e-05,-3.2219428531319124e-05,-4.442955998474099e-05,7.0,5.9333
0.26171875,-2.7829057190814066e-05,-3.709971255359733e-05,-3.4179079258411546e-05,-4.344973462119475e-05,7.0,5.9333
0.265625,-2.9769865122453665e-05,-3.368916657663846e-05,-2.6849231827267886e-05,-3.465014914473181e-05,7.0,5.9333
0.26953125,-3.660979987182423e-05,-2.6359319145494794e-05,-1.1699624283207412e-05,-2.439966841840237e-05,7.0,5.9333
0.2734375,-4.2959821939421656e-05,-2.5379493781948552e-05,-2.2458860486762774e-05,-2.2948773168535866e-05,7.0,5.9333
0.27734375,-5.3700215347524193e-05,-3.9059363280689696e-05,-3.319925389486531e-05,-2.3909755736629277e-05,7.0,5.9333
0.28125,-3.9549275962462785e-05,-3.9059363280689696e-05,-3.319925389486531e-05,-2.2948773168535866e-05,7.0,5.9333
0.28515625,-2.6849231827267886e-05,-3.172951584954603e-05,-3.465014914473181e-05,-2.8790039758907423e-05,7.0,5.9333
0.2890625,-4.2959821939421656e-05,-4.05102585305562e-05,-3.9549275962462785e-05,-3.2219428531319124e-05,7.0,5.9333
0.29296875,-4.0020345848783104e-05,-3.465014914473181e-05,-3.807953791714351e-05,-3.2219428531319124e-05,7.0,5.9333
0.296875,-3.5140061826504906e-05,-2.0989122441443498e-05,-2.2948773168535866e-05,-2.5379493781948552e-05,7.0,5.9333
0.30078125,-4.3939647302967894e-05,-4.442955998474099e-05,-3.0749690485999845e-05,-2.0989122441443498e-05,7.0,5.9333
0.3046875,-3.758962523537042e-05,-7.371126411840998e-05,-6.248095802853436e-05,-2.2458860486762774e-05,7.0,5.9333
0.30859375,-3.85694505989166e-05,-7.177045618677045e-05,-5.9560324733348575e-05,-2.0499209759670406e-05,7.0,5.9333
0.3125,-5.0289669370565316e-05,-6.1030062778667854e-05,-3.758962523537042e-05,-2.0009297077897314e-05,7.0,5.9333
0.31640625,-5.0289669370565316e-05,-6.005023741512167e-05,-5.4190128029297336e-05,-2.147903512321659e-05,7.0,5.9333
0.3203125,-4.735019327992677e-05,-4.491947266651408e-05,-6.054015009689476e-05,-2.488958110017546e-05,7.0,5.9333
0.32421875,-5.66396914381628e-05,-4.930984400701913e-05,-4.540938534828717e-05,-2.439966841840237e-05,7.0,5.9333
0.328125,-7.12805435049973e-05,-6.054015009689476e-05,-4.246990925764857e-05,-2.7339144509040978e-05,7.0,5.9333
0.33203125,-6.981080545967802e-05,-5.0289669370565316e-05,-4.442955998474099e-05,-2.9279952440680515e-05,7.0,5.9333
0.3359375,-5.2230477302204914e-05,-5.516995339284352e-05,-5.0289669370565316e-05,-2.6359319145494794e-05,7.0,5.9333
0.33984375,-3.2219428531319124e-05,-5.3700215347524193e-05,-5.0289669370565316e-05,-2.5869406463721644e-05,7.0,5.9333
0.34375,-2.2458860486762774e-05,-4.930984400701913e-05,-4.100017121232929e-05,-2.0009297077897314e-05,7.0,5.9333
0.34765625,-2.7339144509040978e-05,-3.4179079258411546e-05,-3.0259777804226757e-05,-2.3419843054856185e-05,7.0,5.9333
0.3515625,-3.6119887190051084e-05,-3.807953791714351e-05,-3.0749690485999845e-05,-2.6359319145494794e-05,7.0,5.9333
0.35546875,-3.9059363280689696e-05,-5.0289669370565316e-05,-2.439966841840237e-05,-2.6849231827267886e-05,7.0,5.9333
0.359375,-4.6860280598153676e-05,-5.1740564620431826e-05,-2.0989122441443498e-05,-2.6849231827267886e-05,7.0,5.9333
0.36328125,-5.272038998397801e-05,-4.100017121232929e-05,-2.9279952440680515e-05,-2.6849231827267886e-05,7.0,5.9333
0.3671875,-3.5140061826504906e-05,-3.5140061826504906e-05,-4.442955998474099e-05,-3.172951584954603e-05,7.0,5.9333
0.37109375,-2.9279952440680515e-05,-4.6370367916380526e-05,-4.246990925764857e-05,-2.6849231827267886e-05,7.0,5.9333
0.375,-3.9549275962462785e-05,-4.735019327992677e-05,-3.758962523537042e-05,-2.2458860486762774e-05,7.0,5.9333
0.37890625,-3.807953791714351e-05,-3.123960316777294e-05,-3.85694505989166e-05,-3.172951584954603e-05,7.0,5.9333
0.3828125,-2.9279952440680515e-05,-4.0020345848783104e-05,-4.05102585305562e-05,-3.368916657663846e-05,7.0,5.9333
0.38671875,-2.1968947804989682e-05,-4.197999657587547e-05,-4.197999657587547e-05,-2.6849231827267886e-05,7.0,5.9333
0.390625,-2.6849231827267886e-05,-2.439966841840237e-05,-3.5629974508277995e-05,-2.0499209759670406e-05,7.0,5.9333
0.39453125,-3.807953791714351e-05,-3.172951584954603e-05,-3.6119887190051084e-05,-2.9769865122453665e-05,7.0,5.9333
0.3984375,-4.100017121232929e-05,-3.9059363280689696e-05,-3.172951584954603e-05,-3.270934121309221e-05,7.0,5.9333
0.40234375,-4.8819931325246044e-05,-3.2219428531319124e-05,-2.0009297077897314e-05,-2.9279952440680515e-05,7.0,5.9333
0.40625,-4.8819931325246044e-05,-2.9769865122453665e-05,-2.6359319145494794e-05,-2.8790039758907423e-05,7.0,5.9333
0.41015625,-3.4179079258411546e-05,-3.123960316777294e-05,-4.540938534828717e-05,-2.7829057190814066e-05,7.0,5.9333
0.4140625,-3.758962523537042e-05,-4.197999657587547e-05,-4.246990925764857e-05,-2.8790039758907423e-05,7.0,5.9333
0.41796875,-5.077958205233841e-05,-4.979975668879223e-05,-3.5629974508277995e-05,-2.7829057190814066e-05,7.0,5.9333
0.421875,-4.100017121232929e-05,-3.709971255359733e-05,-4.0020345848783104e-05,-3.0259777804226757e-05,7.0,5.9333
0.42578125,-2.0499209759670406e-05,-2.831896987258716e-05,-3.758962523537042e-05,-2.0989122441443498e-05,7.0,5.9333
0.4296875,-1.7088663782711535e-05,-2.7339144509040978e-05,-3.758962523537042e-05,-1.8049646350804892e-05,7.0,5.9333
0.43359375,-3.172951584954603e-05,-4.2959821939421656e-05,-3.709971255359733e-05,-2.488958110017546e-05,7.0,5.9333
0.4375,-5.077958205233841e-05,-5.4190128029297336e-05,-3.85694505989166e-05,-2.147903512321659e-05,7.0,5.9333
0.44140625,-4.491947266651408e-05,-3.660979987182423e-05,-3.6119887190051084e-05,-1.75597336690318e-05,7.0,5.9333
0.4453125,-2.831896987258716e-05,-2.6359319145494794e-05,-3.368916657663846e-05,-2.439966841840237e-05,7.0,5.9333
0.44921875,-2.6359319145494794e-05,-3.0749690485999845e-05,-3.465014914473181e-05,-2.6849231827267886e-05,7.0,5.9333
0.453125,-2.0499209759670406e-05,-3.6119887190051084e-05,-3.758962523537042e-05,-2.0009297077897314e-05,7.0,5.9333
0.45703125,-1.463910037384602e-05,-3.807953791714351e-05,-3.0259777804226757e-05,-1.4149187692072928e-05,7.0,5.9333
0.4609375,-1.6598751100938443e-05,-4.149008389410238e-05,-3.0259777804226757e-05,-2.3419843054856185e-05,7.0,5.9333
0.46484375,-3.368916657663846e-05,-4.0020345848783104e-05,-4.0020345848783104e-05,-2.7829057190814066e-05,7.0,5.9333
0.46875,-3.758962523537042e-05,-3.9549275962462785e-05,-3.9059363280689696e-05,-1.610883841916535e-05,7.0,5.9333
0.47265625,-2.8790039758907423e-05,-3.368916657663846e-05,-3.758962523537042e-05,-1.0738641715114055e-05,7.0,5.9333
0.4765625,-2.9769865122453665e-05,-2.8790039758907423e-05,-4.05102585305562e-05,-1.3659275010299836e-05,7.0,5.9333
0.48046875,-3.709971255359733e-05,-3.709971255359733e-05,-3.172951584954603e-05,-1.75597336690318e-05,7.0,5.9333
0.484375,-4.930984400701913e-05,-4.6860280598153676e-05,-4.540938534828717e-05,-2.0009297077897314e-05,7.0,5.9333
0.48828125,-3.5629974508277995e-05,-3.6119887190051084e-05,-5.077958205233841e-05,-2.1968947804989682e-05,7.0,5.9333
0.4921875,-1.9519384396124222e-05,-4.540938534828717e-05,-4.100017121232929e-05,-2.147903512321659e-05,7.0,5.9333
0.49609375,-2.2458860486762774e-05,-5.7600674006256214e-05,-4.6370367916380526e-05,-2.5379493781948552e-05,7.0,5.9333
0.5,-3.123960316777294e-05,-6.689017216449224e-05,-5.66396914381628e-05,-2.488958110017546e-05,7.0,5.9333
0.50390625,-3.807953791714351e-05,-7.420117680018307e-05,-6.834106741435874e-05,-1.8049646350804892e-05,7.0,5.9333
0.5078125,-3.6119887190051084e-05,-7.91003036179141e-05,-6.981080545967802e-05,-1.6598751100938443e-05,7.0,5.9333
0.51171875,-3.6119887190051084e-05,-9.472098104829478e-05,-8.592139557183185e-05,-1.463910037384602e-05,7.0,5.9333
0.515625,-3.2219428531319124e-05,-0.00011034165847867552,-0.00010203198568398562,-4.878532329289698e-06,7.0,5.9333
0.51953125,-3.368916657663846e-05,-0.00013915229272602425,-0.0001289018119996948,4.410965828946359e-06,7.0,5.9333
0.5234375,-4.930984400701913e-05,-0.0001489128607705806,-0.00014452248943007555,7.33159912413214e-06,7.0,5.9333
0.52734375,-5.4190128029297336e-05,-0.0001664931889280537,-0.0001694326650186923,6.841686442359048e-06,7.0,5.9333
0.53125,-3.660979987182423e-05,-0.0002084937799923705,-0.00021092450060578317,8.31142448767835e-06,7.0,5.9333
0.53515625,-2.5379493781948552e-05,-0.00023240528742198824,-0.00023338511278553443,1.0271075214770746e-05,7.0,5.9333
0.5390625,-3.368916657663846e-05,-0.0002563356376470588,-0.00025535581228351256,2.2952276554512848e-05,7.0,5.9333
0.54296875,-3.85694505989166e-05,-0.0002768365990997176,-0.00026658611837338827,3.4182582644388505e-05,7.0,5.9333
0.546875,-2.9769865122453665e-05,-0.0002826967084855421,-0.0002817357259174487,2.442201459983215e-05,7.0,5.9333
0.55078125,-3.172951584954603e-05,-0.00029929721127946904,-0.00029929721127946904,1.3681621191729618e-05,7.0,5.9333
0.5546875,-4.8330018643472955e-05,-0.0003178573648004883,-0.0003159165568688487,1.709216716868849e-05,7.0,5.9333
0.55859375,-4.6370367916380526e-05,-0.0003203069282093538,-0.0003212867535729,2.2952276554512848e-05,7.0,5.9333
0.5625,-3.5629974508277995e-05,-0.00032177666625467303,-0.0003178573648004883,1.3191708509956526e-05,7.0,5.9333
0.56640625,-2.9769865122453665e-05,-0.00030419633809719993,-0.0003212867535729,3.4311404654001763e-06,7.0,5.9333
0.5703125,-4.05102585305562e-05,-0.00029588666530251006,-0.00031542664418707553,1.8561905214007793e-05,7.0,5.9333
0.57421875,-6.591034680094606e-05,-0.00030125686200656136,-0.0003115073427328908,2.442201459983215e-05,7.0,5.9333
0.578125,-6.786999752803843e-05,-0.00028904673055313957,-0.0002895366432349126,1.9541730577553977e-05,7.0,5.9333
0.58203125,-3.758962523537042e-05,-0.00027587561653162433,-0.0002753857038498512,1.6131184600595103e-05,7.0,5.9333
0.5859375,-1.5129013055619112e-05,-0.0002675659437369344,-0.0002685457691004807,5.861861078812865e-06,7.0,5.9333
0.58984375,-2.0989122441443498e-05,-0.00024998561557946136,-0.00023095439217212172,-2.4289689204241825e-06,7.0,5.9333
0.59375,-2.6849231827267886e-05,-0.00021239423865110243,-0.00018650423769893949,-2.9188816021973024e-06,7.0,5.9333
0.59765625,-3.319925389486531e-05,-0.0001840735170855268,-0.0001845634297672999,-9.758816351567844e-06,7.0,5.9333
0.6015625,-5.0289669370565316e-05,-0.0001811340409948882,-0.00019383408513008315,-1.3169362328526744e-05,7.0,5.9333
0.60546875,-4.6860280598153676e-05,-0.00014793303540703442,-0.00015526288283817808,-1.2679449646753653e-05,7.0,5.9333
0.609375,-2.7339144509040978e-05,-9.37411556847486e-05,-0.0001064411998199435,-2.439966841840237e-05,7.0,5.9333
0.61328125,-2.7339144509040978e-05,-7.420117680018307e-05,-8.349067495841915e-05,-3.6119887190051084e-05,7.0,5.9333
0.6171875,-3.368916657663846e-05,-6.1030062778667854e-05,-5.858049936980239e-05,-3.709971255359733e-05,7.0,5.9333
0.62109375,-4.588045523460744e-05,-4.6370367916380526e-05,-4.246990925764857e-05,-2.6359319145494794e-05,7.0,5.9333
0.625,-5.4190128029297336e-05,-3.9549275962462785e-05,-3.319925389486531e-05,-3.172951584954603e-05,7.0,5.9333
0.62890625,-5.272038998397801e-05,-2.3909755736629277e-05,-1.9029471714351076e-05,-5.3700215347524193e-05,7.0,5.9333
0.6328125,-5.711076132448312e-05,-1.0248729033340963e-05,-4.388619647516577e-06,-5.858049936980239e-05,7.0,5.9333
0.63671875,-5.32103026657511e-05,1.4714897383077811e-06,1.3681621191729618e-05,-4.979975668879223e-05,7.0,5.9333
0.640625,-5.0289669370565316e-05,1.3191708509956526e-05,2.5401839963378362e-05,-4.149008389410238e-05,7.0,5.9333
0.64453125,-4.735019327992677e-05,2.979221130388342e-05,3.126194934920272e-05,-4.6860280598153676e-05,7.0,5.9333
0.6484375,-3.5629974508277995e-05,4.249225543907835e-05,5.031201555199513e-05,-5.66396914381628e-05,7.0,5.9333
0.65234375,-3.9059363280689696e-05,3.8101884098573295e-05,4.9332190188448914e-05,-5.80905866880293e-05,7.0,5.9333
0.65625,-4.344973462119475e-05,4.396199348439765e-05,4.2982168120851465e-05,-5.516995339284352e-05,7.0,5.9333
0.66015625,-3.5629974508277995e-05,5.421247421072709e-05,5.7133107505912873e-05,-4.979975668879223e-05,7.0,5.9333
0.6640625,-3.4179079258411546e-05,5.7133107505912873e-05,5.2252823483634696e-05,-4.8330018643472955e-05,7.0,5.9333
0.66796875,-3.9549275962462785e-05,6.642260566414893e-05,5.274273616540779e-05,-5.711076132448312e-05,7.0,5.9333
0.671875,-4.8819931325246044e-05,6.495286761882963e-05,6.446295493705653e-05,-5.9560324733348575e-05,7.0,5.9333
0.67578125,-6.1030062778667854e-05,5.909275823300527e-05,5.664319482413978e-05,-4.930984400701913e-05,7.0,5.9333
0.6796875,-4.6370367916380526e-05,5.860284555123217e-05,5.470238689250019e-05,-4.540938534828717e-05,7.0,5.9333
0.68359375,-3.5140061826504906e-05,5.860284555123217e-05,6.348312957351036e-05,-4.6860280598153676e-05,7.0,5.9333
0.6875,-3.9059363280689696e-05,6.738358823224231e-05,7.228271504997329e-05,-4.442955998474099e-05,7.0,5.9333
0.69140625,-3.123960316777294e-05,6.201339152819104e-05,5.860284555123217e-05,-4.8819931325246044e-05,7.0,5.9333
0.6953125,-3.0749690485999845e-05,5.8112932869459084e-05,5.56822122560464e-05,-5.4190128029297336e-05,7.0,5.9333
0.69921875,-3.4179079258411546e-05,7.324369761806667e-05,6.738358823224231e-05,-5.6149778756389704e-05,7.0,5.9333
0.703125,-3.319925389486531e-05,7.422352298161289e-05,6.544278030060275e-05,-5.711076132448312e-05,7.0,5.9333
0.70703125,-3.709971255359733e-05,7.422352298161289e-05,5.860284555123217e-05,-5.80905866880293e-05,7.0,5.9333
0.7109375,-4.442955998474099e-05,6.885332627756162e-05,6.544278030060275e-05,-6.1030062778667854e-05,7.0,5.9333
0.71484375,-4.491947266651408e-05,6.056249627832457e-05,7.324369761806667e-05,-5.858049936980239e-05,7.0,5.9333
0.71875,-3.709971255359733e-05,6.348312957351036e-05,6.93432389593347e-05,-5.32103026657511e-05,7.0,5.9333
0.72265625,-2.2948773168535866e-05,5.615328214236669e-05,6.495286761882963e-05,-5.516995339284352e-05,7.0,5.9333
0.7265625,-2.439966841840237e-05,6.154232164187076e-05,5.8112932869459084e-05,-5.516995339284352e-05,7.0,5.9333
0.73046875,-3.4179079258411546e-05,7.324369761806667e-05,5.762302018768596e-05,-4.735019327992677e-05,7.0,5.9333
0.734375,-3.2219428531319124e-05,6.885332627756162e-05,6.250330420996414e-05,-5.077958205233841e-05,7.0,5.9333
0.73828125,-3.270934121309221e-05,6.056249627832457e-05,5.51922995742733e-05,-5.468004071107043e-05,7.0,5.9333
0.7421875,-3.2219428531319124e-05,5.8112932869459084e-05,5.2252823483634696e-05,-4.8819931325246044e-05,7.0,5.9333
0.74609375,-3.123960316777294e-05,5.470238689250019e-05,5.664319482413978e-05,-4.197999657587547e-05,7.0,5.9333
0.75,-2.7829057190814066e-05,4.6392714097810336e-05,4.9332190188448914e-05,-4.344973462119475e-05,7.0,5.9333
0.75390625,-2.6849231827267886e-05,4.2982168120851465e-05,4.1512430075532165e-05,-5.0289669370565316e-05,7.0,5.9333
0.7578125,-2.831896987258716e-05,3.663214605325399e-05,4.102251739375907e-05,-5.516995339284352e-05,7.0,5.9333
0.76171875,-2.488958110017546e-05,2.7361490690470757e-05,2.9302298622110328e-05,-5.2230477302204914e-05,7.0,5.9333
0.765625,-2.439966841840237e-05,3.859179678034638e-05,2.8322473258564144e-05,-4.735019327992677e-05,7.0,5.9333
0.76953125,-2.488958110017546e-05,4.053260471198598e-05,4.102251739375907e-05,-4.588045523460744e-05,7.0,5.9333
0.7734375,-2.2458860486762774e-05,2.5401839963378362e-05,4.6392714097810336e-05,-4.149008389410238e-05,7.0,5.9333
0.77734375,-2.8790039758907423e-05,2.2462363872739756e-05,4.786245214312964e-05,-4.100017121232929e-05,7.0,5.9333
0.78125,-3.123960316777294e-05,2.3442189236285967e-05,3.9062866666666675e-05,-4.8330018643472955e-05,7.0,5.9333
0.78515625,-2.9279952440680515e-05,3.955277934843977e-05,3.126194934920272e-05,-4.930984400701913e-05,7.0,5.9333
0.7890625,-3.465014914473181e-05,4.004269203021286e-05,2.8322473258564144e-05,-3.85694505989166e-05,7.0,5.9333
0.79296875,-3.2219428531319124e-05,2.0521555941100188e-05,2.5891752645151454e-05,-2.6849231827267886e-05,7.0,5.9333
0.796875,-2.9279952440680515e-05,2.8322473258564144e-05,3.028212398565654e-05,-2.9279952440680515e-05,7.0,5.9333
0.80078125,-3.5629974508277995e-05,3.61422333714809e-05,3.4672495326161593e-05,-3.319925389486531e-05,7.0,5.9333
0.8046875,-4.2959821939421656e-05,3.61422333714809e-05,3.5652320689707804e-05,-2.831896987258716e-05,7.0,5.9333
0.80859375,-4.0020345848783104e-05,3.5652320689707804e-05,3.028212398565654e-05,-2.7829057190814066e-05,7.0,5.9333
0.8125,-2.5379493781948552e-05,3.322160007629512e-05,1.0760987896543838e-05,-3.5140061826504906e-05,7.0,5.9333
0.81640625,-2.0989122441443498e-05,1.9541730577553977e-05,5.861861078812865e-06,-4.6370367916380526e-05,7.0,5.9333
0.8203125,-2.831896987258716e-05,1.0760987896543838e-05,1.417153387350271e-05,-4.784010596169986e-05,7.0,5.9333
0.82421875,-3.758962523537042e-05,4.916643747615979e-07,6.841686442359048e-06,-5.272038998397801e-05,7.0,5.9333
0.828125,-3.5140061826504906e-05,-5.368445011062789e-06,-5.368445011062789e-06,-5.858049936980239e-05,7.0,5.9333
0.83203125,-1.75597336690318e-05,1.751692988477771e-09,-7.309252942702357e-06,-4.979975668879223e-05,7.0,5.9333
0.8359375,-2.4289689204241825e-06,3.4311404654001763e-06,-1.2679449646753653e-05,-4.979975668879223e-05,7.0,5.9333
0.83984375,-1.0738641715114055e-05,-1.9390562386510906e-06,-1.5129013055619112e-05,-4.442955998474099e-05,7.0,5.9333
0.84375,-3.0259777804226757e-05,-2.4289689204241825e-06,-7.79916562447545e-06,-4.100017121232929e-05,7.0,5.9333
0.84765625,-4.100017121232929e-05,-5.858357692835881e-06,-6.8193402609292655e-06,-4.2959821939421656e-05,7.0,5.9333
0.8515625,-4.8330018643472955e-05,-1.1699624283207412e-05,-8.289078306248568e-06,-3.85694505989166e-05,7.0,5.9333
0.85546875,-4.246990925764857e-05,-2.9188816021973024e-06,-8.289078306248568e-06,-3.85694505989166e-05,7.0,5.9333
0.859375,-3.5629974508277995e-05,9.815770565346894e-07,-4.388619647516577e-06,-3.85694505989166e-05,7.0,5.9333
0.86328125,-4.8330018643472955e-05,1.961402420080873e-06,2.9412277836270843e-06,-3.270934121309221e-05,7.0,5.9333
0.8671875,-4.930984400701913e-05,6.351773760585957e-06,4.916643747615979e-07,-3.270934121309221e-05,7.0,5.9333
0.87109375,-3.5629974508277995e-05,9.781162532997655e-06,4.916643747615979e-07,-3.465014914473181e-05,7.0,5.9333
0.875,-2.1968947804989682e-05,5.861861078812865e-06,-5.368445011062789e-06,-4.344973462119475e-05,7.0,5.9333
0.87890625,-9.268903669794752e-06,-1.0248729033340963e-05,-1.0248729033340963e-05,-4.588045523460744e-05,7.0,5.9333
0.8828125,-1.3169362328526744e-05,-1.1699624283207412e-05,4.410965828946359e-06,-3.368916657663846e-05,7.0,5.9333
0.88671875,-2.147903512321659e-05,1.709216716868849e-05,1.709216716868849e-05,-3.270934121309221e-05,7.0,5.9333
0.890625,-1.8539559032577984e-05,7.821511805905259e-06,-1.0248729033340963e-05,-5.077958205233841e-05,7.0,5.9333
0.89453125,-2.3909755736629277e-05,-3.0259777804226757e-05,-3.660979987182423e-05,-5.2230477302204914e-05,7.0,5.9333
0.8984375,-3.0259777804226757e-05,-2.9279952440680515e-05,-2.8790039758907423e-05,-3.5629974508277995e-05,7.0,5.9333
0.90234375,-2.2948773168535866e-05,-2.9769865122453665e-05,-2.8790039758907423e-05,-3.123960316777294e-05,7.0,5.9333
0.90625,-1.75597336690318e-05,-2.0499209759670406e-05,-3.5629974508277995e-05,-4.2959821939421656e-05,7.0,5.9333
0.91015625,-2.1968947804989682e-05,-2.2948773168535866e-05,-5.077958205233841e-05,-5.2230477302204914e-05,7.0,5.9333
0.9140625,-3.2219428531319124e-05,-3.9549275962462785e-05,-4.930984400701913e-05,-5.272038998397801e-05,7.0,5.9333
0.91796875,-4.197999657587547e-05,-3.319925389486531e-05,-4.246990925764857e-05,-6.1030062778667854e-05,7.0,5.9333
0.921875,-3.9059363280689696e-05,-3.807953791714351e-05,-4.6370367916380526e-05,-7.324019423208972e-05,7.0,5.9333
0.92578125,-2.1968947804989682e-05,-3.85694505989166e-05,-3.0749690485999845e-05,-6.395069607385364e-05,7.0,5.9333
0.9296875,-3.123960316777294e-05,-2.0989122441443498e-05,-2.7339144509040978e-05,-4.540938534828717e-05,7.0,5.9333
0.93359375,-4.491947266651408e-05,-1.75597336690318e-05,-4.0020345848783104e-05,-3.9059363280689696e-05,7.0,5.9333
0.9375,-2.9279952440680515e-05,-3.2219428531319124e-05,-3.9059363280689696e-05,-4.246990925764857e-05,7.0,5.9333
0.94140625,-2.2948773168535866e-05,-4.0020345848783104e-05,-4.2959821939421656e-05,-4.979975668879223e-05,7.0,5.9333
0.9453125,-2.5379493781948552e-05,-3.368916657663846e-05,-4.246990925764857e-05,-5.32103026657511e-05,7.0,5.9333
0.94921875,-2.3909755736629277e-05,-3.5140061826504906e-05,-3.9549275962462785e-05,-4.979975668879223e-05,7.0,5.9333
0.953125,-2.439966841840237e-05,-3.0259777804226757e-05,-3.6119887190051084e-05,-3.5140061826504906e-05,7.0,5.9333
0.95703125,-1.75597336690318e-05,-2.3909755736629277e-05,-2.6849231827267886e-05,-3.4179079258411546e-05,7.0,5.9333
0.9609375,-2.147903512321659e-05,-2.488958110017546e-05,-3.2219428531319124e-05,-4.197999657587547e-05,7.0,5.9333
0.96484375,-4.05102585305562e-05,-2.2948773168535866e-05,-3.0749690485999845e-05,-3.5140061826504906e-05,7.0,5.9333
0.96875,-4.05102585305562e-05,-1.463910037384602e-05,-2.3419843054856185e-05,-4.149008389410238e-05,7.0,5.9333
0.97265625,-2.7829057190814066e-05,-1.1699624283207412e-05,-2.2458860486762774e-05,-5.5659866074616615e-05,7.0,5.9333
0.9765625,-3.270934121309221e-05,-1.4149187692072928e-05,-2.147903512321659e-05,-5.077958205233841e-05,7.0,5.9333
0.98046875,-4.0020345848783104e-05,-9.268903669794752e-06,-2.0499209759670406e-05,-2.6359319145494794e-05,7.0,5.9333
0.984375,-3.368916657663846e-05,-2.0009297077897314e-05,-1.8539559032577984e-05,-2.3419843054856185e-05,7.0,5.9333
0.98828125,-2.3909755736629277e-05,-2.7339144509040978e-05,-2.3909755736629277e-05,-3.2219428531319124e-05,7.0,5.9333
0.9921875,-7.309252942702357e-06,-2.1968947804989682e-05,-2.3419843054856185e-05,-2.7829057190814066e-05,7.0,5.9333
0.99609375,-3.408794283970394e-06,-1.463910037384602e-05,-1.9029471714351076e-05,-2.831896987258716e-05,7.0,5.9333
1.0,-1.5618925737392202e-05,-1.7088663782711535e-05,-1.8539559032577984e-05,-3.807953791714351e-05,7.0,5.9333
1.00390625,-2.5379493781948552e-05,-2.0989122441443498e-05,-1.6598751100938443e-05,-4.3939647302967894e-05,7.0,5.9333
1.0078125,-2.2948773168535866e-05,-1.7088663782711535e-05,-1.8049646350804892e-05,-3.807953791714351e-05,7.0,5.9333
1.01171875,-2.3909755736629277e-05,-2.0989122441443498e-05,-2.3419843054856185e-05,-3.758962523537042e-05,7.0,5.9333
1.015625,-2.7339144509040978e-05,-1.0738641715114055e-05,-9.758816351567844e-06,-3.319925389486531e-05,7.0,5.9333
1.01953125,-2.5379493781948552e-05,-7.309252942702357e-06,-1.2189536964980562e-05,-2.831896987258716e-05,7.0,5.9333
1.0234375,-1.8049646350804892e-05,-1.0248729033340963e-05,-2.9279952440680515e-05,-2.9769865122453665e-05,7.0,5.9333
1.02734375,-2.6849231827267886e-05,-1.5129013055619112e-05,-3.270934121309221e-05,-2.5869406463721644e-05,7.0,5.9333
1.03125,-3.758962523537042e-05,-2.0009297077897314e-05,-3.319925389486531e-05,-2.6849231827267886e-05,7.0,5.9333
1.03515625,-3.660979987182423e-05,-1.3659275010299836e-05,-3.0259777804226757e-05,-3.85694505989166e-05,7.0,5.9333
1.0390625,-3.758962523537042e-05,-2.0499209759670406e-05,-2.5869406463721644e-05,-4.344973462119475e-05,7.0,5.9333
1.04296875,-1.8049646350804892e-05,-2.2458860486762774e-05,-2.3419843054856185e-05,-3.807953791714351e-05,7.0,5.9333
1.046875,7.821511805905259e-06,-4.878532329289698e-06,-2.7829057190814066e-05,-3.709971255359733e-05,7.0,5.9333
1.05078125,-2.4289689204241825e-06,-1.2189536964980562e-05,-2.3909755736629277e-05,-2.7829057190814066e-05,7.0,5.9333
1.0546875,-2.831896987258716e-05,-1.3659275010299836e-05,-2.3419843054856185e-05,-1.463910037384602e-05,7.0,5.9333
1.05859375,-4.344973462119475e-05,-1.610883841916535e-05,-3.368916657663846e-05,-2.0989122441443498e-05,7.0,5.9333
1.0625,-4.149008389410238e-05,-3.807953791714351e-05,-3.319925389486531e-05,-3.123960316777294e-05,7.0,5.9333
1.06640625,-3.270934121309221e-05,-3.709971255359733e-05,-3.172951584954603e-05,-3.807953791714351e-05,7.0,5.9333
1.0703125,-2.8790039758907423e-05,-3.6119887190051084e-05,-4.0020345848783104e-05,-4.979975668879223e-05,7.0,5.9333
1.07421875,-1.8539559032577984e-05,-4.2959821939421656e-05,-3.9059363280689696e-05,-4.344973462119475e-05,7.0,5.9333
1.078125,-1.3169362328526744e-05,-3.5140061826504906e-05,-2.488958110017546e-05,-3.368916657663846e-05,7.0,5.9333
1.08203125,-2.488958110017546e-05,-3.172951584954603e-05,-3.0259777804226757e-05,-3.5629974508277995e-05,7.0,5.9333
1.0859375,-3.709971255359733e-05,-2.5379493781948552e-05,-3.465014914473181e-05,-2.7829057190814066e-05,7.0,5.9333
1.08984375,-4.6860280598153676e-05,-2.1968947804989682e-05,-2.0499209759670406e-05,-2.1968947804989682e-05,7.0,5.9333
1.09375,-3.123960316777294e-05,-2.6849231827267886e-05,-1.9519384396124222e-05,-1.610883841916535e-05,7.0,5.9333
1.09765625,-1.3169362328526744e-05,-2.147903512321659e-05,-2.488958110017546e-05,-1.1228554396887147e-05,7.0,5.9333
1.1015625,-2.1968947804989682e-05,-2.2458860486762774e-05,-2.6849231827267886e-05,-2.5869406463721644e-05,7.0,5.9333
1.10546875,-2.0989122441443498e-05,-3.0259777804226757e-05,-1.9029471714351076e-05,-3.9059363280689696e-05,7.0,5.9333
1.109375,-2.9769865122453665e-05,-3.709971255359733e-05,-2.488958110017546e-05,-4.442955998474099e-05,7.0,5.9333
1.11328125,-3.807953791714351e-05,-4.100017121232929e-05,-3.6119887190051084e-05,-4.100017121232929e-05,7.0,5.9333
1.1171875,-3.758962523537042e-05,-3.807953791714351e-05,-3.368916657663846e-05,-4.05102585305562e-05,7.0,5.9333
1.12109375,-4.784010596169986e-05,-3.319925389486531e-05,-2.6849231827267886e-05,-4.100017121232929e-05,7.0,5.9333
1.125,-4.100017121232929e-05,-2.5869406463721644e-05,-1.610883841916535e-05,-2.7339144509040978e-05,7.0,5.9333
1.12890625,-2.7829057190814066e-05,-1.75597336690318e-05,-2.5379493781948552e-05,-2.3419843054856185e-05,7.0,5.9333
1.1328125,-1.9519384396124222e-05,-2.1968947804989682e-05,-2.8790039758907423e-05,-3.0749690485999845e-05,7.0,5.9333
1.13671875,-1.7088663782711535e-05,-5.0289669370565316e-05,-3.270934121309221e-05,-3.319925389486531e-05,7.0,5.9333
1.140625,-1.9519384396124222e-05,-4.491947266651408e-05,-4.0020345848783104e-05,-2.9769865122453665e-05,7.0,5.9333
1.14453125,-3.172951584954603e-05,-3.172951584954603e-05,-3.9549275962462785e-05,-3.0259777804226757e-05,7.0,5.9333
1.1484375,-4.344973462119475e-05,-3.85694505989166e-05,-3.5140061826504906e-05,-2.9769865122453665e-05,7.0,5.9333
1.15234375,-4.8330018643472955e-05,-3.4179079258411546e-05,-2.9279952440680515e-05,-2.6849231827267886e-05,7.0,5.9333
1.15625,-3.9059363280689696e-05,-2.0989122441443498e-05,-4.0020345848783104e-05,-4.100017121232929e-05,7.0,5.9333
1.16015625,-3.5629974508277995e-05,-3.172951584954603e-05,-4.2959821939421656e-05,-4.784010596169986e-05,7.0,5.9333
1.1640625,-4.784010596169986e-05,-5.0289669370565316e-05,-3.4179079258411546e-05,-4.246990925764857e-05,7.0,5.9333
1.16796875,-4.930984400701913e-05,-4.246990925764857e-05,-2.831896987258716e-05,-3.465014914473181e-05,7.0,5.9333
1.171875,-4.3939647302967894e-05,-4.246990925764857e-05,-2.5869406463721644e-05,-2.488958110017546e-05,7.0,5.9333
1.17578125,-2.6849231827267886e-05,-3.660979987182423e-05,-2.0499209759670406e-05,-1.5129013055619112e-05,7.0,5.9333
1.1796875,-1.2679449646753653e-05,-3.172951584954603e-05,-3.319925389486531e-05,-2.1968947804989682e-05,7.0,5.9333
1.18359375,-1.5129013055619112e-05,-4.3939647302967894e-05,-5.4190128029297336e-05,-3.709971255359733e-05,7.0,5.9333
1.1875,-1.8539559032577984e-05,-4.442955998474099e-05,-4.588045523460744e-05,-3.807953791714351e-05,7.0,5.9333
1.19140625,-2.7829057190814066e-05,-4.100017121232929e-05,-3.758962523537042e-05,-3.0259777804226757e-05,7.0,5.9333
1.1953125,-3.9549275962462785e-05,-4.735019327992677e-05,-3.807953791714351e-05,-2.3909755736629277e-05,7.0,5.9333
1.19921875,-3.9549275962462785e-05,-4.979975668879223e-05,-3.2219428531319124e-05,-2.0499209759670406e-05,7.0,5.9333
1.203125,-3.172951584954603e-05,-4.588045523460744e-05,-4.6370367916380526e-05,-2.8790039758907423e-05,7.0,5.9333
1.20703125,-2.2948773168535866e-05,-4.6860280598153676e-05,-5.7600674006256214e-05,-3.368916657663846e-05,7.0,5.9333
1.2109375,-2.5379493781948552e-05,-6.738008484626533e-05,-7.371126411840998e-05,-3.172951584954603e-05,7.0,5.9333
1.21484375,-3.758962523537042e-05,-8.837095898069731e-05,-0.00010009117775234607,-3.0259777804226757e-05,7.0,5.9333
1.21875,-3.9549275962462785e-05,-0.00010985174579690243,-0.00010301181104753186,-2.0499209759670406e-05,7.0,5.9333
1.22265625,-3.9059363280689696e-05,-0.00011473202981918057,-0.0001088719204333562,-1.0738641715114055e-05,7.0,5.9333
1.2265625,-3.4179079258411546e-05,-0.0001118113965239948,-0.000129881637363241,-1.0738641715114055e-05,7.0,5.9333
1.23046875,-1.9029471714351076e-05,-0.00012157196456855115,-0.00014501240211184865,-1.0248729033340963e-05,7.0,5.9333
1.234375,-3.0259777804226757e-05,-0.00015965325417868314,-0.00016845283965514606,7.33159912413214e-06,7.0,5.9333
1.23828125,-4.2959821939421656e-05,-0.00019530382317540243,-0.00019726347390249487,8.801337169451443e-06,7.0,5.9333
1.2421875,-3.0749690485999845e-05,-0.0002167846099916075,-0.00021972408608224612,3.921053147173267e-06,7.0,5.9333
1.24609375,-2.2948773168535866e-05,-0.00024363559351186386,-0.0002475548949660487,6.841686442359048e-06,7.0,5.9333
1.25,-2.3419843054856185e-05,-0.00026707603105516136,-0.00027050541982757303,6.841686442359048e-06,7.0,5.9333
1.25390625,-2.0499209759670406e-05,-0.00028661600993972684,-0.0002807559005539025,1.9051817895780885e-05,7.0,5.9333
1.2578125,-2.0009297077897314e-05,-0.0002983362287113756,-0.00029345594468909743,2.5891752645151454e-05,7.0,5.9333
1.26171875,-3.172951584954603e-05,-0.0003232275615045396,-0.0003149367315053025,2.2952276554512848e-05,7.0,5.9333
1.265625,-3.85694505989166e-05,-0.0003183472774822613,-0.0003071169713923857,3.4182582644388505e-05,7.0,5.9333
1.26953125,-3.172951584954603e-05,-0.00030564723334706637,-0.00031444681882352934,3.663214605325399e-05,7.0,5.9333
1.2734375,-3.6119887190051084e-05,-0.00032810784552681773,-0.00033494778027618827,1.5641271918822015e-05,7.0,5.9333
1.27734375,-2.9769865122453665e-05,-0.0003266569502769512,-0.00032177666625467303,8.801337169451443e-06,7.0,5.9333
1.28125,-6.329427579156174e-06,-0.0003149367315053025,-0.00031444681882352934,1.709216716868849e-05,7.0,5.9333
1.28515625,-9.758816351567844e-06,-0.00030223668737010755,-0.0002973564033478294,1.5151359237048921e-05,7.0,5.9333
1.2890625,-3.0749690485999845e-05,-0.0002841664465308613,-0.0002861260972579538,8.801337169451443e-06,7.0,5.9333
1.29296875,-2.6849231827267886e-05,-0.0002695255944640269,-0.0002871059226215,4.916643747615979e-07,7.0,5.9333
1.296875,-1.463910037384602e-05,-0.00026023609630579077,-0.0002651352231235218,-1.1699624283207412e-05,7.0,5.9333
1.30078125,-2.7339144509040978e-05,-0.00024363559351186386,-0.00023046447949034865,-7.309252942702357e-06,7.0,5.9333
1.3046875,-3.0749690485999845e-05,-0.0002080038673105974,-0.00021092450060578317,1.751692988477771e-09,7.0,5.9333
1.30859375,-1.3169362328526744e-05,-0.00019140336451667047,-0.0001987143691523613,-5.858357692835881e-06,7.0,5.9333
1.3125,-3.408794283970394e-06,-0.00017333312367742427,-0.00016990373490501258,-6.329427579156174e-06,7.0,5.9333
1.31640625,-8.289078306248568e-06,-0.00014793303540703442,-0.00014062203077134353,-1.5618925737392202e-05,7.0,5.9333
1.3203125,-1.9029471714351076e-05,-0.0001259623359090562,-0.00011522194250095367,-3.807953791714351e-05,7.0,5.9333
1.32421875,-2.9279952440680515e-05,-0.00010936183311512928,-9.276133032120241e-05,-4.3939647302967894e-05,7.0,5.9333
1.328125,-3.172951584954603e-05,-6.689017216449224e-05,-5.077958205233841e-05,-3.807953791714351e-05,7.0,5.9333
1.33203125,-3.709971255359733e-05,-3.807953791714351e-05,-2.5869406463721644e-05,-5.125065193865873e-05,7.0,5.9333
1.3359375,-5.0289669370565316e-05,-2.9279952440680515e-05,-6.329427579156174e-06,-5.858049936980239e-05,7.0,5.9333
1.33984375,-6.395069607385364e-05,-1.9390562386510906e-06,1.5641271918822015e-05,-4.197999657587547e-05,7.0,5.9333
1.34375,-6.054015009689476e-05,8.801337169451443e-06,2.1501381304646372e-05,-3.9549275962462785e-05,7.0,5.9333
1.34765625,-3.758962523537042e-05,9.781162532997655e-06,3.955277934843977e-05,-4.197999657587547e-05,7.0,5.9333
1.3515625,-2.6359319145494794e-05,2.979221130388342e-05,4.786245214312964e-05,-4.3939647302967894e-05,7.0,5.9333
1.35546875,-3.5140061826504906e-05,4.4922976052491036e-05,5.0783085438315424e-05,-5.077958205233841e-05,7.0,5.9333
1.359375,-4.442955998474099e-05,4.9332190188448914e-05,5.8112932869459084e-05,-5.5659866074616615e-05,7.0,5.9333
1.36328125,-3.709971255359733e-05,6.78735009140154e-05,7.277262773174641e-05,-5.1740564620431826e-05,7.0,5.9333
1.3671875,-3.2219428531319124e-05,8.643365443503472e-05,8.643365443503472e-05,-4.735019327992677e-05,7.0,5.9333
1.37109375,-3.123960316777294e-05,9.229376382085908e-05,9.570430979781795e-05,-5.0289669370565316e-05,7.0,5.9333
1.375,-3.4179079258411546e-05,0.00010011352393377586,0.00010450389527428091,-5.0289669370565316e-05,7.0,5.9333
1.37890625,-4.930984400701913e-05,9.815387320668347e-05,0.00010987409197833219,-5.5659866074616615e-05,7.0,5.9333
1.3828125,-3.6119887190051084e-05,9.717404784313725e-05,0.0001064635460013733,-5.66396914381628e-05,7.0,5.9333
1.38671875,-2.9769865122453665e-05,9.474332722972457e-05,9.376350186617838e-05,-5.125065193865873e-05,7.0,5.9333
1.390625,-4.8819931325246044e-05,9.082402577553981e-05,9.523323991149769e-05,-5.516995339284352e-05,7.0,5.9333
1.39453125,-5.711076132448312e-05,9.474332722972457e-05,0.00010254424454718852,-5.272038998397801e-05,7.0,5.9333
1.3984375,-6.786999752803843e-05,8.302310845807585e-05,9.668413516136417e-05,-5.077958205233841e-05,7.0,5.9333
1.40234375,-7.61608275272755e-05,7.228271504997329e-05,9.523323991149769e-05,-4.8819931325246044e-05,7.0,5.9333
1.40625,-5.516995339284352e-05,8.888321784390021e-05,0.00010156441918364234,-4.05102585305562e-05,7.0,5.9333
1.41015625,-4.197999657587547e-05,8.692356711680781e-05,8.741347979858091e-05,-4.442955998474099e-05,7.0,5.9333
1.4140625,-4.3939647302967894e-05,7.17928023682002e-05,7.228271504997329e-05,-6.005023741512167e-05,7.0,5.9333
1.41796875,-3.709971255359733e-05,7.861389432211796e-05,7.569326102693219e-05,-6.200988814221409e-05,7.0,5.9333
1.421875,-4.344973462119475e-05,8.790339248035402e-05,7.861389432211796e-05,-5.66396914381628e-05,7.0,5.9333
1.42578125,-4.6860280598153676e-05,9.180385113908598e-05,8.057354504921036e-05,-6.1030062778667854e-05,7.0,5.9333
1.4296875,-4.735019327992677e-05,8.692356711680781e-05,8.400293382162204e-05,-6.591034680094606e-05,7.0,5.9333
1.43359375,-3.9549275962462785e-05,8.790339248035402e-05,9.13139384573129e-05,-6.395069607385364e-05,7.0,5.9333
1.4375,-3.6119887190051084e-05,8.253319577630273e-05,8.351302113984894e-05,-5.80905866880293e-05,7.0,5.9333
1.44140625,-4.2959821939421656e-05,6.836341359578853e-05,6.836341359578853e-05,-4.197999657587547e-05,7.0,5.9333
1.4453125,-3.660979987182423e-05,6.593269298237583e-05,5.958267091477836e-05,-4.100017121232929e-05,7.0,5.9333
1.44921875,-3.6119887190051084e-05,7.422352298161289e-05,5.860284555123217e-05,-5.0289669370565316e-05,7.0,5.9333
1.453125,-4.491947266651408e-05,6.98331516411078e-05,5.615328214236669e-05,-4.979975668879223e-05,7.0,5.9333
1.45703125,-4.8819931325246044e-05,5.127299812008851e-05,4.688262677958343e-05,-4.735019327992677e-05,7.0,5.9333
1.4609375,-4.491947266651408e-05,4.8842277506675826e-05,4.5412888734264125e-05,-5.125065193865873e-05,7.0,5.9333
1.46484375,-3.319925389486531e-05,6.299321689173723e-05,5.127299812008851e-05,-5.5659866074616615e-05,7.0,5.9333
1.46875,-2.8790039758907423e-05,6.299321689173723e-05,5.0783085438315424e-05,-5.077958205233841e-05,7.0,5.9333
1.47265625,-2.3419843054856185e-05,5.031201555199513e-05,3.76119714168002e-05,-3.5629974508277995e-05,7.0,5.9333
1.4765625,-2.2948773168535866e-05,4.786245214312964e-05,3.077203666742963e-05,-2.7339144509040978e-05,7.0,5.9333
1.48046875,-3.758962523537042e-05,4.249225543907835e-05,3.663214605325399e-05,-3.807953791714351e-05,7.0,5.9333
1.484375,-4.6370367916380526e-05,3.224177471274891e-05,3.9062866666666675e-05,-5.125065193865873e-05,7.0,5.9333
1.48828125,-4.588045523460744e-05,2.5891752645151454e-05,3.322160007629512e-05,-5.9560324733348575e-05,7.0,5.9333
1.4921875,-3.5629974508277995e-05,2.7832560576791025e-05,2.7361490690470757e-05,-6.297087071030745e-05,7.0,5.9333
1.49609375,-2.8790039758907423e-05,3.4672495326161593e-05,2.6871578008697638e-05,-5.272038998397801e-05,7.0,5.9333
1.5,-4.588045523460744e-05,3.273168739452202e-05,2.1501381304646372e-05,-4.979975668879223e-05,7.0,5.9333
1.50390625,-5.0289669370565316e-05,2.4911927281605243e-05,1.5151359237048921e-05,-4.246990925764857e-05,7.0,5.9333
1.5078125,-3.270934121309221e-05,1.709216716868849e-05,1.0760987896543838e-05,-3.758962523537042e-05,7.0,5.9333
1.51171875,-2.0989122441443498e-05,5.861861078812865e-06,1.0760987896543838e-05,-4.2959821939421656e-05,7.0,5.9333
1.515625,-2.6849231827267886e-05,-4.6931819333178734e-07,1.417153387350271e-05,-4.149008389410238e-05,7.0,5.9333
1.51953125,-4.588045523460744e-05,4.916643747615979e-07,1.5641271918822015e-05,-3.2219428531319124e-05,7.0,5.9333
1.5234375,-4.8819931325246044e-05,5.861861078812865e-06,1.2701795828183434e-05,-3.0749690485999845e-05,7.0,5.9333
1.52734375,-4.05102585305562e-05,1.0760987896543838e-05,1.0760987896543838e-05,-3.807953791714351e-05,7.0,5.9333
1.53125,-3.9549275962462785e-05,8.801337169451443e-06,9.781162532997655e-06,-3.5629974508277995e-05,7.0,5.9333
1.53515625,-3.5140061826504906e-05,1.751692988477771e-09,3.921053147173267e-06,-3.6119887190051084e-05,7.0,5.9333
1.5390625,-4.05102585305562e-05,-4.878532329289698e-06,-3.898706965743486e-06,-4.344973462119475e-05,7.0,5.9333
1.54296875,-4.2959821939421656e-05,-6.8193402609292655e-06,9.815770565346894e-07,-5.272038998397801e-05,7.0,5.9333
1.546875,-3.85694505989166e-05,-4.6931819333178734e-07,2.9412277836270843e-06,-5.711076132448312e-05,7.0,5.9333
1.55078125,-3.0259777804226757e-05,-1.0738641715114055e-05,-5.368445011062789e-06,-4.540938534828717e-05,7.0,5.9333
1.5546875,-2.7339144509040978e-05,-1.3659275010299836e-05,1.751692988477771e-09,-2.9769865122453665e-05,7.0,5.9333
1.55859375,-3.9549275962462785e-05,-1.1699624283207412e-05,1.961402420080873e-06,-2.7829057190814066e-05,7.0,5.9333
1.5625,-3.270934121309221e-05,-2.2948773168535866e-05,-1.3169362328526744e-05,-4.197999657587547e-05,7.0,5.9333
1.56640625,-1.8049646350804892e-05,-6.8193402609292655e-06,-2.3909755736629277e-05,-4.0020345848783104e-05,7.0,5.9333
1.5703125,-3.368916657663846e-05,1.3191708509956526e-05,-4.388619647516577e-06,-2.5379493781948552e-05,7.0,5.9333
1.57421875,-4.344973462119475e-05,1.4714897383077811e-06,7.821511805905259e-06,-2.8790039758907423e-05,7.0,5.9333
1.578125,-3.172951584954603e-05,-1.3659275010299836e-05,1.4714897383077811e-06,-3.4179079258411546e-05,7.0,5.9333
1.58203125,-1.75597336690318e-05,-4.878532329289698e-06,1.961402420080873e-06,-2.3909755736629277e-05,7.0,5.9333
1.5859375,-1.0248729033340963e-05,-3.408794283970394e-06,-6.329427579156174e-06,-3.368916657663846e-05,7.0,5.9333
1.58984375,-1.7088663782711535e-05,-1.7088663782711535e-05,-1.9519384396124222e-05,-4.100017121232929e-05,7.0,5.9333
1.59375,-3.807953791714351e-05,-2.7339144509040978e-05,-2.7829057190814066e-05,-2.5869406463721644e-05,7.0,5.9333
1.59765625,-3.9059363280689696e-05,-2.831896987258716e-05,-1.75597336690318e-05,-2.6359319145494794e-05,7.0,5.9333
1.6015625,-3.270934121309221e-05,-2.9188816021973024e-06,4.900878510719479e-06,-3.5629974508277995e-05,7.0,5.9333
1.60546875,-4.149008389410238e-05,-6.329427579156174e-06,1.1232057782864131e-05,-2.147903512321659e-05,7.0,5.9333
1.609375,-5.1740564620431826e-05,-4.0020345848783104e-05,-1.2679449646753653e-05,-1.0738641715114055e-05,7.0,5.9333
1.61328125,-6.200988814221409e-05,-3.2219428531319124e-05,-2.488958110017546e-05,-2.147903512321659e-05,7.0,5.9333
1.6171875,-5.80905866880293e-05,-2.9188816021973024e-06,-1.449143556877999e-06,-1.9029471714351076e-05,7.0,5.9333
1.62109375,-4.930984400701913e-05,-1.5129013055619112e-05,-4.6931819333178734e-07,-2.3909755736629277e-05,7.0,5.9333
1.625,-5.077958205233841e-05,-2.6849231827267886e-05,-7.309252942702357e-06,-3.465014914473181e-05,7.0,5.9333
1.62890625,-4.6370367916380526e-05,-1.3169362328526744e-05,-1.3659275010299836e-05,-1.8539559032577984e-05,7.0,5.9333
1.6328125,-3.5629974508277995e-05,-3.319925389486531e-05,-2.0989122441443498e-05,-1.5129013055619112e-05,7.0,5.9333
1.63671875,-3.660979987182423e-05,-4.197999657587547e-05,-1.8049646350804892e-05,-1.6598751100938443e-05,7.0,5.9333
1.640625,-4.197999657587547e-05,-1.8049646350804892e-05,-1.3169362328526744e-05,-1.0738641715114055e-05,7.0,5.9333
1.64453125,-4.735019327992677e-05,-2.6359319145494794e-05,-1.2189536964980562e-05,-1.9029471714351076e-05,7.0,5.9333
1.6484375,-5.4190128029297336e-05,-6.005023741512167e-05,-2.8790039758907423e-05,-2.7829057190814066e-05,7.0,5.9333
1.65234375,-5.516995339284352e-05,-6.493052143739987e-05,-4.149008389410238e-05,-3.123960316777294e-05,7.0,5.9333
1.65625,-4.588045523460744e-05,-1.3169362328526744e-05,-1.5129013055619112e-05,-3.172951584954603e-05,7.0,5.9333
1.66015625,-4.246990925764857e-05,1.0271075214770746e-05,2.3442189236285967e-05,-3.123960316777294e-05,7.0,5.9333
1.6640625,-5.272038998397801e-05,5.861861078812865e-06,1.66022544869154e-05,-2.1968947804989682e-05,7.0,5.9333
1.66796875,-4.149008389410238e-05,1.5641271918822015e-05,1.2211883146410315e-05,-8.289078306248568e-06,7.0,5.9333
1.671875,-3.123960316777294e-05,-2.488958110017546e-05,9.291249851224535e-06,4.916643747615979e-07,7.0,5.9333
1.67578125,-3.5629974508277995e-05,-2.439966841840237e-05,7.821511805905259e-06,-9.758816351567844e-06,7.0,5.9333
1.6796875,-3.660979987182423e-05,-6.329427579156174e-06,8.801337169451443e-06,-2.3419843054856185e-05,7.0,5.9333
1.68359375,-5.7600674006256214e-05,-6.640025948271915e-05,-1.2679449646753653e-05,-2.9279952440680515e-05,7.0,5.9333
1.6875,-7.420117680018307e-05,-3.0259777804226757e-05,-1.1699624283207412e-05,-2.8790039758907423e-05,7.0,5.9333
1.69140625,-5.1740564620431826e-05,2.101146862287328e-05,-2.9188816021973024e-06,-3.85694505989166e-05,7.0,5.9333
1.6953125,-4.6370367916380526e-05,-1.1228554396887147e-05,-1.5129013055619112e-05,-3.9549275962462785e-05,7.0,5.9333
1.69921875,-4.540938534828717e-05,-1.7088663782711535e-05,-1.8049646350804892e-05,-2.6849231827267886e-05,7.0,5.9333
1.703125,-1.7088663782711535e-05,-2.0989122441443498e-05,-1.1699624283207412e-05,-2.5869406463721644e-05,7.0,5.9333
1.70703125,-4.388619647516577e-06,-3.0259777804226757e-05,-7.309252942702357e-06,-2.9769865122453665e-05,7.0,5.9333
1.7109375,-1.6598751100938443e-05,-3.270934121309221e-05,-1.0248729033340963e-05,-3.5629974508277995e-05,7.0,5.9333
1.71484375,-2.6849231827267886e-05,-3.123960316777294e-05,-2.0009297077897314e-05,-3.660979987182423e-05,7.0,5.9333
1.71875,-3.172951584954603e-05,-3.5629974508277995e-05,-1.9519384396124222e-05,-2.831896987258716e-05,7.0,5.9333
1.72265625,-3.368916657663846e-05,-4.149008389410238e-05,-1.3659275010299836e-05,-2.8790039758907423e-05,7.0,5.9333
1.7265625,-4.6370367916380526e-05,-4.442955998474099e-05,-2.2458860486762774e-05,-2.6359319145494794e-05,7.0,5.9333
1.73046875,-5.468004071107043e-05,-3.758962523537042e-05,-2.5869406463721644e-05,-2.6849231827267886e-05,7.0,5.9333
1.734375,-4.197999657587547e-05,-2.9769865122453665e-05,-6.8193402609292655e-06,-2.2948773168535866e-05,7.0,5.9333
1.73828125,-3.807953791714351e-05,-2.147903512321659e-05,-1.9390562386510906e-06,-2.0009297077897314e-05,7.0,5.9333
1.7421875,-4.6370367916380526e-05,-2.147903512321659e-05,-2.3909755736629277e-05,-2.439966841840237e-05,7.0,5.9333
1.74609375,-3.758962523537042e-05,-3.319925389486531e-05,-3.0259777804226757e-05,-2.6359319145494794e-05,7.0,5.9333
1.75,-1.610883841916535e-05,-2.488958110017546e-05,-2.3419843054856185e-05,-3.0749690485999845e-05,7.0,5.9333
1.75390625,-1.9029471714351076e-05,-2.0989122441443498e-05,-2.7339144509040978e-05,-2.7339144509040978e-05,7.0,5.9333
1.7578125,-2.6849231827267886e-05,-2.9279952440680515e-05,-3.270934121309221e-05,-3.270934121309221e-05,7.0,5.9333
1.76171875,-3.368916657663846e-05,-1.4149187692072928e-05,-1.8049646350804892e-05,-3.172951584954603e-05,7.0,5.9333
1.765625,-5.3700215347524193e-05,-1.7088663782711535e-05,-5.858357692835881e-06,-2.7339144509040978e-05,7.0,5.9333
1.76953125,-4.930984400701913e-05,-2.6359319145494794e-05,-2.0499209759670406e-05,-3.807953791714351e-05,7.0,5.9333
1.7734375,-1.8049646350804892e-05,-2.5379493781948552e-05,-2.5869406463721644e-05,-4.442955998474099e-05,7.0,5.9333
1.77734375,-1.1699624283207412e-05,-3.319925389486531e-05,-2.9769865122453665e-05,-3.0749690485999845e-05,7.0,5.9333
1.78125,-1.463910037384602e-05,-3.709971255359733e-05,-3.172951584954603e-05,-1.3659275010299836e-05,7.0,5.9333
1.78515625,-3.172951584954603e-05,-2.8790039758907423e-05,-3.5140061826504906e-05,-1.5618925737392202e-05,7.0,5.9333
1.7890625,-4.197999657587547e-05,-2.9279952440680515e-05,-3.319925389486531e-05,-2.8790039758907423e-05,7.0,5.9333
1.79296875,-2.6359319145494794e-05,-4.246990925764857e-05,-2.6849231827267886e-05,-3.0749690485999845e-05,7.0,5.9333
1.796875,-3.4179079258411546e-05,-3.660979987182423e-05,-3.172951584954603e-05,-3.0259777804226757e-05,7.0,5.9333
1.80078125,-3.5140061826504906e-05,-2.6849231827267886e-05,-2.5379493781948552e-05,-2.831896987258716e-05,7.0,5.9333
1.8046875,-2.7829057190814066e-05,-3.0749690485999845e-05,-2.488958110017546e-05,-2.5869406463721644e-05,7.0,5.9333
1.80859375,-2.5869406463721644e-05,-3.660979987182423e-05,-2.9769865122453665e-05,-2.7339144509040978e-05,7.0,5.9333
1.8125,-2.831896987258716e-05,-2.147903512321659e-05,-2.3419843054856185e-05,-3.0259777804226757e-05,7.0,5.9333
1.81640625,-3.9059363280689696e-05,-2.0989122441443498e-05,-3.270934121309221e-05,-4.197999657587547e-05,7.0,5.9333
1.8203125,-4.2959821939421656e-05,-2.9279952440680515e-05,-3.9059363280689696e-05,-4.2959821939421656e-05,7.0,5.9333
1.82421875,-3.758962523537042e-05,-3.270934121309221e-05,-4.246990925764857e-05,-2.831896987258716e-05,7.0,5.9333
1.828125,-3.123960316777294e-05,-3.270934121309221e-05,-3.660979987182423e-05,-3.123960316777294e-05,7.0,5.9333
1.83203125,-3.6119887190051084e-05,-2.439966841840237e-05,-3.368916657663846e-05,-4.2959821939421656e-05,7.0,5.9333
1.8359375,-2.9279952440680515e-05,-2.6359319145494794e-05,-2.9279952440680515e-05,-2.2458860486762774e-05,7.0,5.9333
1.83984375,-1.9029471714351076e-05,-1.9029471714351076e-05,-3.0749690485999845e-05,-7.79916562447545e-06,7.0,5.9333
1.84375,-3.123960316777294e-05,-3.9059363280689696e-05,-4.05102585305562e-05,-1.9519384396124222e-05,7.0,5.9333
1.84765625,-3.465014914473181e-05,-4.05102585305562e-05,-4.491947266651408e-05,-2.6359319145494794e-05,7.0,5.9333
1.8515625,-4.3939647302967894e-05,-2.0009297077897314e-05,-3.9059363280689696e-05,-2.3909755736629277e-05,7.0,5.9333
1.85546875,-4.3939647302967894e-05,-4.05102585305562e-05,-2.2948773168535866e-05,-2.9769865122453665e-05,7.0,5.9333
1.859375,-2.439966841840237e-05,-4.930984400701913e-05,-4.735019327992677e-05,-2.9279952440680515e-05,7.0,5.9333
1.86328125,-3.5629974508277995e-05,-5.5659866074616615e-05,-7.518100216372932e-05,-1.75597336690318e-05,7.0,5.9333
1.8671875,-3.6119887190051084e-05,-5.125065193865873e-05,-7.371126411840998e-05,-2.5379493781948552e-05,7.0,5.9333
1.87109375,-1.4149187692072928e-05,-6.1519975460441e-05,-8.398058764019225e-05,-2.9279952440680515e-05,7.0,5.9333
1.875,-1.5129013055619112e-05,-9.42310683665217e-05,-9.521089373006788e-05,-2.7829057190814066e-05,7.0,5.9333
1.87890625,-2.488958110017546e-05,-0.00010693111250171665,-0.00011473202981918057,-3.5140061826504906e-05,7.0,5.9333
1.8828125,-2.0499209759670406e-05,-0.00011279122188754099,-0.0001289018119996948,-3.5629974508277995e-05,7.0,5.9333
1.88671875,-2.3419843054856185e-05,-0.00011816141859159228,-0.00013476192138551918,-2.2458860486762774e-05,7.0,5.9333
1.890625,-2.831896987258716e-05,-0.0001313325326131075,-0.000146972052838941,-2.3909755736629277e-05,7.0,5.9333
1.89453125,-2.6849231827267886e-05,-0.00013915229272602425,-0.00014744312272526127,-2.9279952440680515e-05,7.0,5.9333
1.8984375,-3.5629974508277995e-05,-0.00015916334149691005,-0.00016796292697337297,-2.3419843054856185e-05,7.0,5.9333
1.90234375,-3.5140061826504906e-05,-0.00017088356026855877,-0.00018260377904020755,-1.8539559032577984e-05,7.0,5.9333
1.90625,-3.807953791714351e-05,-0.00018017305842679484,-0.00018895380110780496,-1.0248729033340963e-05,7.0,5.9333
1.91015625,-3.368916657663846e-05,-0.00019677356122072172,-0.00020994467524223693,5.371948397039745e-06,7.0,5.9333
1.9140625,-1.610883841916535e-05,-0.00020018410719768064,-0.00023338511278553443,1.5641271918822015e-05,7.0,5.9333
1.91796875,-2.439966841840237e-05,-0.00022899474144502937,-0.0002578053756923781,1.8561905214007793e-05,7.0,5.9333
1.921875,-3.6119887190051084e-05,-0.00025486589960173946,-0.0002763655292133974,6.841686442359048e-06,7.0,5.9333
1.92578125,-4.05102585305562e-05,-0.00026903568178225374,-0.00029784631602960244,-3.408794283970394e-06,7.0,5.9333
1.9296875,-4.05102585305562e-05,-0.00028026598787212934,-0.0003090766221194781,9.781162532997655e-06,7.0,5.9333
1.93359375,-3.9059363280689696e-05,-0.0003100564474830244,-0.0003090766221194781,1.709216716868849e-05,7.0,5.9333
1.9375,-3.5629974508277995e-05,-0.0003237174741863126,-0.0003178573648004883,1.0271075214770746e-05,7.0,5.9333
1.94140625,-2.6359319145494794e-05,-0.0003061371460288395,-0.00033251705966277564,8.31142448767835e-06,7.0,5.9333
1.9453125,-1.8539559032577984e-05,-0.00031444681882352934,-0.0003432574530708781,1.0760987896543838e-05,7.0,5.9333
1.94921875,-1.7088663782711535e-05,-0.00031687753943694213,-0.00033592760563973446,8.31142448767835e-06,7.0,5.9333
1.953125,-2.6359319145494794e-05,-0.00029588666530251006,-0.0003173674521187152,1.4714897383077811e-06,7.0,5.9333
1.95703125,-3.5629974508277995e-05,-0.0002895366432349126,-0.0003037064254154269,5.371948397039745e-06,7.0,5.9333
1.9609375,-3.709971255359733e-05,-0.00027830633714503696,-0.00028563618457618065,5.371948397039745e-06,7.0,5.9333
1.96484375,-3.5140061826504906e-05,-0.0002597650264194705,-0.00027099533250934607,8.801337169451443e-06,7.0,5.9333
1.96875,-2.3909755736629277e-05,-0.00025341500435187303,-0.0002568255503288319,9.815770565346894e-07,7.0,5.9333
1.97265625,-1.75597336690318e-05,-0.0002343649381490806,-0.00024461541887541005,-2.0499209759670406e-05,7.0,5.9333
1.9765625,-2.0989122441443498e-05,-0.0002202139987640192,-0.00022411445742275116,-1.75597336690318e-05,7.0,5.9333
1.98046875,-7.309252942702357e-06,-0.00019189327719844356,-0.00019775338658426794,-3.408794283970394e-06,7.0,5.9333
1.984375,9.815770565346894e-07,-0.0001464821401571679,-0.00018017305842679484,-2.4289689204241825e-06,7.0,5.9333
1.98828125,-1.7088663782711535e-05,-0.0001259623359090562,-0.0001459922274753948,-1.3659275010299836e-05,7.0,5.9333
1.9921875,-2.3909755736629277e-05,-0.00013035270724956133,-0.00011767150590981918,-2.3909755736629277e-05,7.0,5.9333
1.99609375,-2.7339144509040978e-05,-0.00011083157116044862,-0.00010497146177462423,-2.488958110017546e-05,7.0,5.9333
2.0,-4.930984400701913e-05,-7.518100216372932e-05,-7.665074020904859e-05,-2.3419843054856185e-05,7.0,5.9333
2.00390625,-5.3700215347524193e-05,-4.979975668879223e-05,-5.4190128029297336e-05,-3.172951584954603e-05,7.0,5.9333
2.0078125,-3.5629974508277995e-05,-3.319925389486531e-05,-3.5140061826504906e-05,-5.077958205233841e-05,7.0,5.9333
2.01171875,-2.0989122441443498e-05,-1.2189536964980562e-05,-9.268903669794752e-06,-4.540938534828717e-05,7.0,5.9333
2.015625,-8.77899098802166e-06,1.0271075214770746e-05,4.410965828946359e-06,-4.0020345848783104e-05,7.0,5.9333
2.01953125,-1.2189536964980562e-05,1.4661446555275802e-05,3.921053147173267e-06,-5.468004071107043e-05,7.0,5.9333
2.0234375,-3.270934121309221e-05,2.6871578008697638e-05,1.6131184600595103e-05,-5.077958205233841e-05,7.0,5.9333
2.02734375,-3.660979987182423e-05,4.590280141603725e-05,3.126194934920272e-05,-3.9549275962462785e-05,7.0,5.9333
2.03125,-3.319925389486531e-05,6.201339152819104e-05,4.053260471198598e-05,-3.5629974508277995e-05,7.0,5.9333
2.03515625,-3.172951584954603e-05,6.495286761882963e-05,5.51922995742733e-05,-3.4179079258411546e-05,7.0,5.9333
2.0390625,-3.465014914473181e-05,5.274273616540779e-05,5.958267091477836e-05,-3.85694505989166e-05,7.0,5.9333
2.04296875,-5.077958205233841e-05,5.470238689250019e-05,5.664319482413978e-05,-4.3939647302967894e-05,7.0,5.9333
2.046875,-5.4190128029297336e-05,6.691251834592202e-05,6.544278030060275e-05,-5.125065193865873e-05,7.0,5.9333
2.05078125,-5.66396914381628e-05,6.738358823224231e-05,8.545382907148851e-05,-5.858049936980239e-05,7.0,5.9333
2.0546875,-5.1740564620431826e-05,6.105240896009766e-05,8.057354504921036e-05,-5.711076132448312e-05,7.0,5.9333
2.05859375,-3.758962523537042e-05,6.544278030060275e-05,7.471343566338597e-05,-5.468004071107043e-05,7.0,5.9333
2.0625,-2.7829057190814066e-05,8.790339248035402e-05,8.155337041275655e-05,-5.32103026657511e-05,7.0,5.9333
2.06640625,-2.2948773168535866e-05,8.594374175326162e-05,8.447400370794232e-05,-5.0289669370565316e-05,7.0,5.9333
2.0703125,-2.439966841840237e-05,7.17928023682002e-05,8.447400370794232e-05,-5.4190128029297336e-05,7.0,5.9333
2.07421875,-2.488958110017546e-05,7.618317370870528e-05,8.447400370794232e-05,-5.125065193865873e-05,7.0,5.9333
2.078125,-3.9059363280689696e-05,6.885332627756162e-05,7.861389432211796e-05,-4.491947266651408e-05,7.0,5.9333
2.08203125,-6.297087071030745e-05,6.056249627832457e-05,7.861389432211796e-05,-3.807953791714351e-05,7.0,5.9333
2.0859375,-4.344973462119475e-05,7.618317370870528e-05,8.692356711680781e-05,-4.197999657587547e-05,7.0,5.9333
2.08984375,-7.309252942702357e-06,7.422352298161289e-05,8.155337041275655e-05,-6.005023741512167e-05,7.0,5.9333
2.09375,-9.268903669794752e-06,6.299321689173723e-05,8.008363236743725e-05,-6.883098009613183e-05,7.0,5.9333
2.09765625,-2.0009297077897314e-05,7.277262773174641e-05,8.594374175326162e-05,-6.200988814221409e-05,7.0,5.9333
2.1015625,-2.2458860486762774e-05,7.520334834515907e-05,7.277262773174641e-05,-5.32103026657511e-05,7.0,5.9333
2.10546875,-2.439966841840237e-05,7.861389432211796e-05,5.8112932869459084e-05,-5.516995339284352e-05,7.0,5.9333
2.109375,-3.319925389486531e-05,8.057354504921036e-05,6.78735009140154e-05,-5.516995339284352e-05,7.0,5.9333
2.11328125,-3.2219428531319124e-05,8.008363236743725e-05,7.373361029983979e-05,-5.077958205233841e-05,7.0,5.9333
2.1171875,-2.6849231827267886e-05,6.93432389593347e-05,6.007258359655148e-05,-4.8819931325246044e-05,7.0,5.9333
2.12109375,-3.0749690485999845e-05,7.422352298161289e-05,6.495286761882963e-05,-4.784010596169986e-05,7.0,5.9333
2.125,-3.0259777804226757e-05,7.422352298161289e-05,6.885332627756162e-05,-5.32103026657511e-05,7.0,5.9333
2.12890625,-3.660979987182423e-05,6.348312957351036e-05,6.056249627832457e-05,-6.200988814221409e-05,7.0,5.9333
2.1328125,-3.660979987182423e-05,6.201339152819104e-05,6.250330420996414e-05,-5.7600674006256214e-05,7.0,5.9333
2.13671875,-2.5379493781948552e-05,4.8842277506675826e-05,5.7133107505912873e-05,-5.80905866880293e-05,7.0,5.9333
2.140625,-2.439966841840237e-05,5.031201555199513e-05,5.176291080186161e-05,-5.9070412051575486e-05,7.0,5.9333
2.14453125,-3.172951584954603e-05,5.860284555123217e-05,5.470238689250019e-05,-5.32103026657511e-05,7.0,5.9333
2.1484375,-3.9059363280689696e-05,5.56822122560464e-05,4.590280141603725e-05,-4.6860280598153676e-05,7.0,5.9333
2.15234375,-3.807953791714351e-05,5.7133107505912873e-05,5.127299812008851e-05,-3.465014914473181e-05,7.0,5.9333
2.15625,-3.2219428531319124e-05,5.3722561528954e-05,4.786245214312964e-05,-4.6370367916380526e-05,7.0,5.9333
2.16015625,-3.319925389486531e-05,4.6392714097810336e-05,2.8322473258564144e-05,-6.248095802853436e-05,7.0,5.9333
2.1640625,-4.0020345848783104e-05,4.347208080262456e-05,3.61422333714809e-05,-5.1740564620431826e-05,7.0,5.9333
2.16796875,-4.6860280598153676e-05,3.516240800793468e-05,4.2982168120851465e-05,-4.588045523460744e-05,7.0,5.9333
2.171875,-4.784010596169986e-05,3.322160007629512e-05,3.955277934843977e-05,-4.588045523460744e-05,7.0,5.9333
2.17578125,-4.8819931325246044e-05,2.6381665326924546e-05,3.077203666742963e-05,-4.735019327992677e-05,7.0,5.9333
2.1796875,-3.5140061826504906e-05,1.8561905214007793e-05,8.31142448767835e-06,-6.1519975460441e-05,7.0,5.9333
2.18359375,-1.1699624283207412e-05,2.6871578008697638e-05,2.9412277836270843e-06,-5.9070412051575486e-05,7.0,5.9333
2.1875,-2.7829057190814066e-05,2.101146862287328e-05,2.1501381304646372e-05,-4.6370367916380526e-05,7.0,5.9333
2.19140625,-4.3939647302967894e-05,1.5641271918822015e-05,2.1991293986419464e-05,-4.246990925764857e-05,7.0,5.9333
2.1953125,-3.4179079258411546e-05,2.0521555941100188e-05,1.0271075214770746e-05,-4.735019327992677e-05,7.0,5.9333
2.19921875,-2.8790039758907423e-05,8.31142448767835e-06,1.1232057782864131e-05,-5.32103026657511e-05,7.0,5.9333
2.203125,-4.0020345848783104e-05,3.4311404654001763e-06,1.1232057782864131e-05,-5.0289669370565316e-05,7.0,5.9333
2.20703125,-4.100017121232929e-05,6.841686442359048e-06,2.9412277836270843e-06,-5.272038998397801e-05,7.0,5.9333
2.2109375,-2.8790039758907423e-05,1.66022544869154e-05,1.4714897383077811e-06,-5.3700215347524193e-05,7.0,5.9333
2.21484375,-3.0259777804226757e-05,2.5891752645151454e-05,1.3191708509956526e-05,-5.3700215347524193e-05,7.0,5.9333
2.21875,-2.7829057190814066e-05,1.9051817895780885e-05,1.2211883146410315e-05,-5.66396914381628e-05,7.0,5.9333
2.22265625,-2.147903512321659e-05,1.8561905214007793e-05,1.5641271918822015e-05,-4.2959821939421656e-05,7.0,5.9333
2.2265625,-3.0749690485999845e-05,1.5641271918822015e-05,1.1232057782864131e-05,-3.4179079258411546e-05,7.0,5.9333
2.23046875,-3.368916657663846e-05,1.0760987896543838e-05,1.3191708509956526e-05,-4.100017121232929e-05,7.0,5.9333
2.234375,-2.5379493781948552e-05,7.33159912413214e-06,2.2462363872739756e-05,-3.6119887190051084e-05,7.0,5.9333
2.23828125,-3.465014914473181e-05,1.751692988477771e-09,9.291249851224535e-06,-2.831896987258716e-05,7.0,5.9333
2.2421875,-3.5629974508277995e-05,-1.449143556877999e-06,4.410965828946359e-06,-3.0259777804226757e-05,7.0,5.9333
2.24609375,-4.149008389410238e-05,-4.388619647516577e-06,7.33159912413214e-06,-3.807953791714351e-05,7.0,5.9333
2.25,-3.660979987182423e-05,7.33159912413214e-06,1.2211883146410315e-05,-4.8819931325246044e-05,7.0,5.9333
2.25390625,-3.9059363280689696e-05,1.0760987896543838e-05,9.781162532997655e-06,-4.979975668879223e-05,7.0,5.9333
2.2578125,-5.9560324733348575e-05,1.4661446555275802e-05,7.33159912413214e-06,-4.149008389410238e-05,7.0,5.9333
2.26171875,-4.0020345848783104e-05,1.9541730577553977e-05,1.4714897383077811e-06,-4.0020345848783104e-05,7.0,5.9333
2.265625,-2.9279952440680515e-05,1.4714897383077811e-06,-4.6931819333178734e-07,-3.660979987182423e-05,7.0,5.9333
2.26953125,-3.5140061826504906e-05,9.815770565346894e-07,4.900878510719479e-06,-2.7829057190814066e-05,7.0,5.9333
2.2734375,-3.2219428531319124e-05,-5.858357692835881e-06,-2.9188816021973024e-06,-2.9279952440680515e-05,7.0,5.9333
2.27734375,-2.9279952440680515e-05,-2.0009297077897314e-05,-5.368445011062789e-06,-3.368916657663846e-05,7.0,5.9333
2.28125,-3.319925389486531e-05,-9.268903669794752e-06,5.861861078812865e-06,-3.4179079258411546e-05,7.0,5.9333
2.28515625,-2.3909755736629277e-05,-4.6931819333178734e-07,4.900878510719479e-06,-4.442955998474099e-05,7.0,5.9333
2.2890625,-2.6849231827267886e-05,-2.6849231827267886e-05,-1.7088663782711535e-05,-4.540938534828717e-05,7.0,5.9333
2.29296875,-4.0020345848783104e-05,-2.7829057190814066e-05,-1.9029471714351076e-05,-3.2219428531319124e-05,7.0,5.9333
2.296875,-3.758962523537042e-05,-1.3169362328526744e-05,-1.0248729033340963e-05,-2.9279952440680515e-05,7.0,5.9333
2.30078125,-4.588045523460744e-05,-1.2679449646753653e-05,-2.0499209759670406e-05,-1.8539559032577984e-05,7.0,5.9333
2.3046875,-3.4179079258411546e-05,9.815770565346894e-07,-1.0248729033340963e-05,-1.5618925737392202e-05,7.0,5.9333
2.30859375,-1.2679449646753653e-05,-1.2679449646753653e-05,-3.898706965743486e-06,-2.831896987258716e-05,7.0,5.9333
2.3125,-1.8049646350804892e-05,-2.7829057190814066e-05,-1.9519384396124222e-05,-3.465014914473181e-05,7.0,5.9333
2.31640625,-2.5869406463721644e-05,-2.7339144509040978e-05,-3.9059363280689696e-05,-4.735019327992677e-05,7.0,5.9333
2.3203125,-1.9519384396124222e-05,-2.5379493781948552e-05,-3.5629974508277995e-05,-5.125065193865873e-05,7.0,5.9333
2.32421875,-2.9769865122453665e-05,-1.75597336690318e-05,-1.75597336690318e-05,-4.442955998474099e-05,7.0,5.9333
2.328125,-4.6860280598153676e-05,-7.309252942702357e-06,-1.8049646350804892e-05,-4.6370367916380526e-05,7.0,5.9333
2.33203125,-3.5140061826504906e-05,-4.878532329289698e-06,-1.6598751100938443e-05,-5.125065193865873e-05,7.0,5.9333
2.3359375,-3.0749690485999845e-05,-6.329427579156174e-06,-1.8049646350804892e-05,-5.4190128029297336e-05,7.0,5.9333
2.33984375,-3.709971255359733e-05,-1.8049646350804892e-05,-1.3169362328526744e-05,-4.8819931325246044e-05,7.0,5.9333
2.34375,-3.172951584954603e-05,-1.7088663782711535e-05,-4.6931819333178734e-07,-3.709971255359733e-05,7.0,5.9333
2.34765625,-2.2948773168535866e-05,6.351773760585957e-06,-2.9188816021973024e-06,-2.6359319145494794e-05,7.0,5.9333
2.3515625,-2.0009297077897314e-05,4.916643747615979e-07,-1.2189536964980562e-05,-2.488958110017546e-05,7.0,5.9333
2.35546875,-3.123960316777294e-05,-1.1699624283207412e-05,-2.5869406463721644e-05,-3.5629974508277995e-05,7.0,5.9333
2.359375,-4.0020345848783104e-05,-2.0499209759670406e-05,-2.0989122441443498e-05,-3.9059363280689696e-05,7.0,5.9333
2.36328125,-3.660979987182423e-05,-1.8049646350804892e-05,-5.368445011062789e-06,-3.172951584954603e-05,7.0,5.9333
2.3671875,-3.270934121309221e-05,-7.79916562447545e-06,1.1232057782864131e-05,-3.2219428531319124e-05,7.0,5.9333
2.37109375,-2.7829057190814066e-05,-1.610883841916535e-05,-1.0738641715114055e-05,-3.709971255359733e-05,7.0,5.9333
2.375,-2.8790039758907423e-05,-3.270934121309221e-05,-3.5629974508277995e-05,-3.368916657663846e-05,7.0,5.9333
2.37890625,-3.172951584954603e-05,-4.784010596169986e-05,-1.4149187692072928e-05,-3.4179079258411546e-05,7.0,5.9333
2.3828125,-3.5140061826504906e-05,-5.125065193865873e-05,5.861861078812865e-06,-2.7829057190814066e-05,7.0,5.9333
2.38671875,-4.05102585305562e-05,-4.3939647302967894e-05,2.5401839963378362e-05,-2.1968947804989682e-05,7.0,5.9333
2.390625,-4.100017121232929e-05,-5.0289669370565316e-05,3.175186203097581e-05,-1.75597336690318e-05,7.0,5.9333
2.39453125,-4.05102585305562e-05,-6.640025948271915e-05,1.2701795828183434e-05,-1.8539559032577984e-05,7.0,5.9333
2.3984375,-3.9549275962462785e-05,-6.297087071030745e-05,2.8812385940337236e-05,-2.147903512321659e-05,7.0,5.9333
2.40234375,-3.807953791714351e-05,-8.543148289005875e-05,7.821511805905259e-06,-4.388619647516577e-06,7.0,5.9333
2.40625,-2.6849231827267886e-05,-9.227141763942933e-05,-3.709971255359733e-05,1.2211883146410315e-05,7.0,5.9333
2.41015625,-1.4149187692072928e-05,-0.00010789209506981,-6.591034680094606e-05,1.4714897383077811e-06,7.0,5.9333
2.4140625,-1.5618925737392202e-05,-0.00014550231479362174,-0.00013572290395361255,1.961402420080873e-06,7.0,5.9333
2.41796875,-2.2458860486762774e-05,-0.00016894275233691916,-0.0002084937799923705,3.76119714168002e-05,7.0,5.9333
2.421875,-1.4149187692072928e-05,-0.00021288415133287553,-0.0002514553536247806,4.8842277506675826e-05,7.0,5.9333
2.42578125,-1.0738641715114055e-05,-0.00025341500435187303,-0.0002636654850782025,4.2982168120851465e-05,7.0,5.9333
2.4296875,-8.289078306248568e-06,-0.0002543759869199664,-0.00027050541982757303,2.7832560576791025e-05,7.0,5.9333
2.43359375,2.4513151018539928e-06,-0.0002397351348531319,-0.00031542664418707553,1.3681621191729618e-05,7.0,5.9333
2.4375,4.916643747615979e-07,-0.0002465750696025025,-0.00035789830513771267,2.393210191805906e-05,7.0,5.9333
2.44140625,-2.4289689204241825e-06,-0.00025096544094300755,-0.00036669789061417565,2.101146862287328e-05,7.0,5.9333
2.4453125,-1.610883841916535e-05,-0.00025535581228351256,-0.00036571806525062945,9.291249851224535e-06,7.0,5.9333
2.44921875,-2.6849231827267886e-05,-0.0002929660320073243,-0.000372558,2.2462363872739756e-05,7.0,5.9333
2.453125,-2.147903512321659e-05,-0.0003183472774822613,-0.00035105837038834213,4.004269203021286e-05,7.0,5.9333
2.45703125,-2.0989122441443498e-05,-0.00032177666625467303,-0.0003496074751384756,2.393210191805906e-05,7.0,5.9333
2.4609375,-2.6359319145494794e-05,-0.0003183472774822613,-0.00033592760563973446,3.4311404654001763e-06,7.0,5.9333
2.46484375,-2.831896987258716e-05,-0.00030515732066529333,-0.00029882614139314863,1.751692988477771e-09,7.0,5.9333
2.46875,-2.3419843054856185e-05,-0.00029588666530251006,-0.00027830633714503696,-6.8193402609292655e-06,7.0,5.9333
2.47265625,-2.488958110017546e-05,-0.0002646453104417487,-0.00025341500435187303,-1.8049646350804892e-05,7.0,5.9333
2.4765625,-2.831896987258716e-05,-0.00024461541887541005,-0.00025535581228351256,-1.2679449646753653e-05,7.0,5.9333
2.48046875,-2.9769865122453665e-05,-0.00027099533250934607,-0.00025243517898832684,-1.449143556877999e-06,7.0,5.9333
2.484375,-3.368916657663846e-05,-0.0002470649822842756,-0.00021482495926451514,-1.2679449646753653e-05,7.0,5.9333
2.48828125,-4.344973462119475e-05,-0.0002026336706065461,-0.00018066297110856794,-1.0248729033340963e-05,7.0,5.9333
2.4921875,-3.709971255359733e-05,-0.00019285425976653698,-0.0001518523368612192,-1.463910037384602e-05,7.0,5.9333
2.49609375,-2.3419843054856185e-05,-0.00015673262088349734,-0.00013719264199893184,-3.4179079258411546e-05,7.0,5.9333
2.5,-2.6359319145494794e-05,-0.00011865133127336536,-0.00013621281663538565,-2.831896987258716e-05,7.0,5.9333
2.50390625,-3.319925389486531e-05,-0.0001235316152956435,-0.000129881637363241,-1.8539559032577984e-05,7.0,5.9333
2.5078125,-4.344973462119475e-05,-0.00010742102518348975,-0.00010252189836575877,-1.75597336690318e-05,7.0,5.9333
2.51171875,-4.735019327992677e-05,-7.07906308232242e-05,-5.125065193865873e-05,-1.9029471714351076e-05,7.0,5.9333
2.515625,-4.735019327992677e-05,-5.272038998397801e-05,-1.610883841916535e-05,-1.9519384396124222e-05,7.0,5.9333
2.51953125,-5.5659866074616615e-05,-3.6119887190051084e-05,-1.5618925737392202e-05,-1.8049646350804892e-05,7.0,5.9333
2.5234375,-5.9560324733348575e-05,-1.610883841916535e-05,-6.8193402609292655e-06,-1.3169362328526744e-05,7.0,5.9333
2.52734375,-6.054015009689476e-05,4.916643747615979e-07,2.393210191805906e-05,-6.8193402609292655e-06,7.0,5.9333
2.53125,-6.005023741512167e-05,2.5891752645151454e-05,2.3442189236285967e-05,-4.388619647516577e-06,7.0,5.9333
2.53515625,-6.346078339208054e-05,5.031201555199513e-05,2.101146862287328e-05,-7.79916562447545e-06,7.0,5.9333
2.5390625,-7.324019423208972e-05,5.664319482413978e-05,4.102251739375907e-05,-2.0499209759670406e-05,7.0,5.9333
2.54296875,-7.07906308232242e-05,7.861389432211796e-05,5.176291080186161e-05,-2.5379493781948552e-05,7.0,5.9333
2.546875,-7.03007181414511e-05,7.765291175402458e-05,6.105240896009766e-05,-1.9519384396124222e-05,7.0,5.9333
2.55078125,-8.349067495841915e-05,5.56822122560464e-05,7.667308639047836e-05,-6.329427579156174e-06,7.0,5.9333
2.5546875,-9.129159227588309e-05,6.397304225528344e-05,8.400293382162204e-05,4.916643747615979e-07,7.0,5.9333
2.55859375,-8.251084959487298e-05,7.618317370870528e-05,0.0001064635460013733,-9.592308751049075e-07,7.0,5.9333
2.5625,-6.834106741435874e-05,7.959371968566415e-05,0.0001289241581811246,-1.9390562386510906e-06,7.0,5.9333
2.56640625,-6.248095802853436e-05,8.496391638971542e-05,0.0001079144412512398,-1.4149187692072928e-05,7.0,5.9333
2.5703125,-6.346078339208054e-05,8.496391638971542e-05,0.00010352406991073473,-1.610883841916535e-05,7.0,5.9333
2.57421875,-8.690122093537802e-05,7.17928023682002e-05,0.0001093841792965591,-1.463910037384602e-05,7.0,5.9333
2.578125,-9.472098104829478e-05,6.495286761882963e-05,9.717404784313725e-05,-2.5869406463721644e-05,7.0,5.9333
2.58203125,-7.177045618677045e-05,6.78735009140154e-05,9.180385113908598e-05,-3.0259777804226757e-05,7.0,5.9333
2.5859375,-5.3700215347524193e-05,6.885332627756162e-05,0.00010156441918364234,-2.9279952440680515e-05,7.0,5.9333
2.58984375,-4.6860280598153676e-05,8.106345773098345e-05,9.32735891844053e-05,-2.5379493781948552e-05,7.0,5.9333
2.59375,-3.9549275962462785e-05,9.278367650263217e-05,0.00010011352393377586,-2.2458860486762774e-05,7.0,5.9333
2.59765625,-3.758962523537042e-05,8.155337041275655e-05,0.00010597363331960022,-2.5379493781948552e-05,7.0,5.9333
2.6015625,-4.0020345848783104e-05,7.422352298161289e-05,9.32735891844053e-05,-3.0259777804226757e-05,7.0,5.9333
2.60546875,-4.0020345848783104e-05,8.057354504921036e-05,9.913369857022964e-05,-2.6359319145494794e-05,7.0,5.9333
2.609375,-5.3700215347524193e-05,8.351302113984894e-05,0.00010156441918364234,-2.147903512321659e-05,7.0,5.9333
2.61328125,-5.272038998397801e-05,8.351302113984894e-05,0.00010303415722896161,-2.9279952440680515e-05,7.0,5.9333
2.6171875,-3.758962523537042e-05,8.253319577630273e-05,0.00010352406991073473,-4.05102585305562e-05,7.0,5.9333
2.62109375,-4.6370367916380526e-05,7.716299907225146e-05,8.839330516212711e-05,-4.784010596169986e-05,7.0,5.9333
2.625,-5.66396914381628e-05,7.520334834515907e-05,8.594374175326162e-05,-4.8330018643472955e-05,7.0,5.9333
2.62890625,-4.8819931325246044e-05,7.13028896864271e-05,9.180385113908598e-05,-3.660979987182423e-05,7.0,5.9333
2.6328125,-4.2959821939421656e-05,6.397304225528344e-05,8.692356711680781e-05,-3.172951584954603e-05,7.0,5.9333
2.63671875,-4.246990925764857e-05,6.738358823224231e-05,9.180385113908598e-05,-3.6119887190051084e-05,7.0,5.9333
2.640625,-3.319925389486531e-05,6.885332627756162e-05,8.839330516212711e-05,-3.758962523537042e-05,7.0,5.9333
2.64453125,-2.147903512321659e-05,6.885332627756162e-05,8.057354504921036e-05,-3.368916657663846e-05,7.0,5.9333
2.6484375,-1.3659275010299836e-05,8.155337041275655e-05,9.376350186617838e-05,-2.9279952440680515e-05,7.0,5.9333
2.65234375,-2.2948773168535866e-05,7.422352298161289e-05,9.229376382085908e-05,-2.2948773168535866e-05,7.0,5.9333
2.65625,-3.319925389486531e-05,6.250330420996414e-05,6.691251834592202e-05,-5.4190128029297336e-05,7.0,5.9333
2.66015625,-2.7829057190814066e-05,6.056249627832457e-05,5.615328214236669e-05,-9.325124300297551e-05,7.0,5.9333
2.6640625,-2.5379493781948552e-05,5.127299812008851e-05,5.958267091477836e-05,-6.542043411917296e-05,7.0,5.9333
2.66796875,-3.368916657663846e-05,5.176291080186161e-05,5.3722561528954e-05,-3.9549275962462785e-05,7.0,5.9333
2.671875,-4.588045523460744e-05,5.127299812008851e-05,5.274273616540779e-05,-4.149008389410238e-05,7.0,5.9333
2.67578125,-3.5140061826504906e-05,5.176291080186161e-05,4.347208080262456e-05,-4.930984400701913e-05,7.0,5.9333
2.6796875,-2.0499209759670406e-05,4.590280141603725e-05,3.76119714168002e-05,-5.5659866074616615e-05,7.0,5.9333
2.68359375,-2.6849231827267886e-05,4.004269203021286e-05,4.835236482490273e-05,-3.9059363280689696e-05,7.0,5.9333
2.6875,-2.9769865122453665e-05,4.5412888734264125e-05,4.590280141603725e-05,-3.172951584954603e-05,7.0,5.9333
2.69140625,-2.439966841840237e-05,4.9332190188448914e-05,4.590280141603725e-05,-4.05102585305562e-05,7.0,5.9333
2.6953125,-2.8790039758907423e-05,4.004269203021286e-05,4.737253946135652e-05,-4.8330018643472955e-05,7.0,5.9333
2.69921875,-3.172951584954603e-05,3.4182582644388505e-05,4.249225543907835e-05,-4.735019327992677e-05,7.0,5.9333
2.703125,-2.831896987258716e-05,3.369266996261541e-05,3.516240800793468e-05,-5.1740564620431826e-05,7.0,5.9333
2.70703125,-2.0009297077897314e-05,3.5652320689707804e-05,3.322160007629512e-05,-5.125065193865873e-05,7.0,5.9333
2.7109375,-3.4179079258411546e-05,3.322160007629512e-05,3.76119714168002e-05,-5.272038998397801e-05,7.0,5.9333
2.71484375,-5.077958205233841e-05,2.393210191805906e-05,3.8101884098573295e-05,-5.272038998397801e-05,7.0,5.9333
2.71875,-4.6370367916380526e-05,1.5151359237048921e-05,1.5641271918822015e-05,-5.66396914381628e-05,7.0,5.9333
2.72265625,-3.4179079258411546e-05,1.0760987896543838e-05,1.0760987896543838e-05,-5.516995339284352e-05,7.0,5.9333
2.7265625,-2.1968947804989682e-05,1.5641271918822015e-05,1.66022544869154e-05,-5.2230477302204914e-05,7.0,5.9333
2.73046875,-1.1699624283207412e-05,1.5151359237048921e-05,8.31142448767835e-06,-5.077958205233841e-05,7.0,5.9333
2.734375,-1.9519384396124222e-05,1.0760987896543838e-05,-9.592308751049075e-07,-5.077958205233841e-05,7.0,5.9333
2.73828125,-3.0259777804226757e-05,8.31142448767835e-06,4.916643747615979e-07,-5.2230477302204914e-05,7.0,5.9333
2.7421875,-2.3419843054856185e-05,7.821511805905259e-06,5.861861078812865e-06,-5.0289669370565316e-05,7.0,5.9333
2.74609375,-1.2189536964980562e-05,1.5151359237048921e-05,1.2211883146410315e-05,-4.979975668879223e-05,7.0,5.9333
2.75,-7.79916562447545e-06,2.3442189236285967e-05,1.6131184600595103e-05,-4.6370367916380526e-05,7.0,5.9333
2.75390625,-2.5869406463721644e-05,1.3681621191729618e-05,3.921053147173267e-06,-4.588045523460744e-05,7.0,5.9333
2.7578125,-4.0020345848783104e-05,-1.9390562386510906e-06,-2.4289689204241825e-06,-5.077958205233841e-05,7.0,5.9333
2.76171875,-3.758962523537042e-05,-9.268903669794752e-06,-4.6931819333178734e-07,-4.6860280598153676e-05,7.0,5.9333
2.765625,-3.85694505989166e-05,-3.898706965743486e-06,6.351773760585957e-06,-3.9059363280689696e-05,7.0,5.9333
2.76953125,-3.9059363280689696e-05,2.0521555941100188e-05,2.4911927281605243e-05,-3.6119887190051084e-05,7.0,5.9333
2.7734375,-2.7829057190814066e-05,1.80719925322347e-05,2.0521555941100188e-05,-3.123960316777294e-05,7.0,5.9333
2.77734375,-1.8539559032577984e-05,-2.7339144509040978e-05,-1.6598751100938443e-05,-2.147903512321659e-05,7.0,5.9333
2.78125,-2.488958110017546e-05,-3.5629974508277995e-05,-2.831896987258716e-05,-2.147903512321659e-05,7.0,5.9333
2.78515625,-3.368916657663846e-05,-3.898706965743486e-06,-4.878532329289698e-06,-3.6119887190051084e-05,7.0,5.9333
2.7890625,-3.85694505989166e-05,-1.2189536964980562e-05,-1.4149187692072928e-05,-4.8330018643472955e-05,7.0,5.9333
2.79296875,-4.149008389410238e-05,-1.9029471714351076e-05,-1.9519384396124222e-05,-4.100017121232929e-05,7.0,5.9333
2.796875,-4.149008389410238e-05,-1.2679449646753653e-05,-1.463910037384602e-05,-2.7339144509040978e-05,7.0,5.9333
2.80078125,-3.270934121309221e-05,-2.2458860486762774e-05,-1.5618925737392202e-05,-2.0499209759670406e-05,7.0,5.9333
2.8046875,-3.0259777804226757e-05,-2.831896987258716e-05,-1.5129013055619112e-05,-2.2458860486762774e-05,7.0,5.9333
2.80859375,-2.9769865122453665e-05,-2.6359319145494794e-05,-1.9029471714351076e-05,-2.439966841840237e-05,7.0,5.9333
2.8125,-3.319925389486531e-05,-2.9769865122453665e-05,-2.2948773168535866e-05,-2.439966841840237e-05,7.0,5.9333
2.81640625,-4.3939647302967894e-05,-2.7829057190814066e-05,-3.2219428531319124e-05,-2.9769865122453665e-05,7.0,5.9333
2.8203125,-5.5659866074616615e-05,-2.147903512321659e-05,-2.488958110017546e-05,-3.0259777804226757e-05,7.0,5.9333
2.82421875,-5.0289669370565316e-05,-2.488958110017546e-05,-2.147903512321659e-05,-3.807953791714351e-05,7.0,5.9333
2.828125,-2.2948773168535866e-05,-2.1968947804989682e-05,-2.2948773168535866e-05,-4.344973462119475e-05,7.0,5.9333
2.83203125,-1.1699624283207412e-05,-2.7829057190814066e-05,-1.3659275010299836e-05,-3.9059363280689696e-05,7.0,5.9333
2.8359375,-1.3169362328526744e-05,-3.172951584954603e-05,-1.0248729033340963e-05,-4.2959821939421656e-05,7.0,5.9333
2.83984375,-1.7088663782711535e-05,-1.75597336690318e-05,-1.6598751100938443e-05,-4.2959821939421656e-05,7.0,5.9333
2.84375,-3.0259777804226757e-05,4.410965828946359e-06,-1.2679449646753653e-05,-4.344973462119475e-05,7.0,5.9333
2.84765625,-3.758962523537042e-05,-8.77899098802166e-06,-4.878532329289698e-06,-3.4179079258411546e-05,7.0,5.9333
2.8515625,-4.8330018643472955e-05,-1.9519384396124222e-05,-5.858357692835881e-06,-2.3909755736629277e-05,7.0,5.9333
2.85546875,-4.05102585305562e-05,-2.0009297077897314e-05,-9.758816351567844e-06,-2.0499209759670406e-05,7.0,5.9333
2.859375,-1.75597336690318e-05,-3.9059363280689696e-05,-2.488958110017546e-05,-2.7339144509040978e-05,7.0,5.9333
2.86328125,-1.7088663782711535e-05,-3.2219428531319124e-05,-2.5869406463721644e-05,-3.709971255359733e-05,7.0,5.9333
2.8671875,-2.1968947804989682e-05,-1.75597336690318e-05,-1.7088663782711535e-05,-3.660979987182423e-05,7.0,5.9333
2.87109375,-1.5129013055619112e-05,-2.9279952440680515e-05,-2.2948773168535866e-05,-4.588045523460744e-05,7.0,5.9333
2.875,-7.309252942702357e-06,-4.100017121232929e-05,-2.6359319145494794e-05,-5.077958205233841e-05,7.0,5.9333
2.87890625,-1.463910037384602e-05,-3.660979987182423e-05,-1.9519384396124222e-05,-3.660979987182423e-05,7.0,5.9333
2.8828125,-3.0749690485999845e-05,-3.709971255359733e-05,-2.488958110017546e-05,-2.5379493781948552e-05,7.0,5.9333
2.88671875,-3.4179079258411546e-05,-3.4179079258411546e-05,-3.2219428531319124e-05,-2.488958110017546e-05,7.0,5.9333
2.890625,-4.100017121232929e-05,-3.6119887190051084e-05,-2.5869406463721644e-05,-2.488958110017546e-05,7.0,5.9333
2.89453125,-4.491947266651408e-05,-2.9279952440680515e-05,-2.2458860486762774e-05,-2.2948773168535866e-05,7.0,5.9333
2.8984375,-4.3939647302967894e-05,-1.6598751100938443e-05,-2.2948773168535866e-05,-3.660979987182423e-05,7.0,5.9333
2.90234375,-4.100017121232929e-05,5.861861078812865e-06,-8.77899098802166e-06,-4.588045523460744e-05,7.0,5.9333
2.90625,-1.75597336690318e-05,1.0271075214770746e-05,-8.289078306248568e-06,-3.5140061826504906e-05,7.0,5.9333
2.91015625,7.821511805905259e-06,-1.8539559032577984e-05,-2.1968947804989682e-05,-3.9549275962462785e-05,7.0,5.9333
2.9140625,1.2701795828183434e-05,-3.2219428531319124e-05,-2.7339144509040978e-05,-3.807953791714351e-05,7.0,5.9333
2.91796875,4.916643747615979e-07,-2.7339144509040978e-05,-2.6359319145494794e-05,-3.270934121309221e-05,7.0,5.9333
2.921875,-1.9029471714351076e-05,-1.5618925737392202e-05,-1.1699624283207412e-05,-3.123960316777294e-05,7.0,5.9333
2.92578125,-2.6849231827267886e-05,-6.8193402609292655e-06,-3.898706965743486e-06,-2.7829057190814066e-05,7.0,5.9333
2.9296875,-2.3419843054856185e-05,5.371948397039745e-06,-1.610883841916535e-05,-4.735019327992677e-05,7.0,5.9333
2.93359375,-2.1968947804989682e-05,-9.592308751049075e-07,-1.5129013055619112e-05,-6.005023741512167e-05,7.0,5.9333
2.9375,-1.3659275010299836e-05,-2.147903512321659e-05,-2.7339144509040978e-05,-4.442955998474099e-05,7.0,5.9333
2.94140625,-2.2458860486762774e-05,-3.0749690485999845e-05,-4.2959821939421656e-05,-2.488958110017546e-05,7.0,5.9333
2.9453125,-3.368916657663846e-05,-1.7088663782711535e-05,-3.709971255359733e-05,-2.147903512321659e-05,7.0,5.9333
2.94921875,-2.6359319145494794e-05,-8.289078306248568e-06,-2.1968947804989682e-05,-2.2948773168535866e-05,7.0,5.9333
2.953125,-3.709971255359733e-05,-2.9769865122453665e-05,-2.488958110017546e-05,-3.758962523537042e-05,7.0,5.9333
2.95703125,-3.758962523537042e-05,-4.100017121232929e-05,-4.540938534828717e-05,-4.540938534828717e-05,7.0,5.9333
2.9609375,-3.0259777804226757e-05,-5.5659866074616615e-05,-4.8330018643472955e-05,-3.9059363280689696e-05,7.0,5.9333
2.96484375,-2.147903512321659e-05,-4.930984400701913e-05,-4.0020345848783104e-05,-3.660979987182423e-05,7.0,5.9333
2.96875,-2.439966841840237e-05,-3.319925389486531e-05,-3.5629974508277995e-05,-4.540938534828717e-05,7.0,5.9333
2.97265625,-4.2959821939421656e-05,-3.6119887190051084e-05,-3.172951584954603e-05,-5.9070412051575486e-05,7.0,5.9333
2.9765625,-3.85694505989166e-05,-3.465014914473181e-05,-4.149008389410238e-05,-6.248095802853436e-05,7.0,5.9333
2.98046875,-4.05102585305562e-05,-4.491947266651408e-05,-4.540938534828717e-05,-5.272038998397801e-05,7.0,5.9333
2.984375,-4.05102585305562e-05,-4.6860280598153676e-05,-3.660979987182423e-05,-4.149008389410238e-05,7.0,5.9333
2.98828125,-3.4179079258411546e-05,-2.439966841840237e-05,-4.3939647302967894e-05,-3.758962523537042e-05,7.0,5.9333
2.9921875,-3.270934121309221e-05,-1.75597336690318e-05,-3.758962523537042e-05,-2.9279952440680515e-05,7.0,5.9333
2.99609375,-2.5869406463721644e-05,-2.9769865122453665e-05,-3.368916657663846e-05,-2.6359319145494794e-05,7.0,5.9333
3.0,-1.9029471714351076e-05,-3.9059363280689696e-05,-4.540938534828717e-05,-3.807953791714351e-05,7.0,5.9333
3.00390625,-2.2458860486762774e-05,-3.807953791714351e-05,-4.100017121232929e-05,-4.588045523460744e-05,7.0,5.9333
3.0078125,-3.5140061826504906e-05,-2.5379493781948552e-05,-2.9769865122453665e-05,-4.540938534828717e-05,7.0,5.9333
3.01171875,-3.758962523537042e-05,-2.2948773168535866e-05,-3.758962523537042e-05,-4.2959821939421656e-05,7.0,5.9333
3.015625,-3.709971255359733e-05,-3.123960316777294e-05,-3.709971255359733e-05,-3.319925389486531e-05,7.0,5.9333
3.01953125,-4.2959821939421656e-05,-3.660979987182423e-05,-2.5869406463721644e-05,-4.246990925764857e-05,7.0,5.9333
3.0234375,-4.6370367916380526e-05,-3.465014914473181e-05,-2.831896987258716e-05,-4.784010596169986e-05,7.0,5.9333
3.02734375,-5.0289669370565316e-05,-3.0749690485999845e-05,-2.439966841840237e-05,-4.246990925764857e-05,7.0,5.9333
3.03125,-3.123960316777294e-05,-2.831896987258716e-05,-2.9769865122453665e-05,-4.588045523460744e-05,7.0,5.9333
3.03515625,-2.9188816021973024e-06,-2.3419843054856185e-05,-2.8790039758907423e-05,-3.319925389486531e-05,7.0,5.9333
3.0390625,-7.309252942702357e-06,-3.368916657663846e-05,-2.831896987258716e-05,-3.758962523537042e-05,7.0,5.9333
3.04296875,-2.488958110017546e-05,-3.709971255359733e-05,-3.709971255359733e-05,-4.197999657587547e-05,7.0,5.9333
3.046875,-4.344973462119475e-05,-2.0499209759670406e-05,-3.465014914473181e-05,-4.2959821939421656e-05,7.0,5.9333
3.05078125,-4.8819931325246044e-05,-2.6849231827267886e-05,-3.5629974508277995e-05,-5.0289669370565316e-05,7.0,5.9333
3.0546875,-3.6119887190051084e-05,-1.3169362328526744e-05,-3.4179079258411546e-05,-4.930984400701913e-05,7.0,5.9333
3.05859375,-2.5869406463721644e-05,-7.309252942702357e-06,-4.197999657587547e-05,-5.468004071107043e-05,7.0,5.9333
3.0625,-3.0259777804226757e-05,-1.5129013055619112e-05,-4.735019327992677e-05,-5.516995339284352e-05,7.0,5.9333
3.06640625,-2.7339144509040978e-05,-1.1228554396887147e-05,-3.368916657663846e-05,-3.6119887190051084e-05,7.0,5.9333
3.0703125,-2.9769865122453665e-05,-1.5618925737392202e-05,-2.6849231827267886e-05,-1.4149187692072928e-05,7.0,5.9333
3.07421875,-2.5869406463721644e-05,-1.75597336690318e-05,-2.147903512321659e-05,-1.610883841916535e-05,7.0,5.9333
3.078125,-1.1228554396887147e-05,-3.4179079258411546e-05,-2.9279952440680515e-05,-3.123960316777294e-05,7.0,5.9333
3.08203125,-1.8539559032577984e-05,-3.123960316777294e-05,-4.588045523460744e-05,-3.5629974508277995e-05,7.0,5.9333
3.0859375,-2.3909755736629277e-05,-2.147903512321659e-05,-4.0020345848783104e-05,-3.9059363280689696e-05,7.0,5.9333
3.08984375,-2.439966841840237e-05,-3.9549275962462785e-05,-3.465014914473181e-05,-4.149008389410238e-05,7.0,5.9333
3.09375,-2.1968947804989682e-05,-5.0289669370565316e-05,-3.5629974508277995e-05,-3.172951584954603e-05,7.0,5.9333
3.09765625,-2.488958110017546e-05,-5.125065193865873e-05,-2.6849231827267886e-05,-2.3909755736629277e-05,7.0,5.9333
3.1015625,-2.6359319145494794e-05,-4.735019327992677e-05,-2.7829057190814066e-05,-2.7829057190814066e-05,7.0,5.9333
3.10546875,-2.7339144509040978e-05,-4.3939647302967894e-05,-3.4179079258411546e-05,-3.123960316777294e-05,7.0,5.9333
3.109375,-2.831896987258716e-05,-3.2219428531319124e-05,-3.0259777804226757e-05,-2.7829057190814066e-05,7.0,5.9333
3.11328125,-2.147903512321659e-05,-3.660979987182423e-05,-3.270934121309221e-05,-2.7339144509040978e-05,7.0,5.9333
3.1171875,-1.4149187692072928e-05,-7.12805435049973e-05,-6.297087071030745e-05,-3.368916657663846e-05,7.0,5.9333
3.12109375,-1.75597336690318e-05,-8.202093691309988e-05,-0.00010350172372930496,-4.100017121232929e-05,7.0,5.9333
3.125,-2.1968947804989682e-05,-8.935078434424354e-05,-0.00011865133127336536,-4.588045523460744e-05,7.0,5.9333
3.12890625,-1.9029471714351076e-05,-0.00010546137445639731,-0.00011865133127336536,-2.831896987258716e-05,7.0,5.9333
3.1328125,1.80719925322347e-05,-9.129159227588309e-05,-0.00010936183311512928,3.921053147173267e-06,7.0,5.9333
3.13671875,1.9051817895780885e-05,-0.00014111194345311663,-0.00015330323211108565,-1.8049646350804892e-05,7.0,5.9333
3.140625,8.31142448767835e-06,-0.0001669831016098268,-0.00017382303635919737,-2.6849231827267886e-05,7.0,5.9333
3.14453125,2.442201459983215e-05,-0.00015916334149691005,-0.00017772349501792934,-1.610883841916535e-05,7.0,5.9333
3.1484375,-1.449143556877999e-06,-0.0002167846099916075,-0.00024998561557946136,-4.930984400701913e-05,7.0,5.9333
3.15234375,8.31142448767835e-06,-0.00024218469826199743,-0.000274405878486305,-5.2230477302204914e-05,7.0,5.9333
3.15625,3.077203666742963e-05,-0.0002568255503288319,-0.00027342605312275886,-4.588045523460744e-05,7.0,5.9333
3.16015625,2.6381665326924546e-05,-0.00026072600898756386,-0.000274405878486305,-4.930984400701913e-05,7.0,5.9333
3.1640625,2.2952276554512848e-05,-0.0002636654850782025,-0.0002817357259174487,-5.6149778756389704e-05,7.0,5.9333
3.16796875,2.442201459983215e-05,-0.0002851462718944075,-0.0003246972995498588,-7.714065289082168e-05,7.0,5.9333
3.171875,3.4672495326161593e-05,-0.00027342605312275886,-0.0003159165568688487,-7.177045618677045e-05,7.0,5.9333
3.17578125,3.028212398565654e-05,-0.0002568255503288319,-0.00028367653384908827,-5.858049936980239e-05,7.0,5.9333
3.1796875,2.8322473258564144e-05,-0.0002470649822842756,-0.0002753857038498512,-6.346078339208054e-05,7.0,5.9333
3.18359375,4.786245214312964e-05,-0.00022752500339971003,-0.0002695255944640269,-6.346078339208054e-05,7.0,5.9333
3.1875,5.2252823483634696e-05,-0.0002250942827862974,-0.0002592751137376974,-6.786999752803843e-05,7.0,5.9333
3.19140625,5.127299812008851e-05,-0.00022068506865033951,-0.0002426746109437705,-8.641130825360494e-05,7.0,5.9333
3.1953125,6.201339152819104e-05,-0.00020898369267414356,-0.00022411445742275116,-7.371126411840998e-05,7.0,5.9333
3.19921875,6.056249627832457e-05,-0.00019579373585717553,-0.00020506439121995877,-6.1519975460441e-05,7.0,5.9333
3.203125,6.201339152819104e-05,-0.00015673262088349734,-0.0001821138663584344,-6.493052143739987e-05,7.0,5.9333
3.20703125,6.348312957351036e-05,-0.00011571185518272676,-0.00016404362551918818,-5.32103026657511e-05,7.0,5.9333
3.2109375,4.835236482490273e-05,-9.37411556847486e-05,-0.00013476192138551918,-6.1519975460441e-05,7.0,5.9333
3.21484375,2.8812385940337236e-05,-7.61608275272755e-05,-0.00011034165847867552,-6.981080545967802e-05,7.0,5.9333
3.21875,2.5891752645151454e-05,-6.640025948271915e-05,-9.570080641184097e-05,-6.932089277790493e-05,7.0,5.9333
3.22265625,1.5151359237048921e-05,-5.7600674006256214e-05,-7.12805435049973e-05,-7.518100216372932e-05,7.0,5.9333
3.2265625,7.33159912413214e-06,-4.735019327992677e-05,-4.246990925764857e-05,-7.275028155031662e-05,7.0,5.9333
3.23046875,5.861861078812865e-06,-3.709971255359733e-05,-2.7339144509040978e-05,-6.054015009689476e-05,7.0,5.9333
3.234375,-4.388619647516577e-06,-1.5129013055619112e-05,-2.5379493781948552e-05,-4.246990925764857e-05,7.0,5.9333
3.23828125,-2.2458860486762774e-05,-1.0738641715114055e-05,-1.5618925737392202e-05,-3.9059363280689696e-05,7.0,5.9333
3.2421875,-3.807953791714351e-05,4.916643747615979e-07,-4.6931819333178734e-07,-5.32103026657511e-05,7.0,5.9333
3.24609375,-5.077958205233841e-05,2.0031643259327096e-05,6.351773760585957e-06,-4.588045523460744e-05,7.0,5.9333
3.25,-5.66396914381628e-05,2.2952276554512848e-05,1.5641271918822015e-05,-4.05102585305562e-05,7.0,5.9333
3.25390625,-5.1740564620431826e-05,4.2002342757305254e-05,3.322160007629512e-05,-3.123960316777294e-05,7.0,5.9333
3.2578125,-5.4190128029297336e-05,5.127299812008851e-05,4.396199348439765e-05,-1.1699624283207412e-05,7.0,5.9333
3.26171875,-7.469108948195622e-05,3.224177471274891e-05,3.516240800793468e-05,-1.5618925737392202e-05,7.0,5.9333
3.265625,-8.592139557183185e-05,2.0031643259327096e-05,4.102251739375907e-05,-2.147903512321659e-05,7.0,5.9333
3.26953125,-8.496041300373844e-05,2.4911927281605243e-05,5.762302018768596e-05,-1.5129013055619112e-05,7.0,5.9333
3.2734375,-8.055119886778056e-05,3.955277934843977e-05,6.250330420996414e-05,-6.329427579156174e-06,7.0,5.9333
3.27734375,-7.420117680018307e-05,4.347208080262456e-05,6.105240896009766e-05,-1.0738641715114055e-05,7.0,5.9333
3.28125,-7.07906308232242e-05,4.396199348439765e-05,5.031201555199513e-05,-2.1968947804989682e-05,7.0,5.9333
3.28515625,-7.03007181414511e-05,4.688262677958343e-05,4.396199348439765e-05,-2.5869406463721644e-05,7.0,5.9333
3.2890625,-6.591034680094606e-05,3.4672495326161593e-05,6.056249627832457e-05,-2.439966841840237e-05,7.0,5.9333
3.29296875,-6.640025948271915e-05,2.8322473258564144e-05,6.93432389593347e-05,-2.439966841840237e-05,7.0,5.9333
3.296875,-7.371126411840998e-05,3.369266996261541e-05,5.56822122560464e-05,-2.9279952440680515e-05,7.0,5.9333
3.30078125,-6.981080545967802e-05,4.6392714097810336e-05,4.6392714097810336e-05,-2.439966841840237e-05,7.0,5.9333
3.3046875,-7.665074020904859e-05,2.8322473258564144e-05,3.369266996261541e-05,-3.5140061826504906e-05,7.0,5.9333
3.30859375,-7.567091484550241e-05,1.709216716868849e-05,3.859179678034638e-05,-3.270934121309221e-05,7.0,5.9333
3.3125,-6.786999752803843e-05,2.8812385940337236e-05,4.786245214312964e-05,-1.6598751100938443e-05,7.0,5.9333
3.31640625,-7.12805435049973e-05,4.1512430075532165e-05,3.955277934843977e-05,-3.5140061826504906e-05,7.0,5.9333
3.3203125,-7.177045618677045e-05,5.176291080186161e-05,4.590280141603725e-05,-3.5140061826504906e-05,7.0,5.9333
3.32421875,-5.80905866880293e-05,5.860284555123217e-05,4.835236482490273e-05,-1.3169362328526744e-05,7.0,5.9333
3.328125,-4.6860280598153676e-05,5.615328214236669e-05,4.5412888734264125e-05,-1.1228554396887147e-05,7.0,5.9333
3.33203125,-6.981080545967802e-05,5.470238689250019e-05,4.688262677958343e-05,-2.6359319145494794e-05,7.0,5.9333
3.3359375,-7.03007181414511e-05,5.470238689250019e-05,5.0783085438315424e-05,-2.9279952440680515e-05,7.0,5.9333
3.33984375,-4.6860280598153676e-05,4.688262677958343e-05,4.786245214312964e-05,-2.6849231827267886e-05,7.0,5.9333
3.34375,-4.197999657587547e-05,4.004269203021286e-05,3.273168739452202e-05,-4.197999657587547e-05,7.0,5.9333
3.34765625,-3.9059363280689696e-05,4.835236482490273e-05,3.322160007629512e-05,-4.3939647302967894e-05,7.0,5.9333
3.3515625,-2.6359319145494794e-05,6.201339152819104e-05,4.2982168120851465e-05,-3.0749690485999845e-05,7.0,5.9333
3.35546875,-4.05102585305562e-05,2.5891752645151454e-05,3.5652320689707804e-05,-4.930984400701913e-05,7.0,5.9333
3.359375,-7.371126411840998e-05,1.417153387350271e-05,2.8322473258564144e-05,-5.516995339284352e-05,7.0,5.9333
3.36328125,-6.395069607385364e-05,4.835236482490273e-05,3.224177471274891e-05,-2.7339144509040978e-05,7.0,5.9333
3.3671875,-4.735019327992677e-05,4.347208080262456e-05,2.0521555941100188e-05,-2.9769865122453665e-05,7.0,5.9333
3.37109375,-4.979975668879223e-05,1.709216716868849e-05,9.815770565346894e-07,-4.149008389410238e-05,7.0,5.9333
3.375,-3.85694505989166e-05,9.291249851224535e-06,4.900878510719479e-06,-3.807953791714351e-05,7.0,5.9333
3.37890625,-2.439966841840237e-05,3.663214605325399e-05,3.028212398565654e-05,-3.319925389486531e-05,7.0,5.9333
3.3828125,-2.5869406463721644e-05,3.859179678034638e-05,3.175186203097581e-05,-3.85694505989166e-05,7.0,5.9333
3.38671875,-5.0289669370565316e-05,-9.758816351567844e-06,-8.77899098802166e-06,-5.5659866074616615e-05,7.0,5.9333
3.390625,-5.9070412051575486e-05,-1.7088663782711535e-05,-1.2189536964980562e-05,-5.2230477302204914e-05,7.0,5.9333
3.39453125,-6.346078339208054e-05,4.900878510719479e-06,-1.449143556877999e-06,-5.7600674006256214e-05,7.0,5.9333
3.3984375,-5.125065193865873e-05,2.0521555941100188e-05,1.5151359237048921e-05,-4.540938534828717e-05,7.0,5.9333
3.40234375,-3.758962523537042e-05,2.3442189236285967e-05,3.5652320689707804e-05,-1.9029471714351076e-05,7.0,5.9333
3.40625,-5.0289669370565316e-05,3.712205873502708e-05,3.028212398565654e-05,-4.100017121232929e-05,7.0,5.9333
3.41015625,-4.6370367916380526e-05,4.4451906166170744e-05,3.4182582644388505e-05,-4.100017121232929e-05,7.0,5.9333
3.4140625,-2.7339144509040978e-05,1.9541730577553977e-05,3.8101884098573295e-05,4.410965828946359e-06,7.0,5.9333
3.41796875,-2.2948773168535866e-05,1.0271075214770746e-05,3.712205873502708e-05,1.3681621191729618e-05,7.0,5.9333
3.421875,-3.465014914473181e-05,2.7832560576791025e-05,4.4922976052491036e-05,5.861861078812865e-06,7.0,5.9333
3.42578125,-4.344973462119475e-05,1.0760987896543838e-05,3.077203666742963e-05,1.961402420080873e-06,7.0,5.9333
3.4296875,-5.7600674006256214e-05,-1.0738641715114055e-05,-5.368445011062789e-06,-3.4179079258411546e-05,7.0,5.9333
3.43359375,-5.711076132448312e-05,-2.9188816021973024e-06,-1.463910037384602e-05,-4.784010596169986e-05,7.0,5.9333
3.4375,-5.6149778756389704e-05,-1.8049646350804892e-05,-5.858357692835881e-06,-3.0259777804226757e-05,7.0,5.9333
3.44140625,-6.1519975460441e-05,-2.5379493781948552e-05,-5.368445011062789e-06,-3.368916657663846e-05,7.0,5.9333
3.4453125,-5.077958205233841e-05,-3.660979987182423e-05,-1.610883841916535e-05,-5.0289669370565316e-05,7.0,5.9333
3.44921875,-3.172951584954603e-05,-1.5618925737392202e-05,-1.1228554396887147e-05,-3.660979987182423e-05,7.0,5.9333
3.453125,-2.0009297077897314e-05,4.900878510719479e-06,7.821511805905259e-06,-1.4149187692072928e-05,7.0,5.9333
3.45703125,-8.289078306248568e-06,1.751692988477771e-09,1.6131184600595103e-05,-2.9188816021973024e-06,7.0,5.9333
3.4609375,-3.0259777804226757e-05,-1.75597336690318e-05,-2.9188816021973024e-06,-1.8539559032577984e-05,7.0,5.9333
3.46484375,-4.8330018643472955e-05,-1.9029471714351076e-05,-4.6931819333178734e-07,-2.2458860486762774e-05,7.0,5.9333
3.46875,-2.439966841840237e-05,2.7832560576791025e-05,2.2462363872739756e-05,-4.388619647516577e-06,7.0,5.9333
3.47265625,-1.1228554396887147e-05,3.077203666742963e-05,3.077203666742963e-05,8.31142448767835e-06,7.0,5.9333
3.4765625,-2.3419843054856185e-05,3.4311404654001763e-06,2.4911927281605243e-05,5.371948397039745e-06,7.0,5.9333
3.48046875,-3.5140061826504906e-05,-2.3419843054856185e-05,6.351773760585957e-06,-1.5129013055619112e-05,7.0,5.9333
3.484375,-3.319925389486531e-05,-1.9029471714351076e-05,-2.9188816021973024e-06,-2.439966841840237e-05,7.0,5.9333
3.48828125,-2.8790039758907423e-05,1.4661446555275802e-05,-4.6931819333178734e-07,-2.439966841840237e-05,7.0,5.9333
3.4921875,-2.3909755736629277e-05,1.4661446555275802e-05,8.801337169451443e-06,-1.9029471714351076e-05,7.0,5.9333
3.49609375,-2.8790039758907423e-05,-1.0738641715114055e-05,2.4513151018539928e-06,-1.2679449646753653e-05,7.0,5.9333
3.5,-4.0020345848783104e-05,-3.2219428531319124e-05,-3.898706965743486e-06,-2.0499209759670406e-05,7.0,5.9333
3.50390625,-3.9549275962462785e-05,-4.442955998474099e-05,6.351773760585957e-06,-2.2948773168535866e-05,7.0,5.9333
3.5078125,-5.1740564620431826e-05,-4.05102585305562e-05,-1.3169362328526744e-05,-2.3419843054856185e-05,7.0,5.9333
3.51171875,-3.6119887190051084e-05,-7.309252942702357e-06,-6.329427579156174e-06,-1.449143556877999e-06,7.0,5.9333
3.515625,-7.79916562447545e-06,2.9412277836270843e-06,1.417153387350271e-05,1.4661446555275802e-05,7.0,5.9333
3.51953125,-2.6849231827267886e-05,-2.0499209759670406e-05,-6.8193402609292655e-06,-1.1699624283207412e-05,7.0,5.9333
3.5234375,-4.149008389410238e-05,-3.660979987182423e-05,-2.9279952440680515e-05,-3.6119887190051084e-05,7.0,5.9333
3.52734375,-4.05102585305562e-05,-5.468004071107043e-05,-4.930984400701913e-05,-5.516995339284352e-05,7.0,5.9333
3.53125,-3.6119887190051084e-05,-5.0289669370565316e-05,-4.8819931325246044e-05,-4.491947266651408e-05,7.0,5.9333
3.53515625,-2.1968947804989682e-05,-3.4179079258411546e-05,-2.3419843054856185e-05,-2.5869406463721644e-05,7.0,5.9333
3.5390625,-2.6849231827267886e-05,-4.735019327992677e-05,-7.309252942702357e-06,-4.05102585305562e-05,7.0,5.9333
3.54296875,-5.3700215347524193e-05,-6.834106741435874e-05,-4.491947266651408e-05,-5.5659866074616615e-05,7.0,5.9333
3.546875,-3.270934121309221e-05,-4.149008389410238e-05,-3.660979987182423e-05,-1.6598751100938443e-05,7.0,5.9333
3.55078125,-9.758816351567844e-06,-2.2458860486762774e-05,1.2701795828183434e-05,1.1232057782864131e-05,7.0,5.9333
3.5546875,-4.2959821939421656e-05,-4.735019327992677e-05,-3.6119887190051084e-05,-2.831896987258716e-05,7.0,5.9333
3.55859375,-6.248095802853436e-05,-5.711076132448312e-05,-7.275028155031662e-05,-5.4190128029297336e-05,7.0,5.9333
3.5625,-5.7600674006256214e-05,-5.468004071107043e-05,-5.077958205233841e-05,-4.2959821939421656e-05,7.0,5.9333
3.56640625,-4.246990925764857e-05,-2.2948773168535866e-05,-2.1968947804989682e-05,-1.7088663782711535e-05,7.0,5.9333
3.5703125,-2.5379493781948552e-05,-1.1699624283207412e-05,-1.2189536964980562e-05,-1.9519384396124222e-05,7.0,5.9333
3.57421875,-2.6849231827267886e-05,-4.735019327992677e-05,-4.8819931325246044e-05,-4.588045523460744e-05,7.0,5.9333
3.578125,-2.7339144509040978e-05,-5.9070412051575486e-05,-5.858049936980239e-05,-4.3939647302967894e-05,7.0,5.9333
3.58203125,-3.5140061826504906e-05,-5.4190128029297336e-05,-4.442955998474099e-05,-3.807953791714351e-05,7.0,5.9333
3.5859375,-4.588045523460744e-05,-5.5659866074616615e-05,-4.246990925764857e-05,-4.2959821939421656e-05,7.0,5.9333
3.58984375,-4.149008389410238e-05,-5.2230477302204914e-05,-4.197999657587547e-05,-3.709971255359733e-05,7.0,5.9333
3.59375,-3.9059363280689696e-05,-4.930984400701913e-05,-4.930984400701913e-05,-3.5629974508277995e-05,7.0,5.9333
3.59765625,-2.9769865122453665e-05,-4.246990925764857e-05,-4.0020345848783104e-05,-3.123960316777294e-05,7.0,5.9333
3.6015625,-2.7829057190814066e-05,-3.9549275962462785e-05,-3.319925389486531e-05,-3.0259777804226757e-05,7.0,5.9333
3.60546875,-3.0259777804226757e-05,-3.172951584954603e-05,-4.2959821939421656e-05,-3.172951584954603e-05,7.0,5.9333
3.609375,-2.7339144509040978e-05,-3.0749690485999845e-05,-2.5379493781948552e-05,-3.0749690485999845e-05,7.0,5.9333
3.61328125,-4.8330018643472955e-05,-6.248095802853436e-05,-3.85694505989166e-05,-4.197999657587547e-05,7.0,5.9333
3.6171875,-7.177045618677045e-05,-7.12805435049973e-05,-6.738008484626533e-05,-5.32103026657511e-05,7.0,5.9333
3.62109375,-6.640025948271915e-05,-5.1740564620431826e-05,-5.9070412051575486e-05,-6.297087071030745e-05,7.0,5.9333
3.625,-4.735019327992677e-05,-4.491947266651408e-05,-4.0020345848783104e-05,-5.272038998397801e-05,7.0,5.9333
3.62890625,-6.297087071030745e-05,-6.346078339208054e-05,-6.981080545967802e-05,-5.3700215347524193e-05,7.0,5.9333
3.6328125,-6.297087071030745e-05,-6.981080545967802e-05,-7.812047825436786e-05,-4.979975668879223e-05,7.0,5.9333
3.63671875,-4.344973462119475e-05,-5.4190128029297336e-05,-4.6370367916380526e-05,-3.5140061826504906e-05,7.0,5.9333
3.640625,-4.2959821939421656e-05,-5.4190128029297336e-05,-4.784010596169986e-05,-4.344973462119475e-05,7.0,5.9333
3.64453125,-4.05102585305562e-05,-4.735019327992677e-05,-6.005023741512167e-05,-4.100017121232929e-05,7.0,5.9333
3.6484375,-4.8330018643472955e-05,-3.6119887190051084e-05,-5.858049936980239e-05,-3.0259777804226757e-05,7.0,5.9333
3.65234375,-5.272038998397801e-05,-3.0259777804226757e-05,-4.8330018643472955e-05,-3.6119887190051084e-05,7.0,5.9333
3.65625,-5.9070412051575486e-05,-4.149008389410238e-05,-6.005023741512167e-05,-4.588045523460744e-05,7.0,5.9333
3.66015625,-5.80905866880293e-05,-5.3700215347524193e-05,-6.834106741435874e-05,-4.540938534828717e-05,7.0,5.9333
3.6640625,-4.149008389410238e-05,-5.711076132448312e-05,-5.9070412051575486e-05,-3.4179079258411546e-05,7.0,5.9333
3.66796875,-4.344973462119475e-05,-5.1740564620431826e-05,-6.248095802853436e-05,-4.3939647302967894e-05,7.0,5.9333
3.671875,-3.758962523537042e-05,-4.735019327992677e-05,-5.5659866074616615e-05,-4.8330018643472955e-05,7.0,5.9333
3.67578125,-3.5140061826504906e-05,-4.979975668879223e-05,-4.8819931325246044e-05,-4.344973462119475e-05,7.0,5.9333
3.6796875,-3.5629974508277995e-05,-4.784010596169986e-05,-5.7600674006256214e-05,-5.1740564620431826e-05,7.0,5.9333
3.68359375,-3.6119887190051084e-05,-4.344973462119475e-05,-5.125065193865873e-05,-4.979975668879223e-05,7.0,5.9333
3.6875,-6.054015009689476e-05,-4.491947266651408e-05,-3.9059363280689696e-05,-3.758962523537042e-05,7.0,5.9333
3.69140625,-6.689017216449224e-05,-4.784010596169986e-05,-5.711076132448312e-05,-4.0020345848783104e-05,7.0,5.9333
3.6953125,-4.540938534828717e-05,-6.1519975460441e-05,-7.03007181414511e-05,-5.077958205233841e-05,7.0,5.9333
3.69921875,-2.831896987258716e-05,-5.5659866074616615e-05,-6.297087071030745e-05,-4.149008389410238e-05,7.0,5.9333
3.703125,-3.85694505989166e-05,-5.32103026657511e-05,-6.054015009689476e-05,-4.6860280598153676e-05,7.0,5.9333
3.70703125,-4.588045523460744e-05,-6.200988814221409e-05,-5.32103026657511e-05,-5.32103026657511e-05,7.0,5.9333
3.7109375,-4.588045523460744e-05,-5.5659866074616615e-05,-5.4190128029297336e-05,-4.3939647302967894e-05,7.0,5.9333
3.71484375,-4.6370367916380526e-05,-5.0289669370565316e-05,-5.9070412051575486e-05,-3.9549275962462785e-05,7.0,5.9333
3.71875,-4.588045523460744e-05,-4.6860280598153676e-05,-5.1740564620431826e-05,-3.9549275962462785e-05,7.0,5.9333
3.72265625,-4.197999657587547e-05,-2.3909755736629277e-05,-3.172951584954603e-05,-3.319925389486531e-05,7.0,5.9333
3.7265625,-3.660979987182423e-05,-2.3419843054856185e-05,-1.9519384396124222e-05,-2.3419843054856185e-05,7.0,5.9333
3.73046875,-3.758962523537042e-05,-3.9549275962462785e-05,-2.147903512321659e-05,-2.5379493781948552e-05,7.0,5.9333
3.734375,-5.516995339284352e-05,-5.858049936980239e-05,-4.588045523460744e-05,-4.442955998474099e-05,7.0,5.9333
3.73828125,-5.66396914381628e-05,-6.1030062778667854e-05,-5.9560324733348575e-05,-5.3700215347524193e-05,7.0,5.9333
3.7421875,-4.442955998474099e-05,-6.1519975460441e-05,-4.540938534828717e-05,-5.32103026657511e-05,7.0,5.9333
3.74609375,-2.9279952440680515e-05,-4.149008389410238e-05,-3.0259777804226757e-05,-4.0020345848783104e-05,7.0,5.9333
3.75,-4.588045523460744e-05,-4.784010596169986e-05,-4.197999657587547e-05,-3.807953791714351e-05,7.0,5.9333
3.75390625,-6.297087071030745e-05,-6.981080545967802e-05,-6.1519975460441e-05,-3.807953791714351e-05,7.0,5.9333
3.7578125,-4.3939647302967894e-05,-4.05102585305562e-05,-4.930984400701913e-05,-3.0749690485999845e-05,7.0,5.9333
3.76171875,-4.0020345848783104e-05,-3.85694505989166e-05,-3.85694505989166e-05,-4.491947266651408e-05,7.0,5.9333
3.765625,-2.6849231827267886e-05,-3.5629974508277995e-05,-2.6359319145494794e-05,-3.9549275962462785e-05,7.0,5.9333
3.76953125,-1.75597336690318e-05,-2.5869406463721644e-05,-1.5618925737392202e-05,-2.5869406463721644e-05,7.0,5.9333
3.7734375,-4.3939647302967894e-05,-2.6849231827267886e-05,-4.2959821939421656e-05,-3.0749690485999845e-05,7.0,5.9333
3.77734375,-6.248095802853436e-05,-5.272038998397801e-05,-6.297087071030745e-05,-3.807953791714351e-05,7.0,5.9333
3.78125,-5.516995339284352e-05,-5.272038998397801e-05,-4.735019327992677e-05,-4.0020345848783104e-05,7.0,5.9333
3.78515625,-4.05102585305562e-05,-3.4179079258411546e-05,-2.3419843054856185e-05,-3.0259777804226757e-05,7.0,5.9333
3.7890625,-4.2959821939421656e-05,-4.05102585305562e-05,-2.5379493781948552e-05,-2.8790039758907423e-05,7.0,5.9333
3.79296875,-4.3939647302967894e-05,-4.442955998474099e-05,-5.468004071107043e-05,-3.85694505989166e-05,7.0,5.9333
3.796875,-3.465014914473181e-05,-4.979975668879223e-05,-5.6149778756389704e-05,-3.319925389486531e-05,7.0,5.9333
3.80078125,-5.711076132448312e-05,-7.177045618677045e-05,-5.6149778756389704e-05,-3.9549275962462785e-05,7.0,5.9333
3.8046875,-7.567091484550241e-05,-6.786999752803843e-05,-6.054015009689476e-05,-5.077958205233841e-05,7.0,5.9333
3.80859375,-5.7600674006256214e-05,-3.758962523537042e-05,-3.465014914473181e-05,-3.172951584954603e-05,7.0,5.9333
3.8125,-2.0499209759670406e-05,-8.77899098802166e-06,-4.388619647516577e-06,-8.77899098802166e-06,7.0,5.9333
3.81640625,-3.319925389486531e-05,-2.3909755736629277e-05,-1.463910037384602e-05,-2.0499209759670406e-05,7.0,5.9333
3.8203125,-7.07906308232242e-05,-6.640025948271915e-05,-4.149008389410238e-05,-3.709971255359733e-05,7.0,5.9333
3.82421875,-4.979975668879223e-05,-5.6149778756389704e-05,-4.8330018643472955e-05,-2.9279952440680515e-05,7.0,5.9333
3.828125,-1.9519384396124222e-05,-2.8790039758907423e-05,-3.85694505989166e-05,-1.463910037384602e-05,7.0,5.9333
3.83203125,-2.1968947804989682e-05,-2.5869406463721644e-05,-3.5629974508277995e-05,-1.5129013055619112e-05,7.0,5.9333
3.8359375,-3.85694505989166e-05,-5.5659866074616615e-05,-5.2230477302204914e-05,-2.8790039758907423e-05,7.0,5.9333
3.83984375,-3.660979987182423e-05,-7.03007181414511e-05,-5.5659866074616615e-05,-3.2219428531319124e-05,7.0,5.9333
3.84375,-3.807953791714351e-05,-6.738008484626533e-05,-5.6149778756389704e-05,-3.368916657663846e-05,7.0,5.9333
3.84765625,-3.5629974508277995e-05,-6.883098009613183e-05,-5.9070412051575486e-05,-3.0749690485999845e-05,7.0,5.9333
3.8515625,-2.8790039758907423e-05,-7.03007181414511e-05,-7.03007181414511e-05,-2.2458860486762774e-05,7.0,5.9333
3.85546875,-3.85694505989166e-05,-8.349067495841915e-05,-8.690122093537802e-05,-2.6359319145494794e-05,7.0,5.9333
3.859375,-3.368916657663846e-05,-0.00010448154909285113,-0.00010058109043411917,-2.831896987258716e-05,7.0,5.9333
3.86328125,-3.4179079258411546e-05,-0.00012255178993209734,-0.00012059213920500496,-4.878532329289698e-06,7.0,5.9333
3.8671875,-5.2230477302204914e-05,-0.00013964220540779734,-0.00015428305747463184,1.751692988477771e-09,7.0,5.9333
3.87109375,-4.2959821939421656e-05,-0.0001601431668604562,-0.00017625375697261005,-2.3909755736629277e-05,7.0,5.9333
3.875,-3.270934121309221e-05,-0.00018650423769893949,-0.0001855432551308461,-2.0009297077897314e-05,7.0,5.9333
3.87890625,-4.6860280598153676e-05,-0.00020702404194705115,-0.0002045744785381857,-4.388619647516577e-06,7.0,5.9333
3.8828125,-3.6119887190051084e-05,-0.00021825434803692683,-0.00021435388937819487,1.751692988477771e-09,7.0,5.9333
3.88671875,-2.1968947804989682e-05,-0.0002675659437369344,-0.0002651352231235218,4.900878510719479e-06,7.0,5.9333
3.890625,-2.3909755736629277e-05,-0.00029784631602960244,-0.00030027703664301517,1.417153387350271e-05,7.0,5.9333
3.89453125,-3.5140061826504906e-05,-0.0002787962498268101,-0.0002880669051895933,1.66022544869154e-05,7.0,5.9333
3.8984375,-5.125065193865873e-05,-0.0002929660320073243,-0.0002880669051895933,4.900878510719479e-06,7.0,5.9333
3.90234375,-4.8330018643472955e-05,-0.0003007669493247882,-0.0003017467746883344,-8.289078306248568e-06,7.0,5.9333
3.90625,-3.2219428531319124e-05,-0.00027587561653162433,-0.0002963765779842832,-1.0738641715114055e-05,7.0,5.9333
3.91015625,-3.9549275962462785e-05,-0.00026609620569161517,-0.0002924761193255513,-9.758816351567844e-06,7.0,5.9333
3.9140625,-3.758962523537042e-05,-0.0002841664465308613,-0.000299787123961242,-7.309252942702357e-06,7.0,5.9333
3.91796875,-1.2189536964980562e-05,-0.0002646453104417487,-0.00029441692725719077,-1.449143556877999e-06,7.0,5.9333
3.921875,9.815770565346894e-07,-0.00023144430485389482,-0.00026658611837338827,-2.9188816021973024e-06,7.0,5.9333
3.92578125,-6.329427579156174e-06,-0.00023095439217212172,-0.00022801491608148318,-3.408794283970394e-06,7.0,5.9333
3.9296875,-1.8049646350804892e-05,-0.00021531487194628824,-0.00020653412926527806,-5.368445011062789e-06,7.0,5.9333
3.93359375,-3.465014914473181e-05,-0.00019726347390249487,-0.00021386397669642172,-2.6359319145494794e-05,7.0,5.9333
3.9375,-3.2219428531319124e-05,-0.0001664931889280537,-0.00018846388842603187,-4.491947266651408e-05,7.0,5.9333
3.94140625,-2.3909755736629277e-05,-0.00013719264199893184,-0.00013915229272602425,-3.172951584954603e-05,7.0,5.9333
3.9453125,-3.9549275962462785e-05,-0.00011522194250095367,-0.00012498251054551002,-2.3419843054856185e-05,7.0,5.9333
3.94921875,-4.0020345848783104e-05,-8.349067495841915e-05,-9.619071909361405e-05,-3.0749690485999845e-05,7.0,5.9333
3.953125,-4.3939647302967894e-05,-6.1519975460441e-05,-5.9070412051575486e-05,-2.5869406463721644e-05,7.0,5.9333
3.95703125,-5.077958205233841e-05,-3.709971255359733e-05,-4.344973462119475e-05,-3.2219428531319124e-05,7.0,5.9333
3.9609375,-3.709971255359733e-05,1.961402420080873e-06,-2.3909755736629277e-05,-4.149008389410238e-05,7.0,5.9333
3.96484375,-3.709971255359733e-05,1.4714897383077811e-06,-1.1699624283207412e-05,-4.735019327992677e-05,7.0,5.9333
3.96875,-4.246990925764857e-05,-1.5618925737392202e-05,-1.9390562386510906e-06,-5.32103026657511e-05,7.0,5.9333
3.97265625,-4.149008389410238e-05,6.351773760585957e-06,1.2211883146410315e-05,-4.588045523460744e-05,7.0,5.9333
3.9765625,-4.784010596169986e-05,2.6381665326924546e-05,1.1721970464637223e-05,-4.2959821939421656e-05,7.0,5.9333
3.98046875,-4.784010596169986e-05,1.9051817895780885e-05,5.371948397039745e-06,-5.468004071107043e-05,7.0,5.9333
3.984375,-4.6370367916380526e-05,2.979221130388342e-05,7.821511805905259e-06,-6.200988814221409e-05,7.0,5.9333
3.98828125,-4.149008389410238e-05,4.1512430075532165e-05,2.5401839963378362e-05,-4.8330018643472955e-05,7.0,5.9333
3.9921875,-3.709971255359733e-05,4.2982168120851465e-05,4.004269203021286e-05,-4.588045523460744e-05,7.0,5.9333
3.99609375,-4.784010596169986e-05,4.2982168120851465e-05,5.2252823483634696e-05,-4.979975668879223e-05,7.0,5.9333
4.0,-4.100017121232929e-05,5.127299812008851e-05,7.032306432288092e-05,-3.9059363280689696e-05,7.0,5.9333
4.00390625,-3.9059363280689696e-05,6.154232164187076e-05,6.348312957351036e-05,-4.100017121232929e-05,7.0,5.9333
4.0078125,-4.197999657587547e-05,5.909275823300527e-05,5.127299812008851e-05,-4.784010596169986e-05,7.0,5.9333
4.01171875,-3.758962523537042e-05,6.348312957351036e-05,5.0783085438315424e-05,-5.32103026657511e-05,7.0,5.9333
4.015625,-3.758962523537042e-05,6.495286761882963e-05,6.154232164187076e-05,-5.516995339284352e-05,7.0,5.9333
4.01953125,-3.368916657663846e-05,5.958267091477836e-05,7.765291175402458e-05,-4.3939647302967894e-05,7.0,5.9333
4.0234375,-3.9549275962462785e-05,6.007258359655148e-05,6.299321689173723e-05,-3.9549275962462785e-05,7.0,5.9333
4.02734375,-4.6370367916380526e-05,7.081297700465402e-05,6.495286761882963e-05,-4.6370367916380526e-05,7.0,5.9333
4.03125,-4.100017121232929e-05,7.569326102693219e-05,6.691251834592202e-05,-4.6860280598153676e-05,7.0,5.9333
4.03515625,-4.246990925764857e-05,7.959371968566415e-05,5.958267091477836e-05,-3.807953791714351e-05,7.0,5.9333
4.0390625,-5.077958205233841e-05,7.032306432288092e-05,5.958267091477836e-05,-4.588045523460744e-05,7.0,5.9333
4.04296875,-3.270934121309221e-05,6.397304225528344e-05,7.277262773174641e-05,-4.8330018643472955e-05,7.0,5.9333
4.046875,-2.5379493781948552e-05,7.081297700465402e-05,7.471343566338597e-05,-3.4179079258411546e-05,7.0,5.9333
4.05078125,-3.2219428531319124e-05,7.373361029983979e-05,6.105240896009766e-05,-2.9769865122453665e-05,7.0,5.9333
4.0546875,-2.3909755736629277e-05,7.814282443579768e-05,6.885332627756162e-05,-3.172951584954603e-05,7.0,5.9333
4.05859375,-2.0499209759670406e-05,8.545382907148851e-05,7.667308639047836e-05,-3.9059363280689696e-05,7.0,5.9333
4.0625,-1.9029471714351076e-05,8.545382907148851e-05,6.544278030060275e-05,-4.246990925764857e-05,7.0,5.9333
4.06640625,-1.3659275010299836e-05,7.373361029983979e-05,5.860284555123217e-05,-4.197999657587547e-05,7.0,5.9333
4.0703125,-1.2679449646753653e-05,7.081297700465402e-05,6.593269298237583e-05,-3.660979987182423e-05,7.0,5.9333
4.07421875,-1.75597336690318e-05,7.959371968566415e-05,6.348312957351036e-05,-3.123960316777294e-05,7.0,5.9333
4.078125,-2.7829057190814066e-05,8.351302113984894e-05,4.6392714097810336e-05,-3.465014914473181e-05,7.0,5.9333
4.08203125,-3.709971255359733e-05,8.302310845807585e-05,4.786245214312964e-05,-4.344973462119475e-05,7.0,5.9333
4.0859375,-2.8790039758907423e-05,7.277262773174641e-05,5.274273616540779e-05,-4.8819931325246044e-05,7.0,5.9333
4.08984375,-2.2948773168535866e-05,6.105240896009766e-05,4.4451906166170744e-05,-4.246990925764857e-05,7.0,5.9333
4.09375,-2.2458860486762774e-05,4.786245214312964e-05,4.9332190188448914e-05,-3.465014914473181e-05,7.0,5.9333
4.09765625,-1.75597336690318e-05,5.176291080186161e-05,5.470238689250019e-05,-3.6119887190051084e-05,7.0,5.9333
4.1015625,-2.147903512321659e-05,6.250330420996414e-05,5.0783085438315424e-05,-3.6119887190051084e-05,7.0,5.9333
4.10546875,-1.9029471714351076e-05,6.056249627832457e-05,5.323264884718091e-05,-2.8790039758907423e-05,7.0,5.9333
