timestamp,TP9,AF7,AF8,TP10,Valence,Arousal
0.0,3.7109195056076915e-05,4.882716937514305e-05,3.075689063859006e-05,3.368976310368505e-05,4.2,3.0
0.00390625,3.564275882352942e-05,4.4427860677500576e-05,2.9290454406042568e-05,3.5156199336232545e-05,4.2,3.0
0.0078125,3.9548750263218124e-05,3.5156199336232545e-05,2.8803894918745712e-05,3.417632259098192e-05,4.2,3.0
0.01171875,3.808231403067063e-05,2.538446296635386e-05,3.075689063859006e-05,3.3203203616388196e-05,4.2,3.0
0.015625,3.85688735179675e-05,2.2944907759212633e-05,2.6364339711604486e-05,3.3203203616388196e-05,4.2,3.0
0.01953125,3.661587779812314e-05,2.8803894918745712e-05,2.2458348271915773e-05,3.17367673838407e-05,4.2,3.0
0.0234375,3.222332687113756e-05,2.4897903479056992e-05,1.9525475806820786e-05,2.8317335431448846e-05,4.2,3.0
0.02734375,3.17367673838407e-05,1.8552356832227054e-05,1.7572480086976426e-05,3.0270331151293205e-05,4.2,3.0
0.03125,3.9062190775921265e-05,1.9525475806820786e-05,2.147847152666514e-05,2.978377166399634e-05,4.2,3.0
0.03515625,4.3454741702906844e-05,2.8317335431448846e-05,2.783077594415198e-05,2.587778022430762e-05,4.2,3.0
0.0390625,4.0035309750515e-05,3.661587779812314e-05,2.8803894918745712e-05,2.4411343991760126e-05,4.2,3.0
0.04296875,3.368976310368505e-05,3.0270331151293205e-05,2.6364339711604486e-05,2.8317335431448846e-05,4.2,3.0
0.046875,2.978377166399634e-05,2.2458348271915773e-05,2.6364339711604486e-05,3.368976310368505e-05,4.2,3.0
0.05078125,3.612931831082628e-05,2.1971788784618907e-05,2.099191203936828e-05,3.368976310368505e-05,4.2,3.0
0.0546875,4.6380856397344926e-05,3.3203203616388196e-05,2.147847152666514e-05,3.661587779812314e-05,4.2,3.0
0.05859375,4.39413011902037e-05,3.612931831082628e-05,2.392478450446326e-05,3.808231403067063e-05,4.2,3.0
0.0625,3.075689063859006e-05,1.9525475806820786e-05,1.5619484367132067e-05,3.564275882352942e-05,4.2,3.0
0.06640625,2.4411343991760126e-05,1.51329248798352e-05,2.0018793064774547e-05,3.1243450125886934e-05,4.2,3.0
0.0703125,3.270988635843443e-05,1.8552356832227054e-05,2.4411343991760126e-05,3.075689063859006e-05,4.2,3.0
0.07421875,4.150174598306249e-05,2.2458348271915773e-05,3.075689063859006e-05,2.7337458686198218e-05,4.2,3.0
0.078125,4.1015186495765614e-05,2.8803894918745712e-05,3.075689063859006e-05,1.8065797344930187e-05,4.2,3.0
0.08203125,4.687417365529869e-05,2.4897903479056992e-05,1.6599361112382694e-05,2.0505352552071413e-05,4.2,3.0
0.0859375,4.5894296910048066e-05,1.6112801625085828e-05,1.3179929159990848e-05,2.8803894918745712e-05,4.2,3.0
0.08984375,4.0521869237811857e-05,1.7572480086976426e-05,1.9525475806820786e-05,3.270988635843443e-05,4.2,3.0
0.09375,4.39413011902037e-05,3.0270331151293205e-05,2.2944907759212633e-05,3.075689063859006e-05,4.2,3.0
0.09765625,4.2968182215609984e-05,3.270988635843443e-05,2.0505352552071413e-05,2.6850899198901352e-05,4.2,3.0
0.1015625,3.9548750263218124e-05,2.8317335431448846e-05,1.903891631952392e-05,2.4897903479056992e-05,4.2,3.0
0.10546875,3.661587779812314e-05,2.34314672465095e-05,2.392478450446326e-05,2.2458348271915773e-05,4.2,3.0
0.109375,3.7109195056076915e-05,2.147847152666514e-05,2.6850899198901352e-05,2.4411343991760126e-05,4.2,3.0
0.11328125,3.9548750263218124e-05,2.392478450446326e-05,3.075689063859006e-05,2.783077594415198e-05,4.2,3.0
0.1171875,3.9062190775921265e-05,2.9290454406042568e-05,3.0270331151293205e-05,2.4411343991760126e-05,4.2,3.0
0.12109375,3.417632259098192e-05,2.9290454406042568e-05,2.34314672465095e-05,2.0505352552071413e-05,4.2,3.0
0.125,3.368976310368505e-05,2.147847152666514e-05,2.4411343991760126e-05,2.783077594415198e-05,4.2,3.0
0.12890625,3.808231403067063e-05,2.147847152666514e-05,2.34314672465095e-05,3.075689063859006e-05,4.2,3.0
0.1328125,4.198830547035935e-05,3.270988635843443e-05,2.4411343991760126e-05,2.392478450446326e-05,4.2,3.0
0.13671875,4.2474864957656206e-05,3.564275882352942e-05,2.538446296635386e-05,2.2944907759212633e-05,4.2,3.0
0.140625,2.7337458686198218e-05,2.587778022430762e-05,2.1971788784618907e-05,2.9290454406042568e-05,4.2,3.0
0.14453125,1.4646365392538334e-05,3.368976310368505e-05,3.5156199336232545e-05,3.3203203616388196e-05,4.2,3.0
0.1484375,3.270988635843443e-05,3.808231403067063e-05,3.85688735179675e-05,2.6364339711604486e-05,4.2,3.0
0.15234375,4.9800288349736786e-05,2.7337458686198218e-05,2.4411343991760126e-05,2.147847152666514e-05,4.2,3.0
0.15625,4.150174598306249e-05,2.2458348271915773e-05,2.0505352552071413e-05,2.2944907759212633e-05,4.2,3.0
0.16015625,4.0521869237811857e-05,2.2944907759212633e-05,2.2944907759212633e-05,2.0018793064774547e-05,4.2,3.0
0.1640625,4.687417365529869e-05,2.099191203936828e-05,2.538446296635386e-05,1.51329248798352e-05,4.2,3.0
0.16796875,4.784729262989242e-05,3.0270331151293205e-05,2.9290454406042568e-05,1.5619484367132067e-05,4.2,3.0
0.171875,4.6380856397344926e-05,4.4427860677500576e-05,3.564275882352942e-05,1.7572480086976426e-05,4.2,3.0
0.17578125,4.4921177935454334e-05,4.736073314259556e-05,3.3203203616388196e-05,1.8552356832227054e-05,4.2,3.0
0.1796875,4.8333852117189295e-05,4.736073314259556e-05,3.0270331151293205e-05,1.8065797344930187e-05,4.2,3.0
0.18359375,4.150174598306249e-05,4.0035309750515e-05,2.978377166399634e-05,1.7572480086976426e-05,4.2,3.0
0.1875,4.150174598306249e-05,4.0035309750515e-05,3.3203203616388196e-05,1.7572480086976426e-05,4.2,3.0
0.19140625,5.126672458228428e-05,4.4427860677500576e-05,4.0521869237811857e-05,1.2206810185397117e-05,4.2,3.0
0.1953125,4.882716937514305e-05,4.39413011902037e-05,3.808231403067063e-05,4.881386793316551e-06,4.2,3.0
0.19921875,4.4921177935454334e-05,4.4921177935454334e-05,3.5156199336232545e-05,1.3179929159990848e-05,4.2,3.0
0.203125,4.39413011902037e-05,4.2474864957656206e-05,3.7109195056076915e-05,2.538446296635386e-05,4.2,3.0
0.20703125,4.2968182215609984e-05,4.0521869237811857e-05,4.6380856397344926e-05,3.3203203616388196e-05,4.2,3.0
0.2109375,4.3454741702906844e-05,4.931372886243991e-05,3.9548750263218124e-05,2.6850899198901352e-05,4.2,3.0
0.21484375,4.3454741702906844e-05,5.956526694895858e-05,3.3203203616388196e-05,2.2458348271915773e-05,4.2,3.0
0.21875,3.5156199336232545e-05,5.6145834996566714e-05,4.4427860677500576e-05,2.9290454406042568e-05,4.2,3.0
0.22265625,2.978377166399634e-05,4.736073314259556e-05,3.85688735179675e-05,3.222332687113756e-05,4.2,3.0
0.2265625,4.2968182215609984e-05,4.784729262989242e-05,3.270988635843443e-05,2.9290454406042568e-05,4.2,3.0
0.23046875,5.468615653467613e-05,4.9800288349736786e-05,4.1015186495765614e-05,2.587778022430762e-05,4.2,3.0
0.234375,5.370627978942549e-05,5.078016509498741e-05,4.736073314259556e-05,2.8803894918745712e-05,4.2,3.0
0.23828125,5.126672458228428e-05,5.2239843556877995e-05,4.882716937514305e-05,2.7337458686198218e-05,4.2,3.0
0.2421875,4.8333852117189295e-05,5.370627978942549e-05,4.4921177935454334e-05,2.0505352552071413e-05,4.2,3.0
0.24609375,4.2968182215609984e-05,4.882716937514305e-05,4.198830547035935e-05,2.6850899198901352e-05,4.2,3.0
0.25,4.4921177935454334e-05,4.2474864957656206e-05,4.0521869237811857e-05,2.9290454406042568e-05,4.2,3.0
0.25390625,4.0521869237811857e-05,4.784729262989242e-05,4.3454741702906844e-05,2.8803894918745712e-05,4.2,3.0
0.2578125,3.759575454337377e-05,5.2239843556877995e-05,4.150174598306249e-05,3.0270331151293205e-05,4.2,3.0
0.26171875,4.4427860677500576e-05,5.2239843556877995e-05,4.1015186495765614e-05,2.978377166399634e-05,4.2,3.0
0.265625,4.736073314259556e-05,5.321972030212863e-05,4.2474864957656206e-05,2.978377166399634e-05,4.2,3.0
0.26953125,4.687417365529869e-05,4.882716937514305e-05,4.2474864957656206e-05,2.978377166399634e-05,4.2,3.0
0.2734375,4.2474864957656206e-05,5.175328406958114e-05,4.784729262989242e-05,3.222332687113756e-05,4.2,3.0
0.27734375,4.0521869237811857e-05,5.321972030212863e-05,3.808231403067063e-05,3.368976310368505e-05,4.2,3.0
0.28125,4.0035309750515e-05,4.4921177935454334e-05,2.8803894918745712e-05,3.3203203616388196e-05,4.2,3.0
0.28515625,4.0035309750515e-05,3.5156199336232545e-05,2.8803894918745712e-05,3.417632259098192e-05,4.2,3.0
0.2890625,4.1015186495765614e-05,2.783077594415198e-05,2.538446296635386e-05,3.5156199336232545e-05,4.2,3.0
0.29296875,4.4921177935454334e-05,1.4159805905241476e-05,1.1226933440146488e-05,3.075689063859006e-05,4.2,3.0
0.296875,4.687417365529869e-05,9.273937720302128e-06,-4.397032318608378e-06,2.6364339711604486e-05,4.2,3.0
0.30078125,5.663915225452048e-05,4.388069535362781e-06,-9.282900503547721e-06,2.6364339711604486e-05,4.2,3.0
0.3046875,5.663915225452048e-05,-1.8068002357518884e-05,-3.173897239642939e-05,2.1971788784618907e-05,4.2,3.0
0.30859375,5.175328406958114e-05,-3.71046422980087e-05,-5.0289052849622335e-05,9.273937720302128e-06,4.2,3.0
0.3125,5.370627978942549e-05,-5.468160377660792e-05,-5.322192531471732e-05,6.834382513160904e-06,4.2,3.0
0.31640625,5.175328406958114e-05,-7.27518825131609e-05,-7.763099292744334e-05,2.0505352552071413e-05,4.2,3.0
0.3203125,5.370627978942549e-05,-9.76542673838407e-05,-0.00010888568221560997,2.587778022430762e-05,4.2,3.0
0.32421875,5.078016509498741e-05,-0.00012109021602197298,-0.00012352977122911422,2.7337458686198218e-05,4.2,3.0
0.328125,5.126672458228428e-05,-0.00013134175410849162,-0.0001308551946211948,2.783077594415198e-05,4.2,3.0
0.33203125,5.370627978942549e-05,-0.0001430597284275578,-0.00013720074126802472,2.7337458686198218e-05,4.2,3.0
0.3359375,5.126672458228428e-05,-0.0001552710200045777,-0.00015331802428473335,3.466288207827878e-05,4.2,3.0
0.33984375,5.712571174181735e-05,-0.0001538045837720302,-0.00016259644339665827,4.2968182215609984e-05,4.2,3.0
0.34375,5.321972030212863e-05,-0.00017236142199588008,-0.00018017340487525748,4.1015186495765614e-05,4.2,3.0
0.34765625,4.2968182215609984e-05,-0.00019726380686655985,-0.000193844374914168,3.7109195056076915e-05,4.2,3.0
0.3515625,5.0286847837033645e-05,-0.00019823692584115357,-0.00019481749388876172,4.198830547035935e-05,4.2,3.0
0.35546875,5.321972030212863e-05,-0.0002075153449530785,-0.0002036093535133898,4.4921177935454334e-05,4.2,3.0
0.359375,5.126672458228428e-05,-0.00021776688303959716,-0.000206048908720531,4.2968182215609984e-05,4.2,3.0
0.36328125,5.517271602197299e-05,-0.00022021319601739527,-0.0002143542088578622,4.0521869237811857e-05,4.2,3.0
0.3671875,5.859214797436485e-05,-0.00022949161512932022,-0.00022509230643167773,3.368976310368505e-05,4.2,3.0
0.37109375,6.347125838864729e-05,-0.00023046473410391394,-0.00022802517889677272,3.759575454337377e-05,4.2,3.0
0.375,6.347125838864729e-05,-0.00022021319601739527,-0.00022802517889677272,4.4921177935454334e-05,4.2,3.0
0.37890625,6.103170318150606e-05,-0.0002143542088578622,-0.00022460574694438087,4.4921177935454334e-05,4.2,3.0
0.3828125,5.956526694895858e-05,-0.00021679376406500344,-0.00022313931071183337,4.540773742275119e-05,4.2,3.0
0.38671875,6.151826266880293e-05,-0.00021776688303959716,-0.00021776688303959716,4.540773742275119e-05,4.2,3.0
0.390625,6.396457564660105e-05,-0.0002128877726253147,-0.00020946834067292285,4.736073314259556e-05,4.2,3.0
0.39453125,6.298469890135043e-05,-0.00019579737063401235,-0.00019189137919432364,5.175328406958114e-05,4.2,3.0
0.3984375,6.249813941405355e-05,-0.00018945182398718243,-0.0001884719472419318,5.273316081483177e-05,4.2,3.0
0.40234375,5.907870746166171e-05,-0.00017968684538796062,-0.00018261296008239872,5.321972030212863e-05,4.2,3.0
0.40625,5.565927550926986e-05,-0.00015771057521171895,-0.0001581971346990158,5.4192839276722364e-05,4.2,3.0
0.41015625,5.907870746166171e-05,-0.00014501272414740214,-0.0001416000499656672,4.8333852117189295e-05,4.2,3.0
0.4140625,5.761227122911421e-05,-0.00013671418178072786,-0.0001293887583886473,4.9800288349736786e-05,4.2,3.0
0.41796875,5.0286847837033645e-05,-0.00011523122886243991,-0.00011034536067750058,4.1015186495765614e-05,4.2,3.0
0.421875,5.078016509498741e-05,-9.130196296635385e-05,-8.984228450446327e-05,3.075689063859006e-05,4.2,3.0
0.42578125,4.8333852117189295e-05,-7.519143772030214e-05,-6.347346340123598e-05,4.540773742275119e-05,4.2,3.0
0.4296875,4.9800288349736786e-05,-4.3450188944838635e-05,-3.613152332341497e-05,4.931372886243991e-05,4.2,3.0
0.43359375,5.468615653467613e-05,-1.5141887663080797e-05,-2.1973993797207597e-05,4.687417365529869e-05,4.2,3.0
0.4375,5.517271602197299e-05,8.300818745708397e-06,-1.957477111467156e-06,4.1015186495765614e-05,4.2,3.0
0.44140625,4.882716937514305e-05,3.222332687113756e-05,2.4897903479056992e-05,3.1243450125886934e-05,4.2,3.0
0.4453125,4.4427860677500576e-05,4.2474864957656206e-05,3.9548750263218124e-05,2.4897903479056992e-05,4.2,3.0
0.44921875,4.882716937514305e-05,6.982356280613413e-05,5.761227122911421e-05,2.0505352552071413e-05,4.2,3.0
0.453125,4.540773742275119e-05,0.000100584934836347,7.95885414053559e-05,1.708592059967956e-05,4.2,3.0
0.45703125,4.198830547035935e-05,0.00011181634966811628,9.325951144426642e-05,1.4646365392538334e-05,4.2,3.0
0.4609375,4.0035309750515e-05,0.00011474246436255436,0.00010497748576333256,1.5619484367132067e-05,4.2,3.0
0.46484375,3.759575454337377e-05,0.00012353432398718242,0.00012011489203479058,9.760497207598994e-06,4.2,3.0
0.46875,3.661587779812314e-05,0.00014794339159990844,0.0001386717302586404,7.320942000457769e-06,4.2,3.0
0.47265625,3.661587779812314e-05,0.0001635741151293202,0.0001523427002975509,1.9525475806820786e-05,4.2,3.0
0.4765625,3.368976310368505e-05,0.00017235921698329135,0.0001523427002975509,1.4646365392538334e-05,4.2,3.0
0.48046875,2.9290454406042568e-05,0.00016698678931105515,0.00015331581927214465,9.760497207598994e-06,4.2,3.0
0.484375,2.8317335431448846e-05,0.00016748010656900892,0.00016064124266422522,1.4159805905241476e-05,4.2,3.0
0.48828125,2.783077594415198e-05,0.00017529208944838635,0.00016161436163881896,1.2693369672693983e-05,4.2,3.0
0.4921875,2.392478450446326e-05,0.00018554362753490502,0.00017235921698329135,2.34314672465095e-05,4.2,3.0
0.49609375,1.4646365392538334e-05,0.0001884765,0.00018115107660791942,3.3203203616388196e-05,4.2,3.0
0.5,1.6112801625085828e-05,0.00016552711084916457,0.00016601367033646143,3.466288207827878e-05,4.2,3.0
0.50390625,1.8065797344930187e-05,0.00017089278075074389,0.0001640606746166171,2.783077594415198e-05,4.2,3.0
0.5078125,1.51329248798352e-05,0.00018065775934996564,0.00016991966177615014,2.2458348271915773e-05,4.2,3.0
0.51171875,2.1971788784618907e-05,0.00017235921698329135,0.00016454723410391396,2.8317335431448846e-05,4.2,3.0
0.515625,2.9290454406042568e-05,0.00017382565321583885,0.00016015468317692836,2.8803894918745712e-05,4.2,3.0
0.51953125,2.978377166399634e-05,0.00017577864893568324,0.0001635741151293202,2.538446296635386e-05,4.2,3.0
0.5234375,2.6364339711604486e-05,0.00017382565321583885,0.0001635741151293202,2.587778022430762e-05,4.2,3.0
0.52734375,2.7337458686198218e-05,0.00017382565321583885,0.00015624869173723964,2.8803894918745712e-05,4.2,3.0
0.53125,3.0270331151293205e-05,0.00016601367033646143,0.0001538023787594415,2.34314672465095e-05,4.2,3.0
0.53515625,2.8317335431448846e-05,0.0001640606746166171,0.00016210767889677271,1.4159805905241476e-05,4.2,3.0
0.5390625,2.587778022430762e-05,0.00016845322554360264,0.00015917480643167772,2.0505352552071413e-05,4.2,3.0
0.54296875,2.6364339711604486e-05,0.0001611278021515221,0.00014501727690547037,2.587778022430762e-05,4.2,3.0
0.546875,2.099191203936828e-05,0.00013964484923323413,0.00013915828974593727,2.8803894918745712e-05,4.2,3.0
0.55078125,1.1226933440146488e-05,0.00013964484923323413,0.0001386717302586404,3.564275882352942e-05,4.2,3.0
0.5546875,1.6599361112382694e-05,0.0001445307174181735,0.0001445307174181735,3.808231403067063e-05,4.2,3.0
0.55859375,2.4411343991760126e-05,0.00014989638731975282,0.0001523427002975509,3.85688735179675e-05,4.2,3.0
0.5625,2.147847152666514e-05,0.00014745683211261158,0.00013573885779354542,3.0270331151293205e-05,4.2,3.0
0.56640625,2.6850899198901352e-05,0.0001264604386816205,0.00011913501528953994,2.392478450446326e-05,4.2,3.0
0.5703125,3.075689063859006e-05,0.00012597387919432364,0.00012402088347447928,3.1243450125886934e-05,4.2,3.0
0.57421875,2.978377166399634e-05,0.00012402088347447928,0.000127926874914168,3.661587779812314e-05,4.2,3.0
0.578125,2.4897903479056992e-05,0.00012548731970702678,0.00012060145152208744,3.808231403067063e-05,4.2,3.0
0.58203125,1.8065797344930187e-05,0.0001308529896086061,0.00011864845580224308,3.808231403067063e-05,4.2,3.0
0.5859375,2.2458348271915773e-05,0.000127926874914168,0.00011767533682764934,3.1243450125886934e-05,4.2,3.0
0.58984375,3.222332687113756e-05,0.00011718201956969559,0.000115722341107805,2.2458348271915773e-05,4.2,3.0
0.59375,3.222332687113756e-05,0.00011376934538796064,0.0001142559048752575,3.0270331151293205e-05,4.2,3.0
0.59765625,2.9290454406042568e-05,0.000124994002449073,0.00011474246436255436,4.2968182215609984e-05,4.2,3.0
0.6015625,2.9290454406042568e-05,0.0001181618963149462,0.00011278946864271,4.2474864957656206e-05,4.2,3.0
0.60546875,2.587778022430762e-05,9.667894339665826e-05,9.863193911650262e-05,3.564275882352942e-05,4.2,3.0
0.609375,2.392478450446326e-05,9.960505809109637e-05,9.569906665140763e-05,3.368976310368505e-05,4.2,3.0
0.61328125,2.2944907759212633e-05,0.00010546404525062942,0.00010839691771572441,3.7109195056076915e-05,4.2,3.0
0.6171875,2.538446296635386e-05,0.0001044909262760357,0.00010204461329823757,3.612931831082628e-05,4.2,3.0
0.62109375,2.9290454406042568e-05,9.716550288395512e-05,9.325951144426642e-05,3.5156199336232545e-05,4.2,3.0
0.625,2.783077594415198e-05,8.007510089265277e-05,8.984007949187457e-05,3.3203203616388196e-05,4.2,3.0
0.62890625,2.0505352552071413e-05,8.007510089265277e-05,9.08199562371252e-05,3.612931831082628e-05,4.2,3.0
0.6328125,2.538446296635386e-05,8.740052428473334e-05,9.863193911650262e-05,3.3203203616388196e-05,4.2,3.0
0.63671875,3.0270331151293205e-05,9.37460709315633e-05,9.08199562371252e-05,2.7337458686198218e-05,4.2,3.0
0.640625,2.538446296635386e-05,8.5447528564889e-05,8.2514656099794e-05,3.808231403067063e-05,4.2,3.0
0.64453125,2.978377166399634e-05,7.763554568551156e-05,8.5447528564889e-05,4.0035309750515e-05,4.2,3.0
0.6484375,3.368976310368505e-05,7.763554568551156e-05,8.446765181963836e-05,3.5156199336232545e-05,4.2,3.0
0.65234375,3.075689063859006e-05,6.542425410849164e-05,7.860866466010529e-05,3.7109195056076915e-05,4.2,3.0
0.65625,2.8803894918745712e-05,7.518923270771344e-05,8.007510089265277e-05,4.0521869237811857e-05,4.2,3.0
0.66015625,2.9290454406042568e-05,7.71422284275578e-05,8.2514656099794e-05,4.1015186495765614e-05,4.2,3.0
0.6640625,2.587778022430762e-05,6.493769462119477e-05,7.031012229343099e-05,3.7109195056076915e-05,4.2,3.0
0.66796875,2.8803894918745712e-05,6.542425410849164e-05,7.372955424582283e-05,3.270988635843443e-05,4.2,3.0
0.671875,3.1243450125886934e-05,7.42161137331197e-05,8.2514656099794e-05,3.85688735179675e-05,4.2,3.0
0.67578125,3.270988635843443e-05,7.372955424582283e-05,7.226311801327534e-05,3.85688735179675e-05,4.2,3.0
0.6796875,3.17367673838407e-05,7.031012229343099e-05,6.640413085374227e-05,3.85688735179675e-05,4.2,3.0
0.68359375,2.8803894918745712e-05,6.689069034103914e-05,6.982356280613413e-05,3.564275882352942e-05,4.2,3.0
0.6875,2.8803894918745712e-05,5.712571174181735e-05,6.640413085374227e-05,3.1243450125886934e-05,4.2,3.0
0.69140625,2.6850899198901352e-05,6.151826266880293e-05,6.591757136644541e-05,3.9548750263218124e-05,4.2,3.0
0.6953125,2.587778022430762e-05,6.7377249828336e-05,6.298469890135043e-05,3.85688735179675e-05,4.2,3.0
0.69921875,3.0270331151293205e-05,6.787056708628976e-05,6.005858420691234e-05,3.612931831082628e-05,4.2,3.0
0.703125,2.6364339711604486e-05,5.712571174181735e-05,5.907870746166171e-05,3.222332687113756e-05,4.2,3.0
0.70703125,2.4411343991760126e-05,4.931372886243991e-05,5.126672458228428e-05,2.6364339711604486e-05,4.2,3.0
0.7109375,2.7337458686198218e-05,5.565927550926986e-05,4.931372886243991e-05,3.17367673838407e-05,4.2,3.0
0.71484375,2.9290454406042568e-05,6.689069034103914e-05,5.761227122911421e-05,3.466288207827878e-05,4.2,3.0
0.71875,2.4411343991760126e-05,6.396457564660105e-05,5.175328406958114e-05,2.978377166399634e-05,4.2,3.0
0.72265625,1.7572480086976426e-05,5.273316081483177e-05,3.9548750263218124e-05,2.783077594415198e-05,4.2,3.0
0.7265625,2.4897903479056992e-05,5.273316081483177e-05,5.078016509498741e-05,3.7109195056076915e-05,4.2,3.0
0.73046875,3.17367673838407e-05,4.540773742275119e-05,5.175328406958114e-05,3.85688735179675e-05,4.2,3.0
0.734375,3.270988635843443e-05,5.321972030212863e-05,4.5894296910048066e-05,2.392478450446326e-05,4.2,3.0
0.73828125,3.075689063859006e-05,6.298469890135043e-05,5.321972030212863e-05,2.783077594415198e-05,4.2,3.0
0.7421875,2.538446296635386e-05,6.103170318150606e-05,5.712571174181735e-05,4.0521869237811857e-05,4.2,3.0
0.74609375,2.7337458686198218e-05,5.468615653467613e-05,6.20115799267567e-05,3.85688735179675e-05,4.2,3.0
0.75,2.8317335431448846e-05,4.9800288349736786e-05,6.005858420691234e-05,3.1243450125886934e-05,4.2,3.0
0.75390625,1.708592059967956e-05,4.2474864957656206e-05,5.321972030212863e-05,3.222332687113756e-05,4.2,3.0
0.7578125,1.6599361112382694e-05,5.565927550926986e-05,6.689069034103914e-05,4.2968182215609984e-05,4.2,3.0
0.76171875,2.978377166399634e-05,5.8098830716411084e-05,5.907870746166171e-05,3.368976310368505e-05,4.2,3.0
0.765625,3.7109195056076915e-05,3.7109195056076915e-05,3.9062190775921265e-05,2.099191203936828e-05,4.2,3.0
0.76953125,3.661587779812314e-05,3.9548750263218124e-05,4.540773742275119e-05,2.392478450446326e-05,4.2,3.0
0.7734375,3.808231403067063e-05,4.931372886243991e-05,4.931372886243991e-05,2.4897903479056992e-05,4.2,3.0
0.77734375,3.612931831082628e-05,4.882716937514305e-05,4.540773742275119e-05,2.0018793064774547e-05,4.2,3.0
0.78125,3.417632259098192e-05,3.85688735179675e-05,4.3454741702906844e-05,1.4646365392538334e-05,4.2,3.0
0.78515625,3.222332687113756e-05,3.85688735179675e-05,4.882716937514305e-05,1.6112801625085828e-05,4.2,3.0
0.7890625,2.6850899198901352e-05,4.2968182215609984e-05,5.6145834996566714e-05,2.538446296635386e-05,4.2,3.0
0.79296875,2.2458348271915773e-05,3.222332687113756e-05,5.0286847837033645e-05,2.6850899198901352e-05,4.2,3.0
0.796875,2.2458348271915773e-05,4.3454741702906844e-05,5.468615653467613e-05,2.2944907759212633e-05,4.2,3.0
0.80078125,2.7337458686198218e-05,5.0286847837033645e-05,5.761227122911421e-05,2.6850899198901352e-05,4.2,3.0
0.8046875,2.978377166399634e-05,3.9548750263218124e-05,4.8333852117189295e-05,3.368976310368505e-05,4.2,3.0
0.80859375,3.368976310368505e-05,3.5156199336232545e-05,5.370627978942549e-05,3.466288207827878e-05,4.2,3.0
0.8125,3.466288207827878e-05,3.417632259098192e-05,5.517271602197299e-05,3.466288207827878e-05,4.2,3.0
0.81640625,3.270988635843443e-05,3.9548750263218124e-05,4.540773742275119e-05,2.8803894918745712e-05,4.2,3.0
0.8203125,3.222332687113756e-05,4.39413011902037e-05,3.9062190775921265e-05,2.8317335431448846e-05,4.2,3.0
0.82421875,2.9290454406042568e-05,4.784729262989242e-05,4.0521869237811857e-05,3.0270331151293205e-05,4.2,3.0
0.828125,2.4897903479056992e-05,4.198830547035935e-05,4.3454741702906844e-05,2.1971788784618907e-05,4.2,3.0
0.83203125,2.4897903479056992e-05,3.759575454337377e-05,4.0035309750515e-05,1.9525475806820786e-05,4.2,3.0
0.8359375,2.587778022430762e-05,4.2474864957656206e-05,3.9548750263218124e-05,3.222332687113756e-05,4.2,3.0
0.83984375,3.0270331151293205e-05,4.540773742275119e-05,3.808231403067063e-05,3.466288207827878e-05,4.2,3.0
0.84375,3.368976310368505e-05,4.198830547035935e-05,3.564275882352942e-05,3.075689063859006e-05,4.2,3.0
0.84765625,3.3203203616388196e-05,3.17367673838407e-05,3.3203203616388196e-05,3.417632259098192e-05,4.2,3.0
0.8515625,2.8317335431448846e-05,2.9290454406042568e-05,3.368976310368505e-05,3.368976310368505e-05,4.2,3.0
0.85546875,2.538446296635386e-05,3.222332687113756e-05,3.9062190775921265e-05,2.2458348271915773e-05,4.2,3.0
0.859375,1.9525475806820786e-05,4.0521869237811857e-05,3.3203203616388196e-05,2.0018793064774547e-05,4.2,3.0
0.86328125,1.6112801625085828e-05,4.150174598306249e-05,2.783077594415198e-05,3.1243450125886934e-05,4.2,3.0
0.8671875,2.6850899198901352e-05,2.9290454406042568e-05,2.8317335431448846e-05,3.7109195056076915e-05,4.2,3.0
0.87109375,3.0270331151293205e-05,2.8317335431448846e-05,2.34314672465095e-05,2.6850899198901352e-05,4.2,3.0
0.875,2.587778022430762e-05,2.8317335431448846e-05,1.9525475806820786e-05,1.6112801625085828e-05,4.2,3.0
0.87890625,2.0018793064774547e-05,3.270988635843443e-05,3.1243450125886934e-05,2.6850899198901352e-05,4.2,3.0
0.8828125,2.4897903479056992e-05,3.564275882352942e-05,3.17367673838407e-05,3.0270331151293205e-05,4.2,3.0
0.88671875,3.3203203616388196e-05,2.8803894918745712e-05,2.1971788784618907e-05,2.587778022430762e-05,4.2,3.0
0.890625,2.8803894918745712e-05,2.392478450446326e-05,2.9290454406042568e-05,2.978377166399634e-05,4.2,3.0
0.89453125,2.6850899198901352e-05,3.0270331151293205e-05,4.0521869237811857e-05,3.612931831082628e-05,4.2,3.0
0.8984375,2.783077594415198e-05,3.222332687113756e-05,3.5156199336232545e-05,3.368976310368505e-05,4.2,3.0
0.90234375,2.2944907759212633e-05,2.2944907759212633e-05,2.4411343991760126e-05,3.1243450125886934e-05,4.2,3.0
0.90625,2.1971788784618907e-05,2.099191203936828e-05,2.147847152666514e-05,3.075689063859006e-05,4.2,3.0
0.91015625,2.4897903479056992e-05,1.9525475806820786e-05,1.8065797344930187e-05,2.8317335431448846e-05,4.2,3.0
0.9140625,2.9290454406042568e-05,2.538446296635386e-05,2.1971788784618907e-05,2.6364339711604486e-05,4.2,3.0
0.91796875,3.17367673838407e-05,2.8803894918745712e-05,2.392478450446326e-05,2.099191203936828e-05,4.2,3.0
0.921875,2.4411343991760126e-05,2.978377166399634e-05,2.2458348271915773e-05,2.4411343991760126e-05,4.2,3.0
0.92578125,2.1971788784618907e-05,2.6364339711604486e-05,2.8803894918745712e-05,3.759575454337377e-05,4.2,3.0
0.9296875,2.6850899198901352e-05,1.903891631952392e-05,3.808231403067063e-05,4.150174598306249e-05,4.2,3.0
0.93359375,2.8317335431448846e-05,2.0505352552071413e-05,3.612931831082628e-05,3.564275882352942e-05,4.2,3.0
0.9375,2.4411343991760126e-05,2.538446296635386e-05,2.8317335431448846e-05,2.392478450446326e-05,4.2,3.0
0.94140625,1.903891631952392e-05,2.7337458686198218e-05,2.2458348271915773e-05,2.392478450446326e-05,4.2,3.0
0.9453125,2.2944907759212633e-05,1.8552356832227054e-05,1.51329248798352e-05,3.222332687113756e-05,4.2,3.0
0.94921875,2.8317335431448846e-05,1.2693369672693983e-05,1.1713492927443354e-05,3.612931831082628e-05,4.2,3.0
0.953125,3.368976310368505e-05,1.903891631952392e-05,1.51329248798352e-05,3.417632259098192e-05,4.2,3.0
0.95703125,3.417632259098192e-05,1.903891631952392e-05,2.4897903479056992e-05,2.6364339711604486e-05,4.2,3.0
0.9609375,3.075689063859006e-05,2.34314672465095e-05,2.6850899198901352e-05,2.6364339711604486e-05,4.2,3.0
0.96484375,3.417632259098192e-05,3.1243450125886934e-05,2.34314672465095e-05,3.17367673838407e-05,4.2,3.0
0.96875,2.9290454406042568e-05,8.300818745708397e-06,1.708592059967956e-05,3.368976310368505e-05,4.2,3.0
0.97265625,2.392478450446326e-05,1.1713492927443354e-05,2.2944907759212633e-05,3.0270331151293205e-05,4.2,3.0
0.9765625,2.8317335431448846e-05,2.4897903479056992e-05,2.099191203936828e-05,3.0270331151293205e-05,4.2,3.0
0.98046875,2.6364339711604486e-05,1.3179929159990848e-05,6.834382513160904e-06,2.6850899198901352e-05,4.2,3.0
0.984375,2.978377166399634e-05,1.903891631952392e-05,1.3666488647287707e-05,2.0505352552071413e-05,4.2,3.0
0.98828125,3.075689063859006e-05,2.8317335431448846e-05,2.587778022430762e-05,1.708592059967956e-05,4.2,3.0
0.9921875,2.8803894918745712e-05,1.8552356832227054e-05,2.392478450446326e-05,2.2458348271915773e-05,4.2,3.0
0.99609375,2.978377166399634e-05,2.2458348271915773e-05,2.0505352552071413e-05,3.3203203616388196e-05,4.2,3.0
1.0,3.0270331151293205e-05,2.538446296635386e-05,2.147847152666514e-05,3.3203203616388196e-05,4.2,3.0
1.00390625,2.6364339711604486e-05,1.5619484367132067e-05,1.9525475806820786e-05,3.661587779812314e-05,4.2,3.0
1.0078125,2.8803894918745712e-05,1.6112801625085828e-05,2.2944907759212633e-05,3.17367673838407e-05,4.2,3.0
1.01171875,2.978377166399634e-05,1.9525475806820786e-05,2.783077594415198e-05,2.6364339711604486e-05,4.2,3.0
1.015625,2.978377166399634e-05,2.783077594415198e-05,2.1971788784618907e-05,2.9290454406042568e-05,4.2,3.0
1.01953125,2.9290454406042568e-05,3.417632259098192e-05,2.4897903479056992e-05,3.5156199336232545e-05,4.2,3.0
1.0234375,1.0740373952849623e-05,3.17367673838407e-05,2.9290454406042568e-05,3.7109195056076915e-05,4.2,3.0
1.02734375,1.4646365392538334e-05,2.538446296635386e-05,2.4411343991760126e-05,2.4411343991760126e-05,4.2,3.0
1.03125,3.0270331151293205e-05,2.0018793064774547e-05,1.903891631952392e-05,2.2944907759212633e-05,4.2,3.0
1.03515625,3.612931831082628e-05,2.783077594415198e-05,2.2458348271915773e-05,3.3203203616388196e-05,4.2,3.0
1.0390625,3.7109195056076915e-05,3.7109195056076915e-05,2.978377166399634e-05,3.222332687113756e-05,4.2,3.0
1.04296875,3.466288207827878e-05,2.0018793064774547e-05,2.2944907759212633e-05,2.8803894918745712e-05,4.2,3.0
1.046875,3.661587779812314e-05,1.1713492927443354e-05,2.147847152666514e-05,2.9290454406042568e-05,4.2,3.0
1.05078125,2.8317335431448846e-05,2.392478450446326e-05,2.6850899198901352e-05,2.587778022430762e-05,4.2,3.0
1.0546875,2.8803894918745712e-05,2.8803894918745712e-05,2.8803894918745712e-05,2.6364339711604486e-05,4.2,3.0
1.05859375,3.17367673838407e-05,3.270988635843443e-05,2.6364339711604486e-05,2.34314672465095e-05,4.2,3.0
1.0625,1.5619484367132067e-05,2.538446296635386e-05,2.538446296635386e-05,3.270988635843443e-05,4.2,3.0
1.06640625,1.903891631952392e-05,2.4411343991760126e-05,3.222332687113756e-05,3.808231403067063e-05,4.2,3.0
1.0703125,3.17367673838407e-05,3.17367673838407e-05,2.2944907759212633e-05,3.075689063859006e-05,4.2,3.0
1.07421875,3.3203203616388196e-05,3.17367673838407e-05,1.5619484367132067e-05,3.3203203616388196e-05,4.2,3.0
1.078125,3.1243450125886934e-05,3.417632259098192e-05,2.4897903479056992e-05,3.466288207827878e-05,4.2,3.0
1.08203125,3.466288207827878e-05,3.1243450125886934e-05,2.783077594415198e-05,2.8803894918745712e-05,4.2,3.0
1.0859375,2.0505352552071413e-05,2.147847152666514e-05,2.34314672465095e-05,1.2206810185397117e-05,4.2,3.0
1.08984375,2.4897903479056992e-05,3.075689063859006e-05,2.147847152666514e-05,5.854505767910275e-06,4.2,3.0
1.09375,3.85688735179675e-05,3.417632259098192e-05,2.978377166399634e-05,2.8317335431448846e-05,4.2,3.0
1.09765625,2.8317335431448846e-05,2.8803894918745712e-05,3.0270331151293205e-05,4.4427860677500576e-05,4.2,3.0
1.1015625,2.587778022430762e-05,2.1971788784618907e-05,2.099191203936828e-05,3.222332687113756e-05,4.2,3.0
1.10546875,3.368976310368505e-05,3.3203203616388196e-05,2.978377166399634e-05,2.8803894918745712e-05,4.2,3.0
1.109375,3.661587779812314e-05,4.198830547035935e-05,4.3454741702906844e-05,4.2474864957656206e-05,4.2,3.0
1.11328125,3.1243450125886934e-05,2.4897903479056992e-05,2.587778022430762e-05,4.0521869237811857e-05,4.2,3.0
1.1171875,2.4897903479056992e-05,2.587778022430762e-05,1.5619484367132067e-05,3.0270331151293205e-05,4.2,3.0
1.12109375,2.2944907759212633e-05,3.466288207827878e-05,2.6850899198901352e-05,2.1971788784618907e-05,4.2,3.0
1.125,2.8317335431448846e-05,3.17367673838407e-05,2.6850899198901352e-05,1.6599361112382694e-05,4.2,3.0
1.12890625,3.075689063859006e-05,3.5156199336232545e-05,2.587778022430762e-05,2.1971788784618907e-05,4.2,3.0
1.1328125,2.4411343991760126e-05,2.9290454406042568e-05,2.6364339711604486e-05,2.538446296635386e-05,4.2,3.0
1.13671875,1.0253814465552757e-05,2.6364339711604486e-05,3.075689063859006e-05,2.1971788784618907e-05,4.2,3.0
1.140625,8.300818745708397e-06,3.368976310368505e-05,3.5156199336232545e-05,2.8803894918745712e-05,4.2,3.0
1.14453125,2.0505352552071413e-05,2.8317335431448846e-05,3.7109195056076915e-05,3.466288207827878e-05,4.2,3.0
1.1484375,3.3203203616388196e-05,2.392478450446326e-05,3.1243450125886934e-05,2.4411343991760126e-05,4.2,3.0
1.15234375,3.564275882352942e-05,3.5156199336232545e-05,3.466288207827878e-05,2.2458348271915773e-05,4.2,3.0
1.15625,3.3203203616388196e-05,4.198830547035935e-05,3.85688735179675e-05,2.392478450446326e-05,4.2,3.0
1.16015625,3.661587779812314e-05,3.9062190775921265e-05,3.368976310368505e-05,2.4411343991760126e-05,4.2,3.0
1.1640625,4.0521869237811857e-05,3.3203203616388196e-05,3.612931831082628e-05,4.2968182215609984e-05,4.2,3.0
1.16796875,3.661587779812314e-05,3.222332687113756e-05,3.466288207827878e-05,4.3454741702906844e-05,4.2,3.0
1.171875,2.8803894918745712e-05,3.661587779812314e-05,3.368976310368505e-05,3.466288207827878e-05,4.2,3.0
1.17578125,2.4897903479056992e-05,3.9062190775921265e-05,3.17367673838407e-05,3.3203203616388196e-05,4.2,3.0
1.1796875,2.0018793064774547e-05,4.2474864957656206e-05,3.17367673838407e-05,3.075689063859006e-05,4.2,3.0
1.18359375,3.417632259098192e-05,2.978377166399634e-05,2.978377166399634e-05,2.392478450446326e-05,4.2,3.0
1.1875,4.540773742275119e-05,2.34314672465095e-05,2.8317335431448846e-05,1.3179929159990848e-05,4.2,3.0
1.19140625,3.661587779812314e-05,2.978377166399634e-05,3.3203203616388196e-05,2.6850899198901352e-05,4.2,3.0
1.1953125,2.8317335431448846e-05,3.270988635843443e-05,2.9290454406042568e-05,3.661587779812314e-05,4.2,3.0
1.19921875,2.587778022430762e-05,3.417632259098192e-05,2.392478450446326e-05,3.17367673838407e-05,4.2,3.0
1.203125,2.8317335431448846e-05,2.7337458686198218e-05,2.392478450446326e-05,3.368976310368505e-05,4.2,3.0
1.20703125,3.17367673838407e-05,2.099191203936828e-05,2.6364339711604486e-05,3.5156199336232545e-05,4.2,3.0
1.2109375,3.270988635843443e-05,2.34314672465095e-05,2.8803894918745712e-05,3.1243450125886934e-05,4.2,3.0
1.21484375,3.417632259098192e-05,3.0270331151293205e-05,2.538446296635386e-05,2.8317335431448846e-05,4.2,3.0
1.21875,3.075689063859006e-05,3.368976310368505e-05,1.9525475806820786e-05,3.222332687113756e-05,4.2,3.0
1.22265625,2.783077594415198e-05,2.6364339711604486e-05,2.2944907759212633e-05,3.368976310368505e-05,4.2,3.0
1.2265625,3.3203203616388196e-05,3.661587779812314e-05,3.1243450125886934e-05,3.564275882352942e-05,4.2,3.0
1.23046875,3.759575454337377e-05,3.1243450125886934e-05,3.368976310368505e-05,4.0035309750515e-05,4.2,3.0
1.234375,3.5156199336232545e-05,1.3179929159990848e-05,2.8803894918745712e-05,4.198830547035935e-05,4.2,3.0
1.23828125,3.759575454337377e-05,2.978377166399634e-05,2.6364339711604486e-05,3.5156199336232545e-05,4.2,3.0
1.2421875,3.808231403067063e-05,2.8317335431448846e-05,1.903891631952392e-05,3.0270331151293205e-05,4.2,3.0
1.24609375,3.222332687113756e-05,7.807501487754635e-06,4.881386793316551e-06,3.17367673838407e-05,4.2,3.0
1.25,4.5894296910048066e-05,9.760497207598994e-06,1.51329248798352e-05,3.1243450125886934e-05,4.2,3.0
1.25390625,4.6380856397344926e-05,1.1226933440146488e-05,1.0253814465552757e-05,2.587778022430762e-05,4.2,3.0
1.2578125,2.2458348271915773e-05,-1.025601947814145e-05,-1.6601566124971387e-05,2.538446296635386e-05,4.2,3.0
1.26171875,2.1971788784618907e-05,-4.540318466468299e-05,-4.5896501922636756e-05,3.1243450125886934e-05,4.2,3.0
1.265625,2.783077594415198e-05,-8.593629306477455e-05,-7.861086967269397e-05,3.5156199336232545e-05,4.2,3.0
1.26953125,2.8803894918745712e-05,-0.00010693268649576561,-9.862738635843441e-05,3.564275882352942e-05,4.2,3.0
1.2734375,2.099191203936828e-05,-0.00011376479262989242,-0.00010693268649576561,4.150174598306249e-05,4.2,3.0
1.27734375,1.6599361112382694e-05,-0.0001293887583886473,-0.00012060365653467612,5.468615653467613e-05,4.2,3.0
1.28125,2.0505352552071413e-05,-0.00015771057521171895,-0.00015136502856488896,5.8098830716411084e-05,4.2,3.0
1.28515625,1.2693369672693983e-05,-0.00018456595580224308,-0.00017089498576333258,6.542425410849164e-05,4.2,3.0
1.2890625,7.807501487754635e-06,-0.00019823692584115357,-0.0001704084262760357,8.007510089265277e-05,4.2,3.0
1.29296875,7.320942000457769e-06,-0.0002172803235523003,-0.00018603239203479057,8.496096907759212e-05,4.2,3.0
1.296875,4.388069535362781e-06,-0.00023290428931105518,-0.00020654222597848477,8.300121558709086e-05,4.2,3.0
1.30078125,4.388069535362781e-06,-0.00023437072554360268,-0.00021826020029755094,9.277295195696956e-05,4.2,3.0
1.3046875,-4.481391622796593e-09,-0.00023974315321583886,-0.0002187467597848478,0.00010790360045777066,4.2,3.0
1.30859375,-1.4162010917830165e-05,-0.000254394,-0.0002187467597848478,0.00010644392199588006,4.2,3.0
1.3125,-1.2695574685282671e-05,-0.0002465752593499657,-0.000208981781185626,9.22796346990158e-05,4.2,3.0
1.31640625,-1.1722455710688944e-05,-0.00022607218317692836,-0.00020018992156099793,0.00011083647292286564,4.2,3.0
1.3203125,-1.7094883382925152e-05,-0.00022509230643167773,-0.00020165635779354542,0.00013573885779354542,4.2,3.0
1.32421875,-1.904787910276951e-05,-0.00021826020029755094,-0.00018505251528953994,0.00013769185351338977,4.2,3.0
1.328125,-2.5879985236896316e-05,-0.00018798538775463493,-0.0001552710200045777,0.0001293933111467155,4.2,3.0
1.33203125,-3.319865085831998e-05,-0.00017626741343556876,-0.00014257316894026093,0.00012987987063401237,4.2,3.0
1.3359375,-3.223228965438315e-05,-0.00015771057521171895,-0.00011718422458228427,0.000143064281185626,4.2,3.0
1.33984375,-2.8326298214694437e-05,-0.00012743576266880294,-8.837584827191577e-05,0.00014062472597848477,4.2,3.0
1.34375,-3.613152332341497e-05,-9.960726310368505e-05,-7.177200576791028e-05,0.00013573885779354542,4.2,3.0
1.34765625,-4.247706997024491e-05,-7.909742915999083e-05,-5.8587595216296634e-05,0.0001386717302586404,4.2,3.0
1.3515625,-3.125241290913252e-05,-7.5677997207599e-05,-5.5174921034561685e-05,0.00012402088347447928,4.2,3.0
1.35546875,-2.1487434309910734e-05,-4.686962089723049e-05,-2.6373302494850078e-05,0.00011913501528953994,4.2,3.0
1.359375,-2.002099807736324e-05,-1.8068002357518884e-05,4.388069535362781e-06,0.0001264604386816205,4.2,3.0
1.36328125,-1.562844715037766e-05,-9.769459990844588e-06,2.1971788784618907e-05,0.00011718201956969559,4.2,3.0
1.3671875,-9.282900503547721e-06,9.273937720302128e-06,3.466288207827878e-05,9.813862185854887e-05,4.2,3.0
1.37109375,-6.350028038452734e-06,3.368976310368505e-05,4.687417365529869e-05,8.642064753948272e-05,4.2,3.0
1.375,-1.1235896223392081e-05,5.370627978942549e-05,6.640413085374227e-05,8.5447528564889e-05,4.2,3.0
1.37890625,-1.904787910276951e-05,7.128324126802473e-05,8.300121558709086e-05,7.56825499656672e-05,4.2,3.0
1.3828125,-2.051431533531701e-05,7.323623698786907e-05,9.08199562371252e-05,6.982356280613413e-05,4.2,3.0
1.38671875,-7.329904783703366e-06,7.812210517280843e-05,9.716550288395512e-05,7.616910945296406e-05,4.2,3.0
1.390625,4.388069535362781e-06,9.08199562371252e-05,0.00011181634966811628,7.128324126802473e-05,4.2,3.0
1.39453125,2.435073815518429e-06,0.00010839691771572441,0.00012206788775463494,6.05451436942092e-05,4.2,3.0
1.3984375,2.928391073472191e-06,0.00011620890059510185,0.00012304100672922864,5.370627978942549e-05,4.2,3.0
1.40234375,7.807501487754635e-06,0.00011327602813000686,0.00012402088347447928,4.736073314259556e-05,4.2,3.0
1.40625,7.807501487754635e-06,0.00012450744296177614,0.00013134630686655984,3.9548750263218124e-05,4.2,3.0
1.41015625,6.834382513160904e-06,0.00012694699816891738,0.0001347589810482948,3.0270331151293205e-05,4.2,3.0
1.4140625,1.1713492927443354e-05,0.00012353432398718242,0.0001386717302586404,3.17367673838407e-05,4.2,3.0
1.41796875,1.4159805905241476e-05,0.00012987987063401237,0.00014062472597848477,2.978377166399634e-05,4.2,3.0
1.421875,1.4159805905241476e-05,0.00013525229830624856,0.0001386717302586404,1.2206810185397117e-05,4.2,3.0
1.42578125,6.347823025864045e-06,0.00013036643012130923,0.00014062472597848477,1.3666488647287707e-05,4.2,3.0
1.4296875,9.753953536278316e-07,0.0001347589810482948,0.00014745683211261158,3.612931831082628e-05,4.2,3.0
1.43359375,9.760497207598994e-06,0.00014257772169832912,0.00014697027262531472,3.759575454337377e-05,4.2,3.0
1.4375,1.9525475806820786e-05,0.00014111128546578163,0.00014403740016021973,2.4411343991760126e-05,4.2,3.0
1.44140625,2.538446296635386e-05,0.00013183286635385673,0.00013915828974593727,2.0018793064774547e-05,4.2,3.0
1.4453125,3.1243450125886934e-05,0.00012402088347447928,0.0001337858620737011,1.2693369672693983e-05,4.2,3.0
1.44921875,3.222332687113756e-05,0.00012694699816891738,0.00013036643012130923,6.347823025864045e-06,4.2,3.0
1.453125,2.7337458686198218e-05,0.00012987987063401237,0.00014062472597848477,1.5619484367132067e-05,4.2,3.0
1.45703125,2.7337458686198218e-05,0.00013183286635385673,0.00014794339159990844,1.9525475806820786e-05,4.2,3.0
1.4609375,2.8803894918745712e-05,0.0001337858620737011,0.00014111128546578163,2.1971788784618907e-05,4.2,3.0
1.46484375,2.9290454406042568e-05,0.00013134630686655984,0.0001386717302586404,2.538446296635386e-05,4.2,3.0
1.46875,3.1243450125886934e-05,0.00013134630686655984,0.00013329930258640423,1.7572480086976426e-05,4.2,3.0
1.47265625,2.4897903479056992e-05,0.00012011489203479058,0.00012450744296177614,1.8065797344930187e-05,4.2,3.0
1.4765625,2.34314672465095e-05,0.000115722341107805,0.00012060145152208744,2.6364339711604486e-05,4.2,3.0
1.48046875,3.0270331151293205e-05,0.00012694699816891738,0.00012450744296177614,2.783077594415198e-05,4.2,3.0
1.484375,3.0270331151293205e-05,0.00011962833254749369,0.00011620890059510185,2.6364339711604486e-05,4.2,3.0
1.48828125,2.7337458686198218e-05,0.00011181634966811628,0.00011522902384985122,2.099191203936828e-05,4.2,3.0
1.4921875,2.34314672465095e-05,0.000115722341107805,0.00012353432398718242,2.1971788784618907e-05,4.2,3.0
1.49609375,2.783077594415198e-05,0.00012353432398718242,0.00012744031542687113,2.8803894918745712e-05,4.2,3.0
1.5,3.5156199336232545e-05,0.0001293933111467155,0.00012353432398718242,2.783077594415198e-05,4.2,3.0
1.50390625,3.564275882352942e-05,0.0001166954600823987,0.0001142559048752575,1.9525475806820786e-05,4.2,3.0
1.5078125,3.9548750263218124e-05,0.00010790360045777066,0.00011230290915541314,8.300818745708397e-06,4.2,3.0
1.51171875,4.5894296910048066e-05,0.0001074170409704738,0.00011376934538796064,6.834382513160904e-06,4.2,3.0
1.515625,4.4921177935454334e-05,0.00011181634966811628,0.0001166954600823987,1.6599361112382694e-05,4.2,3.0
1.51953125,4.0035309750515e-05,0.00011034991343556878,0.000109856596177615,2.2458348271915773e-05,4.2,3.0
1.5234375,4.0035309750515e-05,9.960505809109637e-05,0.00010107149432364386,3.0270331151293205e-05,4.2,3.0
1.52734375,4.0521869237811857e-05,0.00010204461329823757,0.00010497748576333256,3.270988635843443e-05,4.2,3.0
1.53125,3.85688735179675e-05,0.00010595060473792631,0.0001113230324101625,3.368976310368505e-05,4.2,3.0
1.53515625,3.17367673838407e-05,0.00010399760901808192,0.0001088834772030213,2.9290454406042568e-05,4.2,3.0
1.5390625,3.7109195056076915e-05,0.0001044909262760357,9.91184986037995e-05,2.0018793064774547e-05,4.2,3.0
1.54296875,4.198830547035935e-05,9.667894339665826e-05,9.179307521171893e-05,2.0018793064774547e-05,4.2,3.0
1.546875,3.368976310368505e-05,9.47259476768139e-05,0.00010351104953078506,1.51329248798352e-05,4.2,3.0
1.55078125,4.2474864957656206e-05,9.521250716411077e-05,9.960505809109637e-05,7.320942000457769e-06,4.2,3.0
1.5546875,4.784729262989242e-05,9.423263041886016e-05,9.37460709315633e-05,2.0505352552071413e-05,4.2,3.0
1.55859375,4.150174598306249e-05,9.325951144426642e-05,9.765206237125201e-05,2.9290454406042568e-05,4.2,3.0
1.5625,4.0035309750515e-05,8.69139647974365e-05,8.69139647974365e-05,2.099191203936828e-05,4.2,3.0
1.56640625,3.808231403067063e-05,8.642064753948272e-05,8.93535200045777e-05,2.0018793064774547e-05,4.2,3.0
1.5703125,3.466288207827878e-05,8.78870837720302e-05,9.47259476768139e-05,2.978377166399634e-05,4.2,3.0
1.57421875,4.2968182215609984e-05,0.0001030244900434882,9.618562613870451e-05,2.8803894918745712e-05,4.2,3.0
1.578125,4.3454741702906844e-05,0.00011913501528953994,0.00010546404525062942,2.2458348271915773e-05,4.2,3.0
1.58203125,3.466288207827878e-05,0.00011034991343556878,0.00010595060473792631,3.075689063859006e-05,4.2,3.0
1.5859375,3.417632259098192e-05,8.593408805218586e-05,8.593408805218586e-05,3.5156199336232545e-05,4.2,3.0
1.58984375,3.7109195056076915e-05,7.763554568551156e-05,8.154153712520027e-05,2.8803894918745712e-05,4.2,3.0
1.59375,3.075689063859006e-05,8.202809661249713e-05,9.325951144426642e-05,2.8317335431448846e-05,4.2,3.0
1.59765625,2.1971788784618907e-05,8.39810923323415e-05,9.569906665140763e-05,4.687417365529869e-05,4.2,3.0
1.6015625,1.5619484367132067e-05,8.202809661249713e-05,9.91184986037995e-05,5.956526694895858e-05,4.2,3.0
1.60546875,1.2693369672693983e-05,8.007510089265277e-05,0.00010253793055619135,5.712571174181735e-05,4.2,3.0
1.609375,2.4411343991760126e-05,7.909522414740215e-05,9.716550288395512e-05,6.05451436942092e-05,4.2,3.0
1.61328125,2.34314672465095e-05,6.835712657358664e-05,8.78870837720302e-05,6.88436860608835e-05,4.2,3.0
1.6171875,2.0018793064774547e-05,7.518923270771344e-05,9.47259476768139e-05,6.7377249828336e-05,4.2,3.0
1.62109375,2.538446296635386e-05,9.130651572442207e-05,0.00010644392199588006,6.542425410849164e-05,4.2,3.0
1.625,2.6850899198901352e-05,8.593408805218586e-05,0.00010497748576333256,6.591757136644541e-05,4.2,3.0
1.62890625,2.538446296635386e-05,7.56825499656672e-05,9.863193911650262e-05,5.712571174181735e-05,4.2,3.0
1.6328125,2.4897903479056992e-05,8.104821986724651e-05,9.667894339665826e-05,4.8333852117189295e-05,4.2,3.0
1.63671875,2.7337458686198218e-05,9.618562613870451e-05,9.569906665140763e-05,5.0286847837033645e-05,4.2,3.0
1.640625,2.6364339711604486e-05,9.032663897917143e-05,9.032663897917143e-05,4.2474864957656206e-05,4.2,3.0
1.64453125,2.2944907759212633e-05,7.763554568551156e-05,9.032663897917143e-05,3.808231403067063e-05,4.2,3.0
1.6484375,2.099191203936828e-05,7.665566894026094e-05,9.22796346990158e-05,4.150174598306249e-05,4.2,3.0
1.65234375,2.2944907759212633e-05,8.056166037994963e-05,8.984007949187457e-05,4.1015186495765614e-05,4.2,3.0
1.65625,2.587778022430762e-05,8.104821986724651e-05,8.446765181963836e-05,4.4921177935454334e-05,4.2,3.0
1.66015625,2.587778022430762e-05,8.007510089265277e-05,8.593408805218586e-05,4.9800288349736786e-05,4.2,3.0
1.6640625,2.4897903479056992e-05,7.226311801327534e-05,8.593408805218586e-05,5.0286847837033645e-05,4.2,3.0
1.66796875,2.538446296635386e-05,6.982356280613413e-05,8.300121558709086e-05,4.6380856397344926e-05,4.2,3.0
1.671875,2.8317335431448846e-05,7.518923270771344e-05,8.78870837720302e-05,3.85688735179675e-05,4.2,3.0
1.67578125,2.538446296635386e-05,7.71422284275578e-05,8.78870837720302e-05,3.368976310368505e-05,4.2,3.0
1.6796875,1.708592059967956e-05,7.860866466010529e-05,8.39810923323415e-05,3.9062190775921265e-05,4.2,3.0
1.68359375,1.8552356832227054e-05,7.079668178072785e-05,8.007510089265277e-05,4.5894296910048066e-05,4.2,3.0
1.6875,3.222332687113756e-05,6.787056708628976e-05,7.518923270771344e-05,4.3454741702906844e-05,4.2,3.0
1.69140625,3.17367673838407e-05,7.079668178072785e-05,7.665566894026094e-05,4.0035309750515e-05,4.2,3.0
1.6953125,2.4897903479056992e-05,7.031012229343099e-05,7.323623698786907e-05,3.564275882352942e-05,4.2,3.0
1.69921875,3.0270331151293205e-05,7.42161137331197e-05,7.274967750057221e-05,3.1243450125886934e-05,4.2,3.0
1.703125,3.564275882352942e-05,7.128324126802473e-05,7.518923270771344e-05,2.783077594415198e-05,4.2,3.0
1.70703125,3.661587779812314e-05,5.517271602197299e-05,6.689069034103914e-05,3.075689063859006e-05,4.2,3.0
1.7109375,3.759575454337377e-05,5.859214797436485e-05,6.88436860608835e-05,3.3203203616388196e-05,4.2,3.0
1.71484375,3.808231403067063e-05,7.42161137331197e-05,7.665566894026094e-05,2.2458348271915773e-05,4.2,3.0
1.71875,3.466288207827878e-05,7.079668178072785e-05,7.470267322041657e-05,2.978377166399634e-05,4.2,3.0
1.72265625,3.5156199336232545e-05,6.05451436942092e-05,6.493769462119477e-05,3.7109195056076915e-05,4.2,3.0
1.7265625,3.612931831082628e-05,5.859214797436485e-05,6.05451436942092e-05,3.5156199336232545e-05,4.2,3.0
1.73046875,3.612931831082628e-05,5.6145834996566714e-05,6.249813941405355e-05,3.9062190775921265e-05,4.2,3.0
1.734375,3.661587779812314e-05,5.859214797436485e-05,6.640413085374227e-05,4.150174598306249e-05,4.2,3.0
1.73828125,3.564275882352942e-05,5.956526694895858e-05,6.445113513389792e-05,3.5156199336232545e-05,4.2,3.0
1.7421875,3.368976310368505e-05,5.663915225452048e-05,5.712571174181735e-05,2.6364339711604486e-05,4.2,3.0
1.74609375,2.8317335431448846e-05,5.565927550926986e-05,5.8098830716411084e-05,1.8552356832227054e-05,4.2,3.0
1.75,3.075689063859006e-05,5.517271602197299e-05,5.956526694895858e-05,2.147847152666514e-05,4.2,3.0
1.75390625,3.9062190775921265e-05,5.370627978942549e-05,5.859214797436485e-05,4.150174598306249e-05,4.2,3.0
1.7578125,3.466288207827878e-05,5.321972030212863e-05,5.761227122911421e-05,4.540773742275119e-05,4.2,3.0
1.76171875,2.978377166399634e-05,5.4192839276722364e-05,5.4192839276722364e-05,4.198830547035935e-05,4.2,3.0
1.765625,3.417632259098192e-05,4.687417365529869e-05,4.882716937514305e-05,4.0521869237811857e-05,4.2,3.0
1.76953125,3.612931831082628e-05,3.9548750263218124e-05,4.8333852117189295e-05,3.612931831082628e-05,4.2,3.0
1.7734375,3.661587779812314e-05,4.2968182215609984e-05,5.370627978942549e-05,2.8803894918745712e-05,4.2,3.0
1.77734375,3.3203203616388196e-05,4.4921177935454334e-05,5.078016509498741e-05,2.6850899198901352e-05,4.2,3.0
1.78125,2.9290454406042568e-05,4.5894296910048066e-05,4.784729262989242e-05,3.075689063859006e-05,4.2,3.0
1.78515625,3.222332687113756e-05,4.2968182215609984e-05,5.078016509498741e-05,3.466288207827878e-05,4.2,3.0
1.7890625,3.417632259098192e-05,4.0521869237811857e-05,4.687417365529869e-05,2.538446296635386e-05,4.2,3.0
1.79296875,3.222332687113756e-05,4.198830547035935e-05,4.3454741702906844e-05,1.6112801625085828e-05,4.2,3.0
1.796875,2.978377166399634e-05,4.4427860677500576e-05,4.540773742275119e-05,2.8317335431448846e-05,4.2,3.0
1.80078125,3.270988635843443e-05,4.4427860677500576e-05,4.3454741702906844e-05,4.1015186495765614e-05,4.2,3.0
1.8046875,3.661587779812314e-05,4.0035309750515e-05,4.2968182215609984e-05,4.2474864957656206e-05,4.2,3.0
1.80859375,3.417632259098192e-05,3.7109195056076915e-05,3.9548750263218124e-05,4.1015186495765614e-05,4.2,3.0
1.8125,3.612931831082628e-05,3.808231403067063e-05,4.198830547035935e-05,3.9062190775921265e-05,4.2,3.0
1.81640625,3.368976310368505e-05,3.9548750263218124e-05,4.0035309750515e-05,3.417632259098192e-05,4.2,3.0
1.8203125,3.1243450125886934e-05,4.2474864957656206e-05,3.9548750263218124e-05,3.466288207827878e-05,4.2,3.0
1.82421875,3.0270331151293205e-05,3.466288207827878e-05,4.3454741702906844e-05,3.661587779812314e-05,4.2,3.0
1.828125,1.708592059967956e-05,3.612931831082628e-05,5.370627978942549e-05,4.39413011902037e-05,4.2,3.0
1.83203125,1.708592059967956e-05,6.249813941405355e-05,7.616910945296406e-05,4.687417365529869e-05,4.2,3.0
1.8359375,4.150174598306249e-05,5.468615653467613e-05,5.565927550926986e-05,3.075689063859006e-05,4.2,3.0
1.83984375,4.4921177935454334e-05,2.6364339711604486e-05,1.1226933440146488e-05,1.9525475806820786e-05,4.2,3.0
1.84375,3.3203203616388196e-05,-1.957477111467156e-06,-1.3675451430533304e-05,1.903891631952392e-05,4.2,3.0
1.84765625,3.17367673838407e-05,-1.9534438590066378e-05,-2.1000874822613868e-05,1.5619484367132067e-05,4.2,3.0
1.8515625,3.5156199336232545e-05,-2.7346421469443807e-05,-3.857107853055619e-05,1.0740373952849623e-05,4.2,3.0
1.85546875,3.564275882352942e-05,-5.6148040009155404e-05,-7.226532302586403e-05,5.3679462806134095e-06,4.2,3.0
1.859375,2.978377166399634e-05,-7.372500148775464e-05,-8.837584827191577e-05,2.928391073472191e-06,4.2,3.0
1.86328125,3.759575454337377e-05,-9.276839919890134e-05,-0.00011425135211718928,-9.776003662165245e-07,4.2,3.0
1.8671875,4.0035309750515e-05,-0.00011376479262989242,-0.00012890219890135043,-6.8365875257496e-06,4.2,3.0
1.87109375,3.759575454337377e-05,-0.00013671418178072786,-0.00014745903712520025,-1.562844715037766e-05,4.2,3.0
1.875,4.0035309750515e-05,-0.00014696571986724647,-0.0001679621132982376,-2.1487434309910734e-05,4.2,3.0
1.87890625,4.198830547035935e-05,-0.00014843215609979397,-0.00017431441771572444,-2.002099807736324e-05,4.2,3.0
1.8828125,5.273316081483177e-05,-0.0001596635709315633,-0.00019481749388876172,-3.0279293934538794e-05,4.2,3.0
1.88671875,5.2239843556877995e-05,-0.00017089498576333258,-0.00020312279402609292,-3.319865085831998e-05,4.2,3.0
1.890625,6.249813941405355e-05,-0.00018309951956969558,-0.00021484076834515909,-4.003751476310369e-05,4.2,3.0
1.89453125,6.445113513389792e-05,-0.00018163984110780497,-0.00021679376406500344,-4.540318466468299e-05,4.2,3.0
1.8984375,5.907870746166171e-05,-0.00017431441771572444,-0.000208981781185626,-3.6618082810711834e-05,4.2,3.0
1.90234375,7.177655852597849e-05,-0.00017528753669031815,-0.0002158138873197528,-3.613152332341497e-05,4.2,3.0
1.90625,7.226311801327534e-05,-0.0001748009772030213,-0.00021240121313801784,-3.613152332341497e-05,4.2,3.0
1.91015625,6.542425410849164e-05,-0.00016991510901808194,-0.000208981781185626,-3.6618082810711834e-05,4.2,3.0
1.9140625,6.298469890135043e-05,-0.00015771057521171895,-0.00020018992156099793,-4.101063373769741e-05,4.2,3.0
1.91796875,6.7377249828336e-05,-0.00014257316894026093,-0.00018603239203479057,-4.101063373769741e-05,4.2,3.0
1.921875,7.128324126802473e-05,-0.0001279290799267567,-0.00016698899432364384,-3.6618082810711834e-05,4.2,3.0
1.92578125,7.226311801327534e-05,-0.0001113252374227512,-0.00014257316894026093,-3.125241290913252e-05,4.2,3.0
1.9296875,7.56825499656672e-05,-9.570127166399634e-05,-0.00012694920318150605,-3.076585342183566e-05,4.2,3.0
1.93359375,7.226311801327534e-05,-7.42183187457084e-05,-0.0001083923649576562,-2.978597667658503e-05,4.2,3.0
1.9375,7.079668178072785e-05,-5.1755489082169825e-05,-8.788928878461891e-05,-3.223228965438315e-05,4.2,3.0
1.94140625,7.177655852597849e-05,-4.149719322499427e-05,-7.5677997207599e-05,-3.759120178530556e-05,4.2,3.0
1.9453125,6.7377249828336e-05,-3.319865085831998e-05,-6.347346340123598e-05,-3.271884914168001e-05,4.2,3.0
1.94921875,6.103170318150606e-05,-1.6601566124971387e-05,-5.1755489082169825e-05,-2.9299417189288166e-05,4.2,3.0
1.953125,5.761227122911421e-05,9.753953536278316e-07,-2.7346421469443807e-05,-2.8326298214694437e-05,4.2,3.0
1.95703125,5.761227122911421e-05,1.4646365392538334e-05,-4.88359180590524e-06,-2.7346421469443807e-05,4.2,3.0
1.9609375,5.370627978942549e-05,2.2458348271915773e-05,5.3679462806134095e-06,-2.1000874822613868e-05,4.2,3.0
1.96484375,4.8333852117189295e-05,2.978377166399634e-05,8.787378233005264e-06,-6.8365875257496e-06,4.2,3.0
1.96875,4.931372886243991e-05,3.3203203616388196e-05,8.787378233005264e-06,-4.397032318608378e-06,4.2,3.0
1.97265625,5.321972030212863e-05,3.85688735179675e-05,1.708592059967956e-05,-7.816464271000228e-06,4.2,3.0
1.9765625,4.882716937514305e-05,5.273316081483177e-05,2.538446296635386e-05,-8.303023758297094e-06,4.2,3.0
1.98046875,3.759575454337377e-05,5.8098830716411084e-05,3.075689063859006e-05,-6.350028038452734e-06,4.2,3.0
1.984375,4.0035309750515e-05,5.321972030212863e-05,3.417632259098192e-05,-5.376909063859006e-06,4.2,3.0
1.98828125,4.39413011902037e-05,5.468615653467613e-05,3.9062190775921265e-05,-5.863468551155872e-06,4.2,3.0
1.9921875,4.2474864957656206e-05,6.493769462119477e-05,5.0286847837033645e-05,-3.4239133440146465e-06,4.2,3.0
1.99609375,4.6380856397344926e-05,7.372955424582283e-05,5.565927550926986e-05,-4.397032318608378e-06,4.2,3.0
2.0,4.931372886243991e-05,7.56825499656672e-05,5.859214797436485e-05,-1.9534438590066378e-05,4.2,3.0
2.00390625,4.882716937514305e-05,7.226311801327534e-05,6.151826266880293e-05,-2.002099807736324e-05,4.2,3.0
2.0078125,4.5894296910048066e-05,7.226311801327534e-05,5.956526694895858e-05,9.753953536278316e-07,4.2,3.0
2.01171875,4.0521869237811857e-05,7.226311801327534e-05,6.249813941405355e-05,1.8552356832227054e-05,4.2,3.0
2.015625,3.9548750263218124e-05,7.71422284275578e-05,6.640413085374227e-05,2.587778022430762e-05,4.2,3.0
2.01953125,3.808231403067063e-05,8.154153712520027e-05,6.493769462119477e-05,2.2944907759212633e-05,4.2,3.0
2.0234375,3.7109195056076915e-05,7.71422284275578e-05,6.689069034103914e-05,1.708592059967956e-05,4.2,3.0
2.02734375,4.198830547035935e-05,7.56825499656672e-05,7.079668178072785e-05,1.4646365392538334e-05,4.2,3.0
2.03125,3.9062190775921265e-05,7.323623698786907e-05,7.42161137331197e-05,1.4159805905241476e-05,4.2,3.0
2.03515625,2.538446296635386e-05,7.56825499656672e-05,7.812210517280843e-05,1.6112801625085828e-05,4.2,3.0
2.0390625,2.7337458686198218e-05,8.007510089265277e-05,7.665566894026094e-05,1.6599361112382694e-05,4.2,3.0
2.04296875,4.0035309750515e-05,8.104821986724651e-05,7.177655852597849e-05,1.3666488647287707e-05,4.2,3.0
2.046875,4.3454741702906844e-05,7.763554568551156e-05,7.372955424582283e-05,1.6112801625085828e-05,4.2,3.0
2.05078125,3.9548750263218124e-05,7.079668178072785e-05,7.128324126802473e-05,1.6599361112382694e-05,4.2,3.0
2.0546875,3.5156199336232545e-05,7.909522414740215e-05,7.274967750057221e-05,8.300818745708397e-06,4.2,3.0
2.05859375,2.978377166399634e-05,8.056166037994963e-05,7.323623698786907e-05,1.2693369672693983e-05,4.2,3.0
2.0625,3.222332687113756e-05,7.226311801327534e-05,6.493769462119477e-05,2.34314672465095e-05,4.2,3.0
2.06640625,3.759575454337377e-05,6.88436860608835e-05,6.396457564660105e-05,2.392478450446326e-05,4.2,3.0
2.0703125,3.5156199336232545e-05,7.079668178072785e-05,6.542425410849164e-05,2.392478450446326e-05,4.2,3.0
2.07421875,3.5156199336232545e-05,8.104821986724651e-05,7.42161137331197e-05,2.8317335431448846e-05,4.2,3.0
2.078125,3.612931831082628e-05,8.104821986724651e-05,7.71422284275578e-05,3.1243450125886934e-05,4.2,3.0
2.08203125,3.808231403067063e-05,7.323623698786907e-05,7.079668178072785e-05,2.392478450446326e-05,4.2,3.0
2.0859375,4.0521869237811857e-05,6.591757136644541e-05,7.372955424582283e-05,1.708592059967956e-05,4.2,3.0
2.08984375,3.808231403067063e-05,6.298469890135043e-05,7.470267322041657e-05,2.587778022430762e-05,4.2,3.0
2.09375,3.661587779812314e-05,6.787056708628976e-05,7.323623698786907e-05,3.564275882352942e-05,4.2,3.0
2.09765625,3.466288207827878e-05,7.128324126802473e-05,7.226311801327534e-05,3.368976310368505e-05,4.2,3.0
2.1015625,3.3203203616388196e-05,7.518923270771344e-05,6.88436860608835e-05,3.3203203616388196e-05,4.2,3.0
2.10546875,3.270988635843443e-05,6.493769462119477e-05,6.591757136644541e-05,3.612931831082628e-05,4.2,3.0
2.109375,3.466288207827878e-05,6.05451436942092e-05,6.396457564660105e-05,2.6364339711604486e-05,4.2,3.0
2.11328125,3.808231403067063e-05,6.7377249828336e-05,6.787056708628976e-05,1.903891631952392e-05,4.2,3.0
2.1171875,3.1243450125886934e-05,7.323623698786907e-05,6.640413085374227e-05,2.7337458686198218e-05,4.2,3.0
2.12109375,2.587778022430762e-05,6.7377249828336e-05,6.103170318150606e-05,2.978377166399634e-05,4.2,3.0
2.125,2.6850899198901352e-05,6.7377249828336e-05,6.933024554818036e-05,2.4897903479056992e-05,4.2,3.0
2.12890625,3.0270331151293205e-05,8.69139647974365e-05,9.22796346990158e-05,2.8317335431448846e-05,4.2,3.0
2.1328125,4.540773742275119e-05,7.470267322041657e-05,7.860866466010529e-05,3.564275882352942e-05,4.2,3.0
2.13671875,5.6145834996566714e-05,3.417632259098192e-05,2.978377166399634e-05,3.17367673838407e-05,4.2,3.0
2.140625,4.784729262989242e-05,2.1971788784618907e-05,1.1226933440146488e-05,2.4897903479056992e-05,4.2,3.0
2.14453125,3.808231403067063e-05,1.4159805905241476e-05,1.4159805905241476e-05,2.099191203936828e-05,4.2,3.0
2.1484375,4.0035309750515e-05,4.881386793316551e-06,5.3679462806134095e-06,1.6112801625085828e-05,4.2,3.0
2.15234375,4.0035309750515e-05,-7.816464271000228e-06,-9.282900503547721e-06,1.0740373952849623e-05,4.2,3.0
2.15625,3.808231403067063e-05,-3.910472831311512e-06,-1.5141887663080797e-05,5.3679462806134095e-06,4.2,3.0
2.16015625,3.417632259098192e-05,1.6112801625085828e-05,-8.303023758297094e-06,5.3679462806134095e-06,4.2,3.0
2.1640625,3.0270331151293205e-05,1.4619548409246974e-06,-3.4239133440146465e-06,1.0740373952849623e-05,4.2,3.0
2.16796875,3.564275882352942e-05,-5.376909063859006e-06,-1.957477111467156e-06,9.273937720302128e-06,4.2,3.0
2.171875,3.564275882352942e-05,8.300818745708397e-06,5.854505767910275e-06,-4.481391622796593e-09,4.2,3.0
2.17578125,3.368976310368505e-05,2.34314672465095e-05,1.5619484367132067e-05,-4.397032318608378e-06,4.2,3.0
2.1796875,3.85688735179675e-05,3.417632259098192e-05,2.0505352552071413e-05,6.834382513160904e-06,4.2,3.0
2.18359375,3.661587779812314e-05,3.564275882352942e-05,2.147847152666514e-05,1.0253814465552757e-05,4.2,3.0
2.1875,2.6850899198901352e-05,2.587778022430762e-05,2.538446296635386e-05,1.7572480086976426e-05,4.2,3.0
2.19140625,3.5156199336232545e-05,2.2944907759212633e-05,3.1243450125886934e-05,2.538446296635386e-05,4.2,3.0
2.1953125,4.39413011902037e-05,4.3454741702906844e-05,2.978377166399634e-05,2.392478450446326e-05,4.2,3.0
2.19921875,3.5156199336232545e-05,4.882716937514305e-05,2.8317335431448846e-05,2.6850899198901352e-05,4.2,3.0
2.203125,3.270988635843443e-05,4.198830547035935e-05,3.222332687113756e-05,2.392478450446326e-05,4.2,3.0
2.20703125,3.612931831082628e-05,3.5156199336232545e-05,3.3203203616388196e-05,2.147847152666514e-05,4.2,3.0
2.2109375,3.17367673838407e-05,3.661587779812314e-05,3.85688735179675e-05,2.147847152666514e-05,4.2,3.0
2.21484375,2.6850899198901352e-05,4.2968182215609984e-05,3.9548750263218124e-05,2.4411343991760126e-05,4.2,3.0
2.21875,3.222332687113756e-05,4.882716937514305e-05,4.0035309750515e-05,2.783077594415198e-05,4.2,3.0
2.22265625,3.808231403067063e-05,4.6380856397344926e-05,4.4427860677500576e-05,3.075689063859006e-05,4.2,3.0
2.2265625,3.270988635843443e-05,4.198830547035935e-05,4.39413011902037e-05,3.17367673838407e-05,4.2,3.0
2.23046875,3.3203203616388196e-05,4.6380856397344926e-05,4.150174598306249e-05,2.6364339711604486e-05,4.2,3.0
2.234375,3.85688735179675e-05,4.8333852117189295e-05,3.9062190775921265e-05,2.4411343991760126e-05,4.2,3.0
2.23828125,3.7109195056076915e-05,5.517271602197299e-05,3.9062190775921265e-05,2.978377166399634e-05,4.2,3.0
2.2421875,3.759575454337377e-05,4.931372886243991e-05,4.198830547035935e-05,3.5156199336232545e-05,4.2,3.0
2.24609375,2.978377166399634e-05,4.687417365529869e-05,5.078016509498741e-05,3.417632259098192e-05,4.2,3.0
2.25,2.6364339711604486e-05,4.540773742275119e-05,5.2239843556877995e-05,2.978377166399634e-05,4.2,3.0
2.25390625,3.9548750263218124e-05,4.198830547035935e-05,4.931372886243991e-05,3.075689063859006e-05,4.2,3.0
2.2578125,4.4427860677500576e-05,5.126672458228428e-05,4.931372886243991e-05,2.9290454406042568e-05,4.2,3.0
2.26171875,3.564275882352942e-05,5.126672458228428e-05,4.784729262989242e-05,2.8317335431448846e-05,4.2,3.0
2.265625,3.368976310368505e-05,4.736073314259556e-05,4.6380856397344926e-05,2.6364339711604486e-05,4.2,3.0
2.26953125,3.759575454337377e-05,3.9548750263218124e-05,4.4921177935454334e-05,2.2458348271915773e-05,4.2,3.0
2.2734375,3.7109195056076915e-05,4.3454741702906844e-05,4.8333852117189295e-05,2.6364339711604486e-05,4.2,3.0
2.27734375,3.759575454337377e-05,4.8333852117189295e-05,4.4427860677500576e-05,2.9290454406042568e-05,4.2,3.0
2.28125,4.1015186495765614e-05,4.2968182215609984e-05,3.466288207827878e-05,3.1243450125886934e-05,4.2,3.0
2.28515625,4.2474864957656206e-05,3.564275882352942e-05,3.417632259098192e-05,2.8317335431448846e-05,4.2,3.0
2.2890625,4.198830547035935e-05,3.759575454337377e-05,4.0035309750515e-05,2.4897903479056992e-05,4.2,3.0
2.29296875,3.759575454337377e-05,3.808231403067063e-05,4.3454741702906844e-05,3.5156199336232545e-05,4.2,3.0
2.296875,3.17367673838407e-05,3.85688735179675e-05,3.9548750263218124e-05,3.7109195056076915e-05,4.2,3.0
2.30078125,2.2458348271915773e-05,4.39413011902037e-05,3.661587779812314e-05,3.222332687113756e-05,4.2,3.0
2.3046875,2.6850899198901352e-05,3.759575454337377e-05,3.564275882352942e-05,2.8803894918745712e-05,4.2,3.0
2.30859375,4.0521869237811857e-05,3.075689063859006e-05,3.808231403067063e-05,2.587778022430762e-05,4.2,3.0
2.3125,3.612931831082628e-05,3.466288207827878e-05,4.0521869237811857e-05,2.8803894918745712e-05,4.2,3.0
2.31640625,3.3203203616388196e-05,4.2474864957656206e-05,4.0521869237811857e-05,3.17367673838407e-05,4.2,3.0
2.3203125,4.1015186495765614e-05,4.882716937514305e-05,4.5894296910048066e-05,2.9290454406042568e-05,4.2,3.0
2.32421875,4.540773742275119e-05,4.5894296910048066e-05,4.4427860677500576e-05,3.0270331151293205e-05,4.2,3.0
2.328125,4.4427860677500576e-05,4.687417365529869e-05,4.2968182215609984e-05,3.5156199336232545e-05,4.2,3.0
2.33203125,3.222332687113756e-05,5.370627978942549e-05,4.736073314259556e-05,2.783077594415198e-05,4.2,3.0
2.3359375,3.075689063859006e-05,5.8098830716411084e-05,5.126672458228428e-05,2.2944907759212633e-05,4.2,3.0
2.33984375,4.540773742275119e-05,5.468615653467613e-05,4.736073314259556e-05,2.7337458686198218e-05,4.2,3.0
2.34375,3.9548750263218124e-05,5.126672458228428e-05,4.2474864957656206e-05,3.417632259098192e-05,4.2,3.0
2.34765625,3.564275882352942e-05,4.2968182215609984e-05,3.9062190775921265e-05,3.612931831082628e-05,4.2,3.0
2.3515625,4.540773742275119e-05,3.9062190775921265e-05,4.3454741702906844e-05,3.417632259098192e-05,4.2,3.0
2.35546875,4.3454741702906844e-05,4.0521869237811857e-05,4.540773742275119e-05,3.0270331151293205e-05,4.2,3.0
2.359375,4.0521869237811857e-05,4.3454741702906844e-05,3.564275882352942e-05,2.9290454406042568e-05,4.2,3.0
2.36328125,3.759575454337377e-05,4.3454741702906844e-05,3.5156199336232545e-05,3.612931831082628e-05,4.2,3.0
2.3671875,3.759575454337377e-05,4.198830547035935e-05,3.9548750263218124e-05,3.85688735179675e-05,4.2,3.0
2.37109375,3.9548750263218124e-05,4.3454741702906844e-05,4.198830547035935e-05,3.17367673838407e-05,4.2,3.0
2.375,3.564275882352942e-05,4.687417365529869e-05,4.2474864957656206e-05,2.0018793064774547e-05,4.2,3.0
2.37890625,3.3203203616388196e-05,4.0035309750515e-05,3.5156199336232545e-05,2.0505352552071413e-05,4.2,3.0
2.3828125,3.222332687113756e-05,3.759575454337377e-05,3.612931831082628e-05,3.5156199336232545e-05,4.2,3.0
2.38671875,3.075689063859006e-05,3.808231403067063e-05,3.808231403067063e-05,3.9062190775921265e-05,4.2,3.0
2.390625,3.270988635843443e-05,3.661587779812314e-05,3.5156199336232545e-05,3.7109195056076915e-05,4.2,3.0
2.39453125,3.7109195056076915e-05,4.5894296910048066e-05,3.7109195056076915e-05,3.7109195056076915e-05,4.2,3.0
2.3984375,3.5156199336232545e-05,4.198830547035935e-05,3.417632259098192e-05,3.5156199336232545e-05,4.2,3.0
2.40234375,2.392478450446326e-05,4.0035309750515e-05,3.5156199336232545e-05,3.222332687113756e-05,4.2,3.0
2.40625,2.4411343991760126e-05,4.2474864957656206e-05,3.9062190775921265e-05,3.5156199336232545e-05,4.2,3.0
2.41015625,3.417632259098192e-05,3.7109195056076915e-05,3.9062190775921265e-05,3.85688735179675e-05,4.2,3.0
2.4140625,3.368976310368505e-05,4.2474864957656206e-05,4.882716937514305e-05,3.661587779812314e-05,4.2,3.0
2.41796875,3.5156199336232545e-05,4.6380856397344926e-05,4.6380856397344926e-05,2.8317335431448846e-05,4.2,3.0
2.421875,3.222332687113756e-05,4.198830547035935e-05,3.5156199336232545e-05,2.538446296635386e-05,4.2,3.0
2.42578125,2.4897903479056992e-05,3.5156199336232545e-05,3.7109195056076915e-05,2.7337458686198218e-05,4.2,3.0
2.4296875,2.4411343991760126e-05,2.783077594415198e-05,3.85688735179675e-05,3.3203203616388196e-05,4.2,3.0
2.43359375,3.3203203616388196e-05,2.538446296635386e-05,3.3203203616388196e-05,3.5156199336232545e-05,4.2,3.0
2.4375,3.7109195056076915e-05,3.368976310368505e-05,2.9290454406042568e-05,3.7109195056076915e-05,4.2,3.0
2.44140625,3.17367673838407e-05,3.7109195056076915e-05,3.075689063859006e-05,3.808231403067063e-05,4.2,3.0
2.4453125,2.6850899198901352e-05,3.1243450125886934e-05,2.6364339711604486e-05,3.466288207827878e-05,4.2,3.0
2.44921875,2.8317335431448846e-05,3.075689063859006e-05,2.587778022430762e-05,3.5156199336232545e-05,4.2,3.0
2.453125,2.587778022430762e-05,3.661587779812314e-05,2.9290454406042568e-05,2.7337458686198218e-05,4.2,3.0
2.45703125,2.0505352552071413e-05,4.4427860677500576e-05,3.417632259098192e-05,2.392478450446326e-05,4.2,3.0
2.4609375,3.1243450125886934e-05,4.736073314259556e-05,3.661587779812314e-05,2.8803894918745712e-05,4.2,3.0
2.46484375,3.85688735179675e-05,3.85688735179675e-05,2.587778022430762e-05,2.587778022430762e-05,4.2,3.0
2.46875,3.368976310368505e-05,2.7337458686198218e-05,3.075689063859006e-05,2.8803894918745712e-05,4.2,3.0
2.47265625,3.7109195056076915e-05,3.222332687113756e-05,3.7109195056076915e-05,3.5156199336232545e-05,4.2,3.0
2.4765625,3.808231403067063e-05,3.9062190775921265e-05,2.6364339711604486e-05,2.8803894918745712e-05,4.2,3.0
2.48046875,3.417632259098192e-05,3.564275882352942e-05,2.392478450446326e-05,1.3179929159990848e-05,4.2,3.0
2.484375,3.368976310368505e-05,2.8317335431448846e-05,2.2458348271915773e-05,8.787378233005264e-06,4.2,3.0
2.48828125,3.222332687113756e-05,2.4897903479056992e-05,2.34314672465095e-05,2.1971788784618907e-05,4.2,3.0
2.4921875,2.8803894918745712e-05,3.17367673838407e-05,3.075689063859006e-05,2.8803894918745712e-05,4.2,3.0
2.49609375,2.2458348271915773e-05,3.417632259098192e-05,3.417632259098192e-05,3.17367673838407e-05,4.2,3.0
2.5,1.51329248798352e-05,3.9062190775921265e-05,4.2968182215609984e-05,3.759575454337377e-05,4.2,3.0
2.50390625,2.0018793064774547e-05,4.6380856397344926e-05,5.2239843556877995e-05,3.3203203616388196e-05,4.2,3.0
2.5078125,4.1015186495765614e-05,3.759575454337377e-05,3.759575454337377e-05,2.8803894918745712e-05,4.2,3.0
2.51171875,4.9800288349736786e-05,2.8803894918745712e-05,2.0018793064774547e-05,2.538446296635386e-05,4.2,3.0
2.515625,4.4427860677500576e-05,3.17367673838407e-05,2.2944907759212633e-05,1.903891631952392e-05,4.2,3.0
2.51953125,3.612931831082628e-05,3.5156199336232545e-05,2.7337458686198218e-05,1.6599361112382694e-05,4.2,3.0
2.5234375,3.661587779812314e-05,3.222332687113756e-05,2.2944907759212633e-05,1.4159805905241476e-05,4.2,3.0
2.52734375,3.661587779812314e-05,2.4897903479056992e-05,2.34314672465095e-05,1.4646365392538334e-05,4.2,3.0
2.53125,3.564275882352942e-05,2.8317335431448846e-05,2.538446296635386e-05,1.9525475806820786e-05,4.2,3.0
2.53515625,3.7109195056076915e-05,3.3203203616388196e-05,2.4897903479056992e-05,1.9525475806820786e-05,4.2,3.0
2.5390625,3.3203203616388196e-05,3.466288207827878e-05,3.0270331151293205e-05,8.300818745708397e-06,4.2,3.0
2.54296875,2.4411343991760126e-05,3.0270331151293205e-05,3.1243450125886934e-05,-4.910408789196623e-07,4.2,3.0
2.546875,2.392478450446326e-05,3.075689063859006e-05,2.783077594415198e-05,1.5619484367132067e-05,4.2,3.0
2.55078125,3.417632259098192e-05,3.222332687113756e-05,3.0270331151293205e-05,2.8803894918745712e-05,4.2,3.0
2.5546875,4.4427860677500576e-05,3.3203203616388196e-05,3.270988635843443e-05,2.1971788784618907e-05,4.2,3.0
2.55859375,4.4427860677500576e-05,4.150174598306249e-05,3.0270331151293205e-05,2.2944907759212633e-05,4.2,3.0
2.5625,4.198830547035935e-05,3.85688735179675e-05,2.392478450446326e-05,3.466288207827878e-05,4.2,3.0
2.56640625,4.150174598306249e-05,2.8803894918745712e-05,2.1971788784618907e-05,3.270988635843443e-05,4.2,3.0
2.5703125,4.1015186495765614e-05,2.4897903479056992e-05,2.147847152666514e-05,2.4897903479056992e-05,4.2,3.0
2.57421875,3.7109195056076915e-05,2.587778022430762e-05,2.2944907759212633e-05,2.099191203936828e-05,4.2,3.0
2.578125,3.368976310368505e-05,3.417632259098192e-05,2.8803894918745712e-05,1.903891631952392e-05,4.2,3.0
2.58203125,3.759575454337377e-05,4.198830547035935e-05,2.783077594415198e-05,2.392478450446326e-05,4.2,3.0
2.5859375,3.7109195056076915e-05,3.417632259098192e-05,2.8803894918745712e-05,2.2944907759212633e-05,4.2,3.0
2.58984375,2.9290454406042568e-05,2.4411343991760126e-05,2.7337458686198218e-05,1.2206810185397117e-05,4.2,3.0
2.59375,2.6850899198901352e-05,2.978377166399634e-05,2.978377166399634e-05,1.51329248798352e-05,4.2,3.0
2.59765625,2.7337458686198218e-05,3.075689063859006e-05,3.222332687113756e-05,2.978377166399634e-05,4.2,3.0
2.6015625,2.8803894918745712e-05,2.6850899198901352e-05,2.7337458686198218e-05,3.759575454337377e-05,4.2,3.0
2.60546875,3.7109195056076915e-05,2.587778022430762e-05,2.6364339711604486e-05,3.564275882352942e-05,4.2,3.0
2.609375,3.759575454337377e-05,2.9290454406042568e-05,2.9290454406042568e-05,2.8803894918745712e-05,4.2,3.0
2.61328125,3.564275882352942e-05,3.17367673838407e-05,3.075689063859006e-05,2.4897903479056992e-05,4.2,3.0
2.6171875,3.17367673838407e-05,3.564275882352942e-05,2.978377166399634e-05,2.4411343991760126e-05,4.2,3.0
2.62109375,2.6850899198901352e-05,3.3203203616388196e-05,3.075689063859006e-05,2.4897903479056992e-05,4.2,3.0
2.625,2.978377166399634e-05,3.466288207827878e-05,3.0270331151293205e-05,2.8803894918745712e-05,4.2,3.0
2.62890625,3.7109195056076915e-05,3.759575454337377e-05,3.0270331151293205e-05,2.4411343991760126e-05,4.2,3.0
2.6328125,3.466288207827878e-05,3.1243450125886934e-05,3.222332687113756e-05,2.1971788784618907e-05,4.2,3.0
2.63671875,3.17367673838407e-05,2.8317335431448846e-05,3.075689063859006e-05,2.587778022430762e-05,4.2,3.0
2.640625,2.8803894918745712e-05,2.783077594415198e-05,2.392478450446326e-05,2.8803894918745712e-05,4.2,3.0
2.64453125,2.6850899198901352e-05,2.6364339711604486e-05,2.2944907759212633e-05,2.783077594415198e-05,4.2,3.0
2.6484375,2.34314672465095e-05,2.8317335431448846e-05,3.7109195056076915e-05,2.4897903479056992e-05,4.2,3.0
2.65234375,2.4411343991760126e-05,3.075689063859006e-05,3.9548750263218124e-05,2.4897903479056992e-05,4.2,3.0
2.65625,3.564275882352942e-05,2.6850899198901352e-05,3.564275882352942e-05,2.6850899198901352e-05,4.2,3.0
2.66015625,3.222332687113756e-05,2.6364339711604486e-05,3.466288207827878e-05,2.6364339711604486e-05,4.2,3.0
2.6640625,2.8803894918745712e-05,1.903891631952392e-05,3.1243450125886934e-05,1.7572480086976426e-05,4.2,3.0
2.66796875,3.564275882352942e-05,1.3179929159990848e-05,3.270988635843443e-05,1.3179929159990848e-05,4.2,3.0
2.671875,3.466288207827878e-05,2.099191203936828e-05,3.270988635843443e-05,2.147847152666514e-05,4.2,3.0
2.67578125,3.075689063859006e-05,2.6850899198901352e-05,2.6850899198901352e-05,2.587778022430762e-05,4.2,3.0
2.6796875,2.8803894918745712e-05,2.6364339711604486e-05,2.8317335431448846e-05,2.587778022430762e-05,4.2,3.0
2.68359375,2.6850899198901352e-05,1.8552356832227054e-05,2.7337458686198218e-05,3.270988635843443e-05,4.2,3.0
2.6875,2.2944907759212633e-05,1.6112801625085828e-05,2.2944907759212633e-05,3.808231403067063e-05,4.2,3.0
2.69140625,2.587778022430762e-05,1.1226933440146488e-05,2.0505352552071413e-05,3.612931831082628e-05,4.2,3.0
2.6953125,3.5156199336232545e-05,1.708592059967956e-05,2.4411343991760126e-05,3.270988635843443e-05,4.2,3.0
2.69921875,3.3203203616388196e-05,2.587778022430762e-05,2.587778022430762e-05,2.8317335431448846e-05,4.2,3.0
2.703125,2.783077594415198e-05,1.903891631952392e-05,2.147847152666514e-05,2.587778022430762e-05,4.2,3.0
2.70703125,2.8803894918745712e-05,1.6112801625085828e-05,2.2458348271915773e-05,2.587778022430762e-05,4.2,3.0
2.7109375,2.978377166399634e-05,1.903891631952392e-05,2.4897903479056992e-05,2.147847152666514e-05,4.2,3.0
2.71484375,2.2458348271915773e-05,1.4646365392538334e-05,2.392478450446326e-05,2.34314672465095e-05,4.2,3.0
2.71875,2.4411343991760126e-05,1.6112801625085828e-05,2.0505352552071413e-05,2.6850899198901352e-05,4.2,3.0
2.72265625,2.9290454406042568e-05,1.6599361112382694e-05,1.708592059967956e-05,2.7337458686198218e-05,4.2,3.0
2.7265625,2.6364339711604486e-05,1.5619484367132067e-05,2.0505352552071413e-05,2.6364339711604486e-05,4.2,3.0
2.73046875,3.270988635843443e-05,1.5619484367132067e-05,2.4411343991760126e-05,2.9290454406042568e-05,4.2,3.0
2.734375,4.150174598306249e-05,2.0505352552071413e-05,2.7337458686198218e-05,3.564275882352942e-05,4.2,3.0
2.73828125,3.368976310368505e-05,2.978377166399634e-05,2.783077594415198e-05,3.808231403067063e-05,4.2,3.0
2.7421875,3.612931831082628e-05,2.1971788784618907e-05,1.8065797344930187e-05,3.466288207827878e-05,4.2,3.0
2.74609375,3.9062190775921265e-05,7.807501487754635e-06,1.1226933440146488e-05,3.466288207827878e-05,4.2,3.0
2.75,3.075689063859006e-05,3.414950560769057e-06,1.6112801625085828e-05,4.1015186495765614e-05,4.2,3.0
2.75390625,3.075689063859006e-05,8.787378233005264e-06,9.273937720302128e-06,3.808231403067063e-05,4.2,3.0
2.7578125,3.466288207827878e-05,-4.481391622796593e-09,-1.4648570405127031e-05,2.587778022430762e-05,4.2,3.0
2.76171875,4.39413011902037e-05,-2.051431533531701e-05,-2.978597667658503e-05,2.2944907759212633e-05,4.2,3.0
2.765625,4.931372886243991e-05,-3.0279293934538794e-05,-3.613152332341497e-05,2.2944907759212633e-05,4.2,3.0
2.76953125,5.517271602197299e-05,-4.101063373769741e-05,-4.247706997024491e-05,1.8552356832227054e-05,4.2,3.0
2.7734375,5.8098830716411084e-05,-5.8101035728999774e-05,-6.054059093614099e-05,1.0253814465552757e-05,4.2,3.0
2.77734375,5.663915225452048e-05,-6.59130186083772e-05,-8.10504248798352e-05,3.901510048065923e-06,4.2,3.0
2.78125,6.787056708628976e-05,-7.226532302586403e-05,-9.570127166399634e-05,-1.957477111467156e-06,4.2,3.0
2.78515625,7.71422284275578e-05,-9.618783115129321e-05,-0.00011279167365529868,-7.329904783703366e-06,4.2,3.0
2.7890625,9.423263041886016e-05,-0.00010595280975051498,-0.00011913722030212864,-5.376909063859006e-06,4.2,3.0
2.79296875,0.00010399760901808192,-0.00010790580547035935,-0.0001279290799267567,-1.025601947814145e-05,4.2,3.0
2.796875,0.00010351104953078506,-0.00012401633071641106,-0.00015185158805218585,-2.344043002975509e-05,4.2,3.0
2.80078125,0.00010693048148317692,-0.00013280819034103912,-0.00016942854953078509,-3.319865085831998e-05,4.2,3.0
2.8046875,0.0001142559048752575,-0.00014062017322041657,-0.00017968684538796062,-3.954419750514992e-05,4.2,3.0
2.80859375,0.00012353432398718242,-0.000163569562371252,-0.00019628393012130921,-3.759120178530556e-05,4.2,3.0
2.8125,0.00013036643012130923,-0.00017577409617761499,-0.00020312279402609292,-4.0524074250400553e-05,4.2,3.0
2.81640625,0.00013134630686655984,-0.00016454943911650263,-0.0002021429172808423,-4.833605712977798e-05,4.2,3.0
2.8203125,0.000127926874914168,-0.00016113000716411077,-0.00020263623453879606,-4.149719322499427e-05,4.2,3.0
2.82421875,0.0001264604386816205,-0.00018456595580224308,-0.0002133743321126116,-3.759120178530556e-05,4.2,3.0
2.828125,0.00013427242156099795,-0.00018407939631494622,-0.0002104482174181735,-4.39435062027924e-05,4.2,3.0
2.83203125,0.00013134630686655984,-0.0001704084262760357,-0.000190911502449073,-4.101063373769741e-05,4.2,3.0
2.8359375,0.00011962833254749369,-0.00016552255809109635,-0.00018407939631494622,-2.978597667658503e-05,4.2,3.0
2.83984375,0.00010497748576333256,-0.00015283146479743646,-0.00017675397292286562,-2.1973993797207597e-05,4.2,3.0
2.84375,0.000100584934836347,-0.00015136502856488896,-0.00016991510901808194,-1.9534438590066378e-05,4.2,3.0
2.84765625,0.000100584934836347,-0.00014403960517280843,-0.00016259644339665827,-1.562844715037766e-05,4.2,3.0
2.8515625,9.179307521171893e-05,-0.00012450964797436484,-0.00015038515181963835,-5.863468551155872e-06,4.2,3.0
2.85546875,8.69139647974365e-05,-0.00011913722030212864,-0.00014403960517280843,-1.957477111467156e-06,4.2,3.0
2.859375,7.812210517280843e-05,-0.00011229835639734493,-0.00013427462657358662,-5.376909063859006e-06,4.2,3.0
2.86328125,7.470267322041657e-05,-0.0001113252374227512,-0.00012060365653467612,3.414950560769057e-06,4.2,3.0
2.8671875,7.42161137331197e-05,-0.00010693268649576561,-0.00011229835639734493,1.2693369672693983e-05,4.2,3.0
2.87109375,6.787056708628976e-05,-8.544297580682078e-05,-9.423483543144884e-05,1.7572480086976426e-05,4.2,3.0
2.875,4.736073314259556e-05,-6.933245056076904e-05,-7.812431018539712e-05,2.392478450446326e-05,4.2,3.0
2.87890625,3.661587779812314e-05,-5.468160377660792e-05,-6.73794548409247e-05,2.783077594415198e-05,4.2,3.0
2.8828125,3.7109195056076915e-05,-4.296362945754177e-05,-4.833605712977798e-05,3.564275882352942e-05,4.2,3.0
2.88671875,2.8803894918745712e-05,-3.9057638017853057e-05,-3.417852760357061e-05,3.612931831082628e-05,4.2,3.0
2.890625,2.099191203936828e-05,-2.88128577019913e-05,-2.1973993797207597e-05,3.3203203616388196e-05,4.2,3.0
2.89453125,1.3179929159990848e-05,-8.789583245593955e-06,-5.376909063859006e-06,4.0521869237811857e-05,4.2,3.0
2.8984375,6.347823025864045e-06,9.273937720302128e-06,1.1226933440146488e-05,4.4921177935454334e-05,4.2,3.0
2.90234375,-3.4239133440146465e-06,1.6599361112382694e-05,2.0505352552071413e-05,3.759575454337377e-05,4.2,3.0
2.90625,-9.769459990844588e-06,1.9525475806820786e-05,3.0270331151293205e-05,4.0521869237811857e-05,4.2,3.0
2.91015625,-1.6115006637674525e-05,1.8065797344930187e-05,4.0521869237811857e-05,5.761227122911421e-05,4.2,3.0
2.9140625,-2.1487434309910734e-05,2.8803894918745712e-05,4.882716937514305e-05,5.859214797436485e-05,4.2,3.0
2.91796875,-2.5879985236896316e-05,4.687417365529869e-05,6.005858420691234e-05,5.6145834996566714e-05,4.2,3.0
2.921875,-3.223228965438315e-05,5.6145834996566714e-05,7.079668178072785e-05,6.396457564660105e-05,4.2,3.0
2.92578125,-3.368521034561684e-05,5.6145834996566714e-05,8.2514656099794e-05,7.177655852597849e-05,4.2,3.0
2.9296875,-3.6618082810711834e-05,6.005858420691234e-05,9.277295195696956e-05,7.323623698786907e-05,4.2,3.0
2.93359375,-4.101063373769741e-05,6.982356280613413e-05,9.716550288395512e-05,7.56825499656672e-05,4.2,3.0
2.9375,-4.296362945754177e-05,7.909522414740215e-05,0.00010253793055619135,7.909522414740215e-05,4.2,3.0
2.94140625,-3.954419750514992e-05,8.39810923323415e-05,0.00010693048148317692,7.665566894026094e-05,4.2,3.0
2.9453125,-4.296362945754177e-05,8.837364325932707e-05,0.0001088834772030213,7.470267322041657e-05,4.2,3.0
2.94921875,-4.39435062027924e-05,9.863193911650262e-05,0.00012353432398718242,7.518923270771344e-05,4.2,3.0
2.953125,-2.978597667658503e-05,0.00010595060473792631,0.00013329930258640423,6.640413085374227e-05,4.2,3.0
2.95703125,-2.2953870542458224e-05,0.00011327602813000686,0.0001308529896086061,6.103170318150606e-05,4.2,3.0
2.9609375,-2.246731105516136e-05,0.00011767533682764934,0.00012987987063401237,6.640413085374227e-05,4.2,3.0
2.96484375,-2.1487434309910734e-05,0.00011327602813000686,0.0001293933111467155,6.298469890135043e-05,4.2,3.0
2.96875,-2.051431533531701e-05,0.0001113230324101625,0.00013183286635385673,6.05451436942092e-05,4.2,3.0
2.97265625,-1.3675451430533304e-05,0.000115722341107805,0.00014062472597848477,5.712571174181735e-05,4.2,3.0
2.9765625,-1.1722455710688944e-05,0.00012011489203479058,0.00014111128546578163,4.736073314259556e-05,4.2,3.0
2.98046875,-1.2695574685282671e-05,0.00012353432398718242,0.00013720529402609291,5.321972030212863e-05,4.2,3.0
2.984375,-7.329904783703366e-06,0.00012206788775463494,0.00013573885779354542,6.20115799267567e-05,4.2,3.0
2.98828125,-7.816464271000228e-06,0.00011767533682764934,0.0001337858620737011,6.005858420691234e-05,4.2,3.0
2.9921875,-8.303023758297094e-06,0.00012011489203479058,0.00013329930258640423,5.0286847837033645e-05,4.2,3.0
2.99609375,-2.9305960860608842e-06,0.00012206788775463494,0.00012744031542687113,4.2474864957656206e-05,4.2,3.0
3.0,1.4619548409246974e-06,0.00012011489203479058,0.00012597387919432364,4.3454741702906844e-05,4.2,3.0
3.00390625,1.4619548409246974e-06,0.00011522902384985122,0.00012744031542687113,4.6380856397344926e-05,4.2,3.0
3.0078125,3.901510048065923e-06,0.0001044909262760357,0.00012158132826733808,4.6380856397344926e-05,4.2,3.0
3.01171875,4.881386793316551e-06,0.00010399760901808192,0.00012255444724193178,4.736073314259556e-05,4.2,3.0
3.015625,5.3679462806134095e-06,0.00011230290915541314,0.00012694699816891738,4.9800288349736786e-05,4.2,3.0
3.01953125,-4.481391622796593e-09,0.00011522902384985122,0.00012304100672922864,4.4427860677500576e-05,4.2,3.0
3.0234375,7.807501487754635e-06,0.000109856596177615,0.00011864845580224308,3.85688735179675e-05,4.2,3.0
3.02734375,1.51329248798352e-05,0.00010790360045777066,0.0001210880110093843,3.808231403067063e-05,4.2,3.0
3.03125,4.881386793316551e-06,0.00010693048148317692,0.00012011489203479058,3.3203203616388196e-05,4.2,3.0
3.03515625,9.273937720302128e-06,0.00010351104953078506,0.00011181634966811628,3.270988635843443e-05,4.2,3.0
3.0390625,1.51329248798352e-05,0.0001088834772030213,0.00011474246436255436,4.4427860677500576e-05,4.2,3.0
3.04296875,1.8065797344930187e-05,0.0001088834772030213,0.00011083647292286564,5.0286847837033645e-05,4.2,3.0
3.046875,1.8552356832227054e-05,9.960505809109637e-05,0.00010546404525062942,4.4921177935454334e-05,4.2,3.0
3.05078125,2.147847152666514e-05,0.00010253793055619135,0.00011034991343556878,3.85688735179675e-05,4.2,3.0
3.0546875,2.4411343991760126e-05,0.00011230290915541314,0.00011278946864271,3.9548750263218124e-05,4.2,3.0
3.05859375,2.2944907759212633e-05,0.00011230290915541314,0.000109856596177615,4.4427860677500576e-05,4.2,3.0
3.0625,1.8065797344930187e-05,0.00010351104953078506,0.00010497748576333256,4.39413011902037e-05,4.2,3.0
3.06640625,2.1971788784618907e-05,9.813862185854887e-05,0.00010497748576333256,4.150174598306249e-05,4.2,3.0
3.0703125,2.587778022430762e-05,9.47259476768139e-05,0.0001044909262760357,4.0035309750515e-05,4.2,3.0
3.07421875,1.5619484367132067e-05,9.618562613870451e-05,0.00010399760901808192,3.612931831082628e-05,4.2,3.0
3.078125,1.8552356832227054e-05,9.960505809109637e-05,9.863193911650262e-05,2.6850899198901352e-05,4.2,3.0
3.08203125,3.368976310368505e-05,9.863193911650262e-05,8.93535200045777e-05,2.9290454406042568e-05,4.2,3.0
3.0859375,2.8803894918745712e-05,9.032663897917143e-05,8.496096907759212e-05,4.39413011902037e-05,4.2,3.0
3.08984375,1.6112801625085828e-05,7.71422284275578e-05,8.056166037994963e-05,4.784729262989242e-05,4.2,3.0
3.09375,2.34314672465095e-05,7.518923270771344e-05,8.104821986724651e-05,4.150174598306249e-05,4.2,3.0
3.09765625,3.075689063859006e-05,8.300121558709086e-05,8.349453284504463e-05,3.3203203616388196e-05,4.2,3.0
3.1015625,2.8803894918745712e-05,8.202809661249713e-05,7.812210517280843e-05,3.222332687113756e-05,4.2,3.0
3.10546875,3.1243450125886934e-05,8.104821986724651e-05,7.763554568551156e-05,3.466288207827878e-05,4.2,3.0
3.109375,2.978377166399634e-05,7.909522414740215e-05,8.349453284504463e-05,3.7109195056076915e-05,4.2,3.0
3.11328125,3.0270331151293205e-05,7.95885414053559e-05,8.984007949187457e-05,3.9548750263218124e-05,4.2,3.0
3.1171875,3.612931831082628e-05,8.740052428473334e-05,8.837364325932707e-05,4.1015186495765614e-05,4.2,3.0
3.12109375,2.8317335431448846e-05,7.860866466010529e-05,7.71422284275578e-05,4.0035309750515e-05,4.2,3.0
3.125,2.34314672465095e-05,6.396457564660105e-05,6.835712657358664e-05,3.85688735179675e-05,4.2,3.0
3.12890625,3.466288207827878e-05,6.689069034103914e-05,6.88436860608835e-05,3.85688735179675e-05,4.2,3.0
3.1328125,3.612931831082628e-05,6.787056708628976e-05,6.933024554818036e-05,3.1243450125886934e-05,4.2,3.0
3.13671875,2.783077594415198e-05,7.274967750057221e-05,6.835712657358664e-05,2.783077594415198e-05,4.2,3.0
3.140625,2.9290454406042568e-05,7.763554568551156e-05,6.640413085374227e-05,3.075689063859006e-05,4.2,3.0
3.14453125,3.0270331151293205e-05,6.787056708628976e-05,6.298469890135043e-05,3.759575454337377e-05,4.2,3.0
3.1484375,2.6850899198901352e-05,6.445113513389792e-05,6.249813941405355e-05,3.9062190775921265e-05,4.2,3.0
3.15234375,2.8317335431448846e-05,7.031012229343099e-05,6.542425410849164e-05,4.0521869237811857e-05,4.2,3.0
3.15625,1.8065797344930187e-05,7.616910945296406e-05,6.396457564660105e-05,4.3454741702906844e-05,4.2,3.0
3.16015625,9.273937720302128e-06,7.274967750057221e-05,6.151826266880293e-05,3.5156199336232545e-05,4.2,3.0
3.1640625,2.392478450446326e-05,6.347125838864729e-05,5.761227122911421e-05,3.661587779812314e-05,4.2,3.0
3.16796875,3.3203203616388196e-05,5.712571174181735e-05,5.321972030212863e-05,3.466288207827878e-05,4.2,3.0
3.171875,2.8803894918745712e-05,5.126672458228428e-05,5.126672458228428e-05,3.222332687113756e-05,4.2,3.0
3.17578125,3.0270331151293205e-05,5.321972030212863e-05,5.273316081483177e-05,4.2968182215609984e-05,4.2,3.0
3.1796875,3.808231403067063e-05,5.8098830716411084e-05,5.8098830716411084e-05,4.0521869237811857e-05,4.2,3.0
3.18359375,3.417632259098192e-05,4.8333852117189295e-05,5.907870746166171e-05,3.3203203616388196e-05,4.2,3.0
3.1875,3.075689063859006e-05,4.3454741702906844e-05,5.273316081483177e-05,4.0035309750515e-05,4.2,3.0
3.19140625,3.17367673838407e-05,4.5894296910048066e-05,5.370627978942549e-05,4.0035309750515e-05,4.2,3.0
3.1953125,2.6364339711604486e-05,5.126672458228428e-05,5.859214797436485e-05,3.5156199336232545e-05,4.2,3.0
3.19921875,2.1971788784618907e-05,4.687417365529869e-05,5.468615653467613e-05,4.2968182215609984e-05,4.2,3.0
3.203125,2.099191203936828e-05,4.150174598306249e-05,4.687417365529869e-05,4.1015186495765614e-05,4.2,3.0
3.20703125,2.392478450446326e-05,3.9062190775921265e-05,4.2474864957656206e-05,2.587778022430762e-05,4.2,3.0
3.2109375,1.8065797344930187e-05,3.17367673838407e-05,4.4427860677500576e-05,2.538446296635386e-05,4.2,3.0
3.21484375,1.4159805905241476e-05,3.9062190775921265e-05,4.39413011902037e-05,3.5156199336232545e-05,4.2,3.0
3.21875,2.34314672465095e-05,4.2474864957656206e-05,3.759575454337377e-05,3.7109195056076915e-05,4.2,3.0
3.22265625,2.2944907759212633e-05,3.9062190775921265e-05,3.7109195056076915e-05,3.85688735179675e-05,4.2,3.0
3.2265625,2.8803894918745712e-05,3.7109195056076915e-05,3.85688735179675e-05,3.368976310368505e-05,4.2,3.0
3.23046875,2.7337458686198218e-05,3.564275882352942e-05,3.808231403067063e-05,2.392478450446326e-05,4.2,3.0
3.234375,1.8552356832227054e-05,3.7109195056076915e-05,4.4921177935454334e-05,2.099191203936828e-05,4.2,3.0
3.23828125,1.5619484367132067e-05,4.150174598306249e-05,4.736073314259556e-05,1.903891631952392e-05,4.2,3.0
3.2421875,2.4897903479056992e-05,4.198830547035935e-05,4.198830547035935e-05,1.2693369672693983e-05,4.2,3.0
3.24609375,3.5156199336232545e-05,2.6850899198901352e-05,3.270988635843443e-05,2.34314672465095e-05,4.2,3.0
3.25,3.85688735179675e-05,2.4897903479056992e-05,3.466288207827878e-05,3.7109195056076915e-05,4.2,3.0
3.25390625,3.3203203616388196e-05,3.3203203616388196e-05,4.0035309750515e-05,4.0521869237811857e-05,4.2,3.0
3.2578125,2.6850899198901352e-05,3.3203203616388196e-05,3.564275882352942e-05,3.9548750263218124e-05,4.2,3.0
3.26171875,2.9290454406042568e-05,2.978377166399634e-05,3.17367673838407e-05,3.270988635843443e-05,4.2,3.0
3.265625,3.075689063859006e-05,2.6364339711604486e-05,2.8803894918745712e-05,2.34314672465095e-05,4.2,3.0
3.26953125,2.4411343991760126e-05,2.538446296635386e-05,3.368976310368505e-05,2.4411343991760126e-05,4.2,3.0
3.2734375,2.1971788784618907e-05,3.270988635843443e-05,3.564275882352942e-05,3.1243450125886934e-05,4.2,3.0
3.27734375,2.34314672465095e-05,4.2968182215609984e-05,4.0521869237811857e-05,3.075689063859006e-05,4.2,3.0
3.28125,2.7337458686198218e-05,6.445113513389792e-05,6.249813941405355e-05,2.4411343991760126e-05,4.2,3.0
3.28515625,3.9548750263218124e-05,5.956526694895858e-05,6.005858420691234e-05,2.392478450446326e-05,4.2,3.0
3.2890625,3.417632259098192e-05,2.392478450446326e-05,2.538446296635386e-05,2.6364339711604486e-05,4.2,3.0
3.29296875,2.4897903479056992e-05,8.787378233005264e-06,1.0740373952849623e-05,2.9290454406042568e-05,4.2,3.0
3.296875,2.6850899198901352e-05,1.2206810185397117e-05,1.6599361112382694e-05,3.3203203616388196e-05,4.2,3.0
3.30078125,2.147847152666514e-05,1.1226933440146488e-05,1.3179929159990848e-05,3.222332687113756e-05,4.2,3.0
3.3046875,2.4411343991760126e-05,4.388069535362781e-06,5.3679462806134095e-06,2.392478450446326e-05,4.2,3.0
3.30859375,3.417632259098192e-05,4.388069535362781e-06,2.928391073472191e-06,2.538446296635386e-05,4.2,3.0
3.3125,3.759575454337377e-05,7.320942000457769e-06,9.273937720302128e-06,3.075689063859006e-05,4.2,3.0
3.31640625,3.417632259098192e-05,1.3666488647287707e-05,1.6112801625085828e-05,3.0270331151293205e-05,4.2,3.0
3.3203125,2.6364339711604486e-05,2.538446296635386e-05,2.099191203936828e-05,2.2458348271915773e-05,4.2,3.0
3.32421875,2.978377166399634e-05,2.1971788784618907e-05,2.0505352552071413e-05,2.0505352552071413e-05,4.2,3.0
3.328125,3.075689063859006e-05,1.7572480086976426e-05,1.8065797344930187e-05,2.4411343991760126e-05,4.2,3.0
3.33203125,2.9290454406042568e-05,2.0505352552071413e-05,1.8552356832227054e-05,1.8065797344930187e-05,4.2,3.0
3.3359375,3.466288207827878e-05,2.538446296635386e-05,2.4897903479056992e-05,2.6364339711604486e-05,4.2,3.0
3.33984375,2.9290454406042568e-05,2.9290454406042568e-05,2.9290454406042568e-05,4.0035309750515e-05,4.2,3.0
3.34375,1.903891631952392e-05,2.4411343991760126e-05,2.1971788784618907e-05,4.198830547035935e-05,4.2,3.0
3.34765625,3.368976310368505e-05,1.6112801625085828e-05,1.3179929159990848e-05,2.8317335431448846e-05,4.2,3.0
3.3515625,3.85688735179675e-05,1.8552356832227054e-05,1.5619484367132067e-05,2.0505352552071413e-05,4.2,3.0
3.35546875,3.7109195056076915e-05,3.0270331151293205e-05,2.4411343991760126e-05,2.6364339711604486e-05,4.2,3.0
3.359375,3.466288207827878e-05,3.466288207827878e-05,2.34314672465095e-05,2.34314672465095e-05,4.2,3.0
3.36328125,2.8317335431448846e-05,2.8317335431448846e-05,2.34314672465095e-05,2.4411343991760126e-05,4.2,3.0
3.3671875,3.9548750263218124e-05,1.9525475806820786e-05,2.2458348271915773e-05,3.0270331151293205e-05,4.2,3.0
3.37109375,3.7109195056076915e-05,1.903891631952392e-05,2.147847152666514e-05,2.8317335431448846e-05,4.2,3.0
3.375,3.270988635843443e-05,2.8317335431448846e-05,2.7337458686198218e-05,2.538446296635386e-05,4.2,3.0
3.37890625,3.661587779812314e-05,3.5156199336232545e-05,2.4411343991760126e-05,2.392478450446326e-05,4.2,3.0
3.3828125,4.150174598306249e-05,3.466288207827878e-05,2.587778022430762e-05,2.9290454406042568e-05,4.2,3.0
3.38671875,3.5156199336232545e-05,3.17367673838407e-05,2.783077594415198e-05,3.222332687113756e-05,4.2,3.0
3.390625,2.9290454406042568e-05,3.0270331151293205e-05,2.34314672465095e-05,2.978377166399634e-05,4.2,3.0
3.39453125,3.270988635843443e-05,3.270988635843443e-05,3.1243450125886934e-05,3.270988635843443e-05,4.2,3.0
3.3984375,3.270988635843443e-05,4.150174598306249e-05,3.466288207827878e-05,3.661587779812314e-05,4.2,3.0
3.40234375,3.612931831082628e-05,4.0035309750515e-05,2.978377166399634e-05,3.222332687113756e-05,4.2,3.0
3.40625,3.85688735179675e-05,2.2944907759212633e-05,2.538446296635386e-05,2.4897903479056992e-05,4.2,3.0
3.41015625,3.3203203616388196e-05,2.8803894918745712e-05,2.587778022430762e-05,2.587778022430762e-05,4.2,3.0
3.4140625,2.8803894918745712e-05,3.564275882352942e-05,3.0270331151293205e-05,2.783077594415198e-05,4.2,3.0
3.41796875,3.5156199336232545e-05,2.9290454406042568e-05,2.9290454406042568e-05,2.392478450446326e-05,4.2,3.0
3.421875,3.612931831082628e-05,2.978377166399634e-05,3.1243450125886934e-05,2.783077594415198e-05,4.2,3.0
3.42578125,3.1243450125886934e-05,2.2944907759212633e-05,3.17367673838407e-05,3.270988635843443e-05,4.2,3.0
3.4296875,3.1243450125886934e-05,2.6364339711604486e-05,3.0270331151293205e-05,3.222332687113756e-05,4.2,3.0
3.43359375,3.661587779812314e-05,3.5156199336232545e-05,3.270988635843443e-05,3.5156199336232545e-05,4.2,3.0
3.4375,3.417632259098192e-05,3.9548750263218124e-05,3.5156199336232545e-05,3.661587779812314e-05,4.2,3.0
3.44140625,2.2458348271915773e-05,3.368976310368505e-05,3.3203203616388196e-05,3.417632259098192e-05,4.2,3.0
3.4453125,2.6364339711604486e-05,1.9525475806820786e-05,2.4897903479056992e-05,2.538446296635386e-05,4.2,3.0
3.44921875,3.564275882352942e-05,1.8552356832227054e-05,2.099191203936828e-05,2.538446296635386e-05,4.2,3.0
3.453125,3.3203203616388196e-05,2.587778022430762e-05,2.783077594415198e-05,3.075689063859006e-05,4.2,3.0
3.45703125,3.417632259098192e-05,3.417632259098192e-05,3.0270331151293205e-05,2.587778022430762e-05,4.2,3.0
3.4609375,2.2458348271915773e-05,3.661587779812314e-05,2.783077594415198e-05,2.978377166399634e-05,4.2,3.0
3.46484375,1.903891631952392e-05,2.6850899198901352e-05,2.538446296635386e-05,3.85688735179675e-05,4.2,3.0
3.46875,3.466288207827878e-05,2.538446296635386e-05,2.978377166399634e-05,3.466288207827878e-05,4.2,3.0
3.47265625,3.661587779812314e-05,3.0270331151293205e-05,3.368976310368505e-05,2.978377166399634e-05,4.2,3.0
3.4765625,3.9548750263218124e-05,2.8803894918745712e-05,2.783077594415198e-05,3.5156199336232545e-05,4.2,3.0
3.48046875,3.85688735179675e-05,2.978377166399634e-05,2.978377166399634e-05,3.0270331151293205e-05,4.2,3.0
3.484375,3.7109195056076915e-05,2.978377166399634e-05,2.783077594415198e-05,1.8065797344930187e-05,4.2,3.0
3.48828125,3.075689063859006e-05,2.538446296635386e-05,2.587778022430762e-05,2.2944907759212633e-05,4.2,3.0
3.4921875,2.1971788784618907e-05,2.34314672465095e-05,2.783077594415198e-05,3.466288207827878e-05,4.2,3.0
3.49609375,2.1971788784618907e-05,3.0270331151293205e-05,2.6364339711604486e-05,3.3203203616388196e-05,4.2,3.0
3.5,2.538446296635386e-05,2.9290454406042568e-05,2.6364339711604486e-05,3.3203203616388196e-05,4.2,3.0
3.50390625,3.0270331151293205e-05,2.1971788784618907e-05,2.4411343991760126e-05,3.222332687113756e-05,4.2,3.0
3.5078125,2.8803894918745712e-05,2.099191203936828e-05,2.7337458686198218e-05,2.147847152666514e-05,4.2,3.0
3.51171875,3.0270331151293205e-05,2.392478450446326e-05,3.0270331151293205e-05,2.6364339711604486e-05,4.2,3.0
3.515625,3.1243450125886934e-05,2.538446296635386e-05,2.9290454406042568e-05,3.1243450125886934e-05,4.2,3.0
3.51953125,2.6364339711604486e-05,2.2944907759212633e-05,2.783077594415198e-05,2.6364339711604486e-05,4.2,3.0
3.5234375,2.8317335431448846e-05,2.2944907759212633e-05,2.4897903479056992e-05,2.8803894918745712e-05,4.2,3.0
3.52734375,2.6850899198901352e-05,2.1971788784618907e-05,2.2458348271915773e-05,2.1971788784618907e-05,4.2,3.0
3.53125,1.8065797344930187e-05,2.4897903479056992e-05,2.978377166399634e-05,2.2458348271915773e-05,4.2,3.0
3.53515625,2.587778022430762e-05,3.17367673838407e-05,3.466288207827878e-05,3.564275882352942e-05,4.2,3.0
3.5390625,3.5156199336232545e-05,2.8803894918745712e-05,3.17367673838407e-05,3.417632259098192e-05,4.2,3.0
3.54296875,2.8317335431448846e-05,3.0270331151293205e-05,2.4897903479056992e-05,3.368976310368505e-05,4.2,3.0
3.546875,2.8803894918745712e-05,2.978377166399634e-05,2.2944907759212633e-05,3.466288207827878e-05,4.2,3.0
3.55078125,3.417632259098192e-05,2.392478450446326e-05,2.7337458686198218e-05,3.075689063859006e-05,4.2,3.0
3.5546875,3.3203203616388196e-05,3.075689063859006e-05,3.3203203616388196e-05,2.538446296635386e-05,4.2,3.0
3.55859375,3.1243450125886934e-05,3.17367673838407e-05,3.0270331151293205e-05,2.0018793064774547e-05,4.2,3.0
3.5625,2.4411343991760126e-05,2.9290454406042568e-05,2.783077594415198e-05,1.3666488647287707e-05,4.2,3.0
3.56640625,2.0505352552071413e-05,3.17367673838407e-05,2.9290454406042568e-05,1.51329248798352e-05,4.2,3.0
3.5703125,2.147847152666514e-05,2.8317335431448846e-05,2.587778022430762e-05,2.8803894918745712e-05,4.2,3.0
3.57421875,3.3203203616388196e-05,2.34314672465095e-05,2.6364339711604486e-05,3.9062190775921265e-05,4.2,3.0
3.578125,4.4427860677500576e-05,3.17367673838407e-05,3.1243450125886934e-05,3.85688735179675e-05,4.2,3.0
3.58203125,4.0521869237811857e-05,2.978377166399634e-05,2.9290454406042568e-05,3.661587779812314e-05,4.2,3.0
3.5859375,3.466288207827878e-05,1.9525475806820786e-05,2.8803894918745712e-05,3.17367673838407e-05,4.2,3.0
3.58984375,2.8317335431448846e-05,2.0018793064774547e-05,2.978377166399634e-05,2.8317335431448846e-05,4.2,3.0
3.59375,2.783077594415198e-05,2.4411343991760126e-05,3.417632259098192e-05,2.4897903479056992e-05,4.2,3.0
3.59765625,3.5156199336232545e-05,3.3203203616388196e-05,3.368976310368505e-05,2.4897903479056992e-05,4.2,3.0
3.6015625,3.808231403067063e-05,3.17367673838407e-05,2.978377166399634e-05,2.8803894918745712e-05,4.2,3.0
3.60546875,3.0270331151293205e-05,2.538446296635386e-05,2.7337458686198218e-05,2.7337458686198218e-05,4.2,3.0
3.609375,2.4411343991760126e-05,2.783077594415198e-05,2.392478450446326e-05,2.392478450446326e-05,4.2,3.0
3.61328125,3.3203203616388196e-05,2.8317335431448846e-05,3.0270331151293205e-05,3.0270331151293205e-05,4.2,3.0
3.6171875,3.661587779812314e-05,3.1243450125886934e-05,3.0270331151293205e-05,3.417632259098192e-05,4.2,3.0
3.62109375,3.0270331151293205e-05,3.0270331151293205e-05,2.392478450446326e-05,3.270988635843443e-05,4.2,3.0
3.625,3.270988635843443e-05,2.6364339711604486e-05,2.6850899198901352e-05,2.8803894918745712e-05,4.2,3.0
3.62890625,3.368976310368505e-05,2.099191203936828e-05,2.8317335431448846e-05,2.392478450446326e-05,4.2,3.0
3.6328125,3.222332687113756e-05,1.5619484367132067e-05,2.2458348271915773e-05,2.0018793064774547e-05,4.2,3.0
3.63671875,2.587778022430762e-05,2.2458348271915773e-05,2.1971788784618907e-05,2.147847152666514e-05,4.2,3.0
3.640625,1.2206810185397117e-05,3.270988635843443e-05,2.6850899198901352e-05,2.7337458686198218e-05,4.2,3.0
3.64453125,1.8552356832227054e-05,2.978377166399634e-05,2.783077594415198e-05,2.538446296635386e-05,4.2,3.0
3.6484375,2.8317335431448846e-05,2.1971788784618907e-05,2.783077594415198e-05,3.270988635843443e-05,4.2,3.0
3.65234375,3.417632259098192e-05,2.538446296635386e-05,2.783077594415198e-05,4.150174598306249e-05,4.2,3.0
3.65625,4.1015186495765614e-05,3.1243450125886934e-05,2.587778022430762e-05,3.368976310368505e-05,4.2,3.0
3.66015625,3.7109195056076915e-05,3.3203203616388196e-05,1.9525475806820786e-05,2.34314672465095e-05,4.2,3.0
3.6640625,3.075689063859006e-05,2.783077594415198e-05,1.8552356832227054e-05,2.8317335431448846e-05,4.2,3.0
3.66796875,3.270988635843443e-05,1.8065797344930187e-05,2.0018793064774547e-05,3.368976310368505e-05,4.2,3.0
3.671875,3.661587779812314e-05,2.4897903479056992e-05,2.587778022430762e-05,2.9290454406042568e-05,4.2,3.0
3.67578125,3.270988635843443e-05,3.368976310368505e-05,3.222332687113756e-05,3.075689063859006e-05,4.2,3.0
3.6796875,3.222332687113756e-05,4.1015186495765614e-05,3.222332687113756e-05,2.9290454406042568e-05,4.2,3.0
3.68359375,2.978377166399634e-05,4.0521869237811857e-05,3.17367673838407e-05,2.8317335431448846e-05,4.2,3.0
3.6875,3.075689063859006e-05,2.783077594415198e-05,3.564275882352942e-05,3.466288207827878e-05,4.2,3.0
3.69140625,3.759575454337377e-05,2.2458348271915773e-05,3.3203203616388196e-05,2.8317335431448846e-05,4.2,3.0
3.6953125,2.587778022430762e-05,2.978377166399634e-05,3.075689063859006e-05,2.4897903479056992e-05,4.2,3.0
3.69921875,2.4897903479056992e-05,3.466288207827878e-05,3.368976310368505e-05,3.270988635843443e-05,4.2,3.0
3.703125,3.0270331151293205e-05,2.7337458686198218e-05,2.8803894918745712e-05,3.759575454337377e-05,4.2,3.0
3.70703125,2.978377166399634e-05,2.0505352552071413e-05,2.147847152666514e-05,2.6850899198901352e-05,4.2,3.0
3.7109375,3.222332687113756e-05,2.8317335431448846e-05,2.7337458686198218e-05,2.099191203936828e-05,4.2,3.0
3.71484375,3.417632259098192e-05,3.270988635843443e-05,3.368976310368505e-05,3.7109195056076915e-05,4.2,3.0
3.71875,3.85688735179675e-05,3.368976310368505e-05,2.8317335431448846e-05,3.85688735179675e-05,4.2,3.0
3.72265625,3.0270331151293205e-05,3.17367673838407e-05,2.8803894918745712e-05,3.5156199336232545e-05,4.2,3.0
3.7265625,3.0270331151293205e-05,2.2458348271915773e-05,3.075689063859006e-05,2.8317335431448846e-05,4.2,3.0
3.73046875,4.2968182215609984e-05,2.4897903479056992e-05,2.587778022430762e-05,1.8552356832227054e-05,4.2,3.0
3.734375,3.7109195056076915e-05,3.075689063859006e-05,2.783077594415198e-05,2.4897903479056992e-05,4.2,3.0
3.73828125,3.661587779812314e-05,3.17367673838407e-05,2.8803894918745712e-05,2.783077594415198e-05,4.2,3.0
3.7421875,3.1243450125886934e-05,2.6364339711604486e-05,2.392478450446326e-05,2.2944907759212633e-05,4.2,3.0
3.74609375,2.0018793064774547e-05,2.0018793064774547e-05,2.392478450446326e-05,3.17367673838407e-05,4.2,3.0
3.75,3.075689063859006e-05,1.6112801625085828e-05,2.6364339711604486e-05,4.3454741702906844e-05,4.2,3.0
3.75390625,3.222332687113756e-05,1.6599361112382694e-05,2.538446296635386e-05,4.198830547035935e-05,4.2,3.0
3.7578125,2.783077594415198e-05,2.6364339711604486e-05,2.7337458686198218e-05,3.5156199336232545e-05,4.2,3.0
3.76171875,3.17367673838407e-05,3.0270331151293205e-05,3.075689063859006e-05,2.587778022430762e-05,4.2,3.0
3.765625,3.5156199336232545e-05,2.34314672465095e-05,2.8803894918745712e-05,2.783077594415198e-05,4.2,3.0
3.76953125,3.612931831082628e-05,2.1971788784618907e-05,2.8803894918745712e-05,2.978377166399634e-05,4.2,3.0
3.7734375,3.808231403067063e-05,2.978377166399634e-05,3.466288207827878e-05,2.587778022430762e-05,4.2,3.0
3.77734375,3.612931831082628e-05,4.1015186495765614e-05,3.9062190775921265e-05,1.708592059967956e-05,4.2,3.0
3.78125,2.0505352552071413e-05,3.5156199336232545e-05,3.417632259098192e-05,1.3666488647287707e-05,4.2,3.0
3.78515625,1.903891631952392e-05,2.2944907759212633e-05,2.8803894918745712e-05,3.612931831082628e-05,4.2,3.0
3.7890625,2.978377166399634e-05,2.2458348271915773e-05,2.6364339711604486e-05,4.736073314259556e-05,4.2,3.0
3.79296875,2.978377166399634e-05,2.392478450446326e-05,3.3203203616388196e-05,3.466288207827878e-05,4.2,3.0
3.796875,3.759575454337377e-05,2.7337458686198218e-05,3.9062190775921265e-05,3.3203203616388196e-05,4.2,3.0
3.80078125,3.9548750263218124e-05,2.392478450446326e-05,2.8317335431448846e-05,3.808231403067063e-05,4.2,3.0
3.8046875,3.222332687113756e-05,1.903891631952392e-05,2.392478450446326e-05,3.222332687113756e-05,4.2,3.0
3.80859375,2.7337458686198218e-05,1.8065797344930187e-05,3.0270331151293205e-05,3.075689063859006e-05,4.2,3.0
3.8125,2.0018793064774547e-05,2.34314672465095e-05,3.417632259098192e-05,3.270988635843443e-05,4.2,3.0
3.81640625,2.538446296635386e-05,2.8803894918745712e-05,3.3203203616388196e-05,3.3203203616388196e-05,4.2,3.0
3.8203125,3.1243450125886934e-05,2.8317335431448846e-05,2.783077594415198e-05,3.222332687113756e-05,4.2,3.0
3.82421875,3.5156199336232545e-05,2.34314672465095e-05,2.147847152666514e-05,2.34314672465095e-05,4.2,3.0
3.828125,3.5156199336232545e-05,1.7572480086976426e-05,2.34314672465095e-05,2.147847152666514e-05,4.2,3.0
3.83203125,3.3203203616388196e-05,2.34314672465095e-05,2.6364339711604486e-05,2.9290454406042568e-05,4.2,3.0
3.8359375,3.17367673838407e-05,2.6364339711604486e-05,2.4897903479056992e-05,2.9290454406042568e-05,4.2,3.0
3.83984375,3.17367673838407e-05,2.6364339711604486e-05,2.34314672465095e-05,2.2944907759212633e-05,4.2,3.0
3.84375,2.4411343991760126e-05,2.587778022430762e-05,2.392478450446326e-05,2.587778022430762e-05,4.2,3.0
3.84765625,1.1713492927443354e-05,1.6112801625085828e-05,2.34314672465095e-05,3.075689063859006e-05,4.2,3.0
3.8515625,1.708592059967956e-05,1.2693369672693983e-05,2.34314672465095e-05,3.1243450125886934e-05,4.2,3.0
3.85546875,2.6364339711604486e-05,1.6599361112382694e-05,2.392478450446326e-05,2.392478450446326e-05,4.2,3.0
3.859375,3.0270331151293205e-05,2.2944907759212633e-05,2.7337458686198218e-05,2.392478450446326e-05,4.2,3.0
3.86328125,3.5156199336232545e-05,2.0018793064774547e-05,2.6364339711604486e-05,2.538446296635386e-05,4.2,3.0
3.8671875,3.466288207827878e-05,1.3179929159990848e-05,2.0505352552071413e-05,2.147847152666514e-05,4.2,3.0
3.87109375,3.417632259098192e-05,1.8065797344930187e-05,2.2458348271915773e-05,2.6850899198901352e-05,4.2,3.0
3.875,3.5156199336232545e-05,2.2944907759212633e-05,2.978377166399634e-05,3.368976310368505e-05,4.2,3.0
3.87890625,2.783077594415198e-05,2.6364339711604486e-05,2.8317335431448846e-05,3.5156199336232545e-05,4.2,3.0
3.8828125,1.903891631952392e-05,2.147847152666514e-05,2.6364339711604486e-05,3.270988635843443e-05,4.2,3.0
3.88671875,2.6850899198901352e-05,1.6112801625085828e-05,2.587778022430762e-05,3.222332687113756e-05,4.2,3.0
3.890625,2.538446296635386e-05,2.099191203936828e-05,2.4897903479056992e-05,2.4897903479056992e-05,4.2,3.0
3.89453125,1.4159805905241476e-05,2.2458348271915773e-05,2.8317335431448846e-05,2.0505352552071413e-05,4.2,3.0
3.8984375,2.147847152666514e-05,2.9290454406042568e-05,2.6850899198901352e-05,2.2944907759212633e-05,4.2,3.0
3.90234375,2.8803894918745712e-05,3.1243450125886934e-05,2.7337458686198218e-05,2.392478450446326e-05,4.2,3.0
3.90625,3.5156199336232545e-05,2.099191203936828e-05,2.8803894918745712e-05,2.0505352552071413e-05,4.2,3.0
3.91015625,3.661587779812314e-05,1.8065797344930187e-05,3.270988635843443e-05,2.392478450446326e-05,4.2,3.0
3.9140625,2.8317335431448846e-05,2.1971788784618907e-05,3.7109195056076915e-05,3.466288207827878e-05,4.2,3.0
3.91796875,2.2458348271915773e-05,3.1243450125886934e-05,3.564275882352942e-05,3.612931831082628e-05,4.2,3.0
3.921875,2.2458348271915773e-05,3.564275882352942e-05,3.3203203616388196e-05,2.2944907759212633e-05,4.2,3.0
3.92578125,2.8317335431448846e-05,3.270988635843443e-05,3.270988635843443e-05,2.1971788784618907e-05,4.2,3.0
3.9296875,3.466288207827878e-05,2.6364339711604486e-05,3.222332687113756e-05,3.222332687113756e-05,4.2,3.0
3.93359375,2.6850899198901352e-05,2.587778022430762e-05,3.270988635843443e-05,3.0270331151293205e-05,4.2,3.0
3.9375,2.2944907759212633e-05,3.3203203616388196e-05,3.5156199336232545e-05,2.7337458686198218e-05,4.2,3.0
3.94140625,2.9290454406042568e-05,3.270988635843443e-05,3.3203203616388196e-05,2.8803894918745712e-05,4.2,3.0
3.9453125,3.0270331151293205e-05,2.8317335431448846e-05,2.7337458686198218e-05,2.8803894918745712e-05,4.2,3.0
3.94921875,2.783077594415198e-05,2.4897903479056992e-05,2.099191203936828e-05,3.3203203616388196e-05,4.2,3.0
3.953125,2.9290454406042568e-05,2.7337458686198218e-05,2.2944907759212633e-05,3.17367673838407e-05,4.2,3.0
3.95703125,3.17367673838407e-05,3.17367673838407e-05,2.1971788784618907e-05,2.4897903479056992e-05,4.2,3.0
3.9609375,3.564275882352942e-05,3.5156199336232545e-05,2.099191203936828e-05,2.0018793064774547e-05,4.2,3.0
3.96484375,3.0270331151293205e-05,2.8317335431448846e-05,2.2458348271915773e-05,2.8317335431448846e-05,4.2,3.0
3.96875,3.222332687113756e-05,2.34314672465095e-05,2.4411343991760126e-05,3.270988635843443e-05,4.2,3.0
3.97265625,3.564275882352942e-05,2.8317335431448846e-05,2.783077594415198e-05,3.075689063859006e-05,4.2,3.0
3.9765625,2.4411343991760126e-05,3.661587779812314e-05,2.6364339711604486e-05,3.270988635843443e-05,4.2,3.0
3.98046875,2.9290454406042568e-05,3.7109195056076915e-05,2.392478450446326e-05,2.978377166399634e-05,4.2,3.0
3.984375,3.808231403067063e-05,3.564275882352942e-05,3.222332687113756e-05,3.3203203616388196e-05,4.2,3.0
3.98828125,3.85688735179675e-05,4.5894296910048066e-05,4.4921177935454334e-05,3.075689063859006e-05,4.2,3.0
3.9921875,4.5894296910048066e-05,3.661587779812314e-05,2.978377166399634e-05,2.4411343991760126e-05,4.2,3.0
3.99609375,4.3454741702906844e-05,2.4897903479056992e-05,1.8552356832227054e-05,2.8803894918745712e-05,4.2,3.0
4.0,3.612931831082628e-05,3.0270331151293205e-05,2.34314672465095e-05,2.8803894918745712e-05,4.2,3.0
4.00390625,3.661587779812314e-05,2.4897903479056992e-05,1.8065797344930187e-05,2.4897903479056992e-05,4.2,3.0
4.0078125,3.85688735179675e-05,1.3666488647287707e-05,8.787378233005264e-06,2.6850899198901352e-05,4.2,3.0
4.01171875,4.0035309750515e-05,1.903891631952392e-05,1.0253814465552757e-05,2.4897903479056992e-05,4.2,3.0
4.015625,3.85688735179675e-05,2.538446296635386e-05,1.1713492927443354e-05,2.099191203936828e-05,4.2,3.0
4.01953125,3.0270331151293205e-05,2.538446296635386e-05,1.2693369672693983e-05,2.2944907759212633e-05,4.2,3.0
4.0234375,3.368976310368505e-05,2.0018793064774547e-05,1.3666488647287707e-05,2.6364339711604486e-05,4.2,3.0
4.02734375,2.7337458686198218e-05,1.7572480086976426e-05,1.903891631952392e-05,2.34314672465095e-05,4.2,3.0
4.03125,1.51329248798352e-05,1.7572480086976426e-05,1.903891631952392e-05,1.2206810185397117e-05,4.2,3.0
4.03515625,3.759575454337377e-05,1.8065797344930187e-05,1.903891631952392e-05,1.6599361112382694e-05,4.2,3.0
4.0390625,5.321972030212863e-05,2.6850899198901352e-05,2.34314672465095e-05,2.147847152666514e-05,4.2,3.0
4.04296875,4.2968182215609984e-05,2.2458348271915773e-05,1.8065797344930187e-05,1.9525475806820786e-05,4.2,3.0
4.046875,3.417632259098192e-05,1.4159805905241476e-05,1.7572480086976426e-05,2.587778022430762e-05,4.2,3.0
4.05078125,3.222332687113756e-05,1.3179929159990848e-05,2.147847152666514e-05,3.222332687113756e-05,4.2,3.0
4.0546875,2.587778022430762e-05,1.2206810185397117e-05,1.8065797344930187e-05,3.075689063859006e-05,4.2,3.0
4.05859375,2.978377166399634e-05,2.0505352552071413e-05,1.5619484367132067e-05,2.2458348271915773e-05,4.2,3.0
4.0625,3.075689063859006e-05,2.2944907759212633e-05,1.4646365392538334e-05,1.3179929159990848e-05,4.2,3.0
4.06640625,2.6850899198901352e-05,1.6112801625085828e-05,1.8552356832227054e-05,2.0018793064774547e-05,4.2,3.0
4.0703125,3.0270331151293205e-05,2.147847152666514e-05,2.2458348271915773e-05,2.8317335431448846e-05,4.2,3.0
4.07421875,3.5156199336232545e-05,2.2458348271915773e-05,1.9525475806820786e-05,2.2944907759212633e-05,4.2,3.0
4.078125,3.759575454337377e-05,2.2458348271915773e-05,1.8552356832227054e-05,2.2458348271915773e-05,4.2,3.0
4.08203125,3.466288207827878e-05,2.147847152666514e-05,1.5619484367132067e-05,2.6364339711604486e-05,4.2,3.0
4.0859375,2.8803894918745712e-05,1.5619484367132067e-05,1.6112801625085828e-05,2.8317335431448846e-05,4.2,3.0
4.08984375,2.8317335431448846e-05,1.4159805905241476e-05,1.8065797344930187e-05,2.7337458686198218e-05,4.2,3.0
4.09375,2.8803894918745712e-05,1.6599361112382694e-05,2.2458348271915773e-05,3.3203203616388196e-05,4.2,3.0
4.09765625,2.34314672465095e-05,2.2458348271915773e-05,3.0270331151293205e-05,3.5156199336232545e-05,4.2,3.0
4.1015625,2.392478450446326e-05,2.978377166399634e-05,2.9290454406042568e-05,3.3203203616388196e-05,4.2,3.0
4.10546875,2.538446296635386e-05,2.34314672465095e-05,2.4897903479056992e-05,2.538446296635386e-05,4.2,3.0
4.109375,2.8317335431448846e-05,1.9525475806820786e-05,2.4411343991760126e-05,1.6112801625085828e-05,4.2,3.0
4.11328125,2.783077594415198e-05,2.6850899198901352e-05,2.587778022430762e-05,1.9525475806820786e-05,4.2,3.0
4.1171875,3.0270331151293205e-05,3.1243450125886934e-05,2.7337458686198218e-05,2.1971788784618907e-05,4.2,3.0
4.12109375,3.612931831082628e-05,3.5156199336232545e-05,2.7337458686198218e-05,2.978377166399634e-05,4.2,3.0
4.125,3.368976310368505e-05,2.6850899198901352e-05,2.392478450446326e-05,2.4411343991760126e-05,4.2,3.0
4.12890625,2.8803894918745712e-05,2.392478450446326e-05,2.7337458686198218e-05,2.099191203936828e-05,4.2,3.0
4.1328125,3.270988635843443e-05,2.8317335431448846e-05,3.368976310368505e-05,2.8803894918745712e-05,4.2,3.0
4.13671875,3.759575454337377e-05,2.8317335431448846e-05,3.0270331151293205e-05,3.1243450125886934e-05,4.2,3.0
4.140625,3.564275882352942e-05,3.1243450125886934e-05,2.4897903479056992e-05,3.222332687113756e-05,4.2,3.0
4.14453125,3.368976310368505e-05,2.783077594415198e-05,2.7337458686198218e-05,2.9290454406042568e-05,4.2,3.0
4.1484375,3.466288207827878e-05,2.538446296635386e-05,2.8803894918745712e-05,2.2944907759212633e-05,4.2,3.0
4.15234375,3.759575454337377e-05,2.34314672465095e-05,2.34314672465095e-05,2.34314672465095e-05,4.2,3.0
4.15625,1.903891631952392e-05,2.1971788784618907e-05,2.392478450446326e-05,2.978377166399634e-05,4.2,3.0
4.16015625,2.147847152666514e-05,3.466288207827878e-05,2.978377166399634e-05,2.9290454406042568e-05,4.2,3.0
4.1640625,3.612931831082628e-05,3.759575454337377e-05,2.6364339711604486e-05,2.6364339711604486e-05,4.2,3.0
4.16796875,3.270988635843443e-05,2.099191203936828e-05,2.0505352552071413e-05,1.708592059967956e-05,4.2,3.0
4.171875,3.564275882352942e-05,1.8552356832227054e-05,2.1971788784618907e-05,1.4159805905241476e-05,4.2,3.0
4.17578125,3.368976310368505e-05,2.587778022430762e-05,2.7337458686198218e-05,2.6850899198901352e-05,4.2,3.0
4.1796875,3.17367673838407e-05,3.222332687113756e-05,2.9290454406042568e-05,2.8317335431448846e-05,4.2,3.0
4.18359375,3.368976310368505e-05,3.075689063859006e-05,2.8317335431448846e-05,2.7337458686198218e-05,4.2,3.0
4.1875,3.612931831082628e-05,2.1971788784618907e-05,2.783077594415198e-05,2.1971788784618907e-05,4.2,3.0
4.19140625,2.538446296635386e-05,2.587778022430762e-05,3.075689063859006e-05,1.5619484367132067e-05,4.2,3.0
4.1953125,1.5619484367132067e-05,3.0270331151293205e-05,2.8803894918745712e-05,2.7337458686198218e-05,4.2,3.0
4.19921875,2.587778022430762e-05,3.270988635843443e-05,2.4897903479056992e-05,2.978377166399634e-05,4.2,3.0
4.203125,3.3203203616388196e-05,3.17367673838407e-05,2.6850899198901352e-05,2.099191203936828e-05,4.2,3.0
4.20703125,4.150174598306249e-05,2.0505352552071413e-05,2.7337458686198218e-05,2.2458348271915773e-05,4.2,3.0
4.2109375,4.198830547035935e-05,2.0018793064774547e-05,2.783077594415198e-05,3.1243450125886934e-05,4.2,3.0
4.21484375,3.17367673838407e-05,2.1971788784618907e-05,3.3203203616388196e-05,3.0270331151293205e-05,4.2,3.0
4.21875,2.978377166399634e-05,2.9290454406042568e-05,3.5156199336232545e-05,2.6850899198901352e-05,4.2,3.0
4.22265625,2.4411343991760126e-05,3.3203203616388196e-05,2.8803894918745712e-05,3.0270331151293205e-05,4.2,3.0
4.2265625,2.34314672465095e-05,2.6364339711604486e-05,2.6364339711604486e-05,3.270988635843443e-05,4.2,3.0
4.23046875,3.1243450125886934e-05,2.538446296635386e-05,3.075689063859006e-05,3.612931831082628e-05,4.2,3.0
4.234375,2.4411343991760126e-05,3.270988635843443e-05,3.9548750263218124e-05,2.9290454406042568e-05,4.2,3.0
4.23828125,2.0018793064774547e-05,3.222332687113756e-05,4.0521869237811857e-05,3.1243450125886934e-05,4.2,3.0
4.2421875,2.783077594415198e-05,3.0270331151293205e-05,3.368976310368505e-05,4.1015186495765614e-05,4.2,3.0
4.24609375,3.417632259098192e-05,2.6364339711604486e-05,3.075689063859006e-05,2.978377166399634e-05,4.2,3.0
4.25,3.3203203616388196e-05,2.2944907759212633e-05,3.17367673838407e-05,1.6599361112382694e-05,4.2,3.0
4.25390625,3.368976310368505e-05,2.538446296635386e-05,3.3203203616388196e-05,2.587778022430762e-05,4.2,3.0
4.2578125,3.1243450125886934e-05,3.075689063859006e-05,3.1243450125886934e-05,3.85688735179675e-05,4.2,3.0
4.26171875,2.8803894918745712e-05,3.222332687113756e-05,2.8803894918745712e-05,3.5156199336232545e-05,4.2,3.0
4.265625,3.5156199336232545e-05,2.538446296635386e-05,2.6850899198901352e-05,2.7337458686198218e-05,4.2,3.0
4.26953125,3.1243450125886934e-05,1.9525475806820786e-05,2.8803894918745712e-05,3.1243450125886934e-05,4.2,3.0
4.2734375,2.8317335431448846e-05,2.147847152666514e-05,2.6850899198901352e-05,3.3203203616388196e-05,4.2,3.0
4.27734375,2.6850899198901352e-05,2.783077594415198e-05,3.0270331151293205e-05,3.3203203616388196e-05,4.2,3.0
4.28125,2.6850899198901352e-05,3.368976310368505e-05,3.417632259098192e-05,3.17367673838407e-05,4.2,3.0
4.28515625,3.564275882352942e-05,2.4897903479056992e-05,3.270988635843443e-05,2.6364339711604486e-05,4.2,3.0
4.2890625,3.661587779812314e-05,1.6112801625085828e-05,3.1243450125886934e-05,2.2944907759212633e-05,4.2,3.0
4.29296875,2.4897903479056992e-05,1.8552356832227054e-05,2.8803894918745712e-05,2.392478450446326e-05,4.2,3.0
4.296875,2.538446296635386e-05,2.4897903479056992e-05,2.6850899198901352e-05,2.8803894918745712e-05,4.2,3.0
4.30078125,2.978377166399634e-05,3.0270331151293205e-05,2.6850899198901352e-05,2.6850899198901352e-05,4.2,3.0
4.3046875,3.222332687113756e-05,2.0505352552071413e-05,2.538446296635386e-05,1.8065797344930187e-05,4.2,3.0
4.30859375,3.3203203616388196e-05,9.760497207598994e-06,2.4411343991760126e-05,2.34314672465095e-05,4.2,3.0
4.3125,3.368976310368505e-05,1.3179929159990848e-05,2.4411343991760126e-05,3.7109195056076915e-05,4.2,3.0
4.31640625,3.270988635843443e-05,2.587778022430762e-05,2.9290454406042568e-05,3.368976310368505e-05,4.2,3.0
4.3203125,3.075689063859006e-05,3.270988635843443e-05,3.368976310368505e-05,2.6364339711604486e-05,4.2,3.0
4.32421875,2.587778022430762e-05,2.978377166399634e-05,3.17367673838407e-05,3.17367673838407e-05,4.2,3.0
4.328125,2.978377166399634e-05,2.587778022430762e-05,2.978377166399634e-05,3.368976310368505e-05,4.2,3.0
4.33203125,2.8803894918745712e-05,2.1971788784618907e-05,2.7337458686198218e-05,2.8317335431448846e-05,4.2,3.0
4.3359375,2.4897903479056992e-05,2.587778022430762e-05,3.270988635843443e-05,2.783077594415198e-05,4.2,3.0
