timestamp,TP9,AF7,AF8,TP10,Valence,Arousal
0.0,-5.908974468604561e-05,-4.053009655909055e-05,-1.3679888632028678e-05,-3.1740527351796736e-05,6.8571,5.8571
0.00390625,-4.638689118028533e-05,-1.074711404592965e-05,-2.0998693270771334e-05,-4.053009655909055e-05,6.8571,5.8571
0.0078125,-4.4924881162737454e-05,-1.8074673235675582e-05,-3.369279222552834e-05,-4.931966576638436e-05,6.8571,5.8571
0.01171875,-3.5163556794079486e-05,-5.030017547875179e-05,-3.321129192034789e-05,-4.5415136018921175e-05,6.8571,5.8571
0.015625,-3.711582166781108e-05,-5.127193064011595e-05,-3.076877219043258e-05,-3.759732197299152e-05,6.8571,5.8571
0.01953125,-5.127193064011595e-05,-2.197920298313877e-05,-2.5393477874418238e-05,-3.5163556794079486e-05,6.8571,5.8571
0.0234375,-1.904642839703974e-05,6.832024368657982e-06,-1.8556173540856022e-05,-2.9788262478065145e-05,6.8571,5.8571
0.02734375,-1.318963377584496e-05,-1.1237368902113366e-05,-8.794849172198056e-06,-3.223078220798045e-05,6.8571,5.8571
0.03125,-3.759732197299152e-05,-3.955834139772639e-05,-3.759732197299152e-05,-5.030017547875179e-05,6.8571,5.8571
0.03515625,-2.9298007621881428e-05,-6.347577473868924e-05,-4.346287114518958e-05,-4.39531260013733e-05,6.8571,5.8571
0.0390625,-1.8074673235675582e-05,-5.908974468604561e-05,-3.0278517334248862e-05,-3.662556681162736e-05,6.8571,5.8571
0.04296875,-3.5645057099259926e-05,-9.770351262683973e-07,-3.909809712367427e-06,-2.832625246051727e-05,6.8571,5.8571
0.046875,-5.566671524376286e-05,-1.611365381094071e-05,-6.842584298466455e-06,-2.6855487891966112e-05,6.8571,5.8571
0.05078125,-4.638689118028533e-05,-8.935422750438695e-05,-4.346287114518958e-05,-5.5176460387579136e-05,6.8571,5.8571
0.0546875,-3.272103706416418e-05,-8.007440344090942e-05,-4.8829410910200644e-05,-6.24952650263218e-05,6.8571,5.8571
0.05859375,-3.5163556794079486e-05,-6.24952650263218e-05,-4.102035141527427e-05,-5.078167578393223e-05,6.8571,5.8571
0.0625,-4.736740089265276e-05,-2.0998693270771334e-05,-2.5393477874418238e-05,-4.1992106576638425e-05,6.8571,5.8571
0.06640625,-7.274684425116348e-05,5.3700143511101e-06,-9.766604333562206e-06,-3.662556681162736e-05,6.8571,5.8571
0.0703125,-6.054300015259021e-05,-3.662556681162736e-05,-3.0278517334248862e-05,-3.759732197299152e-05,6.8571,5.8571
0.07421875,-4.346287114518958e-05,-7.714162885481039e-05,-2.9788262478065145e-05,-5.176218549629968e-05,6.8571,5.8571
0.078125,-5.566671524376286e-05,-5.127193064011595e-05,-1.4161388937209117e-05,-5.66472249561303e-05,6.8571,5.8571
0.08203125,-4.638689118028533e-05,-1.611365381094071e-05,-3.5645057099259926e-05,-6.151475531395436e-05,6.8571,5.8571
0.0859375,-2.0026938109407174e-05,-7.324084603646895e-06,-5.322419551384755e-05,-6.0061499847409767e-05,6.8571,5.8571
0.08984375,-2.442172271305408e-05,-3.321129192034789e-05,-2.2950958144502926e-05,-3.8087576829175235e-05,6.8571,5.8571
0.09375,-3.223078220798045e-05,-9.911555187304492e-05,-1.8074673235675582e-05,-2.6855487891966112e-05,6.8571,5.8571
0.09765625,-2.6855487891966112e-05,-0.00010888563079270617,-4.9809920622568085e-05,-4.736740089265276e-05,6.8571,5.8571
0.1015625,-2.2950958144502926e-05,-5.908974468604561e-05,-4.687714603646905e-05,-5.6156970099946583e-05,6.8571,5.8571
0.10546875,-4.1510606271457985e-05,-1.5141898649576553e-05,-4.590539087510489e-05,-4.638689118028533e-05,6.8571,5.8571
0.109375,-4.590539087510489e-05,-3.4183047081712045e-05,-5.030017547875179e-05,-2.9788262478065145e-05,6.8571,5.8571
0.11328125,-4.590539087510489e-05,-6.933256935988402e-05,-4.9809920622568085e-05,-3.076877219043258e-05,6.8571,5.8571
0.1171875,-3.467330193789577e-05,-5.371445037003127e-05,-2.393146785687036e-05,-4.2482361432822145e-05,6.8571,5.8571
0.12109375,2.437239765011071e-06,-2.3441213000686643e-05,-1.1237368902113366e-05,-5.810923497367817e-05,6.8571,5.8571
0.125,-1.563215350576027e-05,-2.734574274814983e-05,-5.127193064011595e-05,-6.933256935988402e-05,6.8571,5.8571
0.12890625,-6.347577473868924e-05,-4.785765574883648e-05,-5.859948982986189e-05,-5.420470522621499e-05,6.8571,5.8571
0.1328125,-7.030432452124817e-05,-8.691170777447164e-05,-4.590539087510489e-05,-3.4183047081712045e-05,6.8571,5.8571
0.13671875,-6.298551988250552e-05,-4.931966576638436e-05,-3.076877219043258e-05,-1.2699378919661242e-05,6.8571,5.8571
0.140625,-5.469496008239871e-05,1.9469849088273535e-06,-1.611365381094071e-05,-1.4161388937209117e-05,6.8571,5.8571
0.14453125,-3.5645057099259926e-05,-1.611365381094071e-05,-4.736740089265276e-05,-4.5415136018921175e-05,6.8571,5.8571
0.1484375,-1.4672899824521153e-06,-6.395727504386968e-05,-6.88423145037003e-05,-6.24952650263218e-05,6.8571,5.8571
0.15234375,9.75229747463196e-07,-9.911555187304492e-05,-4.1992106576638425e-05,-5.66472249561303e-05,6.8571,5.8571
0.15625,-1.2699378919661242e-05,-9.22782475394827e-05,-1.7584418379491865e-05,-4.8829410910200644e-05,6.8571,5.8571
0.16015625,-3.369279222552834e-05,-6.835205964751658e-05,-3.321129192034789e-05,-4.687714603646905e-05,6.8571,5.8571
0.1640625,-5.5176460387579136e-05,-3.321129192034789e-05,-4.39531260013733e-05,-4.5415136018921175e-05,6.8571,5.8571
0.16796875,-4.2482361432822145e-05,-3.8087576829175235e-05,-4.5415136018921175e-05,-4.4924881162737454e-05,6.8571,5.8571
0.171875,-4.1510606271457985e-05,-6.49377847562371e-05,-5.030017547875179e-05,-4.4924881162737454e-05,6.8571,5.8571
0.17578125,-3.8577831685358955e-05,-5.566671524376286e-05,-4.785765574883648e-05,-3.272103706416418e-05,6.8571,5.8571
0.1796875,-2.2950958144502926e-05,-3.076877219043258e-05,-4.2482361432822145e-05,-3.9068086541542676e-05,6.8571,5.8571
0.18359375,-3.223078220798045e-05,-1.1237368902113366e-05,-4.2482361432822145e-05,-5.176218549629968e-05,6.8571,5.8571
0.1875,-4.5415136018921175e-05,1.2207318684672315e-05,-3.662556681162736e-05,-4.931966576638436e-05,6.8571,5.8571
0.19140625,-3.467330193789577e-05,-3.711582166781108e-05,-3.272103706416418e-05,-4.4924881162737454e-05,6.8571,5.8571
0.1953125,-5.862074586099019e-06,-4.8347910605020204e-05,-1.7584418379491865e-05,-2.5393477874418238e-05,6.8571,5.8571
0.19921875,-2.5393477874418238e-05,-2.442172271305408e-05,-8.794849172198056e-06,-2.0026938109407174e-05,6.8571,5.8571
0.203125,-4.003984170290683e-05,-1.2209124063477524e-05,-3.8087576829175235e-05,-5.030017547875179e-05,6.8571,5.8571
0.20703125,-4.4434626306553733e-05,-2.0026938109407174e-05,-4.1510606271457985e-05,-5.761898011749446e-05,6.8571,5.8571
0.2109375,-6.542803961242083e-05,-6.444752990005339e-05,-1.318963377584496e-05,-3.272103706416418e-05,6.8571,5.8571
0.21484375,-3.955834139772639e-05,-9.081623752193483e-05,-1.4651643793392836e-05,-2.9788262478065145e-05,6.8571,5.8571
0.21875,-7.814339459830613e-06,-6.787055934233615e-05,-4.5415136018921175e-05,-4.346287114518958e-05,6.8571,5.8571
0.22265625,-2.447799694819551e-06,-4.4434626306553733e-05,-5.712872526131074e-05,-4.39531260013733e-05,6.8571,5.8571
0.2265625,-4.400064568551144e-06,-5.273394065766383e-05,-4.5415136018921175e-05,-4.053009655909055e-05,6.8571,5.8571
0.23046875,-3.0278517334248862e-05,-6.787055934233615e-05,-3.711582166781108e-05,-3.8087576829175235e-05,6.8571,5.8571
0.234375,-8.39789331883726e-05,-7.32370991073472e-05,-2.832625246051727e-05,-3.076877219043258e-05,6.8571,5.8571
0.23828125,-6.590953991760126e-05,-3.1740527351796736e-05,-1.5141898649576553e-05,-1.4161388937209117e-05,6.8571,5.8571
0.2421875,-2.6855487891966112e-05,7.3222792248416935e-06,-2.734574274814983e-05,-2.393146785687036e-05,6.8571,5.8571
0.24609375,-2.9788262478065145e-05,-7.814339459830613e-06,-5.030017547875179e-05,-4.5415136018921175e-05,6.8571,5.8571
0.25,-5.371819729915302e-06,-6.395727504386968e-05,-5.127193064011595e-05,-4.346287114518958e-05,6.8571,5.8571
0.25390625,4.84974891279478e-07,-9.570127698176546e-05,-4.8347910605020204e-05,-4.5415136018921175e-05,6.8571,5.8571
0.2578125,-2.9788262478065145e-05,-5.957124499122605e-05,-4.590539087510489e-05,-3.8087576829175235e-05,6.8571,5.8571
0.26171875,-3.5645057099259926e-05,-4.9809920622568085e-05,-4.003984170290683e-05,-3.662556681162736e-05,6.8571,5.8571
0.265625,-3.711582166781108e-05,-6.103325500877393e-05,-3.321129192034789e-05,-4.2482361432822145e-05,6.8571,5.8571
0.26953125,-5.859948982986189e-05,-5.957124499122605e-05,-3.8087576829175235e-05,-3.223078220798045e-05,6.8571,5.8571
0.2734375,-5.5176460387579136e-05,-8.348867833218889e-05,-3.8087576829175235e-05,-3.125027249561302e-05,6.8571,5.8571
0.27734375,-5.273394065766383e-05,-8.15364134584573e-05,-3.272103706416418e-05,-3.5163556794079486e-05,6.8571,5.8571
0.28125,-8.886397264820322e-05,-2.5883732730601955e-05,-2.734574274814983e-05,-2.5883732730601955e-05,6.8571,5.8571
0.28515625,-6.298551988250552e-05,-2.9292999999999907e-06,-2.148894812695505e-05,-3.613531195544364e-05,6.8571,5.8571
0.2890625,2.927494621194789e-06,1.9469849088273535e-06,-3.1740527351796736e-05,-5.957124499122605e-05,6.8571,5.8571
0.29296875,2.0506633035782414e-05,-4.1510606271457985e-05,-4.1992106576638425e-05,-5.322419551384755e-05,6.8571,5.8571
0.296875,-1.2209124063477524e-05,-8.104615860227358e-05,-3.662556681162736e-05,-5.273394065766383e-05,6.8571,5.8571
0.30078125,-5.712872526131074e-05,-2.490322301823452e-05,-2.2950958144502926e-05,-5.761898011749446e-05,6.8571,5.8571
0.3046875,-5.712872526131074e-05,1.2207318684672315e-05,-7.814339459830613e-06,-4.8829410910200644e-05,6.8571,5.8571
0.30859375,-4.687714603646905e-05,9.274544098573286e-06,-1.9536683253223456e-05,-3.5645057099259926e-05,6.8571,5.8571
0.3125,-4.1992106576638425e-05,-2.393146785687036e-05,-4.1992106576638425e-05,-4.638689118028533e-05,6.8571,5.8571
0.31640625,-2.246070328831921e-05,-7.177508908979934e-05,-5.420470522621499e-05,-5.66472249561303e-05,6.8571,5.8571
0.3203125,-2.9292999999999907e-06,-2.148894812695505e-05,-3.4183047081712045e-05,-4.2482361432822145e-05,6.8571,5.8571
0.32421875,-2.7835997604333546e-05,3.369098684672313e-05,-3.8577831685358955e-05,-2.9788262478065145e-05,6.8571,5.8571
0.328125,-4.346287114518958e-05,2.9777702548256668e-05,-2.442172271305408e-05,-1.611365381094071e-05,6.8571,5.8571
0.33203125,-3.662556681162736e-05,-2.7835997604333546e-05,-1.7584418379491865e-05,-2.490322301823452e-05,6.8571,5.8571
0.3359375,-4.346287114518958e-05,-4.4924881162737454e-05,-2.246070328831921e-05,-3.467330193789577e-05,6.8571,5.8571
0.33984375,-2.8816507316700988e-05,-6.352329442282737e-06,-3.909809712367427e-06,-3.369279222552834e-05,6.8571,5.8571
0.34375,-7.814339459830613e-06,1.0246299259937445e-05,6.832024368657982e-06,-4.053009655909055e-05,6.8571,5.8571
0.34765625,3.417749477378507e-06,-3.909809712367427e-06,-3.4195548561837083e-06,-4.053009655909055e-05,6.8571,5.8571
0.3515625,-9.770351262683973e-07,-4.638689118028533e-05,-1.904642839703974e-05,-2.9298007621881428e-05,6.8571,5.8571
0.35546875,-1.6603908667124427e-05,-8.300717802700845e-05,-5.030017547875179e-05,-3.5163556794079486e-05,6.8571,5.8571
0.359375,-1.0256859189745924e-05,-4.9809920622568085e-05,-5.810923497367817e-05,-3.662556681162736e-05,6.8571,5.8571
0.36328125,-8.794849172198056e-06,-9.766604333562206e-06,-5.566671524376286e-05,-3.125027249561302e-05,6.8571,5.8571
0.3671875,-2.0508438414587614e-05,-2.0026938109407174e-05,-4.931966576638436e-05,-2.832625246051727e-05,6.8571,5.8571
0.37109375,-2.832625246051727e-05,-5.810923497367817e-05,-5.712872526131074e-05,-5.127193064011595e-05,6.8571,5.8571
0.375,-2.2950958144502926e-05,-9.130649237811854e-05,-7.665137399862666e-05,-6.88423145037003e-05,6.8571,5.8571
0.37890625,-4.346287114518958e-05,-8.642145291828792e-05,-7.128483423361561e-05,-5.712872526131074e-05,6.8571,5.8571
0.3828125,-6.0061499847409767e-05,-9.766604333562206e-06,-4.1992106576638425e-05,-4.736740089265276e-05,6.8571,5.8571
0.38671875,-3.8087576829175235e-05,3.222022227817197e-05,-5.225244035248339e-05,-4.5415136018921175e-05,6.8571,5.8571
0.390625,-5.862074586099019e-06,-8.446918804455633e-05,-0.00010595285620660715,-8.007440344090942e-05,6.8571,5.8571
0.39453125,5.41941452964065e-05,-0.0001821262044861524,-0.00014403515307087814,-8.691170777447164e-05,6.8571,5.8571
0.3984375,7.714857802700847e-05,-0.00016064253632410162,-0.0001542954868467231,-6.298551988250552e-05,6.8571,5.8571
0.40234375,4.1500046341649504e-05,-0.00010790512108033874,-0.0001479484373693446,-6.590953991760126e-05,6.8571,5.8571
0.40625,-1.4672899824521153e-06,-0.00010888563079270617,-0.00014062087817959867,-6.49377847562371e-05,6.8571,5.8571
0.41015625,-4.400064568551144e-06,-0.00012597451435111007,-0.00012743652436865796,-6.0061499847409767e-05,6.8571,5.8571
0.4140625,2.2949152765697732e-05,-0.00016259480119783318,-0.00014452540792706184,-5.810923497367817e-05,6.8571,5.8571
0.41796875,1.659334873731595e-05,-0.00020605239237811855,-0.00017284638042267488,-6.054300015259021e-05,6.8571,5.8571
0.421875,-4.890319424734862e-06,-0.00016161429148546576,-0.00014892019253070875,-5.273394065766383e-05,6.8571,5.8571
0.42578125,-3.662556681162736e-05,-9.521102212558173e-05,-0.00010155807160296023,-3.1740527351796736e-05,6.8571,5.8571
0.4296875,-2.2950958144502926e-05,-0.00010449084618905926,-0.00010936713109788661,-2.0508438414587614e-05,6.8571,5.8571
0.43359375,-3.4183047081712045e-05,-0.00016210454634164948,-0.00013524558386358434,-2.7835997604333546e-05,6.8571,5.8571
0.4375,-8.886397264820322e-05,-0.00012743652436865796,-0.00011571418057526512,-1.904642839703974e-05,6.8571,5.8571
0.44140625,-6.88423145037003e-05,-0.00011376191570153352,-9.42305124132143e-05,-3.272103706416418e-05,6.8571,5.8571
0.4453125,-5.371819729915302e-06,-0.00011180965082780193,-0.00011034764081025404,-5.225244035248339e-05,6.8571,5.8571
0.44921875,2.587317280079348e-05,-9.765354185549704e-05,-0.0001049723464942397,-4.785765574883648e-05,6.8571,5.8571
0.453125,-8.30459431601433e-06,-0.00013622609357595176,-9.081623752193483e-05,-3.223078220798045e-05,6.8571,5.8571
0.45703125,-6.151475531395436e-05,-0.00015672925202563513,-0.00011083789566643775,-3.369279222552834e-05,6.8571,5.8571
0.4609375,-9.765354185549704e-05,-0.00010400059133287555,-0.0001049723464942397,-4.8829410910200644e-05,6.8571,5.8571
0.46484375,-8.348867833218889e-05,-4.297261628900586e-05,-7.079457937743188e-05,-3.272103706416418e-05,6.8571,5.8571
0.46875,-9.521102212558173e-05,-4.8347910605020204e-05,-5.712872526131074e-05,-2.5883732730601955e-05,6.8571,5.8571
0.47265625,-0.00012694626951247423,-9.22782475394827e-05,-6.787055934233615e-05,-4.297261628900586e-05,6.8571,5.8571
0.4765625,-9.765354185549704e-05,-9.521102212558173e-05,-6.24952650263218e-05,-3.369279222552834e-05,6.8571,5.8571
0.48046875,-7.909389372854198e-05,-5.127193064011595e-05,-5.371445037003127e-05,-4.1992106576638425e-05,6.8571,5.8571
0.484375,-8.78834629358358e-05,-3.1740527351796736e-05,-5.5176460387579136e-05,-6.590953991760126e-05,6.8571,5.8571
0.48828125,-9.374901210803387e-05,-4.4924881162737454e-05,-4.5415136018921175e-05,-6.151475531395436e-05,6.8571,5.8571
0.4921875,-9.081623752193483e-05,-6.444752990005339e-05,-3.5645057099259926e-05,-4.39531260013733e-05,6.8571,5.8571
0.49609375,-0.0001010678167467765,-4.736740089265276e-05,-1.4651643793392836e-05,-3.4183047081712045e-05,6.8571,5.8571
0.5,-0.00010692461136797128,-3.1740527351796736e-05,-5.862074586099019e-06,-4.1510606271457985e-05,6.8571,5.8571
0.50390625,-5.66472249561303e-05,-3.909809712367427e-06,-4.400064568551144e-06,-4.1992106576638425e-05,6.8571,5.8571
0.5078125,-6.542803961242083e-05,3.759551659418632e-05,1.708360359349966e-05,-3.467330193789577e-05,6.8571,5.8571
0.51171875,-8.837371779201951e-05,2.5382917944609757e-05,2.9777702548256668e-05,-3.467330193789577e-05,6.8571,5.8571
0.515625,-9.66730321431296e-05,-3.125027249561302e-05,1.2207318684672315e-05,-5.66472249561303e-05,6.8571,5.8571
0.51953125,-0.00011474242541390094,-2.246070328831921e-05,2.437239765011071e-06,-6.298551988250552e-05,6.8571,5.8571
0.5234375,-8.300717802700845e-05,1.659334873731595e-05,7.812534081025418e-06,-5.176218549629968e-05,6.8571,5.8571
0.52734375,-6.542803961242083e-05,8.294034386205852e-06,4.84974891279478e-07,-4.638689118028533e-05,6.8571,5.8571
0.53125,-7.616987369344623e-05,7.812534081025418e-06,1.2688818989852762e-05,-3.5645057099259926e-05,6.8571,5.8571
0.53515625,-7.861239342336156e-05,-3.0278517334248862e-05,1.855436816205082e-05,-3.4183047081712045e-05,6.8571,5.8571
0.5390625,-7.909389372854198e-05,-4.346287114518958e-05,2.9777702548256668e-05,-3.711582166781108e-05,6.8571,5.8571
0.54296875,-7.909389372854198e-05,2.880594738689251e-05,6.88405091248951e-05,-2.5393477874418238e-05,6.8571,5.8571
0.546875,-6.444752990005339e-05,7.128302885481042e-05,6.737849910734723e-05,-2.7835997604333546e-05,6.8571,5.8571
0.55078125,-7.909389372854198e-05,9.274544098573286e-06,2.587317280079348e-05,-4.053009655909055e-05,6.8571,5.8571
0.5546875,-0.00010449084618905926,-4.4924881162737454e-05,1.5131338719768066e-05,-3.759732197299152e-05,6.8571,5.8571
0.55859375,-9.716328699931333e-05,-1.074711404592965e-05,3.5152996864271e-05,-2.6373987586785672e-05,6.8571,5.8571
0.5625,-7.763188371099411e-05,4.1500046341649504e-05,2.587317280079348e-05,-4.1510606271457985e-05,6.8571,5.8571
0.56640625,-3.711582166781108e-05,6.396422421606776e-05,3.612475202563516e-05,-4.003984170290683e-05,6.8571,5.8571
0.5703125,-1.904642839703974e-05,2.685368251316092e-05,3.9547781467917916e-05,-3.8087576829175235e-05,6.8571,5.8571
0.57421875,-2.5393477874418238e-05,-5.810923497367817e-05,-1.4161388937209117e-05,-6.200501017013807e-05,6.8571,5.8571
0.578125,-4.9809920622568085e-05,-5.712872526131074e-05,-2.6373987586785672e-05,-5.225244035248339e-05,6.8571,5.8571
0.58203125,-7.861239342336156e-05,2.437239765011071e-06,-8.794849172198056e-06,-4.4924881162737454e-05,6.8571,5.8571
0.5859375,-8.691170777447164e-05,5.851514656290547e-06,1.2688818989852762e-05,-5.5176460387579136e-05,6.8571,5.8571
0.58984375,-0.00012938878924238954,-2.832625246051727e-05,1.2688818989852762e-05,-4.8347910605020204e-05,6.8571,5.8571
0.59375,-0.00011767519999999999,-5.420470522621499e-05,-1.0256859189745924e-05,-4.1992106576638425e-05,6.8571,5.8571
0.59765625,-3.711582166781108e-05,-3.5645057099259926e-05,3.417749477378507e-06,-4.1510606271457985e-05,6.8571,5.8571
0.6015625,-5.761898011749446e-05,2.927494621194789e-06,1.3179073846036472e-05,-4.4434626306553733e-05,6.8571,5.8571
0.60546875,-6.395727504386968e-05,1.659334873731595e-05,1.6111848432135503e-05,-3.272103706416418e-05,6.8571,5.8571
0.609375,-2.6855487891966112e-05,-2.9292999999999907e-06,1.3179073846036472e-05,-3.125027249561302e-05,6.8571,5.8571
0.61328125,-3.467330193789577e-05,-7.030432452124817e-05,-2.9788262478065145e-05,-5.6156970099946583e-05,6.8571,5.8571
0.6171875,-2.5393477874418238e-05,-8.348867833218889e-05,-3.1740527351796736e-05,-5.469496008239871e-05,6.8571,5.8571
0.62109375,-4.8347910605020204e-05,-3.369279222552834e-05,-1.6603908667124427e-05,-4.1510606271457985e-05,6.8571,5.8571
0.625,-6.88423145037003e-05,1.659334873731595e-05,2.437239765011071e-06,-3.0278517334248862e-05,6.8571,5.8571
0.62890625,-4.5415136018921175e-05,-3.909809712367427e-06,1.708360359349966e-05,-1.5141898649576553e-05,6.8571,5.8571
0.6328125,-5.371445037003127e-05,-6.639979477378499e-05,2.927494621194789e-06,-2.9788262478065145e-05,6.8571,5.8571
0.63671875,-5.712872526131074e-05,-5.371445037003127e-05,-7.324084603646895e-06,-5.322419551384755e-05,6.8571,5.8571
0.640625,-3.8087576829175235e-05,-4.400064568551144e-06,1.4567300526436355e-06,-4.785765574883648e-05,6.8571,5.8571
0.64453125,-2.246070328831921e-05,3.07582122606241e-05,9.75229747463196e-07,-2.490322301823452e-05,6.8571,5.8571
0.6484375,-4.736740089265276e-05,-1.1237368902113366e-05,-2.0026938109407174e-05,-2.0998693270771334e-05,6.8571,5.8571
0.65234375,-6.835205964751658e-05,-8.251692317082473e-05,-2.393146785687036e-05,-2.832625246051727e-05,6.8571,5.8571
0.65625,-4.346287114518958e-05,-7.177508908979934e-05,-1.6603908667124427e-05,-3.321129192034789e-05,6.8571,5.8571
0.66015625,-4.346287114518958e-05,-4.8829410910200644e-05,-2.6855487891966112e-05,-4.9809920622568085e-05,6.8571,5.8571
0.6640625,-8.251692317082473e-05,-1.318963377584496e-05,-2.734574274814983e-05,-4.003984170290683e-05,6.8571,5.8571
0.66796875,-9.814379671168076e-05,-2.0998693270771334e-05,-2.0998693270771334e-05,-2.490322301823452e-05,6.8571,5.8571
0.671875,-6.49377847562371e-05,-8.056465829709314e-05,-3.8577831685358955e-05,-4.1510606271457985e-05,6.8571,5.8571
0.67578125,-4.003984170290683e-05,-0.00011083789566643775,-4.053009655909055e-05,-5.030017547875179e-05,6.8571,5.8571
0.6796875,-4.2482361432822145e-05,-8.15364134584573e-05,-1.8074673235675582e-05,-5.078167578393223e-05,6.8571,5.8571
0.68359375,-6.787055934233615e-05,-2.246070328831921e-05,-1.0256859189745924e-05,-3.955834139772639e-05,6.8571,5.8571
0.6875,-8.2026668314641e-05,-8.794849172198056e-06,-1.2699378919661242e-05,-3.1740527351796736e-05,6.8571,5.8571
0.69140625,-4.4924881162737454e-05,-3.711582166781108e-05,-2.5393477874418238e-05,-3.8087576829175235e-05,6.8571,5.8571
0.6953125,-3.223078220798045e-05,-6.542803961242083e-05,-1.563215350576027e-05,-4.346287114518958e-05,6.8571,5.8571
0.69921875,-3.1740527351796736e-05,-4.590539087510489e-05,-1.611365381094071e-05,-4.003984170290683e-05,6.8571,5.8571
0.703125,-3.711582166781108e-05,-3.321129192034789e-05,-4.638689118028533e-05,-4.1510606271457985e-05,6.8571,5.8571
0.70703125,-4.590539087510489e-05,-3.955834139772639e-05,-4.9809920622568085e-05,-5.859948982986189e-05,6.8571,5.8571
0.7109375,-5.420470522621499e-05,-5.957124499122605e-05,-3.955834139772639e-05,-6.835205964751658e-05,6.8571,5.8571
0.71484375,-3.4183047081712045e-05,-9.081623752193483e-05,-3.4183047081712045e-05,-5.273394065766383e-05,6.8571,5.8571
0.71875,-4.8347910605020204e-05,-4.687714603646905e-05,-2.0998693270771334e-05,-3.4183047081712045e-05,6.8571,5.8571
0.72265625,-5.371445037003127e-05,1.5131338719768066e-05,3.417749477378507e-06,-2.393146785687036e-05,6.8571,5.8571
0.7265625,-1.7584418379491865e-05,-7.324084603646895e-06,1.708360359349966e-05,-2.7835997604333546e-05,6.8571,5.8571
0.73046875,-3.9068086541542676e-05,-8.59311980621042e-05,-1.9536683253223456e-05,-4.4924881162737454e-05,6.8571,5.8571
0.734375,-5.908974468604561e-05,-0.00012645601465629053,-4.1510606271457985e-05,-4.590539087510489e-05,6.8571,5.8571
0.73828125,-2.3441213000686643e-05,-0.00010888563079270617,-3.955834139772639e-05,-2.9788262478065145e-05,6.8571,5.8571
0.7421875,-1.4651643793392836e-05,-9.42305124132143e-05,-3.125027249561302e-05,-3.759732197299152e-05,6.8571,5.8571
0.74609375,-2.2950958144502926e-05,-8.642145291828792e-05,-4.1992106576638425e-05,-5.761898011749446e-05,6.8571,5.8571
0.75,-3.5163556794079486e-05,-7.95841485847257e-05,-6.103325500877393e-05,-5.712872526131074e-05,6.8571,5.8571
0.75390625,-4.39531260013733e-05,-0.00013622609357595176,-3.369279222552834e-05,-4.003984170290683e-05,6.8571,5.8571
0.7578125,-1.9536683253223456e-05,-0.00014990070224307617,-3.4183047081712045e-05,-4.102035141527427e-05,6.8571,5.8571
0.76171875,-1.2209124063477524e-05,-9.716328699931333e-05,-4.785765574883648e-05,-5.127193064011595e-05,6.8571,5.8571
0.765625,-1.6603908667124427e-05,-4.8829410910200644e-05,-1.2209124063477524e-05,-3.076877219043258e-05,6.8571,5.8571
0.76953125,-3.321129192034789e-05,-8.39789331883726e-05,-9.766604333562206e-06,-1.9536683253223456e-05,6.8571,5.8571
0.7734375,-6.298551988250552e-05,-0.000135735838719768,-1.4651643793392836e-05,-3.711582166781108e-05,6.8571,5.8571
0.77734375,-4.638689118028533e-05,-0.00011962746487373158,-9.285104028381773e-06,-4.053009655909055e-05,6.8571,5.8571
0.78125,-2.832625246051727e-05,-8.642145291828792e-05,-2.3441213000686643e-05,-4.9809920622568085e-05,6.8571,5.8571
0.78515625,-3.5645057099259926e-05,-5.712872526131074e-05,-2.490322301823452e-05,-5.761898011749446e-05,6.8571,5.8571
0.7890625,-2.442172271305408e-05,-8.39789331883726e-05,-4.2482361432822145e-05,-5.371445037003127e-05,6.8571,5.8571
0.79296875,-1.1237368902113366e-05,-0.00012694626951247423,-4.2482361432822145e-05,-4.39531260013733e-05,6.8571,5.8571
0.796875,-5.176218549629968e-05,-0.00011718494514381626,-2.832625246051727e-05,-3.8087576829175235e-05,6.8571,5.8571
0.80078125,-6.395727504386968e-05,-8.544094320592048e-05,-2.393146785687036e-05,-3.5163556794079486e-05,6.8571,5.8571
0.8046875,-7.814339459830613e-06,-5.469496008239871e-05,-1.563215350576027e-05,-2.490322301823452e-05,6.8571,5.8571
0.80859375,-4.890319424734862e-06,-5.66472249561303e-05,-1.563215350576027e-05,-2.832625246051727e-05,6.8571,5.8571
0.8125,-2.5883732730601955e-05,-9.521102212558173e-05,-1.7584418379491865e-05,-4.102035141527427e-05,6.8571,5.8571
0.81640625,-1.8074673235675582e-05,-0.0001308507992599374,-7.324084603646895e-06,-3.8087576829175235e-05,6.8571,5.8571
0.8203125,-3.8087576829175235e-05,-6.738030448615242e-05,-1.2209124063477524e-05,-3.369279222552834e-05,6.8571,5.8571
0.82421875,-3.4183047081712045e-05,1.1717063828488605e-05,-1.7584418379491865e-05,-5.176218549629968e-05,6.8571,5.8571
0.828125,-1.17188692072938e-05,-1.8556173540856022e-05,-2.7835997604333546e-05,-5.322419551384755e-05,6.8571,5.8571
0.83203125,-2.6855487891966112e-05,-4.39531260013733e-05,-3.9068086541542676e-05,-4.2482361432822145e-05,6.8571,5.8571
0.8359375,-3.076877219043258e-05,-4.003984170290683e-05,-4.5415136018921175e-05,-3.5645057099259926e-05,6.8571,5.8571
0.83984375,-3.125027249561302e-05,-8.794849172198056e-06,-4.8347910605020204e-05,-3.223078220798045e-05,6.8571,5.8571
0.84375,-4.1992106576638425e-05,3.320073199053941e-05,-5.66472249561303e-05,-3.955834139772639e-05,6.8571,5.8571
0.84765625,-2.393146785687036e-05,5.17516255664912e-05,-4.4924881162737454e-05,-4.346287114518958e-05,6.8571,5.8571
0.8515625,-1.9536683253223456e-05,7.812534081025418e-06,-3.662556681162736e-05,-4.8829410910200644e-05,6.8571,5.8571
0.85546875,-3.8087576829175235e-05,-3.467330193789577e-05,-3.9068086541542676e-05,-5.420470522621499e-05,6.8571,5.8571
0.859375,-3.321129192034789e-05,3.222022227817197e-05,-1.0256859189745924e-05,-4.4924881162737454e-05,6.8571,5.8571
0.86328125,-4.4434626306553733e-05,6.396422421606776e-05,1.2207318684672315e-05,-3.321129192034789e-05,6.8571,5.8571
0.8671875,-4.8347910605020204e-05,4.491432123292897e-05,-2.148894812695505e-05,-2.9298007621881428e-05,6.8571,5.8571
0.87109375,-3.5645057099259926e-05,2.3430653070878162e-05,-3.8087576829175235e-05,-3.125027249561302e-05,6.8571,5.8571
0.875,-4.346287114518958e-05,-1.957544838635833e-06,-2.393146785687036e-05,-3.711582166781108e-05,6.8571,5.8571
0.87890625,-1.0256859189745924e-05,-1.904642839703974e-05,-4.4434626306553733e-05,-5.078167578393223e-05,6.8571,5.8571
0.8828125,1.4641083863584355e-05,1.0736554116121169e-05,-3.4183047081712045e-05,-4.8829410910200644e-05,6.8571,5.8571
0.88671875,-3.5163556794079486e-05,1.2207318684672315e-05,-3.076877219043258e-05,-4.102035141527427e-05,6.8571,5.8571
0.890625,-7.421760881971464e-05,-7.814339459830613e-06,-2.393146785687036e-05,-3.759732197299152e-05,6.8571,5.8571
0.89453125,-4.003984170290683e-05,-1.4651643793392836e-05,-1.3679888632028678e-05,-2.393146785687036e-05,6.8571,5.8571
0.8984375,-2.2950958144502926e-05,4.84974891279478e-07,-1.8556173540856022e-05,-1.7584418379491865e-05,6.8571,5.8571
0.90234375,-2.9298007621881428e-05,2.0988133340962847e-05,-3.8577831685358955e-05,-3.8087576829175235e-05,6.8571,5.8571
0.90625,-4.003984170290683e-05,3.07582122606241e-05,-5.127193064011595e-05,-4.785765574883648e-05,6.8571,5.8571
0.91015625,-6.933256935988402e-05,-9.770351262683973e-07,-4.053009655909055e-05,-4.590539087510489e-05,6.8571,5.8571
0.9140625,-5.371445037003127e-05,-4.2482361432822145e-05,-3.467330193789577e-05,-5.273394065766383e-05,6.8571,5.8571
0.91796875,-8.30459431601433e-06,-3.076877219043258e-05,-3.759732197299152e-05,-5.371445037003127e-05,6.8571,5.8571
0.921875,-5.371819729915302e-06,8.294034386205852e-06,-1.7094163523308148e-05,-3.759732197299152e-05,6.8571,5.8571
0.92578125,-1.8074673235675582e-05,1.6111848432135503e-05,-1.5141898649576553e-05,-3.369279222552834e-05,6.8571,5.8571
0.9296875,-2.6855487891966112e-05,-1.2209124063477524e-05,-4.1992106576638425e-05,-4.8347910605020204e-05,6.8571,5.8571
0.93359375,-4.687714603646905e-05,-3.369279222552834e-05,-4.736740089265276e-05,-5.371445037003127e-05,6.8571,5.8571
0.9375,-4.1992106576638425e-05,-3.759732197299152e-05,-5.176218549629968e-05,-5.225244035248339e-05,6.8571,5.8571
0.94140625,-2.9788262478065145e-05,-1.3679888632028678e-05,-3.662556681162736e-05,-5.127193064011595e-05,6.8571,5.8571
0.9453125,-5.322419551384755e-05,1.8064113305867095e-05,-2.2950958144502926e-05,-4.687714603646905e-05,6.8571,5.8571
0.94921875,-6.738030448615242e-05,-6.842584298466455e-06,-3.662556681162736e-05,-4.297261628900586e-05,6.8571,5.8571
0.953125,-4.4434626306553733e-05,-4.8829410910200644e-05,-2.832625246051727e-05,-3.4183047081712045e-05,6.8571,5.8571
0.95703125,-3.223078220798045e-05,-6.151475531395436e-05,-2.3441213000686643e-05,-2.734574274814983e-05,6.8571,5.8571
0.9609375,-2.9298007621881428e-05,-2.6373987586785672e-05,-1.6603908667124427e-05,-2.9788262478065145e-05,6.8571,5.8571
0.96484375,-2.246070328831921e-05,2.2949152765697732e-05,1.4567300526436355e-06,-2.7835997604333546e-05,6.8571,5.8571
0.96875,-2.490322301823452e-05,1.3179073846036472e-05,-1.17188692072938e-05,-3.0278517334248862e-05,6.8571,5.8571
0.97265625,-2.148894812695505e-05,-4.4434626306553733e-05,-3.321129192034789e-05,-3.467330193789577e-05,6.8571,5.8571
0.9765625,-2.246070328831921e-05,-6.835205964751658e-05,-3.8087576829175235e-05,-3.662556681162736e-05,6.8571,5.8571
0.98046875,-2.6373987586785672e-05,-3.955834139772639e-05,-4.003984170290683e-05,-3.9068086541542676e-05,6.8571,5.8571
0.984375,-4.638689118028533e-05,-1.611365381094071e-05,-2.6855487891966112e-05,-4.053009655909055e-05,6.8571,5.8571
0.98828125,-8.642145291828792e-05,-1.904642839703974e-05,-5.371819729915302e-06,-3.613531195544364e-05,6.8571,5.8571
0.9921875,-7.225658939497977e-05,-4.5415136018921175e-05,-4.890319424734862e-06,-2.7835997604333546e-05,6.8571,5.8571
0.99609375,-1.8556173540856022e-05,-6.590953991760126e-05,-1.563215350576027e-05,-3.0278517334248862e-05,6.8571,5.8571
1.0,-1.904642839703974e-05,-2.3441213000686643e-05,-2.0508438414587614e-05,-3.1740527351796736e-05,6.8571,5.8571
1.00390625,-3.613531195544364e-05,1.0736554116121169e-05,-2.0998693270771334e-05,-2.0026938109407174e-05,6.8571,5.8571
1.0078125,-3.125027249561302e-05,1.1717063828488605e-05,-9.285104028381773e-06,-3.613531195544364e-05,6.8571,5.8571
1.01171875,-2.5393477874418238e-05,2.437239765011071e-06,-3.909809712367427e-06,-6.0061499847409767e-05,6.8571,5.8571
1.015625,-2.9788262478065145e-05,-5.908974468604561e-05,-3.0278517334248862e-05,-4.5415136018921175e-05,6.8571,5.8571
1.01953125,-6.200501017013807e-05,-8.007440344090942e-05,-5.078167578393223e-05,-3.711582166781108e-05,6.8571,5.8571
1.0234375,-8.300717802700845e-05,-3.272103706416418e-05,-3.467330193789577e-05,-4.102035141527427e-05,6.8571,5.8571
1.02734375,-7.616987369344623e-05,-1.8556173540856022e-05,-2.6373987586785672e-05,-3.467330193789577e-05,6.8571,5.8571
1.03125,-4.8347910605020204e-05,-4.687714603646905e-05,-5.712872526131074e-05,-1.2699378919661242e-05,6.8571,5.8571
1.03515625,-2.734574274814983e-05,-8.544094320592048e-05,-5.859948982986189e-05,-1.17188692072938e-05,6.8571,5.8571
1.0390625,-3.223078220798045e-05,-6.590953991760126e-05,-4.5415136018921175e-05,-1.8074673235675582e-05,6.8571,5.8571
1.04296875,-4.8829410910200644e-05,-3.321129192034789e-05,-5.371445037003127e-05,-1.7094163523308148e-05,6.8571,5.8571
1.046875,-5.176218549629968e-05,-4.346287114518958e-05,-5.6156970099946583e-05,-3.369279222552834e-05,6.8571,5.8571
1.05078125,-3.1740527351796736e-05,-7.128483423361561e-05,-5.761898011749446e-05,-4.39531260013733e-05,6.8571,5.8571
1.0546875,-2.734574274814983e-05,-8.837371779201951e-05,-5.273394065766383e-05,-2.442172271305408e-05,6.8571,5.8571
1.05859375,-5.810923497367817e-05,-7.372735396353092e-05,-7.128483423361561e-05,-2.832625246051727e-05,6.8571,5.8571
1.0625,-8.300717802700845e-05,-4.8829410910200644e-05,-7.177508908979934e-05,-4.8829410910200644e-05,6.8571,5.8571
1.06640625,-7.274684425116348e-05,-4.5415136018921175e-05,-5.957124499122605e-05,-4.102035141527427e-05,6.8571,5.8571
1.0703125,-6.590953991760126e-05,-4.736740089265276e-05,-3.759732197299152e-05,-2.832625246051727e-05,6.8571,5.8571
1.07421875,-9.4720767269398e-05,-6.347577473868924e-05,-2.0998693270771334e-05,-3.125027249561302e-05,6.8571,5.8571
1.078125,-8.104615860227358e-05,-5.908974468604561e-05,-2.6373987586785672e-05,-3.369279222552834e-05,6.8571,5.8571
1.08203125,-6.200501017013807e-05,-1.7094163523308148e-05,-2.9788262478065145e-05,-3.223078220798045e-05,6.8571,5.8571
1.0859375,-3.613531195544364e-05,-9.766604333562206e-06,-1.3679888632028678e-05,-3.321129192034789e-05,6.8571,5.8571
1.08984375,-1.2209124063477524e-05,-5.273394065766383e-05,-2.3441213000686643e-05,-4.297261628900586e-05,6.8571,5.8571
1.09375,-2.490322301823452e-05,-8.78834629358358e-05,-5.273394065766383e-05,-5.420470522621499e-05,6.8571,5.8571
1.09765625,-2.197920298313877e-05,-6.88423145037003e-05,-4.5415136018921175e-05,-4.687714603646905e-05,6.8571,5.8571
1.1015625,-3.369279222552834e-05,-3.9068086541542676e-05,-2.8816507316700988e-05,-3.272103706416418e-05,6.8571,5.8571
1.10546875,-8.056465829709314e-05,-1.8074673235675582e-05,-2.5393477874418238e-05,-2.7835997604333546e-05,6.8571,5.8571
1.109375,-9.276850239566641e-05,-2.6373987586785672e-05,-3.613531195544364e-05,-2.6373987586785672e-05,6.8571,5.8571
1.11328125,-4.297261628900586e-05,-3.662556681162736e-05,-3.759732197299152e-05,-3.223078220798045e-05,6.8571,5.8571
1.1171875,-2.7835997604333546e-05,1.3179073846036472e-05,-2.0508438414587614e-05,-3.321129192034789e-05,6.8571,5.8571
1.12109375,-3.5163556794079486e-05,-2.9292999999999907e-06,-2.148894812695505e-05,-3.711582166781108e-05,6.8571,5.8571
1.125,-2.246070328831921e-05,-6.151475531395436e-05,-3.467330193789577e-05,-3.467330193789577e-05,6.8571,5.8571
1.12890625,-2.0998693270771334e-05,-7.177508908979934e-05,-1.074711404592965e-05,-2.442172271305408e-05,6.8571,5.8571
1.1328125,-4.687714603646905e-05,-3.662556681162736e-05,-8.30459431601433e-06,-2.197920298313877e-05,6.8571,5.8571
1.13671875,-7.567961883726253e-05,1.562159357595179e-05,-2.246070328831921e-05,-2.246070328831921e-05,6.8571,5.8571
1.140625,-6.590953991760126e-05,7.812534081025418e-06,-1.2699378919661242e-05,-2.5393477874418238e-05,6.8571,5.8571
1.14453125,-3.467330193789577e-05,-1.3679888632028678e-05,-3.613531195544364e-05,-3.711582166781108e-05,6.8571,5.8571
1.1484375,-1.7094163523308148e-05,-5.469496008239871e-05,-4.053009655909055e-05,-4.297261628900586e-05,6.8571,5.8571
1.15234375,-2.832625246051727e-05,-4.5415136018921175e-05,-2.3441213000686643e-05,-4.785765574883648e-05,6.8571,5.8571
1.15625,-3.076877219043258e-05,1.6111848432135503e-05,-4.053009655909055e-05,-3.9068086541542676e-05,6.8571,5.8571
1.16015625,-5.5176460387579136e-05,4.879759494926389e-06,-3.5645057099259926e-05,-3.8087576829175235e-05,6.8571,5.8571
1.1640625,-8.544094320592048e-05,-4.297261628900586e-05,-2.3441213000686643e-05,-5.225244035248339e-05,6.8571,5.8571
1.16796875,-7.861239342336156e-05,-6.88423145037003e-05,-3.272103706416418e-05,-4.9809920622568085e-05,6.8571,5.8571
1.171875,-2.393146785687036e-05,-4.297261628900586e-05,-3.321129192034789e-05,-3.613531195544364e-05,6.8571,5.8571
1.17578125,6.3417695124742575e-06,4.84974891279478e-07,-3.467330193789577e-05,-3.613531195544364e-05,6.8571,5.8571
1.1796875,9.75229747463196e-07,-8.30459431601433e-06,-4.4924881162737454e-05,-4.8347910605020204e-05,6.8571,5.8571
1.18359375,-2.148894812695505e-05,-5.371445037003127e-05,-5.810923497367817e-05,-4.638689118028533e-05,6.8571,5.8571
1.1875,-4.39531260013733e-05,-7.274684425116348e-05,-4.2482361432822145e-05,-3.955834139772639e-05,6.8571,5.8571
1.19140625,-3.8087576829175235e-05,-3.125027249561302e-05,-3.272103706416418e-05,-3.955834139772639e-05,6.8571,5.8571
1.1953125,-3.223078220798045e-05,-1.2699378919661242e-05,-1.17188692072938e-05,-3.662556681162736e-05,6.8571,5.8571
1.19921875,-6.689004962996869e-05,-7.814339459830613e-06,-5.371819729915302e-06,-3.223078220798045e-05,6.8571,5.8571
1.203125,-6.835205964751658e-05,-2.490322301823452e-05,-2.3441213000686643e-05,-3.321129192034789e-05,6.8571,5.8571
1.20703125,-7.567961883726253e-05,-7.128483423361561e-05,-2.0998693270771334e-05,-3.076877219043258e-05,6.8571,5.8571
1.2109375,-4.785765574883648e-05,-4.931966576638436e-05,-1.2209124063477524e-05,-1.904642839703974e-05,6.8571,5.8571
1.21484375,7.812534081025418e-06,-4.890319424734862e-06,-3.909809712367427e-06,-2.3441213000686643e-05,6.8571,5.8571
1.21875,-1.563215350576027e-05,4.84974891279478e-07,-1.8556173540856022e-05,-3.125027249561302e-05,6.8571,5.8571
1.22265625,-2.6855487891966112e-05,-3.759732197299152e-05,-3.662556681162736e-05,-4.9809920622568085e-05,6.8571,5.8571
1.2265625,-5.371445037003127e-05,-4.687714603646905e-05,-2.8816507316700988e-05,-4.638689118028533e-05,6.8571,5.8571
1.23046875,-9.4720767269398e-05,-5.761898011749446e-05,-3.321129192034789e-05,-4.297261628900586e-05,6.8571,5.8571
1.234375,-3.9068086541542676e-05,-5.957124499122605e-05,-7.030432452124817e-05,-5.761898011749446e-05,6.8571,5.8571
1.23828125,7.3222792248416935e-06,-3.272103706416418e-05,-6.835205964751658e-05,-5.322419551384755e-05,6.8571,5.8571
1.2421875,-1.7094163523308148e-05,-4.931966576638436e-05,-3.223078220798045e-05,-4.4434626306553733e-05,6.8571,5.8571
1.24609375,-3.369279222552834e-05,-8.739320807965208e-05,-3.613531195544364e-05,-3.613531195544364e-05,6.8571,5.8571
1.25,-7.324084603646895e-06,-6.054300015259021e-05,-2.490322301823452e-05,-2.442172271305408e-05,6.8571,5.8571
1.25390625,-1.4161388937209117e-05,-1.9536683253223456e-05,-1.8556173540856022e-05,-3.369279222552834e-05,6.8571,5.8571
1.2578125,-3.369279222552834e-05,1.4567300526436355e-06,-2.3441213000686643e-05,-3.5163556794079486e-05,6.8571,5.8571
1.26171875,-7.177508908979934e-05,1.9469849088273535e-06,-1.6603908667124427e-05,-3.272103706416418e-05,6.8571,5.8571
1.265625,-8.98357278095674e-05,-2.393146785687036e-05,-2.832625246051727e-05,-3.662556681162736e-05,6.8571,5.8571
1.26953125,-6.347577473868924e-05,-5.273394065766383e-05,-4.297261628900586e-05,-3.711582166781108e-05,6.8571,5.8571
1.2734375,-4.1510606271457985e-05,-3.467330193789577e-05,-3.272103706416418e-05,-3.369279222552834e-05,6.8571,5.8571
1.27734375,-2.197920298313877e-05,4.389504638742664e-06,-3.0278517334248862e-05,-3.9068086541542676e-05,6.8571,5.8571
1.28125,-1.957544838635833e-06,-1.0256859189745924e-05,-3.711582166781108e-05,-4.102035141527427e-05,6.8571,5.8571
1.28515625,1.0246299259937445e-05,-5.469496008239871e-05,-3.1740527351796736e-05,-3.369279222552834e-05,6.8571,5.8571
1.2890625,-2.6855487891966112e-05,-7.274684425116348e-05,-1.4161388937209117e-05,-4.003984170290683e-05,6.8571,5.8571
1.29296875,-7.274684425116348e-05,1.9469849088273535e-06,-7.814339459830613e-06,-3.8577831685358955e-05,6.8571,5.8571
1.296875,-4.297261628900586e-05,3.905752661173419e-05,-1.2699378919661242e-05,-3.8577831685358955e-05,6.8571,5.8571
1.30078125,-2.2950958144502926e-05,-2.393146785687036e-05,-2.8816507316700988e-05,-5.322419551384755e-05,6.8571,5.8571
1.3046875,-4.102035141527427e-05,-3.8087576829175235e-05,-4.4924881162737454e-05,-5.322419551384755e-05,6.8571,5.8571
1.30859375,-3.613531195544364e-05,-3.5645057099259926e-05,-5.957124499122605e-05,-4.2482361432822145e-05,6.8571,5.8571
1.3125,-1.4651643793392836e-05,-2.9298007621881428e-05,-5.5176460387579136e-05,-2.7835997604333546e-05,6.8571,5.8571
1.31640625,-2.6855487891966112e-05,-1.6603908667124427e-05,-5.127193064011595e-05,-3.467330193789577e-05,6.8571,5.8571
1.3203125,-3.711582166781108e-05,2.927494621194789e-06,-4.687714603646905e-05,-3.4183047081712045e-05,6.8571,5.8571
1.32421875,-4.1510606271457985e-05,-2.246070328831921e-05,-3.759732197299152e-05,-3.223078220798045e-05,6.8571,5.8571
1.328125,-5.273394065766383e-05,-8.544094320592048e-05,-4.4924881162737454e-05,-4.9809920622568085e-05,6.8571,5.8571
1.33203125,-5.712872526131074e-05,-6.151475531395436e-05,-5.176218549629968e-05,-4.346287114518958e-05,6.8571,5.8571
1.3359375,-3.613531195544364e-05,2.437239765011071e-06,-4.4434626306553733e-05,-3.759732197299152e-05,6.8571,5.8571
1.33984375,-2.6373987586785672e-05,-9.766604333562206e-06,-1.9536683253223456e-05,-4.931966576638436e-05,6.8571,5.8571
1.34375,-4.590539087510489e-05,-7.372735396353092e-05,-1.9536683253223456e-05,-4.5415136018921175e-05,6.8571,5.8571
1.34765625,-5.176218549629968e-05,-8.98357278095674e-05,-3.4183047081712045e-05,-4.4924881162737454e-05,6.8571,5.8571
1.3515625,-5.176218549629968e-05,-1.3679888632028678e-05,-3.4195548561837083e-06,-4.638689118028533e-05,6.8571,5.8571
1.35546875,-4.4434626306553733e-05,5.41941452964065e-05,3.07582122606241e-05,-2.734574274814983e-05,6.8571,5.8571
1.359375,-4.638689118028533e-05,1.7573858449683384e-05,9.75229747463196e-07,-2.148894812695505e-05,6.8571,5.8571
1.36328125,-6.24952650263218e-05,-7.665137399862666e-05,-5.030017547875179e-05,-4.346287114518958e-05,6.8571,5.8571
1.3671875,-2.734574274814983e-05,-8.78834629358358e-05,-4.931966576638436e-05,-5.5176460387579136e-05,6.8571,5.8571
1.37109375,-1.4651643793392836e-05,-3.9068086541542676e-05,-2.8816507316700988e-05,-4.053009655909055e-05,6.8571,5.8571
1.375,-4.4434626306553733e-05,-2.148894812695505e-05,-2.148894812695505e-05,-3.369279222552834e-05,6.8571,5.8571
1.37890625,-6.24952650263218e-05,5.3700143511101e-06,-1.904642839703974e-05,-2.832625246051727e-05,6.8571,5.8571
1.3828125,-6.689004962996869e-05,-1.6603908667124427e-05,-2.2950958144502926e-05,-2.393146785687036e-05,6.8571,5.8571
1.38671875,-5.908974468604561e-05,-7.763188371099411e-05,-3.467330193789577e-05,-4.39531260013733e-05,6.8571,5.8571
1.390625,-5.371445037003127e-05,-7.763188371099411e-05,-4.2482361432822145e-05,-6.24952650263218e-05,6.8571,5.8571
1.39453125,-3.125027249561302e-05,-3.4183047081712045e-05,-4.102035141527427e-05,-5.66472249561303e-05,6.8571,5.8571
1.3984375,-3.662556681162736e-05,8.294034386205852e-06,-3.369279222552834e-05,-4.590539087510489e-05,6.8571,5.8571
1.40234375,-6.444752990005339e-05,2.8315692530708787e-05,-1.5141898649576553e-05,-3.955834139772639e-05,6.8571,5.8571
1.40625,-3.076877219043258e-05,-8.794849172198056e-06,6.832024368657982e-06,-1.7584418379491865e-05,6.8571,5.8571
1.41015625,-5.225244035248339e-05,-5.761898011749446e-05,2.927494621194789e-06,-2.3441213000686643e-05,6.8571,5.8571
1.4140625,-8.300717802700845e-05,-3.125027249561302e-05,-1.8074673235675582e-05,-4.4924881162737454e-05,6.8571,5.8571
1.41796875,-3.0278517334248862e-05,-5.862074586099019e-06,-3.759732197299152e-05,-4.638689118028533e-05,6.8571,5.8571
1.421875,-2.2950958144502926e-05,-3.711582166781108e-05,-3.4183047081712045e-05,-4.4924881162737454e-05,6.8571,5.8571
1.42578125,-2.6855487891966112e-05,-6.103325500877393e-05,-2.246070328831921e-05,-4.687714603646905e-05,6.8571,5.8571
1.4296875,-1.8074673235675582e-05,-5.712872526131074e-05,-2.246070328831921e-05,-5.030017547875179e-05,6.8571,5.8571
1.43359375,-6.444752990005339e-05,-2.7835997604333546e-05,-2.6373987586785672e-05,-5.273394065766383e-05,6.8571,5.8571
1.4375,-5.761898011749446e-05,-1.2699378919661242e-05,-2.0998693270771334e-05,-4.785765574883648e-05,6.8571,5.8571
1.44140625,-1.318963377584496e-05,8.784289242389575e-06,4.389504638742664e-06,-3.5645057099259926e-05,6.8571,5.8571
1.4453125,-2.0998693270771334e-05,-8.794849172198056e-06,6.832024368657982e-06,-4.003984170290683e-05,6.8571,5.8571
1.44921875,-4.003984170290683e-05,-6.151475531395436e-05,-2.490322301823452e-05,-4.687714603646905e-05,6.8571,5.8571
1.453125,-4.2482361432822145e-05,-5.469496008239871e-05,-3.759732197299152e-05,-4.638689118028533e-05,6.8571,5.8571
1.45703125,-3.1740527351796736e-05,-4.5415136018921175e-05,-3.4183047081712045e-05,-4.785765574883648e-05,6.8571,5.8571
1.4609375,-3.759732197299152e-05,-3.711582166781108e-05,-3.613531195544364e-05,-5.078167578393223e-05,6.8571,5.8571
1.46484375,-4.5415136018921175e-05,-5.030017547875179e-05,-3.467330193789577e-05,-4.5415136018921175e-05,6.8571,5.8571
1.46875,-1.9536683253223456e-05,-7.274684425116348e-05,-3.955834139772639e-05,-4.1510606271457985e-05,6.8571,5.8571
1.47265625,-3.759732197299152e-05,-4.5415136018921175e-05,-5.127193064011595e-05,-4.346287114518958e-05,6.8571,5.8571
1.4765625,-6.590953991760126e-05,4.389504638742664e-06,-1.5141898649576553e-05,-2.3441213000686643e-05,6.8571,5.8571
1.48046875,-2.442172271305408e-05,-7.814339459830613e-06,-2.0026938109407174e-05,-1.9536683253223456e-05,6.8571,5.8571
1.484375,-1.0256859189745924e-05,-4.4924881162737454e-05,-5.5176460387579136e-05,-3.711582166781108e-05,6.8571,5.8571
1.48828125,-2.5393477874418238e-05,-6.0061499847409767e-05,-3.076877219043258e-05,-4.1992106576638425e-05,6.8571,5.8571
1.4921875,-5.030017547875179e-05,-4.736740089265276e-05,-3.223078220798045e-05,-4.8829410910200644e-05,6.8571,5.8571
1.49609375,-5.712872526131074e-05,4.84974891279478e-07,-4.4434626306553733e-05,-5.859948982986189e-05,6.8571,5.8571
1.5,-4.003984170290683e-05,-8.794849172198056e-06,-3.125027249561302e-05,-6.054300015259021e-05,6.8571,5.8571
1.50390625,-1.611365381094071e-05,-5.420470522621499e-05,-3.613531195544364e-05,-5.078167578393223e-05,6.8571,5.8571
1.5078125,-2.734574274814983e-05,-6.933256935988402e-05,-2.7835997604333546e-05,-3.1740527351796736e-05,6.8571,5.8571
1.51171875,-5.030017547875179e-05,-4.1992106576638425e-05,-5.862074586099019e-06,-2.197920298313877e-05,6.8571,5.8571
1.515625,-1.8556173540856022e-05,-1.904642839703974e-05,-2.6855487891966112e-05,-3.5645057099259926e-05,6.8571,5.8571
1.51953125,-9.285104028381773e-06,-2.5393477874418238e-05,-4.1992106576638425e-05,-5.810923497367817e-05,6.8571,5.8571
1.5234375,-4.1992106576638425e-05,-4.1510606271457985e-05,-3.613531195544364e-05,-5.273394065766383e-05,6.8571,5.8571
1.52734375,-7.128483423361561e-05,-7.225658939497977e-05,-1.8556173540856022e-05,-3.125027249561302e-05,6.8571,5.8571
1.53125,-7.128483423361561e-05,-5.469496008239871e-05,-3.909809712367427e-06,-3.321129192034789e-05,6.8571,5.8571
1.53515625,-4.2482361432822145e-05,-4.890319424734862e-06,-8.794849172198056e-06,-3.223078220798045e-05,6.8571,5.8571
1.5390625,-1.9536683253223456e-05,8.294034386205852e-06,-7.814339459830613e-06,-2.7835997604333546e-05,6.8571,5.8571
1.54296875,-3.272103706416418e-05,-2.8816507316700988e-05,-2.0026938109407174e-05,-3.759732197299152e-05,6.8571,5.8571
1.546875,-5.761898011749446e-05,-8.15364134584573e-05,-3.955834139772639e-05,-4.736740089265276e-05,6.8571,5.8571
1.55078125,-3.321129192034789e-05,-8.056465829709314e-05,-4.1510606271457985e-05,-5.078167578393223e-05,6.8571,5.8571
1.5546875,-3.4195548561837083e-06,-4.4924881162737454e-05,-3.5163556794079486e-05,-5.030017547875179e-05,6.8571,5.8571
1.55859375,-2.2950958144502926e-05,1.1226808972304879e-05,-1.2209124063477524e-05,-4.8347910605020204e-05,6.8571,5.8571
1.5625,-5.371445037003127e-05,7.812534081025418e-06,-2.447799694819551e-06,-3.955834139772639e-05,6.8571,5.8571
1.56640625,-6.054300015259021e-05,-6.689004962996869e-05,-2.5883732730601955e-05,-3.9068086541542676e-05,6.8571,5.8571
1.5703125,-4.1992106576638425e-05,-9.570127698176546e-05,-2.393146785687036e-05,-4.4434626306553733e-05,6.8571,5.8571
1.57421875,-4.785765574883648e-05,-5.859948982986189e-05,-2.8816507316700988e-05,-4.736740089265276e-05,6.8571,5.8571
1.578125,-5.273394065766383e-05,-1.7584418379491865e-05,-1.7584418379491865e-05,-2.5883732730601955e-05,6.8571,5.8571
1.58203125,-6.842584298466455e-06,-2.9788262478065145e-05,-1.4651643793392836e-05,-2.148894812695505e-05,6.8571,5.8571
1.5859375,-5.371819729915302e-06,-5.957124499122605e-05,-3.5163556794079486e-05,-4.4434626306553733e-05,6.8571,5.8571
1.58984375,-3.8087576829175235e-05,-6.444752990005339e-05,-4.9809920622568085e-05,-4.931966576638436e-05,6.8571,5.8571
1.59375,-5.712872526131074e-05,-2.442172271305408e-05,-3.8087576829175235e-05,-4.687714603646905e-05,6.8571,5.8571
1.59765625,-3.8577831685358955e-05,2.880594738689251e-05,-1.7094163523308148e-05,-4.8829410910200644e-05,6.8571,5.8571
1.6015625,-2.9788262478065145e-05,6.3417695124742575e-06,-1.6603908667124427e-05,-4.736740089265276e-05,6.8571,5.8571
1.60546875,-5.469496008239871e-05,-5.322419551384755e-05,-9.766604333562206e-06,-3.613531195544364e-05,6.8571,5.8571
1.609375,-5.66472249561303e-05,-7.665137399862666e-05,-1.957544838635833e-06,-3.223078220798045e-05,6.8571,5.8571
1.61328125,-3.125027249561302e-05,-4.4924881162737454e-05,-1.8556173540856022e-05,-4.638689118028533e-05,6.8571,5.8571
1.6171875,-3.662556681162736e-05,1.0246299259937445e-05,-8.30459431601433e-06,-3.1740527351796736e-05,6.8571,5.8571
1.62109375,-4.2482361432822145e-05,-5.371819729915302e-06,-1.0256859189745924e-05,-2.5393477874418238e-05,6.8571,5.8571
1.625,-1.074711404592965e-05,-5.420470522621499e-05,-5.030017547875179e-05,-5.566671524376286e-05,6.8571,5.8571
1.62890625,4.389504638742664e-06,-9.570127698176546e-05,-5.176218549629968e-05,-6.835205964751658e-05,6.8571,5.8571
1.6328125,-8.794849172198056e-06,-8.251692317082473e-05,-2.5883732730601955e-05,-4.4924881162737454e-05,6.8571,5.8571
1.63671875,-3.613531195544364e-05,-2.8816507316700988e-05,-3.0278517334248862e-05,-3.272103706416418e-05,6.8571,5.8571
1.640625,-5.712872526131074e-05,-6.352329442282737e-06,-1.904642839703974e-05,-3.8087576829175235e-05,6.8571,5.8571
1.64453125,-6.933256935988402e-05,-5.420470522621499e-05,-9.766604333562206e-06,-3.759732197299152e-05,6.8571,5.8571
1.6484375,-6.24952650263218e-05,-8.348867833218889e-05,-1.0256859189745924e-05,-3.9068086541542676e-05,6.8571,5.8571
1.65234375,-2.2950958144502926e-05,-4.003984170290683e-05,-6.352329442282737e-06,-2.9788262478065145e-05,6.8571,5.8571
1.65625,-3.8577831685358955e-05,-1.4161388937209117e-05,-1.318963377584496e-05,-2.9788262478065145e-05,6.8571,5.8571
1.66015625,-3.955834139772639e-05,-3.8087576829175235e-05,-2.3441213000686643e-05,-4.1510606271457985e-05,6.8571,5.8571
1.6640625,-6.352329442282737e-06,-8.2026668314641e-05,-3.711582166781108e-05,-4.5415136018921175e-05,6.8571,5.8571
1.66796875,-1.9536683253223456e-05,-9.716328699931333e-05,-4.785765574883648e-05,-4.687714603646905e-05,6.8571,5.8571
1.671875,-3.955834139772639e-05,-5.273394065766383e-05,-3.955834139772639e-05,-5.322419551384755e-05,6.8571,5.8571
1.67578125,-1.904642839703974e-05,-1.0256859189745924e-05,-2.246070328831921e-05,-3.8577831685358955e-05,6.8571,5.8571
1.6796875,-1.318963377584496e-05,1.9469849088273535e-06,-2.6855487891966112e-05,-3.4183047081712045e-05,6.8571,5.8571
1.68359375,-2.7835997604333546e-05,-2.6373987586785672e-05,-3.223078220798045e-05,-4.785765574883648e-05,6.8571,5.8571
1.6875,-4.1992106576638425e-05,-7.128483423361561e-05,-4.1510606271457985e-05,-4.5415136018921175e-05,6.8571,5.8571
1.69140625,-5.371445037003127e-05,-5.6156970099946583e-05,-5.5176460387579136e-05,-4.4924881162737454e-05,6.8571,5.8571
1.6953125,-5.859948982986189e-05,-1.563215350576027e-05,-5.030017547875179e-05,-4.8347910605020204e-05,6.8571,5.8571
1.69921875,-4.39531260013733e-05,-5.279964904239875e-09,-5.66472249561303e-05,-5.078167578393223e-05,6.8571,5.8571
1.703125,-2.3441213000686643e-05,-3.076877219043258e-05,-4.053009655909055e-05,-3.4183047081712045e-05,6.8571,5.8571
1.70703125,-2.0998693270771334e-05,-8.056465829709314e-05,-1.3679888632028678e-05,-2.197920298313877e-05,6.8571,5.8571
1.7109375,-4.1992106576638425e-05,-6.639979477378499e-05,-2.0998693270771334e-05,-2.2950958144502926e-05,6.8571,5.8571
1.71484375,-2.490322301823452e-05,-2.9292999999999907e-06,-3.223078220798045e-05,-2.6855487891966112e-05,6.8571,5.8571
1.71875,1.3179073846036472e-05,2.7825437674525076e-05,-2.3441213000686643e-05,-3.321129192034789e-05,6.8571,5.8571
1.72265625,-4.890319424734862e-06,-4.638689118028533e-05,-4.39531260013733e-05,-4.053009655909055e-05,6.8571,5.8571
1.7265625,-4.4924881162737454e-05,-9.814379671168076e-05,-4.687714603646905e-05,-4.003984170290683e-05,6.8571,5.8571
1.73046875,-6.738030448615242e-05,-8.007440344090942e-05,-1.563215350576027e-05,-3.955834139772639e-05,6.8571,5.8571
1.734375,-3.759732197299152e-05,-2.7835997604333546e-05,-2.5883732730601955e-05,-3.223078220798045e-05,6.8571,5.8571
1.73828125,-2.0026938109407174e-05,1.4567300526436355e-06,-4.931966576638436e-05,-3.5163556794079486e-05,6.8571,5.8571
1.7421875,-5.371445037003127e-05,-1.17188692072938e-05,-3.369279222552834e-05,-3.8087576829175235e-05,6.8571,5.8571
1.74609375,-5.030017547875179e-05,-3.223078220798045e-05,-1.7584418379491865e-05,-1.611365381094071e-05,6.8571,5.8571
1.75,2.927494621194789e-06,-4.638689118028533e-05,-2.148894812695505e-05,-2.0026938109407174e-05,6.8571,5.8571
1.75390625,9.75229747463196e-07,-4.2482361432822145e-05,-3.9068086541542676e-05,-4.102035141527427e-05,6.8571,5.8571
1.7578125,-6.0061499847409767e-05,-3.321129192034789e-05,-4.053009655909055e-05,-4.736740089265276e-05,6.8571,5.8571
1.76171875,-9.22782475394827e-05,-3.321129192034789e-05,-4.9809920622568085e-05,-4.931966576638436e-05,6.8571,5.8571
1.765625,-4.297261628900586e-05,-4.5415136018921175e-05,-4.9809920622568085e-05,-4.053009655909055e-05,6.8571,5.8571
1.76953125,5.851514656290547e-06,-6.738030448615242e-05,-3.8087576829175235e-05,-4.1992106576638425e-05,6.8571,5.8571
1.7734375,5.3700143511101e-06,-5.030017547875179e-05,-2.8816507316700988e-05,-5.712872526131074e-05,6.8571,5.8571
1.77734375,-1.6603908667124427e-05,-1.904642839703974e-05,-1.8556173540856022e-05,-4.638689118028533e-05,6.8571,5.8571
1.78125,-3.9068086541542676e-05,-2.0998693270771334e-05,-7.814339459830613e-06,-2.0998693270771334e-05,6.8571,5.8571
1.78515625,-6.444752990005339e-05,-4.638689118028533e-05,-2.148894812695505e-05,-2.6373987586785672e-05,6.8571,5.8571
1.7890625,-4.590539087510489e-05,-5.5176460387579136e-05,-4.638689118028533e-05,-3.759732197299152e-05,6.8571,5.8571
1.79296875,-2.0998693270771334e-05,-4.590539087510489e-05,-4.39531260013733e-05,-4.638689118028533e-05,6.8571,5.8571
1.796875,-3.467330193789577e-05,-3.1740527351796736e-05,-5.176218549629968e-05,-5.273394065766383e-05,6.8571,5.8571
1.80078125,-7.763188371099411e-05,-4.1992106576638425e-05,-5.322419551384755e-05,-4.9809920622568085e-05,6.8571,5.8571
1.8046875,-6.689004962996869e-05,-3.8577831685358955e-05,-2.9298007621881428e-05,-4.39531260013733e-05,6.8571,5.8571
1.80859375,-5.279964904239875e-09,-4.8829410910200644e-05,-1.2699378919661242e-05,-3.223078220798045e-05,6.8571,5.8571
1.8125,9.274544098573286e-06,-4.003984170290683e-05,-2.2950958144502926e-05,-4.785765574883648e-05,6.8571,5.8571
1.81640625,-2.9292999999999907e-06,3.320073199053941e-05,-1.318963377584496e-05,-4.1510606271457985e-05,6.8571,5.8571
1.8203125,-1.074711404592965e-05,1.5131338719768066e-05,-9.766604333562206e-06,-1.1237368902113366e-05,6.8571,5.8571
1.82421875,-3.8577831685358955e-05,-5.761898011749446e-05,-3.5645057099259926e-05,-2.832625246051727e-05,6.8571,5.8571
1.828125,-6.88423145037003e-05,-8.691170777447164e-05,-3.223078220798045e-05,-4.687714603646905e-05,6.8571,5.8571
1.83203125,-7.225658939497977e-05,-7.177508908979934e-05,-1.318963377584496e-05,-3.125027249561302e-05,6.8571,5.8571
1.8359375,-3.5163556794079486e-05,-5.279964904239875e-09,-5.862074586099019e-06,-2.0998693270771334e-05,6.8571,5.8571
1.83984375,-4.785765574883648e-05,3.222022227817197e-05,-7.324084603646895e-06,-3.662556681162736e-05,6.8571,5.8571
1.84375,-1.904642839703974e-05,-2.734574274814983e-05,-1.8556173540856022e-05,-3.272103706416418e-05,6.8571,5.8571
1.84765625,2.734393736934463e-05,-6.347577473868924e-05,-2.0998693270771334e-05,-2.442172271305408e-05,6.8571,5.8571
1.8515625,-1.5141898649576553e-05,-6.88423145037003e-05,-3.223078220798045e-05,-4.297261628900586e-05,6.8571,5.8571
1.85546875,-6.24952650263218e-05,-3.613531195544364e-05,-3.759732197299152e-05,-4.4924881162737454e-05,6.8571,5.8571
1.859375,-4.8347910605020204e-05,-7.324084603646895e-06,-3.8087576829175235e-05,-4.590539087510489e-05,6.8571,5.8571
1.86328125,-2.0998693270771334e-05,-2.9788262478065145e-05,-3.467330193789577e-05,-4.687714603646905e-05,6.8571,5.8571
1.8671875,1.9469849088273535e-06,-3.076877219043258e-05,1.9469849088273535e-06,-3.467330193789577e-05,6.8571,5.8571
1.87109375,-1.074711404592965e-05,-3.223078220798045e-05,-1.074711404592965e-05,-4.297261628900586e-05,6.8571,5.8571
1.875,-3.9068086541542676e-05,-3.1740527351796736e-05,-5.225244035248339e-05,-5.761898011749446e-05,6.8571,5.8571
1.87890625,-1.2209124063477524e-05,-2.148894812695505e-05,-4.5415136018921175e-05,-5.273394065766383e-05,6.8571,5.8571
1.8828125,-1.4161388937209117e-05,-2.490322301823452e-05,-4.1510606271457985e-05,-5.225244035248339e-05,6.8571,5.8571
1.88671875,-4.2482361432822145e-05,-4.736740089265276e-05,-3.5645057099259926e-05,-4.39531260013733e-05,6.8571,5.8571
1.890625,-4.053009655909055e-05,-6.590953991760126e-05,-2.832625246051727e-05,-4.003984170290683e-05,6.8571,5.8571
1.89453125,-1.17188692072938e-05,-2.393146785687036e-05,-4.736740089265276e-05,-4.4924881162737454e-05,6.8571,5.8571
1.8984375,1.8064113305867095e-05,3.0267957404440378e-05,-2.246070328831921e-05,-3.613531195544364e-05,6.8571,5.8571
1.90234375,-1.8556173540856022e-05,1.9469849088273535e-06,-2.447799694819551e-06,-3.076877219043258e-05,6.8571,5.8571
1.90625,-5.078167578393223e-05,-5.371445037003127e-05,-5.030017547875179e-05,-4.4434626306553733e-05,6.8571,5.8571
1.91015625,-2.0508438414587614e-05,-3.955834139772639e-05,-5.712872526131074e-05,-5.273394065766383e-05,6.8571,5.8571
1.9140625,1.4567300526436355e-06,9.75229747463196e-07,-2.442172271305408e-05,-4.687714603646905e-05,6.8571,5.8571
1.91796875,-7.814339459830613e-06,1.4641083863584355e-05,-4.053009655909055e-05,-4.39531260013733e-05,6.8571,5.8571
1.921875,-3.369279222552834e-05,-2.3441213000686643e-05,-5.908974468604561e-05,-4.736740089265276e-05,6.8571,5.8571
1.92578125,-5.712872526131074e-05,-7.128483423361561e-05,-5.761898011749446e-05,-5.469496008239871e-05,6.8571,5.8571
1.9296875,-4.053009655909055e-05,-9.960580672922865e-05,-6.738030448615242e-05,-5.712872526131074e-05,6.8571,5.8571
1.93359375,-1.0256859189745924e-05,-7.861239342336156e-05,-5.761898011749446e-05,-4.8347910605020204e-05,6.8571,5.8571
1.9375,-2.6373987586785672e-05,-3.0278517334248862e-05,-5.66472249561303e-05,-4.9809920622568085e-05,6.8571,5.8571
1.94140625,-3.321129192034789e-05,-4.638689118028533e-05,-7.030432452124817e-05,-5.6156970099946583e-05,6.8571,5.8571
1.9453125,-2.0026938109407174e-05,-8.15364134584573e-05,-4.4924881162737454e-05,-5.66472249561303e-05,6.8571,5.8571
1.94921875,-4.9809920622568085e-05,-7.469910912489507e-05,-2.393146785687036e-05,-5.371445037003127e-05,6.8571,5.8571
1.953125,-7.372735396353092e-05,-4.4434626306553733e-05,-3.613531195544364e-05,-3.467330193789577e-05,6.8571,5.8571
1.95703125,-4.785765574883648e-05,-1.5141898649576553e-05,-5.273394065766383e-05,-3.8087576829175235e-05,6.8571,5.8571
1.9609375,-1.3679888632028678e-05,-2.148894812695505e-05,-4.346287114518958e-05,-4.053009655909055e-05,6.8571,5.8571
1.96484375,-2.6373987586785672e-05,-7.861239342336156e-05,-1.611365381094071e-05,-2.9788262478065145e-05,6.8571,5.8571
1.96875,-2.5883732730601955e-05,-9.178799268329899e-05,-3.0278517334248862e-05,-4.1510606271457985e-05,6.8571,5.8571
1.97265625,-2.5883732730601955e-05,-6.0061499847409767e-05,-5.761898011749446e-05,-5.420470522621499e-05,6.8571,5.8571
1.9765625,-2.0998693270771334e-05,-4.2482361432822145e-05,-6.298551988250552e-05,-4.4434626306553733e-05,6.8571,5.8571
1.98046875,-2.0026938109407174e-05,-2.9298007621881428e-05,-5.273394065766383e-05,-3.955834139772639e-05,6.8571,5.8571
1.984375,-1.8074673235675582e-05,-6.88423145037003e-05,-5.469496008239871e-05,-4.297261628900586e-05,6.8571,5.8571
1.98828125,-2.832625246051727e-05,-9.765354185549704e-05,-6.054300015259021e-05,-4.8347910605020204e-05,6.8571,5.8571
1.9921875,-5.5176460387579136e-05,-5.420470522621499e-05,-5.078167578393223e-05,-4.39531260013733e-05,6.8571,5.8571
1.99609375,-4.1992106576638425e-05,-5.279964904239875e-09,-2.6855487891966112e-05,-2.8816507316700988e-05,6.8571,5.8571
2.0,-1.318963377584496e-05,-1.4672899824521153e-06,-3.1740527351796736e-05,-3.467330193789577e-05,6.8571,5.8571
2.00390625,-3.272103706416418e-05,-4.2482361432822145e-05,-3.8087576829175235e-05,-4.9809920622568085e-05,6.8571,5.8571
2.0078125,-4.053009655909055e-05,-5.176218549629968e-05,-2.2950958144502926e-05,-4.687714603646905e-05,6.8571,5.8571
2.01171875,-2.9788262478065145e-05,-3.955834139772639e-05,-1.957544838635833e-06,-3.1740527351796736e-05,6.8571,5.8571
2.015625,-5.030017547875179e-05,-1.318963377584496e-05,-1.5141898649576553e-05,-3.5645057099259926e-05,6.8571,5.8571
2.01953125,-4.4434626306553733e-05,6.3417695124742575e-06,-3.272103706416418e-05,-3.662556681162736e-05,6.8571,5.8571
2.0234375,9.75229747463196e-07,-1.904642839703974e-05,-2.5393477874418238e-05,-2.9788262478065145e-05,6.8571,5.8571
2.02734375,1.7573858449683384e-05,-5.712872526131074e-05,-1.7094163523308148e-05,-2.5883732730601955e-05,6.8571,5.8571
2.03125,-1.904642839703974e-05,-5.712872526131074e-05,-3.321129192034789e-05,-3.759732197299152e-05,6.8571,5.8571
2.03515625,-5.273394065766383e-05,-1.2209124063477524e-05,-3.076877219043258e-05,-4.346287114518958e-05,6.8571,5.8571
2.0390625,-3.272103706416418e-05,-8.30459431601433e-06,-1.7094163523308148e-05,-4.931966576638436e-05,6.8571,5.8571
2.04296875,-1.3679888632028678e-05,-4.4434626306553733e-05,-4.4924881162737454e-05,-6.639979477378499e-05,6.8571,5.8571
2.046875,-2.442172271305408e-05,-7.95841485847257e-05,-5.810923497367817e-05,-6.0061499847409767e-05,6.8571,5.8571
2.05078125,-4.003984170290683e-05,-7.372735396353092e-05,-2.9788262478065145e-05,-4.2482361432822145e-05,6.8571,5.8571
2.0546875,-2.7835997604333546e-05,-3.4183047081712045e-05,-1.7094163523308148e-05,-4.297261628900586e-05,6.8571,5.8571
2.05859375,-2.5393477874418238e-05,-1.563215350576027e-05,-3.662556681162736e-05,-4.4434626306553733e-05,6.8571,5.8571
2.0625,-4.736740089265276e-05,-4.8347910605020204e-05,-4.9809920622568085e-05,-4.102035141527427e-05,6.8571,5.8571
2.06640625,-3.9068086541542676e-05,-6.298551988250552e-05,-3.369279222552834e-05,-3.711582166781108e-05,6.8571,5.8571
2.0703125,-2.832625246051727e-05,-6.200501017013807e-05,-1.7094163523308148e-05,-3.125027249561302e-05,6.8571,5.8571
2.07421875,-4.1992106576638425e-05,-3.321129192034789e-05,-4.1992106576638425e-05,-4.931966576638436e-05,6.8571,5.8571
2.078125,-4.9809920622568085e-05,-4.785765574883648e-05,-6.151475531395436e-05,-7.128483423361561e-05,6.8571,5.8571
2.08203125,-4.687714603646905e-05,-7.421760881971464e-05,-4.785765574883648e-05,-5.566671524376286e-05,6.8571,5.8571
2.0859375,-3.8577831685358955e-05,-7.616987369344623e-05,-4.102035141527427e-05,-3.272103706416418e-05,6.8571,5.8571
2.08984375,-4.003984170290683e-05,-8.2026668314641e-05,-4.4924881162737454e-05,-3.272103706416418e-05,6.8571,5.8571
2.09375,-4.4924881162737454e-05,-6.689004962996869e-05,-4.102035141527427e-05,-3.369279222552834e-05,6.8571,5.8571
2.09765625,-3.955834139772639e-05,-2.442172271305408e-05,-4.003984170290683e-05,-3.662556681162736e-05,6.8571,5.8571
2.1015625,-2.393146785687036e-05,-4.1992106576638425e-05,-4.687714603646905e-05,-3.9068086541542676e-05,6.8571,5.8571
2.10546875,-4.890319424734862e-06,-9.862529701686119e-05,-4.590539087510489e-05,-4.053009655909055e-05,6.8571,5.8571
2.109375,-2.9292999999999907e-06,-8.104615860227358e-05,-1.6603908667124427e-05,-4.9809920622568085e-05,6.8571,5.8571
2.11328125,-1.3679888632028678e-05,-1.5141898649576553e-05,1.4159583558403908e-05,-4.8829410910200644e-05,6.8571,5.8571
2.1171875,-4.4434626306553733e-05,-6.842584298466455e-06,-2.0026938109407174e-05,-4.736740089265276e-05,6.8571,5.8571
2.12109375,-6.103325500877393e-05,-2.5883732730601955e-05,-4.8347910605020204e-05,-4.687714603646905e-05,6.8571,5.8571
2.125,-4.638689118028533e-05,-5.712872526131074e-05,-1.2209124063477524e-05,-4.4434626306553733e-05,6.8571,5.8571
2.12890625,-2.0026938109407174e-05,-7.274684425116348e-05,-3.4195548561837083e-06,-4.102035141527427e-05,6.8571,5.8571
2.1328125,-1.1237368902113366e-05,-3.1740527351796736e-05,-3.369279222552834e-05,-3.9068086541542676e-05,6.8571,5.8571
2.13671875,-2.832625246051727e-05,-1.17188692072938e-05,-3.0278517334248862e-05,-4.346287114518958e-05,6.8571,5.8571
2.140625,-4.4434626306553733e-05,-2.832625246051727e-05,-9.285104028381773e-06,-3.955834139772639e-05,6.8571,5.8571
2.14453125,-3.955834139772639e-05,-4.4434626306553733e-05,1.4641083863584355e-05,-3.4183047081712045e-05,6.8571,5.8571
2.1484375,-1.7584418379491865e-05,-4.2482361432822145e-05,-4.400064568551144e-06,-3.5645057099259926e-05,6.8571,5.8571
2.15234375,-1.3679888632028678e-05,-3.076877219043258e-05,-2.442172271305408e-05,-3.076877219043258e-05,6.8571,5.8571
2.15625,-5.176218549629968e-05,-3.4183047081712045e-05,-1.904642839703974e-05,-3.467330193789577e-05,6.8571,5.8571
2.16015625,-5.5176460387579136e-05,-5.030017547875179e-05,-2.9298007621881428e-05,-4.8829410910200644e-05,6.8571,5.8571
2.1640625,-1.6603908667124427e-05,-7.128483423361561e-05,-1.6603908667124427e-05,-4.053009655909055e-05,6.8571,5.8571
2.16796875,3.417749477378507e-06,-8.104615860227358e-05,-2.197920298313877e-05,-3.223078220798045e-05,6.8571,5.8571
2.171875,-2.6373987586785672e-05,-5.957124499122605e-05,-1.7094163523308148e-05,-4.053009655909055e-05,6.8571,5.8571
2.17578125,-2.148894812695505e-05,-1.611365381094071e-05,-1.957544838635833e-06,-3.272103706416418e-05,6.8571,5.8571
2.1796875,-2.148894812695505e-05,5.3700143511101e-06,-2.734574274814983e-05,-3.8577831685358955e-05,6.8571,5.8571
2.18359375,-5.225244035248339e-05,-3.759732197299152e-05,-4.785765574883648e-05,-4.785765574883648e-05,6.8571,5.8571
2.1875,-3.4183047081712045e-05,-8.056465829709314e-05,-4.346287114518958e-05,-5.030017547875179e-05,6.8571,5.8571
2.19140625,-1.9536683253223456e-05,-4.590539087510489e-05,-3.711582166781108e-05,-4.2482361432822145e-05,6.8571,5.8571
2.1953125,-5.5176460387579136e-05,1.9469849088273535e-06,-1.7584418379491865e-05,-3.272103706416418e-05,6.8571,5.8571
2.19921875,-4.39531260013733e-05,-2.9292999999999907e-06,-1.2209124063477524e-05,-3.662556681162736e-05,6.8571,5.8571
2.203125,-1.0256859189745924e-05,-3.1740527351796736e-05,-3.4183047081712045e-05,-4.346287114518958e-05,6.8571,5.8571
2.20703125,-1.904642839703974e-05,-7.079457937743188e-05,-3.759732197299152e-05,-4.8829410910200644e-05,6.8571,5.8571
2.2109375,-2.5393477874418238e-05,-4.9809920622568085e-05,-3.076877219043258e-05,-3.759732197299152e-05,6.8571,5.8571
2.21484375,-1.1237368902113366e-05,3.417749477378507e-06,-3.272103706416418e-05,-2.9298007621881428e-05,6.8571,5.8571
2.21875,-3.5163556794079486e-05,-8.30459431601433e-06,-3.369279222552834e-05,-3.223078220798045e-05,6.8571,5.8571
2.22265625,-7.372735396353092e-05,-4.102035141527427e-05,-2.0026938109407174e-05,-3.4183047081712045e-05,6.8571,5.8571
2.2265625,-6.933256935988402e-05,-4.4924881162737454e-05,-6.352329442282737e-06,-4.003984170290683e-05,6.8571,5.8571
2.23046875,-2.442172271305408e-05,-3.955834139772639e-05,-1.318963377584496e-05,-4.590539087510489e-05,6.8571,5.8571
2.234375,-4.955348210879578e-07,-3.9068086541542676e-05,-3.369279222552834e-05,-5.273394065766383e-05,6.8571,5.8571
2.23828125,-8.794849172198056e-06,-1.563215350576027e-05,-4.1992106576638425e-05,-5.566671524376286e-05,6.8571,5.8571
2.2421875,-2.5393477874418238e-05,-2.0998693270771334e-05,-2.148894812695505e-05,-5.322419551384755e-05,6.8571,5.8571
2.24609375,-3.369279222552834e-05,-4.687714603646905e-05,-1.17188692072938e-05,-4.5415136018921175e-05,6.8571,5.8571
2.25,-3.5645057099259926e-05,-6.639979477378499e-05,-3.369279222552834e-05,-3.4183047081712045e-05,6.8571,5.8571
2.25390625,-3.4183047081712045e-05,-2.9788262478065145e-05,-4.1510606271457985e-05,-2.6855487891966112e-05,6.8571,5.8571
2.2578125,-2.5393477874418238e-05,2.001637817959869e-05,-2.5393477874418238e-05,-1.9536683253223456e-05,6.8571,5.8571
2.26171875,-4.5415136018921175e-05,-4.400064568551144e-06,-7.324084603646895e-06,-2.0026938109407174e-05,6.8571,5.8571
2.265625,-8.446918804455633e-05,-4.1992106576638425e-05,-3.4195548561837083e-06,-3.223078220798045e-05,6.8571,5.8571
2.26953125,-7.079457937743188e-05,-3.8577831685358955e-05,-1.2209124063477524e-05,-3.369279222552834e-05,6.8571,5.8571
2.2734375,-1.8556173540856022e-05,-1.9536683253223456e-05,-2.2950958144502926e-05,-4.39531260013733e-05,6.8571,5.8571
2.27734375,9.274544098573286e-06,6.3417695124742575e-06,-1.3679888632028678e-05,-4.638689118028533e-05,6.8571,5.8571
2.28125,1.1717063828488605e-05,-1.611365381094071e-05,-3.0278517334248862e-05,-4.297261628900586e-05,6.8571,5.8571
2.28515625,2.927494621194789e-06,-6.982282421606773e-05,-3.5163556794079486e-05,-4.102035141527427e-05,6.8571,5.8571
2.2890625,-1.7584418379491865e-05,-9.814379671168076e-05,-2.734574274814983e-05,-3.125027249561302e-05,6.8571,5.8571
2.29296875,-4.8829410910200644e-05,-5.957124499122605e-05,-5.810923497367817e-05,-3.9068086541542676e-05,6.8571,5.8571
2.296875,-6.103325500877393e-05,-3.613531195544364e-05,-6.395727504386968e-05,-5.176218549629968e-05,6.8571,5.8571
2.30078125,-5.225244035248339e-05,-5.225244035248339e-05,-4.687714603646905e-05,-4.8347910605020204e-05,6.8571,5.8571
2.3046875,-5.322419551384755e-05,-5.225244035248339e-05,-3.369279222552834e-05,-3.5645057099259926e-05,6.8571,5.8571
2.30859375,-7.079457937743188e-05,-5.176218549629968e-05,-1.9536683253223456e-05,-2.490322301823452e-05,6.8571,5.8571
2.3125,-4.1510606271457985e-05,-2.9298007621881428e-05,-8.794849172198056e-06,-2.6373987586785672e-05,6.8571,5.8571
2.31640625,-1.8556173540856022e-05,-9.770351262683973e-07,-1.904642839703974e-05,-3.467330193789577e-05,6.8571,5.8571
2.3203125,-3.662556681162736e-05,-1.5141898649576553e-05,-2.5393477874418238e-05,-4.39531260013733e-05,6.8571,5.8571
2.32421875,-2.3441213000686643e-05,-5.908974468604561e-05,-2.246070328831921e-05,-4.4924881162737454e-05,6.8571,5.8571
2.328125,1.4567300526436355e-06,-8.104615860227358e-05,-4.590539087510489e-05,-4.053009655909055e-05,6.8571,5.8571
2.33203125,-5.862074586099019e-06,-5.712872526131074e-05,-4.785765574883648e-05,-4.39531260013733e-05,6.8571,5.8571
2.3359375,-3.369279222552834e-05,-1.318963377584496e-05,-1.563215350576027e-05,-4.1992106576638425e-05,6.8571,5.8571
2.33984375,-5.957124499122605e-05,4.879759494926389e-06,-1.074711404592965e-05,-3.321129192034789e-05,6.8571,5.8571
2.34375,-7.274684425116348e-05,-1.2699378919661242e-05,-2.246070328831921e-05,-2.832625246051727e-05,6.8571,5.8571
2.34765625,-7.469910912489507e-05,-6.835205964751658e-05,-1.904642839703974e-05,-3.8087576829175235e-05,6.8571,5.8571
2.3515625,-4.4924881162737454e-05,-6.395727504386968e-05,-2.442172271305408e-05,-4.2482361432822145e-05,6.8571,5.8571
2.35546875,-1.6603908667124427e-05,-1.5141898649576553e-05,-2.0026938109407174e-05,-2.9298007621881428e-05,6.8571,5.8571
2.359375,-1.2209124063477524e-05,6.3417695124742575e-06,-2.9298007621881428e-05,-2.5393477874418238e-05,6.8571,5.8571
2.36328125,-8.794849172198056e-06,3.417749477378507e-06,-3.8087576829175235e-05,-2.490322301823452e-05,6.8571,5.8571
2.3671875,-1.6603908667124427e-05,-4.785765574883648e-05,-2.0998693270771334e-05,-2.2950958144502926e-05,6.8571,5.8571
2.37109375,-2.393146785687036e-05,-6.738030448615242e-05,-3.955834139772639e-05,-4.346287114518958e-05,6.8571,5.8571
2.375,-4.102035141527427e-05,-4.102035141527427e-05,-5.371445037003127e-05,-5.273394065766383e-05,6.8571,5.8571
2.37890625,-7.95841485847257e-05,-1.611365381094071e-05,-2.148894812695505e-05,-5.030017547875179e-05,6.8571,5.8571
2.3828125,-7.714162885481039e-05,-6.352329442282737e-06,-3.759732197299152e-05,-4.590539087510489e-05,6.8571,5.8571
2.38671875,-4.687714603646905e-05,-3.0278517334248862e-05,-4.590539087510489e-05,-2.6373987586785672e-05,6.8571,5.8571
2.390625,-1.7094163523308148e-05,-5.225244035248339e-05,-4.102035141527427e-05,-4.003984170290683e-05,6.8571,5.8571
2.39453125,-1.0256859189745924e-05,-4.003984170290683e-05,-5.078167578393223e-05,-4.931966576638436e-05,6.8571,5.8571
2.3984375,-3.5645057099259926e-05,-9.285104028381773e-06,-3.8087576829175235e-05,-4.1510606271457985e-05,6.8571,5.8571
2.40234375,-2.9788262478065145e-05,-1.3679888632028678e-05,-3.4183047081712045e-05,-4.1510606271457985e-05,6.8571,5.8571
2.40625,-1.563215350576027e-05,-6.24952650263218e-05,-4.102035141527427e-05,-3.125027249561302e-05,6.8571,5.8571
2.41015625,-4.053009655909055e-05,-6.835205964751658e-05,-1.8074673235675582e-05,-1.4161388937209117e-05,6.8571,5.8571
2.4140625,-7.567961883726253e-05,-4.890319424734862e-06,5.851514656290547e-06,-9.285104028381773e-06,6.8571,5.8571
2.41796875,-6.395727504386968e-05,2.44111627832456e-05,-2.5393477874418238e-05,-4.102035141527427e-05,6.8571,5.8571
2.421875,-2.7835997604333546e-05,-3.711582166781108e-05,-6.298551988250552e-05,-5.859948982986189e-05,6.8571,5.8571
2.42578125,-8.30459431601433e-06,-8.837371779201951e-05,-4.785765574883648e-05,-5.469496008239871e-05,6.8571,5.8571
2.4296875,-2.246070328831921e-05,-7.177508908979934e-05,-4.5415136018921175e-05,-5.273394065766383e-05,6.8571,5.8571
2.43359375,-3.223078220798045e-05,-2.6855487891966112e-05,-5.469496008239871e-05,-4.1992106576638425e-05,6.8571,5.8571
2.4375,-2.9298007621881428e-05,2.636342765697719e-05,-1.9536683253223456e-05,-3.272103706416418e-05,6.8571,5.8571
2.44140625,-2.490322301823452e-05,-1.4161388937209117e-05,-2.148894812695505e-05,-2.5393477874418238e-05,6.8571,5.8571
2.4453125,-2.490322301823452e-05,-6.738030448615242e-05,-4.39531260013733e-05,-2.2950958144502926e-05,6.8571,5.8571
2.44921875,-5.469496008239871e-05,-6.200501017013807e-05,-1.074711404592965e-05,-2.5883732730601955e-05,6.8571,5.8571
2.453125,-6.444752990005339e-05,-3.711582166781108e-05,-5.279964904239875e-09,-2.148894812695505e-05,6.8571,5.8571
2.45703125,-5.420470522621499e-05,-3.5645057099259926e-05,-5.273394065766383e-05,-4.053009655909055e-05,6.8571,5.8571
2.4609375,-3.9068086541542676e-05,-4.8347910605020204e-05,-7.665137399862666e-05,-7.177508908979934e-05,6.8571,5.8571
2.46484375,-3.272103706416418e-05,-7.177508908979934e-05,-6.542803961242083e-05,-6.0061499847409767e-05,6.8571,5.8571
2.46875,-2.393146785687036e-05,-9.081623752193483e-05,-5.030017547875179e-05,-3.662556681162736e-05,6.8571,5.8571
2.47265625,-1.8074673235675582e-05,-7.128483423361561e-05,-4.8829410910200644e-05,-4.297261628900586e-05,6.8571,5.8571
2.4765625,-1.5141898649576553e-05,-3.5645057099259926e-05,-4.4434626306553733e-05,-3.955834139772639e-05,6.8571,5.8571
2.48046875,-3.076877219043258e-05,-2.197920298313877e-05,-4.102035141527427e-05,-3.467330193789577e-05,6.8571,5.8571
2.484375,-6.49377847562371e-05,-4.39531260013733e-05,-4.346287114518958e-05,-4.1992106576638425e-05,6.8571,5.8571
2.48828125,-6.933256935988402e-05,-5.030017547875179e-05,-3.8577831685358955e-05,-3.5645057099259926e-05,6.8571,5.8571
2.4921875,-5.420470522621499e-05,-4.003984170290683e-05,-2.148894812695505e-05,-2.7835997604333546e-05,6.8571,5.8571
2.49609375,-4.2482361432822145e-05,-2.5883732730601955e-05,-2.832625246051727e-05,-3.076877219043258e-05,6.8571,5.8571
2.5,-4.590539087510489e-05,-2.8816507316700988e-05,-3.8577831685358955e-05,-3.8577831685358955e-05,6.8571,5.8571
2.50390625,-2.3441213000686643e-05,-5.469496008239871e-05,-3.9068086541542676e-05,-4.1510606271457985e-05,6.8571,5.8571
2.5078125,-2.3441213000686643e-05,-9.960580672922865e-05,-4.8829410910200644e-05,-4.346287114518958e-05,6.8571,5.8571
2.51171875,-6.49377847562371e-05,-9.374901210803387e-05,-4.102035141527427e-05,-3.321129192034789e-05,6.8571,5.8571
2.515625,-7.812213856717783e-05,-2.246070328831921e-05,-2.5883732730601955e-05,-2.9788262478065145e-05,6.8571,5.8571
2.51953125,-4.053009655909055e-05,-9.285104028381773e-06,-2.442172271305408e-05,-3.223078220798045e-05,6.8571,5.8571
2.5234375,-1.3679888632028678e-05,-2.9788262478065145e-05,-1.563215350576027e-05,-2.197920298313877e-05,6.8571,5.8571
2.52734375,-2.9788262478065145e-05,-4.1992106576638425e-05,-1.8074673235675582e-05,-1.8074673235675582e-05,6.8571,5.8571
2.53125,-2.0998693270771334e-05,-7.861239342336156e-05,-4.39531260013733e-05,-4.1992106576638425e-05,6.8571,5.8571
2.53515625,-2.8816507316700988e-05,-6.200501017013807e-05,-5.273394065766383e-05,-5.371445037003127e-05,6.8571,5.8571
2.5390625,-3.0278517334248862e-05,-1.2699378919661242e-05,-3.9068086541542676e-05,-3.5163556794079486e-05,6.8571,5.8571
2.54296875,-1.2209124063477524e-05,-2.148894812695505e-05,-5.322419551384755e-05,-3.5645057099259926e-05,6.8571,5.8571
2.546875,-1.17188692072938e-05,-8.056465829709314e-05,-7.128483423361561e-05,-5.322419551384755e-05,6.8571,5.8571
2.55078125,-2.0998693270771334e-05,-0.00010449084618905926,-5.712872526131074e-05,-5.078167578393223e-05,6.8571,5.8571
2.5546875,-3.613531195544364e-05,-4.053009655909055e-05,-4.687714603646905e-05,-3.613531195544364e-05,6.8571,5.8571
2.55859375,-5.078167578393223e-05,2.437239765011071e-06,-3.662556681162736e-05,-2.442172271305408e-05,6.8571,5.8571
2.5625,-9.276850239566641e-05,-3.0278517334248862e-05,-1.611365381094071e-05,-2.490322301823452e-05,6.8571,5.8571
2.56640625,-8.007440344090942e-05,-4.003984170290683e-05,-7.324084603646895e-06,-2.5393477874418238e-05,6.8571,5.8571
2.5703125,-4.400064568551144e-06,-3.955834139772639e-05,-2.5393477874418238e-05,-3.0278517334248862e-05,6.8571,5.8571
2.57421875,-3.909809712367427e-06,-4.39531260013733e-05,-5.469496008239871e-05,-5.322419551384755e-05,6.8571,5.8571
2.578125,-2.490322301823452e-05,-3.223078220798045e-05,-4.687714603646905e-05,-5.420470522621499e-05,6.8571,5.8571
2.58203125,-2.246070328831921e-05,-2.7835997604333546e-05,-2.3441213000686643e-05,-3.467330193789577e-05,6.8571,5.8571
2.5859375,-3.272103706416418e-05,-2.6373987586785672e-05,-2.6373987586785672e-05,-2.7835997604333546e-05,6.8571,5.8571
2.58984375,-2.393146785687036e-05,-5.078167578393223e-05,-3.076877219043258e-05,-3.272103706416418e-05,6.8571,5.8571
2.59375,-1.3679888632028678e-05,-5.273394065766383e-05,-4.590539087510489e-05,-3.711582166781108e-05,6.8571,5.8571
2.59765625,-3.4183047081712045e-05,-1.7584418379491865e-05,-4.8829410910200644e-05,-4.003984170290683e-05,6.8571,5.8571
2.6015625,-5.078167578393223e-05,-1.4651643793392836e-05,-2.246070328831921e-05,-3.662556681162736e-05,6.8571,5.8571
2.60546875,-8.15364134584573e-05,-2.442172271305408e-05,-2.447799694819551e-06,-2.246070328831921e-05,6.8571,5.8571
2.609375,-8.544094320592048e-05,-4.785765574883648e-05,-2.6855487891966112e-05,-3.711582166781108e-05,6.8571,5.8571
2.61328125,-2.3441213000686643e-05,-3.369279222552834e-05,-3.5163556794079486e-05,-6.0061499847409767e-05,6.8571,5.8571
2.6171875,2.437239765011071e-06,6.832024368657982e-06,-5.030017547875179e-05,-5.5176460387579136e-05,6.8571,5.8571
2.62109375,-1.9536683253223456e-05,-2.0998693270771334e-05,-5.273394065766383e-05,-4.102035141527427e-05,6.8571,5.8571
2.625,-2.0508438414587614e-05,-6.49377847562371e-05,-2.0998693270771334e-05,-2.5883732730601955e-05,6.8571,5.8571
2.62890625,-2.197920298313877e-05,-8.642145291828792e-05,-2.5883732730601955e-05,-3.613531195544364e-05,6.8571,5.8571
2.6328125,-2.9788262478065145e-05,-4.8347910605020204e-05,-2.5883732730601955e-05,-4.590539087510489e-05,6.8571,5.8571
2.63671875,-3.321129192034789e-05,-1.2699378919661242e-05,-2.0998693270771334e-05,-4.102035141527427e-05,6.8571,5.8571
2.640625,-3.4183047081712045e-05,-2.197920298313877e-05,-3.8577831685358955e-05,-4.297261628900586e-05,6.8571,5.8571
2.64453125,-4.4924881162737454e-05,-4.931966576638436e-05,-3.955834139772639e-05,-4.053009655909055e-05,6.8571,5.8571
2.6484375,-7.421760881971464e-05,-7.909389372854198e-05,-3.1740527351796736e-05,-3.1740527351796736e-05,6.8571,5.8571
2.65234375,-2.0026938109407174e-05,-4.39531260013733e-05,-2.9292999999999907e-06,-1.7584418379491865e-05,6.8571,5.8571
2.65625,3.5152996864271e-05,-1.2209124063477524e-05,9.75229747463196e-07,-2.2950958144502926e-05,6.8571,5.8571
2.66015625,1.562159357595179e-05,-2.8816507316700988e-05,-2.5393477874418238e-05,-3.759732197299152e-05,6.8571,5.8571
2.6640625,-9.766604333562206e-06,-6.298551988250552e-05,-5.859948982986189e-05,-3.9068086541542676e-05,6.8571,5.8571
2.66796875,-2.5393477874418238e-05,-0.00010204832645914396,-7.421760881971464e-05,-4.346287114518958e-05,6.8571,5.8571
2.671875,-2.490322301823452e-05,-9.570127698176546e-05,-6.444752990005339e-05,-3.125027249561302e-05,6.8571,5.8571
2.67578125,-3.9068086541542676e-05,-6.24952650263218e-05,-7.665137399862666e-05,-2.2950958144502926e-05,6.8571,5.8571
2.6796875,-2.393146785687036e-05,-5.908974468604561e-05,-7.32370991073472e-05,-2.9298007621881428e-05,6.8571,5.8571
2.68359375,-2.148894812695505e-05,-0.00011279016054016934,-8.59311980621042e-05,-4.5415136018921175e-05,6.8571,5.8571
2.6875,-3.076877219043258e-05,-0.00013329331898985272,-0.00012597451435111007,-5.322419551384755e-05,6.8571,5.8571
2.69140625,-2.0508438414587614e-05,-0.00012694626951247423,-0.00012938878924238954,-3.369279222552834e-05,6.8571,5.8571
2.6953125,4.84974891279478e-07,-9.911555187304492e-05,-0.00012938878924238954,-3.369279222552834e-05,6.8571,5.8571
2.69921875,1.3179073846036472e-05,-8.007440344090942e-05,-0.00014159263334096283,-2.8816507316700988e-05,6.8571,5.8571
2.703125,-1.318963377584496e-05,-0.00015282472227817195,-0.0001479484373693446,-2.2950958144502926e-05,6.8571,5.8571
2.70703125,9.75229747463196e-07,-0.00022314127593652243,-0.00016796134096284425,-4.2482361432822145e-05,6.8571,5.8571
2.7109375,3.320073199053941e-05,-0.0001948203034409094,-0.00017186587071030743,-3.8577831685358955e-05,6.8571,5.8571
2.71484375,3.661500688181889e-05,-0.00014990070224307617,-0.00016747108610666055,-4.2482361432822145e-05,6.8571,5.8571
2.71875,1.5131338719768066e-05,-0.00014159263334096283,-0.0001752889001525902,-4.1510606271457985e-05,6.8571,5.8571
2.72265625,8.294034386205852e-06,-0.00014892019253070875,-0.0001660090760891127,-2.442172271305408e-05,6.8571,5.8571
2.7265625,1.7573858449683384e-05,-0.00017919342990005337,-0.00016356655635919735,-1.904642839703974e-05,6.8571,5.8571
2.73046875,1.708360359349966e-05,-0.00017479864529640647,-0.00014306339790951398,-1.7094163523308148e-05,6.8571,5.8571
2.734375,1.2207318684672315e-05,-9.570127698176546e-05,-0.00010252982676432438,-9.766604333562206e-06,6.8571,5.8571
2.73828125,-7.814339459830613e-06,-8.2026668314641e-05,-0.00012353199462119475,-2.148894812695505e-05,6.8571,5.8571
2.7421875,-1.8556173540856022e-05,-8.104615860227358e-05,-0.0001010678167467765,-2.6373987586785672e-05,6.8571,5.8571
2.74609375,-1.4672899824521153e-06,-7.32370991073472e-05,-4.785765574883648e-05,-1.8556173540856022e-05,6.8571,5.8571
2.75,-1.17188692072938e-05,-8.348867833218889e-05,-5.030017547875179e-05,-2.734574274814983e-05,6.8571,5.8571
2.75390625,-4.102035141527427e-05,-4.931966576638436e-05,-7.128483423361561e-05,-3.125027249561302e-05,6.8571,5.8571
2.7578125,-1.4651643793392836e-05,-5.371445037003127e-05,-8.39789331883726e-05,-3.0278517334248862e-05,6.8571,5.8571
2.76171875,2.0506633035782414e-05,-7.030432452124817e-05,-8.007440344090942e-05,-4.1510606271457985e-05,6.8571,5.8571
2.765625,-1.318963377584496e-05,-8.007440344090942e-05,-6.200501017013807e-05,-4.4434626306553733e-05,6.8571,5.8571
2.76953125,-5.030017547875179e-05,-8.78834629358358e-05,-5.957124499122605e-05,-4.736740089265276e-05,6.8571,5.8571
2.7734375,-4.590539087510489e-05,-6.982282421606773e-05,-4.8829410910200644e-05,-5.469496008239871e-05,6.8571,5.8571
2.77734375,-4.4924881162737454e-05,-2.0998693270771334e-05,-3.0278517334248862e-05,-5.322419551384755e-05,6.8571,5.8571
2.78125,-5.030017547875179e-05,6.3417695124742575e-06,-2.734574274814983e-05,-6.200501017013807e-05,6.8571,5.8571
2.78515625,-8.78834629358358e-05,-2.246070328831921e-05,-2.0026938109407174e-05,-6.347577473868924e-05,6.8571,5.8571
2.7890625,-0.0001220612300526436,-6.347577473868924e-05,-1.5141898649576553e-05,-5.371445037003127e-05,6.8571,5.8571
2.79296875,-0.00010790512108033874,-2.6373987586785672e-05,9.75229747463196e-07,-4.590539087510489e-05,6.8571,5.8571
2.796875,-5.66472249561303e-05,4.784709581902801e-05,4.4432820927748533e-05,-3.8577831685358955e-05,6.8571,5.8571
2.80078125,-4.5415136018921175e-05,2.2949152765697732e-05,4.8827605531395444e-05,-5.66472249561303e-05,6.8571,5.8571
2.8046875,-9.081623752193483e-05,-3.4183047081712045e-05,-1.957544838635833e-06,-9.178799268329899e-05,6.8571,5.8571
2.80859375,-7.714162885481039e-05,-3.076877219043258e-05,-5.371819729915302e-06,-7.812213856717783e-05,6.8571,5.8571
2.8125,-4.003984170290683e-05,-2.7835997604333546e-05,1.0246299259937445e-05,-6.298551988250552e-05,6.8571,5.8571
2.81640625,-4.687714603646905e-05,2.001637817959869e-05,1.855436816205082e-05,-6.639979477378499e-05,6.8571,5.8571
2.8203125,-5.127193064011595e-05,3.808577145037003e-05,1.659334873731595e-05,-6.200501017013807e-05,6.8571,5.8571
2.82421875,-3.8577831685358955e-05,-6.842584298466455e-06,1.3669328702220198e-05,-6.49377847562371e-05,6.8571,5.8571
2.828125,-3.8577831685358955e-05,-2.6855487891966112e-05,2.5382917944609757e-05,-6.590953991760126e-05,6.8571,5.8571
2.83203125,-6.590953991760126e-05,1.3669328702220198e-05,4.1500046341649504e-05,-5.712872526131074e-05,6.8571,5.8571
2.8359375,-7.714162885481039e-05,7.714857802700847e-05,4.638508580148013e-05,-5.030017547875179e-05,6.8571,5.8571
2.83984375,-7.812213856717783e-05,5.565615531395438e-05,5.2241880422674906e-05,-4.39531260013733e-05,6.8571,5.8571
2.84375,-9.521102212558173e-05,2.5382917944609757e-05,7.714857802700847e-05,-2.197920298313877e-05,6.8571,5.8571
2.84765625,-9.618277728694589e-05,-2.0026938109407174e-05,6.44457245212482e-05,-3.4183047081712045e-05,6.8571,5.8571
2.8515625,-5.908974468604561e-05,-1.318963377584496e-05,3.27104771343557e-05,-4.8829410910200644e-05,6.8571,5.8571
2.85546875,-4.687714603646905e-05,3.320073199053941e-05,2.8315692530708787e-05,-5.176218549629968e-05,6.8571,5.8571
2.859375,-6.738030448615242e-05,4.784709581902801e-05,1.708360359349966e-05,-6.444752990005339e-05,6.8571,5.8571
2.86328125,-6.103325500877393e-05,5.322239013504234e-05,8.294034386205852e-06,-6.590953991760126e-05,6.8571,5.8571
2.8671875,-4.297261628900586e-05,-6.352329442282737e-06,2.927494621194789e-06,-5.810923497367817e-05,6.8571,5.8571
2.87109375,-4.053009655909055e-05,-3.5163556794079486e-05,4.389504638742664e-06,-5.273394065766383e-05,6.8571,5.8571
2.875,-5.957124499122605e-05,-1.0256859189745924e-05,9.274544098573286e-06,-5.957124499122605e-05,6.8571,5.8571
2.87890625,-5.810923497367817e-05,1.4641083863584355e-05,1.708360359349966e-05,-5.5176460387579136e-05,6.8571,5.8571
2.8828125,-1.904642839703974e-05,-5.279964904239875e-09,1.2207318684672315e-05,-4.8347910605020204e-05,6.8571,5.8571
2.88671875,-3.711582166781108e-05,-4.4434626306553733e-05,1.0246299259937445e-05,-4.736740089265276e-05,6.8571,5.8571
2.890625,-0.00011083789566643775,-2.393146785687036e-05,4.1500046341649504e-05,-3.5163556794079486e-05,6.8571,5.8571
2.89453125,-8.935422750438695e-05,4.735684096284429e-05,5.077987040512704e-05,-1.4161388937209117e-05,6.8571,5.8571
2.8984375,-1.611365381094071e-05,5.8098675043869684e-05,2.196864305333028e-05,-2.6855487891966112e-05,6.8571,5.8571
2.90234375,-1.611365381094071e-05,-1.4672899824521153e-06,-5.371819729915302e-06,-6.298551988250552e-05,6.8571,5.8571
2.90625,-2.442172271305408e-05,-5.6156970099946583e-05,-1.6603908667124427e-05,-6.982282421606773e-05,6.8571,5.8571
2.91015625,-2.8816507316700988e-05,-4.4434626306553733e-05,-5.862074586099019e-06,-6.103325500877393e-05,6.8571,5.8571
2.9140625,-2.734574274814983e-05,4.34523112153811e-05,2.2458897909514005e-05,-6.054300015259021e-05,6.8571,5.8571
2.91796875,-3.321129192034789e-05,7.031127369344625e-05,3.466274200808729e-05,-4.8829410910200644e-05,6.8571,5.8571
2.921875,-7.616987369344623e-05,2.4901417639429324e-05,9.764798954757011e-06,-3.759732197299152e-05,6.8571,5.8571
2.92578125,-7.274684425116348e-05,-8.30459431601433e-06,4.389504638742664e-06,-4.003984170290683e-05,6.8571,5.8571
2.9296875,-2.0508438414587614e-05,-3.613531195544364e-05,1.9035868467231252e-05,-4.053009655909055e-05,6.8571,5.8571
2.93359375,-1.17188692072938e-05,-2.393146785687036e-05,1.855436816205082e-05,-4.590539087510489e-05,6.8571,5.8571
2.9375,-2.7835997604333546e-05,3.8567271755550475e-05,1.3669328702220198e-05,-4.931966576638436e-05,6.8571,5.8571
2.94140625,-3.076877219043258e-05,4.003803632410162e-05,4.879759494926389e-06,-4.346287114518958e-05,6.8571,5.8571
2.9453125,-5.322419551384755e-05,-3.4195548561837083e-06,2.3430653070878162e-05,-4.8829410910200644e-05,6.8571,5.8571
2.94921875,-8.886397264820322e-05,-1.17188692072938e-05,4.34523112153811e-05,-4.39531260013733e-05,6.8571,5.8571
2.953125,-7.51893639810788e-05,-1.4651643793392836e-05,3.320073199053941e-05,-4.1992106576638425e-05,6.8571,5.8571
2.95703125,-3.613531195544364e-05,1.3179073846036472e-05,3.612475202563516e-05,-4.687714603646905e-05,6.8571,5.8571
2.9609375,-3.223078220798045e-05,2.3430653070878162e-05,5.028961554894331e-05,-4.687714603646905e-05,6.8571,5.8571
2.96484375,-4.346287114518958e-05,-1.7584418379491865e-05,5.2732135278858634e-05,-4.2482361432822145e-05,6.8571,5.8571
2.96875,-4.9809920622568085e-05,-3.711582166781108e-05,4.1009791485465784e-05,-3.8577831685358955e-05,6.8571,5.8571
2.97265625,-4.297261628900586e-05,6.3417695124742575e-06,3.8567271755550475e-05,-4.9809920622568085e-05,6.8571,5.8571
2.9765625,-6.103325500877393e-05,6.542623423361562e-05,4.686658610666056e-05,-4.931966576638436e-05,6.8571,5.8571
2.98046875,-0.00011962746487373158,7.372554858472572e-05,6.49359793774319e-05,-4.39531260013733e-05,6.8571,5.8571
2.984375,-0.00011180965082780193,2.929620224307622e-05,6.982101883726253e-05,-3.5163556794079486e-05,6.8571,5.8571
2.98828125,-6.787055934233615e-05,1.9035868467231252e-05,8.300537264820327e-05,-2.148894812695505e-05,6.8571,5.8571
2.9921875,-2.832625246051727e-05,4.1500046341649504e-05,8.789041210803387e-05,-3.369279222552834e-05,6.8571,5.8571
2.99609375,-2.8816507316700988e-05,5.370389044022279e-05,6.786875396353093e-05,-4.9809920622568085e-05,6.8571,5.8571
3.0,-3.955834139772639e-05,3.5152996864271e-05,2.880594738689251e-05,-5.322419551384755e-05,6.8571,5.8571
3.00390625,-3.076877219043258e-05,1.5131338719768066e-05,3.661500688181889e-05,-4.785765574883648e-05,6.8571,5.8571
3.0078125,-4.638689118028533e-05,8.784289242389575e-06,7.323529372854202e-05,-5.469496008239871e-05,6.8571,5.8571
3.01171875,-6.395727504386968e-05,1.7573858449683384e-05,7.031127369344625e-05,-4.931966576638436e-05,6.8571,5.8571
3.015625,-4.590539087510489e-05,4.686658610666056e-05,5.8098675043869684e-05,-3.613531195544364e-05,6.8571,5.8571
3.01953125,-2.832625246051727e-05,6.49359793774319e-05,5.663666502632182e-05,-3.5163556794079486e-05,6.8571,5.8571
3.0234375,-4.1992106576638425e-05,4.491432123292897e-05,4.199030119783322e-05,-3.223078220798045e-05,6.8571,5.8571
3.02734375,-7.763188371099411e-05,-5.371819729915302e-06,4.003803632410162e-05,-3.223078220798045e-05,6.8571,5.8571
3.03125,-0.00012694626951247423,-1.957544838635833e-06,4.735684096284429e-05,-2.8816507316700988e-05,6.8571,5.8571
3.03515625,-7.665137399862666e-05,4.296205635919737e-05,5.2241880422674906e-05,-2.246070328831921e-05,6.8571,5.8571
3.0390625,-5.279964904239875e-09,3.661500688181889e-05,2.9777702548256668e-05,-4.003984170290683e-05,6.8571,5.8571
3.04296875,1.4567300526436355e-06,-2.0026938109407174e-05,2.437239765011071e-06,-5.908974468604561e-05,6.8571,5.8571
3.046875,-4.955348210879578e-07,-5.469496008239871e-05,1.4159583558403908e-05,-4.931966576638436e-05,6.8571,5.8571
3.05078125,-2.734574274814983e-05,-4.8347910605020204e-05,2.7825437674525076e-05,-4.2482361432822145e-05,6.8571,5.8571
3.0546875,-7.079457937743188e-05,1.1226808972304879e-05,2.001637817959869e-05,-5.371445037003127e-05,6.8571,5.8571
3.05859375,-5.6156970099946583e-05,4.199030119783322e-05,2.0988133340962847e-05,-4.931966576638436e-05,6.8571,5.8571
3.0625,-4.102035141527427e-05,1.0736554116121169e-05,2.734393736934463e-05,-4.4434626306553733e-05,6.8571,5.8571
3.06640625,-4.2482361432822145e-05,-3.223078220798045e-05,2.001637817959869e-05,-4.9809920622568085e-05,6.8571,5.8571
3.0703125,-3.321129192034789e-05,-5.761898011749446e-05,4.879759494926389e-06,-4.736740089265276e-05,6.8571,5.8571
3.07421875,-2.148894812695505e-05,-9.766604333562206e-06,4.879759494926389e-06,-5.078167578393223e-05,6.8571,5.8571
3.078125,-2.8816507316700988e-05,3.07582122606241e-05,1.8064113305867095e-05,-4.638689118028533e-05,6.8571,5.8571
3.08203125,-4.2482361432822145e-05,1.8064113305867095e-05,1.7573858449683384e-05,-3.1740527351796736e-05,6.8571,5.8571
3.0859375,-4.1992106576638425e-05,-2.3441213000686643e-05,1.0736554116121169e-05,-3.272103706416418e-05,6.8571,5.8571
3.08984375,-4.4434626306553733e-05,-4.687714603646905e-05,1.1226808972304879e-05,-4.4924881162737454e-05,6.8571,5.8571
3.09375,-4.346287114518958e-05,-1.0256859189745924e-05,7.812534081025418e-06,-4.297261628900586e-05,6.8571,5.8571
3.09765625,-4.1510606271457985e-05,4.051953662928207e-05,3.899249782558954e-06,-3.9068086541542676e-05,6.8571,5.8571
3.1015625,-4.2482361432822145e-05,1.2207318684672315e-05,5.3700143511101e-06,-4.736740089265276e-05,6.8571,5.8571
3.10546875,-1.8074673235675582e-05,-5.371445037003127e-05,-2.9292999999999907e-06,-5.371445037003127e-05,6.8571,5.8571
3.109375,-1.5141898649576553e-05,-5.66472249561303e-05,-1.318963377584496e-05,-4.931966576638436e-05,6.8571,5.8571
3.11328125,-4.003984170290683e-05,-3.955834139772639e-05,-1.2209124063477524e-05,-4.5415136018921175e-05,6.8571,5.8571
3.1171875,-3.272103706416418e-05,1.9469849088273535e-06,-4.400064568551144e-06,-4.590539087510489e-05,6.8571,5.8571
3.12109375,-2.0026938109407174e-05,1.3179073846036472e-05,-9.766604333562206e-06,-4.4924881162737454e-05,6.8571,5.8571
3.125,-1.1237368902113366e-05,-2.8816507316700988e-05,-4.400064568551144e-06,-4.931966576638436e-05,6.8571,5.8571
3.12890625,-3.076877219043258e-05,-5.371445037003127e-05,1.0246299259937445e-05,-5.273394065766383e-05,6.8571,5.8571
3.1328125,-4.736740089265276e-05,-2.832625246051727e-05,3.417749477378507e-06,-4.346287114518958e-05,6.8571,5.8571
3.13671875,-3.5163556794079486e-05,1.562159357595179e-05,-5.862074586099019e-06,-4.785765574883648e-05,6.8571,5.8571
3.140625,-3.5645057099259926e-05,-1.563215350576027e-05,-1.3679888632028678e-05,-5.371445037003127e-05,6.8571,5.8571
3.14453125,-4.2482361432822145e-05,-5.420470522621499e-05,-7.324084603646895e-06,-5.030017547875179e-05,6.8571,5.8571
3.1484375,-5.566671524376286e-05,-6.444752990005339e-05,-4.400064568551144e-06,-4.346287114518958e-05,6.8571,5.8571
3.15234375,-3.0278517334248862e-05,-5.566671524376286e-05,-1.6603908667124427e-05,-4.102035141527427e-05,6.8571,5.8571
3.15625,-1.904642839703974e-05,-3.9068086541542676e-05,-1.2209124063477524e-05,-5.127193064011595e-05,6.8571,5.8571
3.16015625,-2.9298007621881428e-05,-3.369279222552834e-05,-9.770351262683973e-07,-4.736740089265276e-05,6.8571,5.8571
3.1640625,-5.127193064011595e-05,-5.322419551384755e-05,-3.909809712367427e-06,-4.590539087510489e-05,6.8571,5.8571
3.16796875,-6.103325500877393e-05,-8.15364134584573e-05,-1.4161388937209117e-05,-5.322419551384755e-05,6.8571,5.8571
3.171875,-2.832625246051727e-05,-5.5176460387579136e-05,-1.2209124063477524e-05,-4.687714603646905e-05,6.8571,5.8571
3.17578125,-4.053009655909055e-05,-1.074711404592965e-05,-8.794849172198056e-06,-4.8347910605020204e-05,6.8571,5.8571
3.1796875,-4.2482361432822145e-05,-9.285104028381773e-06,-3.5163556794079486e-05,-5.176218549629968e-05,6.8571,5.8571
3.18359375,-1.7094163523308148e-05,-6.542803961242083e-05,-4.8347910605020204e-05,-4.9809920622568085e-05,6.8571,5.8571
3.1875,-1.0256859189745924e-05,-0.00010985738595407033,-3.759732197299152e-05,-5.761898011749446e-05,6.8571,5.8571
3.19140625,-1.5141898649576553e-05,-8.837371779201951e-05,-3.613531195544364e-05,-5.469496008239871e-05,6.8571,5.8571
3.1953125,-1.2209124063477524e-05,-4.1510606271457985e-05,-3.467330193789577e-05,-4.736740089265276e-05,6.8571,5.8571
3.19921875,-2.6373987586785672e-05,-2.246070328831921e-05,-2.442172271305408e-05,-4.8347910605020204e-05,6.8571,5.8571
3.203125,-3.9068086541542676e-05,-5.6156970099946583e-05,-1.8074673235675582e-05,-4.5415136018921175e-05,6.8571,5.8571
3.20703125,-3.613531195544364e-05,-8.739320807965208e-05,-2.197920298313877e-05,-4.297261628900586e-05,6.8571,5.8571
3.2109375,-3.8577831685358955e-05,-8.739320807965208e-05,-2.9788262478065145e-05,-4.9809920622568085e-05,6.8571,5.8571
3.21484375,-4.346287114518958e-05,-6.689004962996869e-05,-5.176218549629968e-05,-5.957124499122605e-05,6.8571,5.8571
3.21875,-5.761898011749446e-05,-1.1237368902113366e-05,-2.6855487891966112e-05,-4.736740089265276e-05,6.8571,5.8571
3.22265625,-5.273394065766383e-05,-1.3679888632028678e-05,-1.074711404592965e-05,-4.4924881162737454e-05,6.8571,5.8571
3.2265625,-4.785765574883648e-05,-7.421760881971464e-05,-3.4183047081712045e-05,-5.859948982986189e-05,6.8571,5.8571
3.23046875,-3.8087576829175235e-05,-9.178799268329899e-05,-4.1992106576638425e-05,-5.6156970099946583e-05,6.8571,5.8571
3.234375,-9.285104028381773e-06,-4.297261628900586e-05,-3.711582166781108e-05,-6.103325500877393e-05,6.8571,5.8571
3.23828125,-1.3679888632028678e-05,1.4567300526436355e-06,-1.611365381094071e-05,-6.200501017013807e-05,6.8571,5.8571
3.2421875,-4.003984170290683e-05,-2.0998693270771334e-05,-3.272103706416418e-05,-5.6156970099946583e-05,6.8571,5.8571
3.24609375,-3.662556681162736e-05,-5.712872526131074e-05,-4.9809920622568085e-05,-5.176218549629968e-05,6.8571,5.8571
3.25,-2.5883732730601955e-05,-6.982282421606773e-05,-4.1510606271457985e-05,-5.859948982986189e-05,6.8571,5.8571
3.25390625,-1.7094163523308148e-05,-3.369279222552834e-05,-2.5883732730601955e-05,-6.24952650263218e-05,6.8571,5.8571
3.2578125,-4.8347910605020204e-05,1.1717063828488605e-05,-3.076877219043258e-05,-5.810923497367817e-05,6.8571,5.8571
3.26171875,-8.59311980621042e-05,3.899249782558954e-06,-2.197920298313877e-05,-4.9809920622568085e-05,6.8571,5.8571
3.265625,-5.078167578393223e-05,-4.736740089265276e-05,4.389504638742664e-06,-5.078167578393223e-05,6.8571,5.8571
3.26953125,-2.0026938109407174e-05,-7.030432452124817e-05,6.832024368657982e-06,-5.371445037003127e-05,6.8571,5.8571
3.2734375,-6.352329442282737e-06,-7.372735396353092e-05,-1.318963377584496e-05,-5.176218549629968e-05,6.8571,5.8571
3.27734375,1.3179073846036472e-05,-6.787055934233615e-05,-2.2950958144502926e-05,-4.8829410910200644e-05,6.8571,5.8571
3.28125,-5.371819729915302e-06,-5.810923497367817e-05,-2.490322301823452e-05,-4.297261628900586e-05,6.8571,5.8571
3.28515625,-1.8556173540856022e-05,-8.2026668314641e-05,-2.8816507316700988e-05,-4.785765574883648e-05,6.8571,5.8571
3.2890625,-1.8556173540856022e-05,-9.716328699931333e-05,-1.2699378919661242e-05,-5.371445037003127e-05,6.8571,5.8571
3.29296875,-2.6373987586785672e-05,-9.618277728694589e-05,-2.6855487891966112e-05,-5.371445037003127e-05,6.8571,5.8571
3.296875,-2.734574274814983e-05,-4.638689118028533e-05,-2.393146785687036e-05,-4.8347910605020204e-05,6.8571,5.8571
3.30078125,-5.66472249561303e-05,-1.904642839703974e-05,-5.371819729915302e-06,-3.711582166781108e-05,6.8571,5.8571
3.3046875,-7.421760881971464e-05,-8.544094320592048e-05,-1.7094163523308148e-05,-4.8347910605020204e-05,6.8571,5.8571
3.30859375,-4.39531260013733e-05,-0.00012304173976501105,-3.8577831685358955e-05,-5.566671524376286e-05,6.8571,5.8571
3.3125,-3.4183047081712045e-05,-0.000135735838719768,-4.5415136018921175e-05,-5.322419551384755e-05,6.8571,5.8571
3.31640625,-3.662556681162736e-05,-0.00013866861330586708,-4.8347910605020204e-05,-5.761898011749446e-05,6.8571,5.8571
3.3203125,-2.0998693270771334e-05,-0.00014452540792706184,-5.469496008239871e-05,-5.078167578393223e-05,6.8571,5.8571
3.32421875,-1.8556173540856022e-05,-0.00019775307802700844,-3.955834139772639e-05,-4.39531260013733e-05,6.8571,5.8571
3.328125,-2.5883732730601955e-05,-0.00018896350881971463,-2.148894812695505e-05,-4.8347910605020204e-05,6.8571,5.8571
3.33203125,-3.4183047081712045e-05,-0.00013866861330586708,-2.0026938109407174e-05,-5.127193064011595e-05,6.8571,5.8571
3.3359375,-6.054300015259021e-05,-9.130649237811854e-05,-3.5645057099259926e-05,-5.078167578393223e-05,6.8571,5.8571
3.33984375,-6.787055934233615e-05,-6.639979477378499e-05,-4.39531260013733e-05,-4.931966576638436e-05,6.8571,5.8571
3.34375,-3.955834139772639e-05,-8.935422750438695e-05,-3.8577831685358955e-05,-4.638689118028533e-05,6.8571,5.8571
3.34765625,-3.467330193789577e-05,-0.00013964036846723124,-4.785765574883648e-05,-4.9809920622568085e-05,6.8571,5.8571
3.3515625,-3.272103706416418e-05,-0.00016747108610666055,-5.761898011749446e-05,-6.24952650263218e-05,6.8571,5.8571
3.35546875,-1.4161388937209117e-05,-0.00012108947489127945,-1.4161388937209117e-05,-5.761898011749446e-05,6.8571,5.8571
3.359375,-1.904642839703974e-05,-4.736740089265276e-05,3.1248467116807816e-05,-4.785765574883648e-05,6.8571,5.8571
3.36328125,-6.352329442282737e-06,-9.570127698176546e-05,-1.3679888632028678e-05,-6.151475531395436e-05,6.8571,5.8571
3.3671875,-1.1237368902113366e-05,-0.00019139727399862665,-7.909389372854198e-05,-6.590953991760126e-05,6.8571,5.8571
3.37109375,-3.8087576829175235e-05,-0.0001904255188372625,-7.95841485847257e-05,-5.176218549629968e-05,6.8571,5.8571
3.375,-7.861239342336156e-05,-0.00014941044738689247,-7.274684425116348e-05,-6.054300015259021e-05,6.8571,5.8571
3.37890625,-0.00010400059133287555,-0.00012108947489127945,-8.886397264820322e-05,-5.859948982986189e-05,6.8571,5.8571
3.3828125,-4.687714603646905e-05,-0.00017284638042267488,-0.00012108947489127945,-4.8829410910200644e-05,6.8571,5.8571
3.38671875,6.3417695124742575e-06,-0.0002475577186846723,-0.00014696792765697716,-5.859948982986189e-05,6.8571,5.8571
3.390625,-2.8816507316700988e-05,-0.0002446249440985732,-0.0001455059176394293,-6.151475531395436e-05,6.8571,5.8571
3.39453125,-1.318963377584496e-05,-0.00025878105307087807,-0.0001562477517204547,-5.908974468604561e-05,6.8571,5.8571
3.3984375,2.196864305333028e-05,-0.00026561835740444037,-0.00017675091017013806,-6.88423145037003e-05,6.8571,5.8571
3.40234375,1.1226808972304879e-05,-0.00027685044634164944,-0.00018309795964751657,-7.665137399862666e-05,6.8571,5.8571
3.40625,-6.352329442282737e-06,-0.00032567457728694587,-0.00017675091017013806,-6.200501017013807e-05,6.8571,5.8571
3.41015625,-2.246070328831921e-05,-0.00034716699999999995,-0.000168451595819028,-5.273394065766383e-05,6.8571,5.8571
3.4140625,-4.785765574883648e-05,-0.00031542299806210414,-0.0001782216747386892,-5.712872526131074e-05,6.8571,5.8571
3.41796875,-3.321129192034789e-05,-0.0002714751520256351,-0.00017626065531395436,-5.371445037003127e-05,6.8571,5.8571
3.421875,8.294034386205852e-06,-0.00027783095605401695,-0.00017382689013504233,-5.273394065766383e-05,6.8571,5.8571
3.42578125,2.437239765011071e-06,-0.00029931462421606774,-0.00017186587071030743,-5.273394065766383e-05,6.8571,5.8571
3.4296875,-6.352329442282737e-06,-0.00029931462421606774,-0.0001645470660715648,-5.957124499122605e-05,6.8571,5.8571
3.43359375,1.562159357595179e-05,-0.0002753884363241016,-0.0001660090760891127,-5.420470522621499e-05,6.8571,5.8571
3.4375,2.929620224307622e-05,-0.00020360987264820323,-0.00014257314305333028,-3.5163556794079486e-05,6.8571,5.8571
3.44140625,1.4641083863584355e-05,-0.00020897641241321427,-0.00014990070224307617,-5.176218549629968e-05,6.8571,5.8571
3.4453125,1.9469849088273535e-06,-0.0002729459165941863,-0.00016015228146791787,-6.395727504386968e-05,6.8571,5.8571
3.44921875,-1.6603908667124427e-05,-0.00027636019148546574,-0.000135735838719768,-5.469496008239871e-05,6.8571,5.8571
3.453125,-7.665137399862666e-05,-0.0002372973849088273,-0.00012402224947737848,-4.1992106576638425e-05,6.8571,5.8571
3.45703125,-7.128483423361561e-05,-0.00018652098908979934,-0.00010595285620660715,-2.734574274814983e-05,6.8571,5.8571
3.4609375,-3.0278517334248862e-05,-0.00018700248939497975,-9.374901210803387e-05,-4.003984170290683e-05,6.8571,5.8571
3.46484375,-5.420470522621499e-05,-0.00023778763976501103,-9.374901210803387e-05,-5.5176460387579136e-05,6.8571,5.8571
3.46875,-4.39531260013733e-05,-0.0002563385333409628,-0.00010644311106279085,-6.151475531395436e-05,6.8571,5.8571
3.47265625,-1.4161388937209117e-05,-0.0002412019146562905,-0.00012645601465629053,-6.24952650263218e-05,6.8571,5.8571
3.4765625,-1.2699378919661242e-05,-0.00018896350881971463,-0.00010985738595407033,-5.030017547875179e-05,6.8571,5.8571
3.48046875,-8.794849172198056e-06,-0.00012255148490882732,-7.616987369344623e-05,-3.759732197299152e-05,6.8571,5.8571
3.484375,-1.4651643793392836e-05,-0.00015672925202563513,-5.469496008239871e-05,-2.734574274814983e-05,6.8571,5.8571
3.48828125,-2.0508438414587614e-05,-0.00022558379566643775,-7.128483423361561e-05,-4.2482361432822145e-05,6.8571,5.8571
3.4921875,-3.711582166781108e-05,-0.0002260652959716182,-8.300717802700845e-05,-5.078167578393223e-05,6.8571,5.8571
3.49609375,-5.322419551384755e-05,-0.00016064253632410162,-7.469910912489507e-05,-4.102035141527427e-05,6.8571,5.8571
3.5,-4.39531260013733e-05,-0.0001347640835584039,-9.081623752193483e-05,-5.273394065766383e-05,6.8571,5.8571
3.50390625,-3.125027249561302e-05,-0.00016551882123292896,-7.567961883726253e-05,-5.371445037003127e-05,6.8571,5.8571
3.5078125,-4.1510606271457985e-05,-0.00017675091017013806,-4.785765574883648e-05,-4.1510606271457985e-05,6.8571,5.8571
3.51171875,-5.761898011749446e-05,-0.00016796134096284425,-3.467330193789577e-05,-4.931966576638436e-05,6.8571,5.8571
3.515625,-4.736740089265276e-05,-0.00011376191570153352,-4.2482361432822145e-05,-5.273394065766383e-05,6.8571,5.8571
3.51953125,-4.2482361432822145e-05,-9.42305124132143e-05,-6.054300015259021e-05,-5.273394065766383e-05,6.8571,5.8571
3.5234375,-5.322419551384755e-05,-0.00011279016054016934,-3.9068086541542676e-05,-4.5415136018921175e-05,6.8571,5.8571
3.52734375,-5.761898011749446e-05,-0.00012402224947737848,-3.1740527351796736e-05,-4.053009655909055e-05,6.8571,5.8571
3.53125,-2.2950958144502926e-05,-0.0001220612300526436,-3.223078220798045e-05,-2.832625246051727e-05,6.8571,5.8571
3.53515625,-2.246070328831921e-05,-9.521102212558173e-05,-2.197920298313877e-05,-2.734574274814983e-05,6.8571,5.8571
3.5390625,-3.125027249561302e-05,-6.151475531395436e-05,-8.794849172198056e-06,-2.9298007621881428e-05,6.8571,5.8571
3.54296875,-4.955348210879578e-07,-6.49377847562371e-05,-2.8816507316700988e-05,-3.369279222552834e-05,6.8571,5.8571
3.546875,-1.5141898649576553e-05,-0.00010888563079270617,-6.590953991760126e-05,-4.736740089265276e-05,6.8571,5.8571
3.55078125,-5.66472249561303e-05,-9.862529701686119e-05,-5.127193064011595e-05,-3.8087576829175235e-05,6.8571,5.8571
3.5546875,-6.200501017013807e-05,-7.177508908979934e-05,-3.272103706416418e-05,-3.711582166781108e-05,6.8571,5.8571
3.55859375,-6.298551988250552e-05,-6.49377847562371e-05,-3.759732197299152e-05,-5.176218549629968e-05,6.8571,5.8571
3.5625,-5.957124499122605e-05,-6.103325500877393e-05,-4.736740089265276e-05,-5.957124499122605e-05,6.8571,5.8571
3.56640625,-3.4183047081712045e-05,-4.931966576638436e-05,-2.7835997604333546e-05,-5.371445037003127e-05,6.8571,5.8571
3.5703125,-2.9788262478065145e-05,-5.6156970099946583e-05,-2.0998693270771334e-05,-4.590539087510489e-05,6.8571,5.8571
3.57421875,-2.734574274814983e-05,-2.5393477874418238e-05,-2.393146785687036e-05,-4.931966576638436e-05,6.8571,5.8571
3.578125,-2.0998693270771334e-05,4.389504638742664e-06,-3.1740527351796736e-05,-5.127193064011595e-05,6.8571,5.8571
3.58203125,-3.369279222552834e-05,1.4567300526436355e-06,-3.662556681162736e-05,-4.4924881162737454e-05,6.8571,5.8571
3.5859375,-5.5176460387579136e-05,2.5382917944609757e-05,-4.003984170290683e-05,-3.711582166781108e-05,6.8571,5.8571
3.58984375,-5.273394065766383e-05,2.2949152765697732e-05,-3.9068086541542676e-05,-4.2482361432822145e-05,6.8571,5.8571
3.59375,-3.4183047081712045e-05,4.930910583657588e-05,-4.1510606271457985e-05,-5.273394065766383e-05,6.8571,5.8571
3.59765625,-3.759732197299152e-05,0.00013476227817959868,-2.148894812695505e-05,-4.736740089265276e-05,6.8571,5.8571
3.6015625,-4.785765574883648e-05,0.0001581982112153811,-1.1237368902113366e-05,-5.5176460387579136e-05,6.8571,5.8571
3.60546875,-4.4924881162737454e-05,0.00010644130568398566,-2.0026938109407174e-05,-6.395727504386968e-05,6.8571,5.8571
3.609375,-6.054300015259021e-05,7.470605829709316e-05,-3.0278517334248862e-05,-5.566671524376286e-05,6.8571,5.8571
3.61328125,-8.2026668314641e-05,0.00010985558057526512,-1.563215350576027e-05,-4.687714603646905e-05,6.8571,5.8571
3.6171875,-6.395727504386968e-05,0.00016600727071030747,1.0246299259937445e-05,-4.053009655909055e-05,6.8571,5.8571
3.62109375,-2.0998693270771334e-05,0.0001699205550087739,-1.1237368902113366e-05,-3.759732197299152e-05,6.8571,5.8571
3.625,-1.3679888632028678e-05,0.0001093740802700847,-3.467330193789577e-05,-4.5415136018921175e-05,6.8571,5.8571
3.62890625,-5.030017547875179e-05,6.347396935988404e-05,-3.613531195544364e-05,-5.176218549629968e-05,6.8571,5.8571
3.6328125,-6.738030448615242e-05,0.00010888382541390097,-3.125027249561302e-05,-4.590539087510489e-05,6.8571,5.8571
3.63671875,-5.957124499122605e-05,0.00017431533961242084,-8.794849172198056e-06,-4.2482361432822145e-05,6.8571,5.8571
3.640625,-4.785765574883648e-05,0.00014843688684672312,4.84974891279478e-07,-4.5415136018921175e-05,6.8571,5.8571
3.64453125,-4.102035141527427e-05,9.130468699931336e-05,-3.223078220798045e-05,-6.298551988250552e-05,6.8571,5.8571
3.6484375,-4.1510606271457985e-05,5.2241880422674906e-05,-4.590539087510489e-05,-7.665137399862666e-05,6.8571,5.8571
3.65234375,-5.371445037003127e-05,5.565615531395438e-05,-2.9298007621881428e-05,-6.689004962996869e-05,6.8571,5.8571
3.65625,-6.49377847562371e-05,0.00010742181539635311,-1.7094163523308148e-05,-5.371445037003127e-05,6.8571,5.8571
3.66015625,-4.736740089265276e-05,0.0001352525330357824,-1.563215350576027e-05,-5.273394065766383e-05,6.8571,5.8571
3.6640625,-3.125027249561302e-05,0.00010009425620660715,-2.832625246051727e-05,-5.566671524376286e-05,6.8571,5.8571
3.66796875,-1.9536683253223456e-05,7.56778134584573e-05,-2.0026938109407174e-05,-4.4924881162737454e-05,6.8571,5.8571
3.671875,-2.832625246051727e-05,4.5404576089112694e-05,-2.9298007621881428e-05,-4.4434626306553733e-05,6.8571,5.8571
3.67578125,-3.4183047081712045e-05,4.4432820927748533e-05,-5.566671524376286e-05,-6.103325500877393e-05,6.8571,5.8571
3.6796875,-2.0998693270771334e-05,9.03241772869459e-05,-4.687714603646905e-05,-5.322419551384755e-05,6.8571,5.8571
3.68359375,-2.0998693270771334e-05,6.347396935988404e-05,-3.9068086541542676e-05,-3.369279222552834e-05,6.8571,5.8571
3.6875,-3.1740527351796736e-05,-4.955348210879578e-07,-5.078167578393223e-05,-3.662556681162736e-05,6.8571,5.8571
3.69140625,-1.563215350576027e-05,-1.5141898649576553e-05,-6.982282421606773e-05,-4.1992106576638425e-05,6.8571,5.8571
3.6953125,-1.7094163523308148e-05,-1.1237368902113366e-05,-8.98357278095674e-05,-5.225244035248339e-05,6.8571,5.8571
3.69921875,-4.736740089265276e-05,1.2688818989852762e-05,-9.081623752193483e-05,-5.176218549629968e-05,6.8571,5.8571
3.703125,-4.590539087510489e-05,3.417749477378507e-06,-8.446918804455633e-05,-4.1510606271457985e-05,6.8571,5.8571
3.70703125,-4.346287114518958e-05,-1.5141898649576553e-05,-8.15364134584573e-05,-5.176218549629968e-05,6.8571,5.8571
3.7109375,-4.2482361432822145e-05,-3.9068086541542676e-05,-9.178799268329899e-05,-4.346287114518958e-05,6.8571,5.8571
3.71484375,-1.074711404592965e-05,-4.687714603646905e-05,-0.00011962746487373158,-1.318963377584496e-05,6.8571,5.8571
3.71875,9.274544098573286e-06,-3.5163556794079486e-05,-0.00011328041539635307,-2.393146785687036e-05,6.8571,5.8571
3.72265625,-2.0998693270771334e-05,-7.177508908979934e-05,-9.960580672922865e-05,-4.5415136018921175e-05,6.8571,5.8571
3.7265625,-4.5415136018921175e-05,-0.00014208288819714653,-0.0001328118186846723,-4.8347910605020204e-05,6.8571,5.8571
3.73046875,-3.5645057099259926e-05,-0.00019188752885481038,-0.00013378357384603645,-4.39531260013733e-05,6.8571,5.8571
3.734375,-1.8074673235675582e-05,-0.00014208288819714653,-0.00012597451435111007,-2.832625246051727e-05,6.8571,5.8571
3.73828125,1.2688818989852762e-05,-9.570127698176546e-05,-0.00015477698715190354,-2.197920298313877e-05,6.8571,5.8571
3.7421875,1.4159583558403908e-05,-0.00013329331898985272,-0.00016796134096284425,-2.197920298313877e-05,6.8571,5.8571
3.74609375,-2.0998693270771334e-05,-0.00015087245740444033,-0.00016551882123292896,-2.0998693270771334e-05,6.8571,5.8571
3.75,-2.734574274814983e-05,-0.0001650373209277485,-0.00015282472227817195,-1.8074673235675582e-05,6.8571,5.8571
3.75390625,-8.794849172198056e-06,-0.00014257314305333028,-0.00014452540792706184,-2.0508438414587614e-05,6.8571,5.8571
3.7578125,-1.6603908667124427e-05,-0.00010839537593652245,-0.00014696792765697716,-2.0998693270771334e-05,6.8571,5.8571
3.76171875,-8.794849172198056e-06,-8.495944290074003e-05,-9.814379671168076e-05,-8.30459431601433e-06,6.8571,5.8571
3.765625,-2.246070328831921e-05,-0.00010009606158541236,-8.007440344090942e-05,-1.5141898649576553e-05,6.8571,5.8571
3.76953125,-5.030017547875179e-05,-0.00012157972974746316,-0.00010252982676432438,-3.8087576829175235e-05,6.8571,5.8571
3.7734375,-3.662556681162736e-05,-9.765354185549704e-05,-9.570127698176546e-05,-5.176218549629968e-05,6.8571,5.8571
3.77734375,-5.420470522621499e-05,-6.689004962996869e-05,-6.200501017013807e-05,-4.785765574883648e-05,6.8571,5.8571
3.78125,-0.00010985738595407033,-3.272103706416418e-05,-3.9068086541542676e-05,-3.711582166781108e-05,6.8571,5.8571
3.78515625,-7.51893639810788e-05,-3.9068086541542676e-05,-5.030017547875179e-05,-3.321129192034789e-05,6.8571,5.8571
3.7890625,2.437239765011071e-06,-9.178799268329899e-05,-5.030017547875179e-05,-3.955834139772639e-05,6.8571,5.8571
3.79296875,2.147838819714657e-05,-7.909389372854198e-05,-5.566671524376286e-05,-6.24952650263218e-05,6.8571,5.8571
3.796875,-3.0278517334248862e-05,-5.127193064011595e-05,-8.2026668314641e-05,-7.372735396353092e-05,6.8571,5.8571
3.80078125,-5.5176460387579136e-05,-6.298551988250552e-05,-7.763188371099411e-05,-6.054300015259021e-05,6.8571,5.8571
3.8046875,-4.2482361432822145e-05,-6.787055934233615e-05,-5.469496008239871e-05,-5.322419551384755e-05,6.8571,5.8571
3.80859375,-5.030017547875179e-05,-6.103325500877393e-05,-3.711582166781108e-05,-5.66472249561303e-05,6.8571,5.8571
3.8125,-8.544094320592048e-05,-4.785765574883648e-05,-7.814339459830613e-06,-4.8829410910200644e-05,6.8571,5.8571
3.81640625,-9.032598266575111e-05,-1.9536683253223456e-05,1.708360359349966e-05,-5.127193064011595e-05,6.8571,5.8571
3.8203125,-6.151475531395436e-05,-9.766604333562206e-06,1.4159583558403908e-05,-7.32370991073472e-05,6.8571,5.8571
3.82421875,-8.2026668314641e-05,-4.2482361432822145e-05,4.84974891279478e-07,-8.642145291828792e-05,6.8571,5.8571
3.828125,-0.00010985738595407033,-6.689004962996869e-05,1.3669328702220198e-05,-7.909389372854198e-05,6.8571,5.8571
3.83203125,-7.95841485847257e-05,-4.1510606271457985e-05,2.929620224307622e-05,-6.933256935988402e-05,6.8571,5.8571
3.8359375,-5.420470522621499e-05,-8.30459431601433e-06,3.5643251720454726e-05,-6.103325500877393e-05,6.8571,5.8571
3.83984375,-6.298551988250552e-05,1.562159357595179e-05,3.172996742198826e-05,-5.420470522621499e-05,6.8571,5.8571
3.84375,-8.007440344090942e-05,-1.563215350576027e-05,8.784289242389575e-06,-7.177508908979934e-05,6.8571,5.8571
3.84765625,-0.00011034764081025404,-6.982282421606773e-05,3.899249782558954e-06,-8.251692317082473e-05,6.8571,5.8571
3.8515625,-0.00011620443543144882,-7.079457937743188e-05,1.8064113305867095e-05,-7.812213856717783e-05,6.8571,5.8571
3.85546875,-7.909389372854198e-05,-3.369279222552834e-05,2.5382917944609757e-05,-7.177508908979934e-05,6.8571,5.8571
3.859375,-7.079457937743188e-05,-1.563215350576027e-05,1.708360359349966e-05,-6.590953991760126e-05,6.8571,5.8571
3.86328125,-8.642145291828792e-05,-4.736740089265276e-05,1.1717063828488605e-05,-6.590953991760126e-05,6.8571,5.8571
3.8671875,-8.691170777447164e-05,-7.421760881971464e-05,1.4641083863584355e-05,-6.49377847562371e-05,6.8571,5.8571
3.87109375,-8.78834629358358e-05,-6.639979477378499e-05,3.1248467116807816e-05,-6.200501017013807e-05,6.8571,5.8571
3.875,-6.835205964751658e-05,-6.103325500877393e-05,2.8315692530708787e-05,-5.761898011749446e-05,6.8571,5.8571
3.87890625,-6.444752990005339e-05,-2.5393477874418238e-05,3.0267957404440378e-05,-5.322419551384755e-05,6.8571,5.8571
3.8828125,-8.886397264820322e-05,-3.662556681162736e-05,4.5404576089112694e-05,-4.5415136018921175e-05,6.8571,5.8571
3.88671875,-6.103325500877393e-05,-6.590953991760126e-05,3.320073199053941e-05,-4.2482361432822145e-05,6.8571,5.8571
3.890625,-3.125027249561302e-05,-6.982282421606773e-05,2.4901417639429324e-05,-4.39531260013733e-05,6.8571,5.8571
3.89453125,-4.590539087510489e-05,-7.079457937743188e-05,2.4901417639429324e-05,-6.103325500877393e-05,6.8571,5.8571
3.8984375,-5.957124499122605e-05,-5.5176460387579136e-05,9.274544098573286e-06,-6.590953991760126e-05,6.8571,5.8571
3.90234375,-8.544094320592048e-05,-4.053009655909055e-05,3.417749477378507e-06,-6.103325500877393e-05,6.8571,5.8571
3.90625,-0.00010644311106279085,-8.300717802700845e-05,1.0246299259937445e-05,-7.079457937743188e-05,6.8571,5.8571
3.91015625,-7.714162885481039e-05,-0.00010351033647669182,3.27104771343557e-05,-4.638689118028533e-05,6.8571,5.8571
3.9140625,-5.322419551384755e-05,-7.177508908979934e-05,3.5643251720454726e-05,-2.7835997604333546e-05,6.8571,5.8571
3.91796875,-5.810923497367817e-05,-5.712872526131074e-05,-5.371819729915302e-06,-5.225244035248339e-05,6.8571,5.8571
3.921875,-4.638689118028533e-05,-4.8829410910200644e-05,1.9469849088273535e-06,-5.810923497367817e-05,6.8571,5.8571
3.92578125,-5.810923497367817e-05,-6.0061499847409767e-05,2.2949152765697732e-05,-5.078167578393223e-05,6.8571,5.8571
3.9296875,-5.761898011749446e-05,-7.372735396353092e-05,2.001637817959869e-05,-3.613531195544364e-05,6.8571,5.8571
3.93359375,-5.469496008239871e-05,-8.15364134584573e-05,2.927494621194789e-06,-4.053009655909055e-05,6.8571,5.8571
3.9375,-5.078167578393223e-05,-5.712872526131074e-05,-2.9292999999999907e-06,-5.712872526131074e-05,6.8571,5.8571
3.94140625,-3.662556681162736e-05,-6.590953991760126e-05,-1.4672899824521153e-06,-6.200501017013807e-05,6.8571,5.8571
3.9453125,-4.5415136018921175e-05,-0.00010888563079270617,-1.8074673235675582e-05,-7.128483423361561e-05,6.8571,5.8571
3.94921875,-5.176218549629968e-05,-0.00011815670030518042,-2.5393477874418238e-05,-6.24952650263218e-05,6.8571,5.8571
3.953125,-4.297261628900586e-05,-8.739320807965208e-05,-9.770351262683973e-07,-3.5645057099259926e-05,6.8571,5.8571
3.95703125,-5.322419551384755e-05,-3.759732197299152e-05,1.6111848432135503e-05,-2.5393477874418238e-05,6.8571,5.8571
3.9609375,-7.128483423361561e-05,-4.1992106576638425e-05,-2.447799694819551e-06,-3.321129192034789e-05,6.8571,5.8571
3.96484375,-5.761898011749446e-05,-5.957124499122605e-05,-4.955348210879578e-07,-2.9298007621881428e-05,6.8571,5.8571
3.96875,-3.8577831685358955e-05,-0.00010790512108033874,4.879759494926389e-06,-3.369279222552834e-05,6.8571,5.8571
3.97265625,-5.5176460387579136e-05,-0.00013671634843213546,-2.246070328831921e-05,-5.810923497367817e-05,6.8571,5.8571
3.9765625,-3.955834139772639e-05,-7.274684425116348e-05,-4.687714603646905e-05,-5.957124499122605e-05,6.8571,5.8571
3.98046875,-2.832625246051727e-05,-5.810923497367817e-05,-4.785765574883648e-05,-6.542803961242083e-05,6.8571,5.8571
3.984375,-5.761898011749446e-05,-7.32370991073472e-05,-2.9788262478065145e-05,-6.0061499847409767e-05,6.8571,5.8571
3.98828125,-8.59311980621042e-05,-8.104615860227358e-05,-3.4195548561837083e-06,-3.711582166781108e-05,6.8571,5.8571
3.9921875,-3.5163556794079486e-05,-8.837371779201951e-05,-1.2699378919661242e-05,-4.053009655909055e-05,6.8571,5.8571
3.99609375,-1.5141898649576553e-05,-3.759732197299152e-05,-4.003984170290683e-05,-4.9809920622568085e-05,6.8571,5.8571
4.0,-6.444752990005339e-05,-2.0026938109407174e-05,-2.5883732730601955e-05,-3.4183047081712045e-05,6.8571,5.8571
4.00390625,-6.835205964751658e-05,-1.7094163523308148e-05,-1.4672899824521153e-06,-3.076877219043258e-05,6.8571,5.8571
