timestamp,TP9,AF7,AF8,TP10,Valence,Arousal
0.0,3.467046344090936e-05,0.0003803697777340351,1.318506176241695e-05,2.2961318883039517e-05,7.0667,4.7333
0.00390625,2.5884611453421754e-05,0.00037353278746013566,9.807146379796307e-07,2.4910180596627673e-05,7.0667,4.7333
0.0078125,3.321680429388868e-05,0.0003662005946196688,1.0261769192034713e-05,2.2961318883039517e-05,7.0667,4.7333
0.01171875,4.0533022858014716e-05,0.00036669579718623624,1.6124328609140075e-05,1.9542823746089796e-05,7.0667,4.7333
0.015625,3.6140096864270914e-05,0.0003544914500617989,2.945550627908673e-06,1.8073190322728234e-05,7.0667,4.7333
0.01953125,3.174717087052712e-05,0.00033984303865720595,3.424778918135267e-06,1.7593962032501634e-05,7.0667,4.7333
0.0234375,3.174717087052712e-05,0.0003373989743770503,5.868843198290911e-06,1.7593962032501634e-05,7.0667,4.7333
0.02734375,3.2721601727321196e-05,0.00033153641495994494,4.894412341496831e-06,1.8073190322728234e-05,7.0667,4.7333
0.03125,2.735424487678332e-05,0.0003246994246860455,1.6603556899366672e-05,1.9542823746089796e-05,7.0667,4.7333
0.03515625,2.9303106590371475e-05,0.0003115206467048141,1.5629126042572595e-05,2.2961318883039517e-05,7.0667,4.7333
0.0390625,4.1507453714808794e-05,0.0002983258944472418,9.766566625467227e-06,2.0517254602883878e-05,7.0667,4.7333
0.04296875,3.1251968303959634e-05,0.0002905144733165483,8.792135768673147e-06,1.8568392889295715e-05,7.0667,4.7333
0.046875,2.0517254602883878e-05,0.00028514711646601036,4.894412341496831e-06,1.7098759465934153e-05,7.0667,4.7333
0.05078125,3.1251968303959634e-05,0.0002900352450263217,1.318506176241695e-05,1.5149897752345996e-05,7.0667,4.7333
0.0546875,3.906338943465316e-05,0.00028709597817959853,1.0756971758602197e-05,1.4654695185778513e-05,7.0667,4.7333
0.05859375,3.7114527721065e-05,0.00026952427420462335,-9.681470756085274e-07,1.123620004882879e-05,7.0667,4.7333
0.0625,2.8328675733577397e-05,0.00026171285307392985,-2.437780498970092e-06,1.221063090562287e-05,7.0667,4.7333
0.06640625,3.077274001373304e-05,0.00026121765050736233,1.4654695185778513e-05,1.9542823746089796e-05,7.0667,4.7333
0.0703125,3.5165666007476836e-05,0.0002499877342397191,1.9047621179522312e-05,2.3935749739833595e-05,7.0667,4.7333
0.07421875,2.4414978030060192e-05,0.00023827858968184927,1.0756971758602197e-05,2.5884611453421754e-05,7.0667,4.7333
0.078125,2.4414978030060192e-05,0.00022655347084763855,6.348071488517512e-06,2.4910180596627673e-05,7.0667,4.7333
0.08203125,3.5165666007476836e-05,0.00021923725228351252,-1.4633496421760127e-06,2.2961318883039517e-05,7.0667,4.7333
0.0859375,3.7114527721065e-05,0.0002202116831403066,6.843274055084989e-06,2.3440547173266114e-05,7.0667,4.7333
0.08984375,4.005379456778812e-05,0.00022410940656748292,1.123620004882879e-05,2.099648289311047e-05,7.0667,4.7333
0.09375,3.077274001373304e-05,0.00022118611399710067,1.3680264328984436e-05,1.9542823746089796e-05,7.0667,4.7333
0.09765625,1.6124328609140075e-05,0.00021337469286640716,1.3680264328984436e-05,1.8568392889295715e-05,7.0667,4.7333
0.1015625,2.979830915693896e-05,0.00020214477659876391,4.894412341496831e-06,2.2961318883039517e-05,7.0667,4.7333
0.10546875,4.1507453714808794e-05,0.00019677741974822604,1.5629126042572595e-05,2.6859042310215832e-05,7.0667,4.7333
0.109375,3.7609730287632476e-05,0.00019481258375829698,2.099648289311047e-05,2.3440547173266114e-05,7.0667,4.7333
0.11328125,3.419123515068276e-05,0.00019628221718165855,1.7593962032501634e-05,2.099648289311047e-05,7.0667,4.7333
0.1171875,3.0277537447165556e-05,0.0001806593749202715,7.817704911879068e-06,2.1491685459677955e-05,7.0667,4.7333
0.12109375,3.419123515068276e-05,0.00016356689923552288,1.9551454947737097e-06,2.2961318883039517e-05,7.0667,4.7333
0.125,3.906338943465316e-05,0.00016307169666895542,7.817704911879068e-06,2.3935749739833595e-05,7.0667,4.7333
0.12890625,4.10282254245822e-05,0.00015478104724803529,2.637981401998924e-05,2.2961318883039517e-05,7.0667,4.7333
0.1328125,3.906338943465316e-05,0.00014794405697413586,3.7114527721065e-05,2.3440547173266114e-05,7.0667,4.7333
0.13671875,3.66352994308384e-05,0.00014013263584344236,2.0517254602883878e-05,2.3935749739833595e-05,7.0667,4.7333
0.140625,4.200265628137628e-05,0.00013963743327687485,1.4654695185778513e-05,2.2961318883039517e-05,7.0667,4.7333
0.14453125,3.7114527721065e-05,0.00014794405697413586,2.1491685459677955e-05,2.0517254602883878e-05,7.0667,4.7333
0.1484375,4.0533022858014716e-05,0.0001381837741298542,3.174717087052712e-05,2.0517254602883878e-05,7.0667,4.7333
0.15234375,4.588440543221171e-05,0.00012157052673533218,4.0533022858014716e-05,2.1491685459677955e-05,7.0667,4.7333
0.15625,3.955859200122064e-05,0.00011083581303425641,1.9542823746089796e-05,2.2961318883039517e-05,7.0667,4.7333
0.16015625,3.369603258411528e-05,0.00010105955591363383,4.894412341496831e-06,2.1986888026245436e-05,7.0667,4.7333
0.1640625,2.5884611453421754e-05,9.764106077668412e-05,1.5629126042572595e-05,2.1491685459677955e-05,7.0667,4.7333
0.16796875,2.4414978030060192e-05,0.00010008512505683975,2.6859042310215832e-05,2.1986888026245436e-05,7.0667,4.7333
0.171875,3.5165666007476836e-05,9.813626334325161e-05,3.66352994308384e-05,2.3935749739833595e-05,7.0667,4.7333
0.17578125,4.1507453714808794e-05,9.276890649271374e-05,3.7609730287632476e-05,2.5884611453421754e-05,7.0667,4.7333
0.1796875,3.906338943465316e-05,8.690634707560836e-05,3.0277537447165556e-05,2.735424487678332e-05,7.0667,4.7333
0.18359375,3.808895857785907e-05,8.593191621881428e-05,2.9303106590371475e-05,2.540538316319516e-05,7.0667,4.7333
0.1875,3.419123515068276e-05,9.521297077286937e-05,2.9303106590371475e-05,2.4414978030060192e-05,7.0667,4.7333
0.19140625,3.174717087052712e-05,9.618740162966344e-05,2.9303106590371475e-05,2.5884611453421754e-05,7.0667,4.7333
0.1953125,3.321680429388868e-05,8.348785193865865e-05,2.8328675733577397e-05,2.979830915693896e-05,7.0667,4.7333
0.19921875,3.077274001373304e-05,7.959012851148233e-05,2.7833473167009913e-05,2.979830915693896e-05,7.0667,4.7333
0.203125,3.077274001373304e-05,7.859972337834736e-05,1.7593962032501634e-05,2.8823878300144878e-05,7.0667,4.7333
0.20703125,3.077274001373304e-05,7.959012851148233e-05,1.5149897752345996e-05,2.735424487678332e-05,7.0667,4.7333
0.2109375,2.2961318883039517e-05,8.788077793240245e-05,3.419123515068276e-05,2.637981401998924e-05,7.0667,4.7333
0.21484375,2.4910180596627673e-05,8.788077793240245e-05,3.808895857785907e-05,3.419123515068276e-05,7.0667,4.7333
0.21875,3.369603258411528e-05,8.006935680170891e-05,1.9542823746089796e-05,2.9303106590371475e-05,7.0667,4.7333
0.22265625,3.2721601727321196e-05,7.61716333745326e-05,2.1986888026245436e-05,2.540538316319516e-05,7.0667,4.7333
0.2265625,3.174717087052712e-05,7.078830224765383e-05,3.077274001373304e-05,2.735424487678332e-05,7.0667,4.7333
0.23046875,3.321680429388868e-05,7.518122824139764e-05,1.4175466895551916e-05,2.540538316319516e-05,7.0667,4.7333
0.234375,3.5165666007476836e-05,7.66508616647592e-05,9.287338335240633e-06,2.6859042310215832e-05,7.0667,4.7333
0.23828125,3.2721601727321196e-05,5.46862316960402e-05,1.0756971758602197e-05,2.8328675733577397e-05,7.0667,4.7333
0.2421875,2.4910180596627673e-05,4.784924142214076e-05,9.287338335240633e-06,2.8823878300144878e-05,7.0667,4.7333
0.24609375,2.6859042310215832e-05,4.7354038855573274e-05,1.7593962032501634e-05,2.637981401998924e-05,7.0667,4.7333
0.25,2.979830915693896e-05,3.858416114442656e-05,2.9303106590371475e-05,2.637981401998924e-05,7.0667,4.7333
0.25390625,2.8328675733577397e-05,2.7833473167009913e-05,2.979830915693896e-05,2.9303106590371475e-05,7.0667,4.7333
0.2578125,4.005379456778812e-05,2.002205203631639e-05,1.7593962032501634e-05,2.7833473167009913e-05,7.0667,4.7333
0.26171875,4.3935543718623556e-05,2.1491685459677955e-05,1.9542823746089796e-05,2.3935749739833595e-05,7.0667,4.7333
0.265625,4.7354038855573274e-05,2.3935749739833595e-05,2.2961318883039517e-05,2.3440547173266114e-05,7.0667,4.7333
0.26953125,4.588440543221171e-05,2.5884611453421754e-05,3.2242373437094596e-05,2.2466116316472033e-05,7.0667,4.7333
0.2734375,3.077274001373304e-05,3.1251968303959634e-05,3.7609730287632476e-05,2.2961318883039517e-05,7.0667,4.7333
0.27734375,2.3440547173266114e-05,3.2721601727321196e-05,2.540538316319516e-05,2.002205203631639e-05,7.0667,4.7333
0.28125,3.5165666007476836e-05,3.5165666007476836e-05,1.8568392889295715e-05,1.7593962032501634e-05,7.0667,4.7333
0.28515625,3.858416114442656e-05,4.7354038855573274e-05,1.7593962032501634e-05,2.2961318883039517e-05,7.0667,4.7333
0.2890625,3.467046344090936e-05,4.3456315428396956e-05,3.174717087052712e-05,3.1251968303959634e-05,7.0667,4.7333
0.29296875,4.1507453714808794e-05,3.5165666007476836e-05,2.8328675733577397e-05,3.2242373437094596e-05,7.0667,4.7333
0.296875,4.637960799877919e-05,3.2242373437094596e-05,1.6603556899366672e-05,2.735424487678332e-05,7.0667,4.7333
0.30078125,4.248188457160287e-05,2.6859042310215832e-05,2.4414978030060192e-05,2.4414978030060192e-05,7.0667,4.7333
0.3046875,3.955859200122064e-05,2.099648289311047e-05,1.5629126042572595e-05,2.540538316319516e-05,7.0667,4.7333
0.30859375,3.66352994308384e-05,1.318506176241695e-05,1.4175466895551916e-05,2.2466116316472033e-05,7.0667,4.7333
0.3125,3.174717087052712e-05,1.4175466895551916e-05,3.1251968303959634e-05,2.1491685459677955e-05,7.0667,4.7333
0.31640625,3.467046344090936e-05,6.348071488517512e-06,3.321680429388868e-05,2.8328675733577397e-05,7.0667,4.7333
0.3203125,3.7114527721065e-05,-4.7294450904104933e-07,1.8073190322728234e-05,2.9303106590371475e-05,7.0667,4.7333
0.32421875,3.5644894297703436e-05,3.424778918135267e-06,1.5149897752345996e-05,2.540538316319516e-05,7.0667,4.7333
0.328125,3.5644894297703436e-05,-1.170286077668429e-05,2.4414978030060192e-05,2.3440547173266114e-05,7.0667,4.7333
0.33203125,3.2721601727321196e-05,-2.929053902800038e-05,1.9542823746089796e-05,2.540538316319516e-05,7.0667,4.7333
0.3359375,3.5644894297703436e-05,-4.344374786602586e-05,1.2705833472190353e-05,2.6859042310215832e-05,7.0667,4.7333
0.33984375,3.906338943465316e-05,-6.542435211108575e-05,1.0756971758602197e-05,2.6859042310215832e-05,7.0667,4.7333
0.34375,3.321680429388868e-05,-6.1031426117341945e-05,1.221063090562287e-05,2.4910180596627673e-05,7.0667,4.7333
0.34765625,2.3440547173266114e-05,-3.905082187228206e-05,2.3440547173266114e-05,2.7833473167009913e-05,7.0667,4.7333
0.3515625,2.9303106590371475e-05,-4.344374786602586e-05,1.7593962032501634e-05,3.1251968303959634e-05,7.0667,4.7333
0.35546875,3.7609730287632476e-05,-4.6383014712748983e-05,1.5149897752345996e-05,2.7833473167009913e-05,7.0667,4.7333
0.359375,3.419123515068276e-05,-4.686224300297557e-05,1.8568392889295715e-05,2.979830915693896e-05,7.0667,4.7333
0.36328125,3.5644894297703436e-05,-5.0775940706492786e-05,1.6603556899366672e-05,3.5644894297703436e-05,7.0667,4.7333
0.3671875,3.369603258411528e-05,-3.7101960158693895e-05,2.5884611453421754e-05,3.7114527721065e-05,7.0667,4.7333
0.37109375,2.9303106590371475e-05,-1.659098933699557e-05,2.735424487678332e-05,3.1251968303959634e-05,7.0667,4.7333
0.375,2.637981401998924e-05,-5.361073069352329e-06,2.5884611453421754e-05,3.2721601727321196e-05,7.0667,4.7333
0.37890625,2.099648289311047e-05,4.399209774929346e-06,2.3440547173266114e-05,3.7114527721065e-05,7.0667,4.7333
0.3828125,1.8568392889295715e-05,1.7593962032501634e-05,1.8073190322728234e-05,3.5165666007476836e-05,7.0667,4.7333
0.38671875,2.4414978030060192e-05,3.66352994308384e-05,3.321680429388868e-05,3.6140096864270914e-05,7.0667,4.7333
0.390625,2.979830915693896e-05,4.832846971236735e-05,3.2721601727321196e-05,3.2721601727321196e-05,7.0667,4.7333
0.39453125,3.7609730287632476e-05,5.077253399252299e-05,2.1986888026245436e-05,2.7833473167009913e-05,7.0667,4.7333
0.3984375,4.297708713817036e-05,5.760952426642244e-05,2.7833473167009913e-05,3.077274001373304e-05,7.0667,4.7333
0.40234375,3.955859200122064e-05,5.321659827267864e-05,2.1986888026245436e-05,3.1251968303959634e-05,7.0667,4.7333
0.40625,2.8823878300144878e-05,5.5165459986266793e-05,2.3440547173266114e-05,3.0277537447165556e-05,7.0667,4.7333
0.41015625,1.9047621179522312e-05,6.005358854657808e-05,4.4909974575417634e-05,2.8823878300144878e-05,7.0667,4.7333
0.4140625,2.8328675733577397e-05,5.2721395706111154e-05,3.0277537447165556e-05,2.3935749739833595e-05,7.0667,4.7333
0.41796875,3.858416114442656e-05,4.200265628137628e-05,1.0756971758602197e-05,2.4910180596627673e-05,7.0667,4.7333
0.421875,4.005379456778812e-05,2.2961318883039517e-05,1.9047621179522312e-05,2.8328675733577397e-05,7.0667,4.7333
0.42578125,3.2242373437094596e-05,7.817704911879068e-06,1.9047621179522312e-05,2.540538316319516e-05,7.0667,4.7333
0.4296875,2.099648289311047e-05,1.1731402615396273e-05,2.735424487678332e-05,1.5629126042572595e-05,7.0667,4.7333
0.43359375,2.5884611453421754e-05,1.8568392889295715e-05,2.8328675733577397e-05,8.312907478446554e-06,7.0667,4.7333
0.4375,3.2721601727321196e-05,1.4654695185778513e-05,2.637981401998924e-05,1.8073190322728234e-05,7.0667,4.7333
0.44140625,2.2466116316472033e-05,1.2705833472190353e-05,1.4654695185778513e-05,2.099648289311047e-05,7.0667,4.7333
0.4453125,2.0517254602883878e-05,7.338476621652475e-06,2.450348061341188e-06,1.4175466895551916e-05,7.0667,4.7333
0.44921875,2.6859042310215832e-05,-4.7294450904104933e-07,3.919981484702753e-06,1.6124328609140075e-05,7.0667,4.7333
0.453125,2.4910180596627673e-05,-1.9425779324026064e-06,2.0517254602883878e-05,1.8073190322728234e-05,7.0667,4.7333
0.45703125,2.735424487678332e-05,-4.14948861524377e-05,1.9047621179522312e-05,1.3680264328984436e-05,7.0667,4.7333
0.4609375,3.077274001373304e-05,-8.738898207980474e-05,9.766566625467227e-06,1.221063090562287e-05,7.0667,4.7333
0.46484375,2.9303106590371475e-05,-9.178190807354855e-05,1.9542823746089796e-05,1.5149897752345996e-05,7.0667,4.7333
0.46875,3.808895857785907e-05,-9.81396700572214e-05,2.3935749739833595e-05,1.8568392889295715e-05,7.0667,4.7333
0.47265625,3.7114527721065e-05,-0.00012646206200961325,3.077274001373304e-05,2.1986888026245436e-05,7.0667,4.7333
0.4765625,3.5165666007476836e-05,-0.00014794746368810562,2.540538316319516e-05,2.3440547173266114e-05,7.0667,4.7333
0.48046875,3.906338943465316e-05,-0.00015818697482261393,1.8073190322728234e-05,2.2466116316472033e-05,7.0667,4.7333
0.484375,4.3456315428396956e-05,-0.00015526368225223167,2.5884611453421754e-05,2.1986888026245436e-05,7.0667,4.7333
0.48828125,4.248188457160287e-05,-0.00012499242858625168,2.3440547173266114e-05,2.4414978030060192e-05,7.0667,4.7333
0.4921875,3.858416114442656e-05,-8.836341293659882e-05,2.4414978030060192e-05,2.6859042310215832e-05,7.0667,4.7333
0.49609375,3.6140096864270914e-05,-7.128691152819111e-05,3.0277537447165556e-05,2.4414978030060192e-05,7.0667,4.7333
0.5,3.5644894297703436e-05,-6.395471868772418e-05,2.735424487678332e-05,2.3440547173266114e-05,7.0667,4.7333
0.50390625,3.6140096864270914e-05,-6.151065440756854e-05,2.540538316319516e-05,2.1491685459677955e-05,7.0667,4.7333
0.5078125,3.5165666007476836e-05,-4.3938950432593344e-05,3.7114527721065e-05,1.4175466895551916e-05,7.0667,4.7333
0.51171875,3.174717087052712e-05,-3.0264969884794453e-05,3.369603258411528e-05,1.5629126042572595e-05,7.0667,4.7333
0.515625,3.66352994308384e-05,-2.929053902800038e-05,1.6124328609140075e-05,2.5884611453421754e-05,7.0667,4.7333
0.51953125,3.808895857785907e-05,-2.195834618753345e-05,9.287338335240633e-06,2.8328675733577397e-05,7.0667,4.7333
0.5234375,3.2242373437094596e-05,-2.000948447394529e-05,6.843274055084989e-06,2.4414978030060192e-05,7.0667,4.7333
0.52734375,3.2721601727321196e-05,-1.561655848020149e-05,1.4175466895551916e-05,2.4910180596627673e-05,7.0667,4.7333
0.53125,2.979830915693896e-05,1.4759172045471088e-06,3.467046344090936e-05,2.4414978030060192e-05,7.0667,4.7333
0.53515625,2.099648289311047e-05,2.450348061341188e-06,3.174717087052712e-05,2.6859042310215832e-05,7.0667,4.7333
0.5390625,2.2961318883039517e-05,-2.342797961089502e-05,2.735424487678332e-05,2.735424487678332e-05,7.0667,4.7333
0.54296875,3.7609730287632476e-05,-3.123940074158854e-05,2.1986888026245436e-05,2.2466116316472033e-05,7.0667,4.7333
0.546875,3.808895857785907e-05,-1.464212762340741e-05,2.9303106590371475e-05,2.4910180596627673e-05,7.0667,4.7333
0.55078125,3.5165666007476836e-05,1.4759172045471088e-06,4.1507453714808794e-05,2.8823878300144878e-05,7.0667,4.7333
0.5546875,4.297708713817036e-05,1.5629126042572595e-05,2.4910180596627673e-05,2.4910180596627673e-05,7.0667,4.7333
0.55859375,4.4430746285191034e-05,2.540538316319516e-05,1.8073190322728234e-05,2.540538316319516e-05,7.0667,4.7333
0.5625,3.858416114442656e-05,2.8823878300144878e-05,2.5884611453421754e-05,3.0277537447165556e-05,7.0667,4.7333
0.56640625,4.637960799877919e-05,4.3935543718623556e-05,3.321680429388868e-05,3.0277537447165556e-05,7.0667,4.7333
0.5703125,5.174696484931707e-05,5.02933057022964e-05,3.419123515068276e-05,2.735424487678332e-05,7.0667,4.7333
0.57421875,5.077253399252299e-05,4.005379456778812e-05,3.2242373437094596e-05,2.5884611453421754e-05,7.0667,4.7333
0.578125,5.566066255283428e-05,2.735424487678332e-05,2.1491685459677955e-05,3.174717087052712e-05,7.0667,4.7333
0.58203125,5.4191029129472716e-05,2.637981401998924e-05,1.3680264328984436e-05,3.906338943465316e-05,7.0667,4.7333
0.5859375,5.613989084306087e-05,4.637960799877919e-05,2.3440547173266114e-05,5.077253399252299e-05,7.0667,4.7333
0.58984375,6.152322196993964e-05,5.174696484931707e-05,1.6603556899366672e-05,5.174696484931707e-05,7.0667,4.7333
0.59375,5.9079157689783995e-05,6.005358854657808e-05,8.312907478446554e-06,4.3456315428396956e-05,7.0667,4.7333
0.59765625,7.176273310444791e-05,5.760952426642244e-05,-4.7294450904104933e-07,4.588440543221171e-05,7.0667,4.7333
0.6015625,8.1043787658503e-05,5.321659827267864e-05,-4.7294450904104933e-07,6.591614796368344e-05,7.0667,4.7333
0.60546875,8.153899022507047e-05,8.1043787658503e-05,3.2242373437094596e-05,7.372756909437696e-05,7.0667,4.7333
0.609375,9.179447563591964e-05,5.224216741588455e-05,3.424778918135267e-06,6.053281683680467e-05,7.0667,4.7333
0.61328125,0.00010399882276035697,-1.1223632486457696e-05,-6.542435211108575e-05,7.030907395742724e-05,7.0667,4.7333
0.6171875,0.00012206572930189965,-2.7341677314412223e-05,-7.909833265888463e-05,8.1043787658503e-05,7.0667,4.7333
0.62109375,0.00012011686758831148,-5.272480242008095e-05,-0.00010253259605096519,7.420679738460356e-05,7.0667,4.7333
0.625,0.00011473353646143273,-0.00010350702690775926,-0.0001411104734142062,6.29768811169603e-05,7.0667,4.7333
0.62890625,0.0001376885715632867,-0.00013572714228732744,-0.00015379404882887013,6.249765282673372e-05,7.0667,4.7333
0.6328125,0.0001450047901274127,-0.00017480022221713593,-0.00018700456934157326,7.66508616647592e-05,7.0667,4.7333
0.63671875,0.00014355113098039204,-0.00022655687756160836,-0.00022655687756160836,9.42385399160753e-05,7.0667,4.7333
0.640625,0.00016259246837872882,-0.0002543840669474327,-0.00024706784838330665,8.348785193865865e-05,7.0667,4.7333
0.64453125,0.0001806593749202715,-0.0002817320280430305,-0.0002890482466071565,7.518122824139764e-05,7.0667,4.7333
0.6484375,0.0001733271820798046,-0.0002919875134538797,-0.00031591697941252766,7.812049508812076e-05,7.0667,4.7333
0.65234375,0.00016014840409857317,-0.0002558537003707943,-0.00028320166146639204,7.275313823758288e-05,7.0667,4.7333
0.65625,0.00016161803752193473,-0.00025096557181048294,-0.00028123682547646304,6.689057882047752e-05,7.0667,4.7333
0.66015625,0.0001674805969390401,-0.00024852150753032736,-0.00028320166146639204,6.639537625391004e-05,7.0667,4.7333
0.6640625,0.00016112283495536725,-0.0002519400026672771,-0.0002817320280430305,5.858395512321652e-05,7.0667,4.7333
0.66796875,0.00012645865529564346,-0.0002412052889662013,-0.00027439983520256356,4.3935543718623556e-05,7.0667,4.7333
0.671875,9.960589676661316e-05,-0.00018016757906767381,-0.00021777102557412074,3.808895857785907e-05,7.0667,4.7333
0.67578125,0.00010789654618753328,-0.00017040729622339214,-0.00020213220903639282,2.9303106590371475e-05,7.0667,4.7333
0.6796875,0.00010350362019378949,-0.00018797900019836735,-0.00021288289701380946,1.7098759465934153e-05,7.0667,4.7333
0.68359375,9.032484221255807e-05,-0.00018309087163805604,-0.00019384155961547268,1.4175466895551916e-05,7.0667,4.7333
0.6875,7.859972337834736e-05,-0.0001806627816342413,-0.00014353856341802097,8.312907478446554e-06,7.0667,4.7333
0.69140625,7.030907395742724e-05,-0.00018847420276493483,-0.00011229287889524687,-2.437780498970092e-06,7.0667,4.7333
0.6953125,5.46862316960402e-05,-0.00021483175872739763,-0.00013524791399710084,-8.300339916075457e-06,7.0667,4.7333
0.69921875,3.321680429388868e-05,-0.00020751554016327158,-0.00011912986916914633,-1.2693265909819253e-05,7.0667,4.7333
0.703125,3.2242373437094596e-05,-0.00017235615793698028,-8.54401203662166e-05,-1.9530256183718696e-05,7.0667,4.7333
0.70703125,2.637981401998924e-05,-0.00014452896855115594,-6.151065440756854e-05,-2.3923182177462492e-05,7.0667,4.7333
0.7109375,2.450348061341188e-06,-0.00011473694317540252,-2.9769767318226965e-05,-2.0504687040512778e-05,7.0667,4.7333
0.71484375,-7.805137349507973e-06,-9.619080834363324e-05,-8.779568206302051e-06,-2.2453548754100937e-05,7.0667,4.7333
0.71875,9.807146379796307e-07,-9.277231320668352e-05,-1.0249201629663616e-05,-3.076017245136194e-05,7.0667,4.7333
0.72265625,2.450348061341188e-06,-8.593532293278405e-05,-1.1223632486457696e-05,-3.173460330815602e-05,7.0667,4.7333
0.7265625,-4.38664221255825e-06,-6.1031426117341945e-05,-4.881844779125736e-06,-3.4657895878538255e-05,7.0667,4.7333
0.73046875,-1.4146925056839933e-05,-3.905082187228206e-05,1.7593962032501634e-05,-3.3683465021744184e-05,7.0667,4.7333
0.734375,-2.294875132066842e-05,-5.856275635919814e-06,4.9798103135728914e-05,-3.270903416495009e-05,7.0667,4.7333
0.73828125,-2.782090560463881e-05,3.6140096864270914e-05,4.637960799877919e-05,-3.7101960158693895e-05,7.0667,4.7333
0.7421875,-3.221383159838261e-05,4.4909974575417634e-05,3.321680429388868e-05,-3.857159358205546e-05,7.0667,4.7333
0.74609375,-2.587204389105065e-05,3.808895857785907e-05,4.784924142214076e-05,-3.954602443884954e-05,7.0667,4.7333
0.75,-2.587204389105065e-05,5.02933057022964e-05,6.83442379674982e-05,-3.417866758831167e-05,7.0667,4.7333
0.75390625,-3.076017245136194e-05,6.444651454032189e-05,7.128350481422131e-05,-2.9769767318226965e-05,7.0667,4.7333
0.7578125,-2.635127218127725e-05,7.567643080796512e-05,7.176273310444791e-05,-4.199008871900518e-05,7.0667,4.7333
0.76171875,-3.660675759212641e-05,8.201821851529708e-05,7.714606423132667e-05,-4.54085838559549e-05,7.0667,4.7333
0.765625,-3.6127529301899824e-05,8.251342108186455e-05,7.909492594491484e-05,-3.0264969884794453e-05,7.0667,4.7333
0.76953125,-1.6111761046768975e-05,8.690634707560836e-05,8.153899022507047e-05,-2.098391533073937e-05,7.0667,4.7333
0.7734375,-4.38664221255825e-06,9.324813478294033e-05,8.05645593682764e-05,-2.147911789730685e-05,7.0667,4.7333
0.77734375,-1.0249201629663616e-05,0.00010644288704051261,7.762529252155329e-05,-2.195834618753345e-05,7.0667,4.7333
0.78125,-2.0504687040512778e-05,0.00012743308615243754,7.61716333745326e-05,-2.147911789730685e-05,7.0667,4.7333
0.78515625,-2.294875132066842e-05,0.00014989291868772403,8.05645593682764e-05,-2.294875132066842e-05,7.0667,4.7333
0.7890625,-1.3172494200045853e-05,0.0001679598252292667,9.764106077668412e-05,-2.3923182177462492e-05,7.0667,4.7333
0.79296875,-5.856275635919814e-06,0.0001723527512230105,0.00010105955591363383,-2.294875132066842e-05,7.0667,4.7333
0.796875,-6.335503926146409e-06,0.00017918974149690994,9.569219906309597e-05,-2.489761303425658e-05,7.0667,4.7333
0.80078125,-7.805137349507973e-06,0.00019481258375829698,8.593191621881428e-05,-1.7565420193789654e-05,7.0667,4.7333
0.8046875,-8.300339916075457e-06,0.00020604250002594023,7.812049508812076e-05,-1.7086191903563053e-05,7.0667,4.7333
0.80859375,-1.8060622760357134e-05,0.00021679318800335687,9.324813478294033e-05,-2.000948447394529e-05,7.0667,4.7333
0.8125,-1.7086191903563053e-05,0.0002216653422873273,0.00010105955591363383,-1.464212762340741e-05,7.0667,4.7333
0.81640625,-5.361073069352329e-06,0.00022655347084763855,9.813626334325161e-05,-1.1223632486457696e-05,7.0667,4.7333
0.8203125,-2.9170087891966855e-06,0.00022363017827725632,0.00010058032762340723,-5.856275635919814e-06,7.0667,4.7333
0.82421875,-2.9170087891966855e-06,0.00021824684715037755,9.227370392614624e-05,1.4759172045471088e-06,7.0667,4.7333
0.828125,-1.4633496421760127e-06,0.00022557903999084446,9.324813478294033e-05,3.424778918135267e-06,7.0667,4.7333
0.83203125,-9.681470756085274e-07,0.00022216054485389475,0.00010692211533073921,1.4759172045471088e-06,7.0667,4.7333
0.8359375,3.424778918135267e-06,0.00020848656430609588,0.00010252918933699542,6.348071488517512e-06,7.0667,4.7333
0.83984375,7.338476621652475e-06,0.00020556327173571363,0.00010105955591363383,6.348071488517512e-06,7.0667,4.7333
0.84375,1.4759172045471088e-06,0.00019628221718165855,9.521297077286937e-05,3.424778918135267e-06,7.0667,4.7333
0.84765625,-4.881844779125736e-06,0.00019188929118791473,9.032484221255807e-05,5.868843198290911e-06,7.0667,4.7333
0.8515625,-1.170286077668429e-05,0.0001904196577645532,9.129927306935216e-05,-2.437780498970092e-06,7.0667,4.7333
0.85546875,-7.309934782940487e-06,0.00018455709834744782,9.227370392614624e-05,1.9551454947737097e-06,7.0667,4.7333
0.859375,1.123620004882879e-05,0.00017529201806973363,8.299264937209115e-05,1.5149897752345996e-05,7.0667,4.7333
0.86328125,1.221063090562287e-05,0.00016161803752193473,7.420679738460356e-05,1.5629126042572595e-05,7.0667,4.7333
0.8671875,9.287338335240633e-06,0.0001450047901274127,8.201821851529708e-05,1.123620004882879e-05,7.0667,4.7333
0.87109375,8.792135768673147e-06,0.00011034061046768892,8.54367136522468e-05,9.766566625467227e-06,7.0667,4.7333
0.875,1.318506176241695e-05,9.032484221255807e-05,7.714606423132667e-05,9.287338335240633e-06,7.0667,4.7333
0.87890625,2.002205203631639e-05,8.982963964599059e-05,7.372756909437696e-05,7.338476621652475e-06,7.0667,4.7333
0.8828125,1.4654695185778513e-05,9.179447563591964e-05,7.030907395742724e-05,1.0261769192034713e-05,7.0667,4.7333
0.88671875,9.766566625467227e-06,9.129927306935216e-05,6.736980711070412e-05,3.919981484702753e-06,7.0667,4.7333
0.890625,1.6124328609140075e-05,9.521297077286937e-05,7.420679738460356e-05,-1.4633496421760127e-06,7.0667,4.7333
0.89453125,1.318506176241695e-05,9.764106077668412e-05,7.859972337834736e-05,4.399209774929346e-06,7.0667,4.7333
0.8984375,6.843274055084989e-06,9.471776820630188e-05,7.762529252155329e-05,4.399209774929346e-06,7.0667,4.7333
0.90234375,1.6603556899366672e-05,0.00010008512505683975,6.542094539711596e-05,-6.335503926146409e-06,7.0667,4.7333
0.90625,3.174717087052712e-05,0.00011473353646143273,7.66508616647592e-05,-1.0249201629663616e-05,7.0667,4.7333
0.91015625,3.369603258411528e-05,9.227370392614624e-05,9.666662991989005e-05,1.9551454947737097e-06,7.0667,4.7333
0.9140625,2.002205203631639e-05,5.224216741588455e-05,9.960589676661316e-05,2.450348061341188e-06,7.0667,4.7333
0.91796875,1.4175466895551916e-05,7.22579356710154e-05,0.00011522873902800022,1.3680264328984436e-05,7.0667,4.7333
0.921875,1.9542823746089796e-05,4.297708713817036e-05,8.982963964599059e-05,3.906338943465316e-05,7.0667,4.7333
0.92578125,2.099648289311047e-05,-1.3667696766613332e-05,4.637960799877919e-05,3.7114527721065e-05,7.0667,4.7333
0.9296875,1.6603556899366672e-05,2.4414978030060192e-05,6.395131197375439e-05,2.9303106590371475e-05,7.0667,4.7333
0.93359375,1.0261769192034713e-05,5.46862316960402e-05,8.153899022507047e-05,2.9303106590371475e-05,7.0667,4.7333
0.9375,-1.4633496421760127e-06,4.832846971236735e-05,8.201821851529708e-05,2.7833473167009913e-05,7.0667,4.7333
0.94140625,-1.4633496421760127e-06,7.078830224765383e-05,8.740154964217585e-05,2.8823878300144878e-05,7.0667,4.7333
0.9453125,6.283781185551618e-09,9.521297077286937e-05,9.324813478294033e-05,2.8823878300144878e-05,7.0667,4.7333
0.94921875,-4.881844779125736e-06,0.00011620316988479429,8.641114450904088e-05,2.979830915693896e-05,7.0667,4.7333
0.953125,-9.681470756085274e-07,0.00013573970984969856,8.740154964217585e-05,2.7833473167009913e-05,7.0667,4.7333
0.95703125,-2.437780498970092e-06,0.0001376885715632867,9.179447563591964e-05,2.3935749739833595e-05,7.0667,4.7333
0.9609375,-5.361073069352329e-06,0.00013035637872281977,9.42385399160753e-05,2.9303106590371475e-05,7.0667,4.7333
0.96484375,-4.38664221255825e-06,0.0001337748738597695,9.032484221255807e-05,3.174717087052712e-05,7.0667,4.7333
0.96875,-1.2693265909819253e-05,0.00014744885440756838,8.690634707560836e-05,3.321680429388868e-05,7.0667,4.7333
0.97265625,-6.335503926146409e-06,0.00014696962611734178,9.813626334325161e-05,3.077274001373304e-05,7.0667,4.7333
0.9765625,1.318506176241695e-05,0.00014257670012359798,9.032484221255807e-05,2.540538316319516e-05,7.0667,4.7333
0.98046875,1.5629126042572595e-05,0.00014257670012359798,7.959012851148233e-05,2.3935749739833595e-05,7.0667,4.7333
0.984375,9.287338335240633e-06,0.0001420814975570305,7.518122824139764e-05,2.8328675733577397e-05,7.0667,4.7333
0.98828125,1.9551454947737097e-06,0.00015233698296787966,8.495748536202021e-05,3.174717087052712e-05,7.0667,4.7333
0.9921875,1.0261769192034713e-05,0.00015623470639505597,8.837598049896993e-05,2.6859042310215832e-05,7.0667,4.7333
0.99609375,9.766566625467227e-06,0.00015478104724803529,7.859972337834736e-05,2.1986888026245436e-05,7.0667,4.7333
1.0,6.843274055084989e-06,0.00014403035927061864,7.078830224765383e-05,2.1491685459677955e-05,7.0667,4.7333
1.00390625,9.287338335240633e-06,0.00013621893813992514,6.494171710688937e-05,2.2466116316472033e-05,7.0667,4.7333
1.0078125,1.1731402615396273e-05,0.00014305592841382456,7.22579356710154e-05,1.7593962032501634e-05,7.0667,4.7333
1.01171875,2.2961318883039517e-05,0.00014403035927061864,8.299264937209115e-05,1.9047621179522312e-05,7.0667,4.7333
1.015625,2.0517254602883878e-05,0.00013621893813992514,8.299264937209115e-05,2.4414978030060192e-05,7.0667,4.7333
1.01953125,1.6603556899366672e-05,0.00011815203159838244,7.909492594491484e-05,2.540538316319516e-05,7.0667,4.7333
1.0234375,1.9047621179522312e-05,0.00010936617961089484,7.128350481422131e-05,2.637981401998924e-05,7.0667,4.7333
1.02734375,2.099648289311047e-05,0.00011717760074158837,6.736980711070412e-05,2.4910180596627673e-05,7.0667,4.7333
1.03125,2.0517254602883878e-05,0.00012304016015869372,8.201821851529708e-05,2.8328675733577397e-05,7.0667,4.7333
1.03515625,1.4175466895551916e-05,0.00011767280330815584,8.54367136522468e-05,2.979830915693896e-05,7.0667,4.7333
1.0390625,1.7098759465934153e-05,0.00011864723416494993,7.909492594491484e-05,2.637981401998924e-05,7.0667,4.7333
1.04296875,2.540538316319516e-05,0.00011912646245517653,7.66508616647592e-05,2.8328675733577397e-05,7.0667,4.7333
1.046875,2.3935749739833595e-05,0.00011912646245517653,8.641114450904088e-05,2.8328675733577397e-05,7.0667,4.7333
1.05078125,1.8568392889295715e-05,0.0001235353627252612,9.374333734950781e-05,2.4414978030060192e-05,7.0667,4.7333
1.0546875,2.1491685459677955e-05,0.00011767280330815584,8.641114450904088e-05,2.3440547173266114e-05,7.0667,4.7333
1.05859375,2.2466116316472033e-05,0.00010888695132066825,7.372756909437696e-05,2.5884611453421754e-05,7.0667,4.7333
1.0625,1.5629126042572595e-05,0.00010399882276035697,6.395131197375439e-05,2.5884611453421754e-05,7.0667,4.7333
1.06640625,1.6124328609140075e-05,0.00010399882276035697,7.030907395742724e-05,2.8328675733577397e-05,7.0667,4.7333
1.0703125,1.3680264328984436e-05,0.00010741731789730668,8.251342108186455e-05,3.0277537447165556e-05,7.0667,4.7333
1.07421875,1.3680264328984436e-05,9.813626334325161e-05,8.885520878919652e-05,3.077274001373304e-05,7.0667,4.7333
1.078125,1.9542823746089796e-05,8.251342108186455e-05,7.567643080796512e-05,3.419123515068276e-05,7.0667,4.7333
1.08203125,1.2705833472190353e-05,8.398305450522614e-05,6.639537625391004e-05,3.419123515068276e-05,7.0667,4.7333
1.0859375,1.7593962032501634e-05,9.032484221255807e-05,8.1043787658503e-05,3.174717087052712e-05,7.0667,4.7333
1.08984375,3.2721601727321196e-05,8.398305450522614e-05,8.495748536202021e-05,3.077274001373304e-05,7.0667,4.7333
1.09375,3.467046344090936e-05,7.61716333745326e-05,8.398305450522614e-05,3.419123515068276e-05,7.0667,4.7333
1.09765625,3.2242373437094596e-05,7.372756909437696e-05,9.082004477912556e-05,3.369603258411528e-05,7.0667,4.7333
1.1015625,2.4414978030060192e-05,7.567643080796512e-05,8.593191621881428e-05,3.1251968303959634e-05,7.0667,4.7333
1.10546875,2.2961318883039517e-05,7.762529252155329e-05,8.740154964217585e-05,3.0277537447165556e-05,7.0667,4.7333
1.109375,2.540538316319516e-05,8.398305450522614e-05,0.00010008512505683975,2.8823878300144878e-05,7.0667,4.7333
1.11328125,2.1986888026245436e-05,8.837598049896993e-05,0.00010008512505683975,2.8328675733577397e-05,7.0667,4.7333
1.1171875,2.9303106590371475e-05,9.082004477912556e-05,8.446228279545272e-05,2.979830915693896e-05,7.0667,4.7333
1.12109375,2.735424487678332e-05,8.641114450904088e-05,7.128350481422131e-05,2.637981401998924e-05,7.0667,4.7333
1.125,1.318506176241695e-05,8.837598049896993e-05,7.859972337834736e-05,2.3935749739833595e-05,7.0667,4.7333
1.12890625,2.0517254602883878e-05,8.348785193865865e-05,8.299264937209115e-05,2.8328675733577397e-05,7.0667,4.7333
1.1328125,3.321680429388868e-05,6.883944053406568e-05,8.201821851529708e-05,2.6859042310215832e-05,7.0667,4.7333
1.13671875,1.4175466895551916e-05,6.83442379674982e-05,8.398305450522614e-05,1.9542823746089796e-05,7.0667,4.7333
1.140625,1.0756971758602197e-05,6.542094539711596e-05,9.032484221255807e-05,2.099648289311047e-05,7.0667,4.7333
1.14453125,3.5165666007476836e-05,6.689057882047752e-05,8.495748536202021e-05,2.5884611453421754e-05,7.0667,4.7333
1.1484375,3.858416114442656e-05,7.128350481422131e-05,8.1043787658503e-05,2.2961318883039517e-05,7.0667,4.7333
1.15234375,3.6140096864270914e-05,7.275313823758288e-05,7.959012851148233e-05,1.9047621179522312e-05,7.0667,4.7333
1.15625,3.0277537447165556e-05,7.859972337834736e-05,6.689057882047752e-05,2.002205203631639e-05,7.0667,4.7333
1.16015625,2.735424487678332e-05,7.323236652780948e-05,6.689057882047752e-05,2.0517254602883878e-05,7.0667,4.7333
1.1640625,2.6859042310215832e-05,7.470199995117105e-05,6.78650096772716e-05,1.7098759465934153e-05,7.0667,4.7333
1.16796875,2.099648289311047e-05,8.740154964217585e-05,8.006935680170891e-05,2.2961318883039517e-05,7.0667,4.7333
1.171875,1.8073190322728234e-05,6.933464310063317e-05,7.714606423132667e-05,2.6859042310215832e-05,7.0667,4.7333
1.17578125,2.979830915693896e-05,1.2705833472190353e-05,3.66352994308384e-05,2.1986888026245436e-05,7.0667,4.7333
1.1796875,2.4910180596627673e-05,-2.0504687040512778e-05,2.099648289311047e-05,2.002205203631639e-05,7.0667,4.7333
1.18359375,1.8073190322728234e-05,-7.309934782940487e-06,2.5884611453421754e-05,2.5884611453421754e-05,7.0667,4.7333
1.1875,2.3440547173266114e-05,-4.7294450904104933e-07,2.540538316319516e-05,2.9303106590371475e-05,7.0667,4.7333
1.19140625,2.540538316319516e-05,-1.1223632486457696e-05,2.1491685459677955e-05,2.637981401998924e-05,7.0667,4.7333
1.1953125,2.6859042310215832e-05,-4.4418178722819944e-05,2.002205203631639e-05,2.7833473167009913e-05,7.0667,4.7333
1.19921875,2.3935749739833595e-05,-5.9066590127412906e-05,1.8073190322728234e-05,3.2721601727321196e-05,7.0667,4.7333
1.203125,2.5884611453421754e-05,-3.660675759212641e-05,1.7593962032501634e-05,3.321680429388868e-05,7.0667,4.7333
1.20703125,3.0277537447165556e-05,-1.1223632486457696e-05,2.540538316319516e-05,3.1251968303959634e-05,7.0667,4.7333
1.2109375,2.637981401998924e-05,5.868843198290911e-06,3.321680429388868e-05,2.8823878300144878e-05,7.0667,4.7333
1.21484375,2.637981401998924e-05,2.4910180596627673e-05,2.4910180596627673e-05,2.5884611453421754e-05,7.0667,4.7333
1.21875,3.2242373437094596e-05,3.174717087052712e-05,6.843274055084989e-06,2.3935749739833595e-05,7.0667,4.7333
1.22265625,3.2242373437094596e-05,3.1251968303959634e-05,5.373640631723432e-06,2.002205203631639e-05,7.0667,4.7333
1.2265625,3.1251968303959634e-05,3.906338943465316e-05,1.4759172045471088e-06,1.9047621179522312e-05,7.0667,4.7333
1.23046875,3.174717087052712e-05,4.9302900569161436e-05,5.868843198290911e-06,2.2466116316472033e-05,7.0667,4.7333
1.234375,3.2721601727321196e-05,5.224216741588455e-05,8.312907478446554e-06,2.2961318883039517e-05,7.0667,4.7333
1.23828125,2.8823878300144878e-05,4.588440543221171e-05,6.283781185551618e-09,2.1491685459677955e-05,7.0667,4.7333
1.2421875,2.979830915693896e-05,4.4909974575417634e-05,2.945550627908673e-06,2.979830915693896e-05,7.0667,4.7333
1.24609375,3.2721601727321196e-05,5.321659827267864e-05,-6.830706492713894e-06,3.077274001373304e-05,7.0667,4.7333
1.25,2.637981401998924e-05,5.321659827267864e-05,-3.412211355764171e-06,2.6859042310215832e-05,7.0667,4.7333
1.25390625,3.1251968303959634e-05,5.1267736559090476e-05,1.2705833472190353e-05,2.7833473167009913e-05,7.0667,4.7333
1.2578125,3.5644894297703436e-05,5.174696484931707e-05,1.0261769192034713e-05,2.6859042310215832e-05,7.0667,4.7333
1.26171875,3.2242373437094596e-05,4.784924142214076e-05,1.4654695185778513e-05,3.2242373437094596e-05,7.0667,4.7333
1.265625,3.5644894297703436e-05,5.2721395706111154e-05,1.8073190322728234e-05,3.66352994308384e-05,7.0667,4.7333
1.26953125,3.7114527721065e-05,5.9558385980010596e-05,2.1986888026245436e-05,3.369603258411528e-05,7.0667,4.7333
1.2734375,3.2721601727321196e-05,6.053281683680467e-05,3.0277537447165556e-05,3.2242373437094596e-05,7.0667,4.7333
1.27734375,3.369603258411528e-05,5.566066255283428e-05,2.3440547173266114e-05,2.9303106590371475e-05,7.0667,4.7333
1.28125,3.419123515068276e-05,4.4430746285191034e-05,-8.300339916075457e-06,2.099648289311047e-05,7.0667,4.7333
1.28515625,3.1251968303959634e-05,4.3456315428396956e-05,-3.173460330815602e-05,2.099648289311047e-05,7.0667,4.7333
1.2890625,3.321680429388868e-05,4.297708713817036e-05,-2.147911789730685e-05,2.6859042310215832e-05,7.0667,4.7333
1.29296875,3.5165666007476836e-05,2.2466116316472033e-05,-1.8539851050583735e-05,2.979830915693896e-05,7.0667,4.7333
1.296875,2.540538316319516e-05,1.9551454947737097e-06,-2.6846474747844735e-05,2.7833473167009913e-05,7.0667,4.7333
1.30078125,1.5149897752345996e-05,-7.309934782940487e-06,-3.31882624551767e-05,3.1251968303959634e-05,7.0667,4.7333
1.3046875,2.637981401998924e-05,-5.361073069352329e-06,-3.660675759212641e-05,3.5165666007476836e-05,7.0667,4.7333
1.30859375,4.248188457160287e-05,5.373640631723432e-06,-3.857159358205546e-05,3.369603258411528e-05,7.0667,4.7333
1.3125,4.588440543221171e-05,2.1986888026245436e-05,-2.7341677314412223e-05,3.7609730287632476e-05,7.0667,4.7333
1.31640625,4.3456315428396956e-05,2.6859042310215832e-05,-1.6111761046768975e-05,3.955859200122064e-05,7.0667,4.7333
1.3203125,4.005379456778812e-05,2.2961318883039517e-05,-2.635127218127725e-05,3.808895857785907e-05,7.0667,4.7333
1.32421875,3.419123515068276e-05,2.540538316319516e-05,-4.246931700923177e-05,3.419123515068276e-05,7.0667,4.7333
1.328125,3.467046344090936e-05,3.2721601727321196e-05,-2.7341677314412223e-05,2.979830915693896e-05,7.0667,4.7333
1.33203125,3.5165666007476836e-05,4.005379456778812e-05,-1.4146925056839933e-05,2.637981401998924e-05,7.0667,4.7333
1.3359375,2.9303106590371475e-05,3.808895857785907e-05,-3.8076391015487986e-05,2.540538316319516e-05,7.0667,4.7333
1.33984375,2.979830915693896e-05,4.297708713817036e-05,-5.125516899671937e-05,2.637981401998924e-05,7.0667,4.7333
1.34375,3.5165666007476836e-05,5.224216741588455e-05,-5.125516899671937e-05,2.2961318883039517e-05,7.0667,4.7333
1.34765625,3.174717087052712e-05,5.711432169985495e-05,-3.8076391015487986e-05,2.3440547173266114e-05,7.0667,4.7333
1.3515625,2.979830915693896e-05,6.542094539711596e-05,-2.8316108171206294e-05,2.8328675733577397e-05,7.0667,4.7333
1.35546875,3.369603258411528e-05,6.29768811169603e-05,-3.905082187228206e-05,2.5884611453421754e-05,7.0667,4.7333
1.359375,3.5165666007476836e-05,5.2721395706111154e-05,-4.099968358587021e-05,2.2961318883039517e-05,7.0667,4.7333
1.36328125,3.5644894297703436e-05,5.2721395706111154e-05,-4.052045529564361e-05,2.8328675733577397e-05,7.0667,4.7333
1.3671875,3.5165666007476836e-05,6.152322196993964e-05,-3.563232673533234e-05,2.540538316319516e-05,7.0667,4.7333
1.37109375,4.10282254245822e-05,6.29768811169603e-05,-2.8795336461432894e-05,2.3935749739833595e-05,7.0667,4.7333
1.375,4.3935543718623556e-05,5.174696484931707e-05,-3.563232673533234e-05,3.1251968303959634e-05,7.0667,4.7333
1.37890625,4.1507453714808794e-05,4.540517714198511e-05,-2.9769767318226965e-05,3.2721601727321196e-05,7.0667,4.7333
1.3828125,3.66352994308384e-05,4.4909974575417634e-05,-3.076017245136194e-05,3.0277537447165556e-05,7.0667,4.7333
1.38671875,3.174717087052712e-05,4.540517714198511e-05,-3.173460330815602e-05,3.174717087052712e-05,7.0667,4.7333
1.390625,2.2961318883039517e-05,4.784924142214076e-05,-2.294875132066842e-05,3.419123515068276e-05,7.0667,4.7333
1.39453125,2.3440547173266114e-05,3.5165666007476836e-05,-3.173460330815602e-05,2.9303106590371475e-05,7.0667,4.7333
1.3984375,3.2721601727321196e-05,2.1986888026245436e-05,-3.954602443884954e-05,2.8823878300144878e-05,7.0667,4.7333
1.40234375,4.200265628137628e-05,2.735424487678332e-05,-3.954602443884954e-05,3.321680429388868e-05,7.0667,4.7333
1.40625,4.005379456778812e-05,3.419123515068276e-05,-2.587204389105065e-05,3.369603258411528e-05,7.0667,4.7333
1.41015625,2.4910180596627673e-05,3.955859200122064e-05,-1.3172494200045853e-05,3.2242373437094596e-05,7.0667,4.7333
1.4140625,2.5884611453421754e-05,5.02933057022964e-05,-1.072842991989021e-05,3.077274001373304e-05,7.0667,4.7333
1.41796875,3.369603258411528e-05,5.5165459986266793e-05,-1.2198063343251774e-05,3.321680429388868e-05,7.0667,4.7333
1.421875,3.2721601727321196e-05,4.7354038855573274e-05,-1.8060622760357134e-05,3.5165666007476836e-05,7.0667,4.7333
1.42578125,3.2242373437094596e-05,4.832846971236735e-05,-8.300339916075457e-06,3.808895857785907e-05,7.0667,4.7333
1.4296875,3.5644894297703436e-05,6.053281683680467e-05,1.318506176241695e-05,3.419123515068276e-05,7.0667,4.7333
1.43359375,2.735424487678332e-05,5.5165459986266793e-05,1.5629126042572595e-05,2.8328675733577397e-05,7.0667,4.7333
1.4375,2.5884611453421754e-05,4.3456315428396956e-05,-1.9425779324026064e-06,3.0277537447165556e-05,7.0667,4.7333
1.44140625,3.5165666007476836e-05,5.224216741588455e-05,-5.361073069352329e-06,2.6859042310215832e-05,7.0667,4.7333
1.4453125,2.2466116316472033e-05,6.347208368352779e-05,8.312907478446554e-06,3.0277537447165556e-05,7.0667,4.7333
1.44921875,2.540538316319516e-05,6.053281683680467e-05,1.221063090562287e-05,3.5165666007476836e-05,7.0667,4.7333
1.453125,3.7114527721065e-05,5.4191029129472716e-05,1.123620004882879e-05,3.174717087052712e-05,7.0667,4.7333
1.45703125,3.5165666007476836e-05,5.224216741588455e-05,3.424778918135267e-06,2.979830915693896e-05,7.0667,4.7333
1.4609375,3.321680429388868e-05,5.077253399252299e-05,-4.881844779125736e-06,3.2242373437094596e-05,7.0667,4.7333
1.46484375,3.419123515068276e-05,5.9079157689783995e-05,1.4654695185778513e-05,3.321680429388868e-05,7.0667,4.7333
1.46875,3.321680429388868e-05,5.711432169985495e-05,1.9047621179522312e-05,2.735424487678332e-05,7.0667,4.7333
1.47265625,2.9303106590371475e-05,5.2721395706111154e-05,1.8073190322728234e-05,2.735424487678332e-05,7.0667,4.7333
1.4765625,3.0277537447165556e-05,5.02933057022964e-05,2.3440547173266114e-05,2.8328675733577397e-05,7.0667,4.7333
1.48046875,3.467046344090936e-05,4.637960799877919e-05,9.766566625467227e-06,2.8328675733577397e-05,7.0667,4.7333
1.484375,3.419123515068276e-05,4.832846971236735e-05,2.4414978030060192e-05,3.2242373437094596e-05,7.0667,4.7333
1.48828125,3.0277537447165556e-05,4.4909974575417634e-05,4.540517714198511e-05,3.7114527721065e-05,7.0667,4.7333
1.4921875,2.9303106590371475e-05,5.02933057022964e-05,4.784924142214076e-05,3.7114527721065e-05,7.0667,4.7333
1.49609375,3.5165666007476836e-05,4.832846971236735e-05,5.4191029129472716e-05,3.467046344090936e-05,7.0667,4.7333
1.5,4.200265628137628e-05,4.4430746285191034e-05,6.200245026016624e-05,3.467046344090936e-05,7.0667,4.7333
1.50390625,3.467046344090936e-05,5.174696484931707e-05,6.689057882047752e-05,3.369603258411528e-05,7.0667,4.7333
1.5078125,2.8823878300144878e-05,5.174696484931707e-05,6.78650096772716e-05,2.8823878300144878e-05,7.0667,4.7333
1.51171875,3.1251968303959634e-05,5.369582656290523e-05,7.518122824139764e-05,2.7833473167009913e-05,7.0667,4.7333
1.515625,3.321680429388868e-05,5.174696484931707e-05,7.372756909437696e-05,2.637981401998924e-05,7.0667,4.7333
1.51953125,3.808895857785907e-05,4.7354038855573274e-05,7.22579356710154e-05,2.4910180596627673e-05,7.0667,4.7333
1.5234375,3.955859200122064e-05,4.784924142214076e-05,7.420679738460356e-05,2.6859042310215832e-05,7.0667,4.7333
1.52734375,3.858416114442656e-05,4.784924142214076e-05,8.05645593682764e-05,2.8328675733577397e-05,7.0667,4.7333
1.53125,3.6140096864270914e-05,5.2721395706111154e-05,9.569219906309597e-05,2.8823878300144878e-05,7.0667,4.7333
1.53515625,4.005379456778812e-05,5.174696484931707e-05,8.398305450522614e-05,2.7833473167009913e-05,7.0667,4.7333
1.5390625,3.7114527721065e-05,3.6140096864270914e-05,7.030907395742724e-05,2.4414978030060192e-05,7.0667,4.7333
1.54296875,3.0277537447165556e-05,3.369603258411528e-05,7.22579356710154e-05,2.6859042310215832e-05,7.0667,4.7333
1.546875,3.174717087052712e-05,4.248188457160287e-05,6.494171710688937e-05,2.8328675733577397e-05,7.0667,4.7333
1.55078125,3.2721601727321196e-05,4.0533022858014716e-05,5.9558385980010596e-05,2.6859042310215832e-05,7.0667,4.7333
1.5546875,3.0277537447165556e-05,4.297708713817036e-05,4.832846971236735e-05,2.9303106590371475e-05,7.0667,4.7333
1.55859375,2.002205203631639e-05,3.955859200122064e-05,3.1251968303959634e-05,3.369603258411528e-05,7.0667,4.7333
1.5625,1.7593962032501634e-05,3.077274001373304e-05,2.735424487678332e-05,3.2242373437094596e-05,7.0667,4.7333
1.56640625,2.002205203631639e-05,2.637981401998924e-05,2.3935749739833595e-05,2.4910180596627673e-05,7.0667,4.7333
1.5703125,2.4414978030060192e-05,2.6859042310215832e-05,2.1491685459677955e-05,2.637981401998924e-05,7.0667,4.7333
1.57421875,2.540538316319516e-05,2.5884611453421754e-05,1.9047621179522312e-05,3.0277537447165556e-05,7.0667,4.7333
1.578125,2.2466116316472033e-05,2.002205203631639e-05,7.817704911879068e-06,2.5884611453421754e-05,7.0667,4.7333
1.58203125,2.1491685459677955e-05,2.002205203631639e-05,9.766566625467227e-06,2.4910180596627673e-05,7.0667,4.7333
1.5859375,1.9542823746089796e-05,2.6859042310215832e-05,2.002205203631639e-05,3.1251968303959634e-05,7.0667,4.7333
1.58984375,2.1491685459677955e-05,3.467046344090936e-05,2.4910180596627673e-05,3.2242373437094596e-05,7.0667,4.7333
1.59375,2.0517254602883878e-05,2.979830915693896e-05,1.4175466895551916e-05,3.077274001373304e-05,7.0667,4.7333
1.59765625,2.1491685459677955e-05,2.637981401998924e-05,9.807146379796307e-07,2.8328675733577397e-05,7.0667,4.7333
1.6015625,2.7833473167009913e-05,2.3935749739833595e-05,-4.38664221255825e-06,2.4414978030060192e-05,7.0667,4.7333
1.60546875,2.637981401998924e-05,2.979830915693896e-05,5.868843198290911e-06,2.637981401998924e-05,7.0667,4.7333
1.609375,2.3440547173266114e-05,4.005379456778812e-05,1.9047621179522312e-05,2.5884611453421754e-05,7.0667,4.7333
1.61328125,2.735424487678332e-05,3.7114527721065e-05,2.3935749739833595e-05,2.2961318883039517e-05,7.0667,4.7333
1.6171875,3.1251968303959634e-05,3.467046344090936e-05,2.2466116316472033e-05,2.1491685459677955e-05,7.0667,4.7333
1.62109375,3.321680429388868e-05,3.7114527721065e-05,2.099648289311047e-05,2.002205203631639e-05,7.0667,4.7333
1.625,3.2242373437094596e-05,3.7609730287632476e-05,2.3935749739833595e-05,2.0517254602883878e-05,7.0667,4.7333
1.62890625,3.2242373437094596e-05,4.297708713817036e-05,3.5644894297703436e-05,2.099648289311047e-05,7.0667,4.7333
1.6328125,2.4910180596627673e-05,4.784924142214076e-05,4.637960799877919e-05,1.8073190322728234e-05,7.0667,4.7333
1.63671875,2.002205203631639e-05,4.3935543718623556e-05,4.832846971236735e-05,1.5149897752345996e-05,7.0667,4.7333
1.640625,2.3440547173266114e-05,3.2721601727321196e-05,4.9798103135728914e-05,1.4175466895551916e-05,7.0667,4.7333
1.64453125,2.540538316319516e-05,3.5165666007476836e-05,5.1267736559090476e-05,1.6603556899366672e-05,7.0667,4.7333
1.6484375,2.9303106590371475e-05,3.66352994308384e-05,4.588440543221171e-05,2.3440547173266114e-05,7.0667,4.7333
1.65234375,2.9303106590371475e-05,3.174717087052712e-05,4.540517714198511e-05,2.099648289311047e-05,7.0667,4.7333
1.65625,3.2721601727321196e-05,3.369603258411528e-05,5.077253399252299e-05,1.8568392889295715e-05,7.0667,4.7333
1.66015625,3.5644894297703436e-05,3.0277537447165556e-05,4.3456315428396956e-05,2.3935749739833595e-05,7.0667,4.7333
1.6640625,2.979830915693896e-05,2.5884611453421754e-05,4.3456315428396956e-05,2.9303106590371475e-05,7.0667,4.7333
1.66796875,2.8328675733577397e-05,2.637981401998924e-05,5.2721395706111154e-05,3.0277537447165556e-05,7.0667,4.7333
1.671875,2.6859042310215832e-05,2.8328675733577397e-05,5.9558385980010596e-05,2.735424487678332e-05,7.0667,4.7333
1.67578125,2.2961318883039517e-05,3.0277537447165556e-05,6.152322196993964e-05,3.1251968303959634e-05,7.0667,4.7333
1.6796875,1.9542823746089796e-05,2.8328675733577397e-05,4.832846971236735e-05,3.1251968303959634e-05,7.0667,4.7333
1.68359375,2.5884611453421754e-05,2.4414978030060192e-05,4.784924142214076e-05,2.3440547173266114e-05,7.0667,4.7333
1.6875,2.8823878300144878e-05,3.174717087052712e-05,5.760952426642244e-05,2.3440547173266114e-05,7.0667,4.7333
1.69140625,1.7593962032501634e-05,5.46862316960402e-05,8.348785193865865e-05,2.4910180596627673e-05,7.0667,4.7333
1.6953125,2.5884611453421754e-05,6.347208368352779e-05,8.837598049896993e-05,1.9542823746089796e-05,7.0667,4.7333
1.69921875,3.7609730287632476e-05,2.3440547173266114e-05,2.2466116316472033e-05,7.817704911879068e-06,7.0667,4.7333
1.703125,3.6140096864270914e-05,-1.9425779324026064e-06,-1.5121355913634012e-05,5.373640631723432e-06,7.0667,4.7333
1.70703125,3.1251968303959634e-05,2.2961318883039517e-05,2.735424487678332e-05,1.123620004882879e-05,7.0667,4.7333
1.7109375,2.979830915693896e-05,4.297708713817036e-05,5.077253399252299e-05,8.792135768673147e-06,7.0667,4.7333
1.71484375,3.5644894297703436e-05,3.419123515068276e-05,2.002205203631639e-05,5.373640631723432e-06,7.0667,4.7333
1.71875,3.66352994308384e-05,2.4910180596627673e-05,6.348071488517512e-06,1.0261769192034713e-05,7.0667,4.7333
1.72265625,3.66352994308384e-05,3.419123515068276e-05,2.2961318883039517e-05,1.3680264328984436e-05,7.0667,4.7333
1.7265625,3.5165666007476836e-05,3.6140096864270914e-05,3.5165666007476836e-05,1.6603556899366672e-05,7.0667,4.7333
1.73046875,3.2721601727321196e-05,3.5165666007476836e-05,3.2721601727321196e-05,1.8568392889295715e-05,7.0667,4.7333
1.734375,2.3935749739833595e-05,3.858416114442656e-05,2.3935749739833595e-05,1.6603556899366672e-05,7.0667,4.7333
1.73828125,2.1491685459677955e-05,4.1507453714808794e-05,2.3935749739833595e-05,1.9047621179522312e-05,7.0667,4.7333
1.7421875,3.0277537447165556e-05,4.1507453714808794e-05,2.002205203631639e-05,2.002205203631639e-05,7.0667,4.7333
1.74609375,2.735424487678332e-05,4.297708713817036e-05,1.123620004882879e-05,2.099648289311047e-05,7.0667,4.7333
1.75,2.637981401998924e-05,4.832846971236735e-05,2.1491685459677955e-05,2.1986888026245436e-05,7.0667,4.7333
1.75390625,2.7833473167009913e-05,3.7114527721065e-05,2.4910180596627673e-05,2.0517254602883878e-05,7.0667,4.7333
1.7578125,2.4414978030060192e-05,3.2721601727321196e-05,2.1986888026245436e-05,2.2466116316472033e-05,7.0667,4.7333
1.76171875,2.540538316319516e-05,4.200265628137628e-05,2.2466116316472033e-05,1.8073190322728234e-05,7.0667,4.7333
1.765625,2.7833473167009913e-05,4.3456315428396956e-05,2.1491685459677955e-05,1.8568392889295715e-05,7.0667,4.7333
1.76953125,2.637981401998924e-05,4.200265628137628e-05,3.2721601727321196e-05,2.5884611453421754e-05,7.0667,4.7333
1.7734375,3.174717087052712e-05,4.10282254245822e-05,3.6140096864270914e-05,2.735424487678332e-05,7.0667,4.7333
1.77734375,3.808895857785907e-05,3.808895857785907e-05,2.1986888026245436e-05,2.637981401998924e-05,7.0667,4.7333
1.78125,3.7114527721065e-05,4.3456315428396956e-05,2.1986888026245436e-05,2.2466116316472033e-05,7.0667,4.7333
1.78515625,3.7114527721065e-05,4.3935543718623556e-05,2.2961318883039517e-05,2.2466116316472033e-05,7.0667,4.7333
1.7890625,3.1251968303959634e-05,3.808895857785907e-05,2.5884611453421754e-05,2.5884611453421754e-05,7.0667,4.7333
1.79296875,4.894412341496831e-06,4.10282254245822e-05,4.1507453714808794e-05,2.3440547173266114e-05,7.0667,4.7333
1.796875,9.287338335240633e-06,3.5644894297703436e-05,3.906338943465316e-05,2.3935749739833595e-05,7.0667,4.7333
1.80078125,4.637960799877919e-05,3.2721601727321196e-05,2.4414978030060192e-05,3.174717087052712e-05,7.0667,4.7333
1.8046875,5.4191029129472716e-05,3.077274001373304e-05,2.3935749739833595e-05,3.5644894297703436e-05,7.0667,4.7333
1.80859375,4.005379456778812e-05,2.0517254602883878e-05,2.8328675733577397e-05,3.077274001373304e-05,7.0667,4.7333
1.8125,3.467046344090936e-05,2.002205203631639e-05,3.174717087052712e-05,2.9303106590371475e-05,7.0667,4.7333
1.81640625,3.7114527721065e-05,2.1986888026245436e-05,2.979830915693896e-05,2.9303106590371475e-05,7.0667,4.7333
1.8203125,2.8328675733577397e-05,8.312907478446554e-06,2.0517254602883878e-05,2.6859042310215832e-05,7.0667,4.7333
1.82421875,2.7833473167009913e-05,9.807146379796307e-07,1.2705833472190353e-05,3.0277537447165556e-05,7.0667,4.7333
1.828125,3.66352994308384e-05,-4.38664221255825e-06,2.1986888026245436e-05,2.9303106590371475e-05,7.0667,4.7333
1.83203125,3.174717087052712e-05,-3.660675759212641e-05,3.5165666007476836e-05,2.9303106590371475e-05,7.0667,4.7333
1.8359375,2.8823878300144878e-05,-7.665426837872898e-05,2.979830915693896e-05,3.369603258411528e-05,7.0667,4.7333
1.83984375,3.419123515068276e-05,-8.007276351567872e-05,2.2961318883039517e-05,3.1251968303959634e-05,7.0667,4.7333
1.84375,4.200265628137628e-05,-4.58878121461815e-05,2.4414978030060192e-05,3.0277537447165556e-05,7.0667,4.7333
1.84765625,4.3456315428396956e-05,-1.659098933699557e-05,2.0517254602883878e-05,2.540538316319516e-05,7.0667,4.7333
1.8515625,3.66352994308384e-05,-1.4633496421760127e-06,3.0277537447165556e-05,2.0517254602883878e-05,7.0667,4.7333
1.85546875,3.467046344090936e-05,1.7593962032501634e-05,3.5644894297703436e-05,2.2466116316472033e-05,7.0667,4.7333
1.859375,3.5165666007476836e-05,2.6859042310215832e-05,2.1986888026245436e-05,2.540538316319516e-05,7.0667,4.7333
1.86328125,3.66352994308384e-05,2.735424487678332e-05,2.002205203631639e-05,2.735424487678332e-05,7.0667,4.7333
1.8671875,3.906338943465316e-05,3.467046344090936e-05,3.0277537447165556e-05,2.2961318883039517e-05,7.0667,4.7333
1.87109375,3.321680429388868e-05,4.3456315428396956e-05,3.66352994308384e-05,2.099648289311047e-05,7.0667,4.7333
1.875,3.174717087052712e-05,4.4430746285191034e-05,3.6140096864270914e-05,2.8328675733577397e-05,7.0667,4.7333
1.87890625,4.0533022858014716e-05,3.7609730287632476e-05,2.4910180596627673e-05,2.7833473167009913e-05,7.0667,4.7333
1.8828125,4.7354038855573274e-05,4.0533022858014716e-05,2.540538316319516e-05,2.637981401998924e-05,7.0667,4.7333
1.88671875,4.297708713817036e-05,5.46862316960402e-05,4.200265628137628e-05,3.0277537447165556e-05,7.0667,4.7333
1.890625,3.7114527721065e-05,5.760952426642244e-05,4.8823672278934836e-05,2.6859042310215832e-05,7.0667,4.7333
1.89453125,3.7609730287632476e-05,5.077253399252299e-05,4.10282254245822e-05,2.2466116316472033e-05,7.0667,4.7333
1.8984375,3.369603258411528e-05,4.297708713817036e-05,2.6859042310215832e-05,2.1986888026245436e-05,7.0667,4.7333
1.90234375,3.321680429388868e-05,3.808895857785907e-05,1.0756971758602197e-05,2.5884611453421754e-05,7.0667,4.7333
1.90625,3.808895857785907e-05,4.4909974575417634e-05,1.7098759465934153e-05,2.5884611453421754e-05,7.0667,4.7333
1.91015625,3.955859200122064e-05,5.2721395706111154e-05,3.5644894297703436e-05,2.540538316319516e-05,7.0667,4.7333
1.9140625,2.9303106590371475e-05,5.02933057022964e-05,2.9303106590371475e-05,2.2466116316472033e-05,7.0667,4.7333
1.91796875,2.3440547173266114e-05,3.5165666007476836e-05,1.6124328609140075e-05,2.4414978030060192e-05,7.0667,4.7333
1.921875,3.5644894297703436e-05,2.979830915693896e-05,7.338476621652475e-06,2.7833473167009913e-05,7.0667,4.7333
1.92578125,3.7609730287632476e-05,4.10282254245822e-05,4.894412341496831e-06,2.2961318883039517e-05,7.0667,4.7333
1.9296875,3.7114527721065e-05,4.784924142214076e-05,1.6124328609140075e-05,2.2961318883039517e-05,7.0667,4.7333
1.93359375,4.0533022858014716e-05,4.637960799877919e-05,2.4910180596627673e-05,2.5884611453421754e-05,7.0667,4.7333
1.9375,3.1251968303959634e-05,4.540517714198511e-05,2.4414978030060192e-05,2.540538316319516e-05,7.0667,4.7333
1.94140625,2.9303106590371475e-05,4.784924142214076e-05,2.1491685459677955e-05,2.1986888026245436e-05,7.0667,4.7333
1.9453125,3.5644894297703436e-05,5.174696484931707e-05,2.1986888026245436e-05,1.9542823746089796e-05,7.0667,4.7333
1.94921875,3.321680429388868e-05,5.369582656290523e-05,2.4414978030060192e-05,2.2961318883039517e-05,7.0667,4.7333
1.953125,3.369603258411528e-05,5.5165459986266793e-05,3.1251968303959634e-05,2.979830915693896e-05,7.0667,4.7333
1.95703125,3.467046344090936e-05,2.979830915693896e-05,2.099648289311047e-05,2.9303106590371475e-05,7.0667,4.7333
1.9609375,3.077274001373304e-05,-8.300339916075457e-06,1.1731402615396273e-05,2.6859042310215832e-05,7.0667,4.7333
1.96484375,2.6859042310215832e-05,-2.489761303425658e-05,1.6603556899366672e-05,2.979830915693896e-05,7.0667,4.7333
1.96875,2.979830915693896e-05,-2.9769767318226965e-05,2.3935749739833595e-05,2.5884611453421754e-05,7.0667,4.7333
1.97265625,3.5165666007476836e-05,-3.076017245136194e-05,2.0517254602883878e-05,2.2961318883039517e-05,7.0667,4.7333
1.9765625,3.0277537447165556e-05,-2.2453548754100937e-05,1.7098759465934153e-05,2.3935749739833595e-05,7.0667,4.7333
1.98046875,2.9303106590371475e-05,-7.309934782940487e-06,1.221063090562287e-05,2.4414978030060192e-05,7.0667,4.7333
1.984375,3.2721601727321196e-05,3.424778918135267e-06,7.817704911879068e-06,2.735424487678332e-05,7.0667,4.7333
1.98828125,3.0277537447165556e-05,1.7098759465934153e-05,2.5884611453421754e-05,3.0277537447165556e-05,7.0667,4.7333
1.9921875,3.2242373437094596e-05,2.2466116316472033e-05,2.4910180596627673e-05,3.1251968303959634e-05,7.0667,4.7333
1.99609375,3.0277537447165556e-05,1.7098759465934153e-05,1.0261769192034713e-05,3.6140096864270914e-05,7.0667,4.7333
2.0,2.6859042310215832e-05,2.1491685459677955e-05,-4.7294450904104933e-07,4.0533022858014716e-05,7.0667,4.7333
2.00390625,3.369603258411528e-05,3.467046344090936e-05,2.945550627908673e-06,3.5165666007476836e-05,7.0667,4.7333
2.0078125,3.66352994308384e-05,3.7609730287632476e-05,1.5629126042572595e-05,3.321680429388868e-05,7.0667,4.7333
2.01171875,3.5644894297703436e-05,3.321680429388868e-05,3.424778918135267e-06,3.419123515068276e-05,7.0667,4.7333
2.015625,2.8328675733577397e-05,3.174717087052712e-05,-4.881844779125736e-06,2.979830915693896e-05,7.0667,4.7333
2.01953125,2.3440547173266114e-05,3.906338943465316e-05,-6.335503926146409e-06,2.979830915693896e-05,7.0667,4.7333
2.0234375,2.0517254602883878e-05,3.906338943465316e-05,-8.779568206302051e-06,3.077274001373304e-05,7.0667,4.7333
2.02734375,2.3440547173266114e-05,3.955859200122064e-05,5.373640631723432e-06,2.637981401998924e-05,7.0667,4.7333
2.03125,2.8823878300144878e-05,4.832846971236735e-05,2.099648289311047e-05,2.540538316319516e-05,7.0667,4.7333
2.03515625,2.735424487678332e-05,4.7354038855573274e-05,1.8568392889295715e-05,3.174717087052712e-05,7.0667,4.7333
2.0390625,2.3440547173266114e-05,4.200265628137628e-05,3.424778918135267e-06,3.077274001373304e-05,7.0667,4.7333
2.04296875,2.637981401998924e-05,4.9798103135728914e-05,6.843274055084989e-06,2.5884611453421754e-05,7.0667,4.7333
2.046875,3.174717087052712e-05,5.2721395706111154e-05,1.1731402615396273e-05,2.1986888026245436e-05,7.0667,4.7333
2.05078125,3.321680429388868e-05,4.588440543221171e-05,1.5149897752345996e-05,2.5884611453421754e-05,7.0667,4.7333
2.0546875,3.7114527721065e-05,3.955859200122064e-05,1.4175466895551916e-05,2.9303106590371475e-05,7.0667,4.7333
2.05859375,3.2721601727321196e-05,3.2242373437094596e-05,-3.8914396459907645e-06,2.4910180596627673e-05,7.0667,4.7333
2.0625,2.099648289311047e-05,3.0277537447165556e-05,-1.4633496421760127e-06,2.735424487678332e-05,7.0667,4.7333
2.06640625,2.7833473167009913e-05,3.5165666007476836e-05,1.4654695185778513e-05,2.637981401998924e-05,7.0667,4.7333
2.0703125,3.5644894297703436e-05,4.0533022858014716e-05,1.4175466895551916e-05,2.4910180596627673e-05,7.0667,4.7333
2.07421875,2.7833473167009913e-05,3.419123515068276e-05,7.338476621652475e-06,2.2961318883039517e-05,7.0667,4.7333
2.078125,2.6859042310215832e-05,3.1251968303959634e-05,5.373640631723432e-06,2.4910180596627673e-05,7.0667,4.7333
2.08203125,2.8823878300144878e-05,3.2721601727321196e-05,-1.4633496421760127e-06,2.7833473167009913e-05,7.0667,4.7333
2.0859375,2.8823878300144878e-05,3.5644894297703436e-05,1.0756971758602197e-05,2.5884611453421754e-05,7.0667,4.7333
2.08984375,3.321680429388868e-05,4.1507453714808794e-05,2.2466116316472033e-05,2.8823878300144878e-05,7.0667,4.7333
2.09375,3.419123515068276e-05,4.540517714198511e-05,8.312907478446554e-06,2.9303106590371475e-05,7.0667,4.7333
2.09765625,3.467046344090936e-05,4.588440543221171e-05,5.868843198290911e-06,2.735424487678332e-05,7.0667,4.7333
2.1015625,3.6140096864270914e-05,4.3935543718623556e-05,3.424778918135267e-06,2.4910180596627673e-05,7.0667,4.7333
2.10546875,3.369603258411528e-05,2.7833473167009913e-05,6.283781185551618e-09,2.1986888026245436e-05,7.0667,4.7333
2.109375,3.077274001373304e-05,2.099648289311047e-05,1.7593962032501634e-05,1.7593962032501634e-05,7.0667,4.7333
2.11328125,3.369603258411528e-05,4.248188457160287e-05,3.5644894297703436e-05,1.8568392889295715e-05,7.0667,4.7333
2.1171875,3.467046344090936e-05,4.9798103135728914e-05,3.906338943465316e-05,3.2242373437094596e-05,7.0667,4.7333
2.12109375,2.637981401998924e-05,1.8073190322728234e-05,3.424778918135267e-06,3.2721601727321196e-05,7.0667,4.7333
2.125,2.4910180596627673e-05,5.373640631723432e-06,-1.8060622760357134e-05,2.540538316319516e-05,7.0667,4.7333
2.12890625,2.6859042310215832e-05,3.174717087052712e-05,5.868843198290911e-06,2.637981401998924e-05,7.0667,4.7333
2.1328125,3.174717087052712e-05,4.297708713817036e-05,1.8073190322728234e-05,2.3935749739833595e-05,7.0667,4.7333
2.13671875,2.8823878300144878e-05,3.321680429388868e-05,7.338476621652475e-06,2.3935749739833595e-05,7.0667,4.7333
2.140625,2.1986888026245436e-05,2.8328675733577397e-05,-1.4633496421760127e-06,3.2242373437094596e-05,7.0667,4.7333
2.14453125,2.4910180596627673e-05,2.7833473167009913e-05,9.766566625467227e-06,3.077274001373304e-05,7.0667,4.7333
2.1484375,2.637981401998924e-05,2.8823878300144878e-05,1.4175466895551916e-05,2.637981401998924e-05,7.0667,4.7333
2.15234375,1.8073190322728234e-05,3.0277537447165556e-05,1.4175466895551916e-05,2.735424487678332e-05,7.0667,4.7333
2.15625,1.8073190322728234e-05,2.735424487678332e-05,1.7593962032501634e-05,3.0277537447165556e-05,7.0667,4.7333
2.16015625,2.1986888026245436e-05,1.8073190322728234e-05,7.817704911879068e-06,2.7833473167009913e-05,7.0667,4.7333
2.1640625,1.9047621179522312e-05,2.3935749739833595e-05,5.373640631723432e-06,2.6859042310215832e-05,7.0667,4.7333
2.16796875,2.002205203631639e-05,3.077274001373304e-05,1.3680264328984436e-05,2.979830915693896e-05,7.0667,4.7333
2.171875,2.1986888026245436e-05,2.4414978030060192e-05,1.4654695185778513e-05,2.735424487678332e-05,7.0667,4.7333
2.17578125,2.099648289311047e-05,2.637981401998924e-05,1.4654695185778513e-05,2.8328675733577397e-05,7.0667,4.7333
2.1796875,1.7593962032501634e-05,3.2721601727321196e-05,1.7593962032501634e-05,2.8328675733577397e-05,7.0667,4.7333
2.18359375,1.221063090562287e-05,2.099648289311047e-05,1.8568392889295715e-05,2.6859042310215832e-05,7.0667,4.7333
2.1875,1.9542823746089796e-05,1.5149897752345996e-05,1.2705833472190353e-05,2.5884611453421754e-05,7.0667,4.7333
2.19140625,3.0277537447165556e-05,3.2242373437094596e-05,7.338476621652475e-06,2.540538316319516e-05,7.0667,4.7333
2.1953125,3.419123515068276e-05,4.248188457160287e-05,1.123620004882879e-05,2.5884611453421754e-05,7.0667,4.7333
2.19921875,2.9303106590371475e-05,3.467046344090936e-05,5.868843198290911e-06,2.8823878300144878e-05,7.0667,4.7333
2.203125,2.7833473167009913e-05,3.66352994308384e-05,9.766566625467227e-06,3.2721601727321196e-05,7.0667,4.7333
2.20703125,2.3935749739833595e-05,4.0533022858014716e-05,2.1986888026245436e-05,3.2721601727321196e-05,7.0667,4.7333
2.2109375,2.3440547173266114e-05,3.467046344090936e-05,1.8568392889295715e-05,3.1251968303959634e-05,7.0667,4.7333
2.21484375,3.1251968303959634e-05,2.7833473167009913e-05,1.8073190322728234e-05,2.9303106590371475e-05,7.0667,4.7333
2.21875,2.6859042310215832e-05,2.002205203631639e-05,1.5149897752345996e-05,2.979830915693896e-05,7.0667,4.7333
2.22265625,2.3935749739833595e-05,2.2466116316472033e-05,1.5149897752345996e-05,2.5884611453421754e-05,7.0667,4.7333
2.2265625,2.3440547173266114e-05,2.2961318883039517e-05,1.5629126042572595e-05,2.1491685459677955e-05,7.0667,4.7333
2.23046875,2.4910180596627673e-05,2.8823878300144878e-05,2.2961318883039517e-05,1.9542823746089796e-05,7.0667,4.7333
2.234375,2.5884611453421754e-05,3.5644894297703436e-05,2.4414978030060192e-05,1.8568392889295715e-05,7.0667,4.7333
2.23828125,2.7833473167009913e-05,3.2242373437094596e-05,7.817704911879068e-06,2.1491685459677955e-05,7.0667,4.7333
2.2421875,3.5165666007476836e-05,3.2242373437094596e-05,7.817704911879068e-06,2.5884611453421754e-05,7.0667,4.7333
2.24609375,2.8328675733577397e-05,3.467046344090936e-05,2.2466116316472033e-05,2.735424487678332e-05,7.0667,4.7333
2.25,1.8073190322728234e-05,3.858416114442656e-05,3.077274001373304e-05,3.2721601727321196e-05,7.0667,4.7333
2.25390625,2.2961318883039517e-05,4.4430746285191034e-05,2.735424487678332e-05,3.5644894297703436e-05,7.0667,4.7333
2.2578125,2.6859042310215832e-05,3.5644894297703436e-05,1.5149897752345996e-05,2.9303106590371475e-05,7.0667,4.7333
2.26171875,2.7833473167009913e-05,2.8328675733577397e-05,1.4654695185778513e-05,2.8328675733577397e-05,7.0667,4.7333
2.265625,2.8823878300144878e-05,3.2242373437094596e-05,2.3440547173266114e-05,3.1251968303959634e-05,7.0667,4.7333
2.26953125,2.9303106590371475e-05,3.2721601727321196e-05,2.9303106590371475e-05,2.7833473167009913e-05,7.0667,4.7333
2.2734375,2.7833473167009913e-05,3.0277537447165556e-05,3.5644894297703436e-05,2.979830915693896e-05,7.0667,4.7333
2.27734375,1.8073190322728234e-05,2.2961318883039517e-05,2.002205203631639e-05,2.6859042310215832e-05,7.0667,4.7333
2.28125,1.221063090562287e-05,1.9047621179522312e-05,9.287338335240633e-06,2.5884611453421754e-05,7.0667,4.7333
2.28515625,2.4910180596627673e-05,1.8568392889295715e-05,1.6124328609140075e-05,3.174717087052712e-05,7.0667,4.7333
2.2890625,3.2242373437094596e-05,2.002205203631639e-05,2.979830915693896e-05,2.8823878300144878e-05,7.0667,4.7333
2.29296875,3.077274001373304e-05,3.174717087052712e-05,3.858416114442656e-05,2.4910180596627673e-05,7.0667,4.7333
2.296875,3.369603258411528e-05,3.077274001373304e-05,2.3440547173266114e-05,2.3440547173266114e-05,7.0667,4.7333
2.30078125,3.5644894297703436e-05,3.0277537447165556e-05,1.123620004882879e-05,2.3440547173266114e-05,7.0667,4.7333
2.3046875,3.808895857785907e-05,3.955859200122064e-05,2.4414978030060192e-05,2.3440547173266114e-05,7.0667,4.7333
2.30859375,3.467046344090936e-05,3.808895857785907e-05,4.3456315428396956e-05,2.0517254602883878e-05,7.0667,4.7333
2.3125,2.7833473167009913e-05,2.8823878300144878e-05,4.4430746285191034e-05,2.0517254602883878e-05,7.0667,4.7333
2.31640625,3.2721601727321196e-05,3.077274001373304e-05,3.858416114442656e-05,2.8823878300144878e-05,7.0667,4.7333
2.3203125,4.200265628137628e-05,3.7114527721065e-05,3.808895857785907e-05,3.419123515068276e-05,7.0667,4.7333
2.32421875,3.321680429388868e-05,4.10282254245822e-05,4.3456315428396956e-05,2.7833473167009913e-05,7.0667,4.7333
2.328125,2.637981401998924e-05,4.3456315428396956e-05,5.4191029129472716e-05,2.3935749739833595e-05,7.0667,4.7333
2.33203125,3.0277537447165556e-05,4.005379456778812e-05,5.9558385980010596e-05,2.735424487678332e-05,7.0667,4.7333
2.3359375,3.369603258411528e-05,3.7609730287632476e-05,6.249765282673372e-05,2.2961318883039517e-05,7.0667,4.7333
2.33984375,3.2721601727321196e-05,3.808895857785907e-05,6.29768811169603e-05,2.2961318883039517e-05,7.0667,4.7333
2.34375,3.419123515068276e-05,3.906338943465316e-05,5.566066255283428e-05,2.3440547173266114e-05,7.0667,4.7333
2.34765625,3.2721601727321196e-05,4.1507453714808794e-05,6.494171710688937e-05,2.099648289311047e-05,7.0667,4.7333
2.3515625,2.8823878300144878e-05,4.6874810565346673e-05,6.981387139085976e-05,2.3440547173266114e-05,7.0667,4.7333
2.35546875,3.467046344090936e-05,4.4430746285191034e-05,6.200245026016624e-05,2.3935749739833595e-05,7.0667,4.7333
2.359375,3.419123515068276e-05,3.6140096864270914e-05,6.005358854657808e-05,2.4414978030060192e-05,7.0667,4.7333
2.36328125,3.077274001373304e-05,3.6140096864270914e-05,5.760952426642244e-05,2.6859042310215832e-05,7.0667,4.7333
2.3671875,3.321680429388868e-05,4.1507453714808794e-05,5.9079157689783995e-05,2.1986888026245436e-05,7.0667,4.7333
2.37109375,3.419123515068276e-05,4.1507453714808794e-05,6.249765282673372e-05,2.099648289311047e-05,7.0667,4.7333
2.375,2.540538316319516e-05,4.784924142214076e-05,6.83442379674982e-05,3.077274001373304e-05,7.0667,4.7333
2.37890625,3.0277537447165556e-05,6.152322196993964e-05,7.61716333745326e-05,3.2242373437094596e-05,7.0667,4.7333
2.3828125,4.4430746285191034e-05,3.0277537447165556e-05,4.3456315428396956e-05,2.0517254602883878e-05,7.0667,4.7333
2.38671875,3.7609730287632476e-05,-1.464212762340741e-05,-9.681470756085274e-07,1.6603556899366672e-05,7.0667,4.7333
2.390625,3.2721601727321196e-05,1.9551454947737097e-06,1.6124328609140075e-05,2.002205203631639e-05,7.0667,4.7333
2.39453125,3.7114527721065e-05,2.4910180596627673e-05,4.005379456778812e-05,2.1986888026245436e-05,7.0667,4.7333
2.3984375,3.955859200122064e-05,1.5629126042572595e-05,3.174717087052712e-05,2.0517254602883878e-05,7.0667,4.7333
2.40234375,4.4909974575417634e-05,1.1731402615396273e-05,1.4654695185778513e-05,1.6124328609140075e-05,7.0667,4.7333
2.40625,4.588440543221171e-05,1.6603556899366672e-05,1.123620004882879e-05,1.7098759465934153e-05,7.0667,4.7333
2.41015625,3.906338943465316e-05,2.3440547173266114e-05,1.8568392889295715e-05,1.8568392889295715e-05,7.0667,4.7333
2.4140625,3.858416114442656e-05,3.077274001373304e-05,2.540538316319516e-05,1.7098759465934153e-05,7.0667,4.7333
2.41796875,4.3935543718623556e-05,2.6859042310215832e-05,2.3440547173266114e-05,1.3680264328984436e-05,7.0667,4.7333
2.421875,4.248188457160287e-05,2.6859042310215832e-05,1.9542823746089796e-05,1.6603556899366672e-05,7.0667,4.7333
2.42578125,3.5644894297703436e-05,3.467046344090936e-05,1.8073190322728234e-05,1.9047621179522312e-05,7.0667,4.7333
2.4296875,4.10282254245822e-05,3.66352994308384e-05,2.002205203631639e-05,2.1491685459677955e-05,7.0667,4.7333
2.43359375,3.66352994308384e-05,3.369603258411528e-05,1.5149897752345996e-05,2.1986888026245436e-05,7.0667,4.7333
2.4375,2.8823878300144878e-05,2.540538316319516e-05,9.287338335240633e-06,2.099648289311047e-05,7.0667,4.7333
2.44140625,3.6140096864270914e-05,2.735424487678332e-05,1.0756971758602197e-05,2.1491685459677955e-05,7.0667,4.7333
2.4453125,4.0533022858014716e-05,2.9303106590371475e-05,1.221063090562287e-05,2.1986888026245436e-05,7.0667,4.7333
2.44921875,4.0533022858014716e-05,2.540538316319516e-05,2.2466116316472033e-05,2.0517254602883878e-05,7.0667,4.7333
2.453125,3.858416114442656e-05,2.1491685459677955e-05,2.099648289311047e-05,2.099648289311047e-05,7.0667,4.7333
2.45703125,3.419123515068276e-05,1.5149897752345996e-05,9.287338335240633e-06,2.0517254602883878e-05,7.0667,4.7333
2.4609375,3.2242373437094596e-05,1.4654695185778513e-05,9.287338335240633e-06,2.002205203631639e-05,7.0667,4.7333
2.46484375,3.66352994308384e-05,2.5884611453421754e-05,1.5149897752345996e-05,2.4910180596627673e-05,7.0667,4.7333
2.46875,3.321680429388868e-05,2.9303106590371475e-05,1.8073190322728234e-05,2.3440547173266114e-05,7.0667,4.7333
2.47265625,4.0533022858014716e-05,2.637981401998924e-05,2.4910180596627673e-05,2.3935749739833595e-05,7.0667,4.7333
2.4765625,4.637960799877919e-05,2.4910180596627673e-05,2.4414978030060192e-05,2.637981401998924e-05,7.0667,4.7333
2.48046875,3.7114527721065e-05,1.9542823746089796e-05,1.4654695185778513e-05,2.4414978030060192e-05,7.0667,4.7333
2.484375,3.419123515068276e-05,2.1986888026245436e-05,1.0261769192034713e-05,2.540538316319516e-05,7.0667,4.7333
2.48828125,3.5165666007476836e-05,2.8823878300144878e-05,2.002205203631639e-05,2.637981401998924e-05,7.0667,4.7333
2.4921875,3.858416114442656e-05,2.979830915693896e-05,1.9542823746089796e-05,2.5884611453421754e-05,7.0667,4.7333
2.49609375,3.2242373437094596e-05,2.1986888026245436e-05,8.312907478446554e-06,2.4414978030060192e-05,7.0667,4.7333
2.5,2.2466116316472033e-05,9.766566625467227e-06,-9.681470756085274e-07,2.5884611453421754e-05,7.0667,4.7333
2.50390625,3.0277537447165556e-05,9.287338335240633e-06,2.945550627908673e-06,2.7833473167009913e-05,7.0667,4.7333
2.5078125,3.5165666007476836e-05,1.8073190322728234e-05,9.766566625467227e-06,3.077274001373304e-05,7.0667,4.7333
2.51171875,3.369603258411528e-05,2.1491685459677955e-05,9.766566625467227e-06,3.077274001373304e-05,7.0667,4.7333
2.515625,3.6140096864270914e-05,2.099648289311047e-05,6.843274055084989e-06,2.540538316319516e-05,7.0667,4.7333
2.51953125,3.2721601727321196e-05,2.1986888026245436e-05,2.450348061341188e-06,3.321680429388868e-05,7.0667,4.7333
2.5234375,3.419123515068276e-05,2.4414978030060192e-05,1.4759172045471088e-06,3.7114527721065e-05,7.0667,4.7333
2.52734375,4.248188457160287e-05,3.1251968303959634e-05,1.0756971758602197e-05,3.1251968303959634e-05,7.0667,4.7333
2.53125,4.3456315428396956e-05,3.5644894297703436e-05,1.7098759465934153e-05,3.0277537447165556e-05,7.0667,4.7333
2.53515625,4.10282254245822e-05,3.321680429388868e-05,1.1731402615396273e-05,2.979830915693896e-05,7.0667,4.7333
2.5390625,4.297708713817036e-05,2.4910180596627673e-05,-2.9170087891966855e-06,2.540538316319516e-05,7.0667,4.7333
2.54296875,4.200265628137628e-05,2.9303106590371475e-05,4.894412341496831e-06,2.637981401998924e-05,7.0667,4.7333
2.546875,3.5165666007476836e-05,3.7609730287632476e-05,2.1491685459677955e-05,2.6859042310215832e-05,7.0667,4.7333
2.55078125,2.8328675733577397e-05,2.9303106590371475e-05,2.1491685459677955e-05,2.4910180596627673e-05,7.0667,4.7333
2.5546875,2.2961318883039517e-05,2.6859042310215832e-05,1.9047621179522312e-05,2.735424487678332e-05,7.0667,4.7333
2.55859375,2.735424487678332e-05,2.7833473167009913e-05,1.0261769192034713e-05,2.7833473167009913e-05,7.0667,4.7333
2.5625,3.369603258411528e-05,2.9303106590371475e-05,8.792135768673147e-06,2.099648289311047e-05,7.0667,4.7333
2.56640625,3.66352994308384e-05,3.2242373437094596e-05,1.8073190322728234e-05,1.9047621179522312e-05,7.0667,4.7333
2.5703125,3.6140096864270914e-05,3.906338943465316e-05,2.2961318883039517e-05,1.7098759465934153e-05,7.0667,4.7333
2.57421875,3.369603258411528e-05,3.7114527721065e-05,2.002205203631639e-05,1.4175466895551916e-05,7.0667,4.7333
2.578125,3.174717087052712e-05,2.9303106590371475e-05,8.792135768673147e-06,1.7593962032501634e-05,7.0667,4.7333
2.58203125,3.077274001373304e-05,2.7833473167009913e-05,1.0261769192034713e-05,2.1986888026245436e-05,7.0667,4.7333
2.5859375,3.174717087052712e-05,2.6859042310215832e-05,1.5149897752345996e-05,1.8568392889295715e-05,7.0667,4.7333
2.58984375,2.4414978030060192e-05,3.1251968303959634e-05,1.318506176241695e-05,1.221063090562287e-05,7.0667,4.7333
2.59375,1.6603556899366672e-05,2.979830915693896e-05,1.0261769192034713e-05,1.221063090562287e-05,7.0667,4.7333
2.59765625,2.0517254602883878e-05,2.4910180596627673e-05,8.312907478446554e-06,1.318506176241695e-05,7.0667,4.7333
2.6015625,2.735424487678332e-05,2.5884611453421754e-05,1.3680264328984436e-05,1.2705833472190353e-05,7.0667,4.7333
2.60546875,3.174717087052712e-05,2.3440547173266114e-05,1.5629126042572595e-05,1.7098759465934153e-05,7.0667,4.7333
2.609375,3.0277537447165556e-05,2.3440547173266114e-05,1.3680264328984436e-05,1.7593962032501634e-05,7.0667,4.7333
2.61328125,3.2242373437094596e-05,1.9542823746089796e-05,1.2705833472190353e-05,1.5149897752345996e-05,7.0667,4.7333
2.6171875,3.0277537447165556e-05,1.5629126042572595e-05,1.0261769192034713e-05,1.8073190322728234e-05,7.0667,4.7333
2.62109375,2.4910180596627673e-05,1.9542823746089796e-05,8.792135768673147e-06,2.1986888026245436e-05,7.0667,4.7333
2.625,3.174717087052712e-05,2.099648289311047e-05,1.1731402615396273e-05,2.3935749739833595e-05,7.0667,4.7333
2.62890625,3.174717087052712e-05,2.7833473167009913e-05,1.5149897752345996e-05,2.2961318883039517e-05,7.0667,4.7333
2.6328125,2.637981401998924e-05,3.077274001373304e-05,2.637981401998924e-05,2.3935749739833595e-05,7.0667,4.7333
2.63671875,3.1251968303959634e-05,3.419123515068276e-05,2.2961318883039517e-05,2.1986888026245436e-05,7.0667,4.7333
2.640625,3.5644894297703436e-05,3.7609730287632476e-05,1.2705833472190353e-05,2.099648289311047e-05,7.0667,4.7333
2.64453125,3.174717087052712e-05,3.7114527721065e-05,2.5884611453421754e-05,2.2466116316472033e-05,7.0667,4.7333
2.6484375,3.369603258411528e-05,4.3456315428396956e-05,3.5644894297703436e-05,1.9047621179522312e-05,7.0667,4.7333
2.65234375,3.5644894297703436e-05,4.637960799877919e-05,3.174717087052712e-05,1.6124328609140075e-05,7.0667,4.7333
2.65625,2.8328675733577397e-05,4.3456315428396956e-05,2.7833473167009913e-05,1.9542823746089796e-05,7.0667,4.7333
2.66015625,3.2242373437094596e-05,4.1507453714808794e-05,1.7098759465934153e-05,2.2466116316472033e-05,7.0667,4.7333
2.6640625,3.0277537447165556e-05,4.200265628137628e-05,2.0517254602883878e-05,2.1986888026245436e-05,7.0667,4.7333
2.66796875,2.3440547173266114e-05,4.3456315428396956e-05,3.906338943465316e-05,2.8823878300144878e-05,7.0667,4.7333
2.671875,3.1251968303959634e-05,3.858416114442656e-05,3.0277537447165556e-05,3.0277537447165556e-05,7.0667,4.7333
2.67578125,4.7354038855573274e-05,3.7609730287632476e-05,1.4175466895551916e-05,2.8823878300144878e-05,7.0667,4.7333
2.6796875,5.1267736559090476e-05,3.5644894297703436e-05,1.2705833472190353e-05,2.8823878300144878e-05,7.0667,4.7333
2.68359375,4.7354038855573274e-05,3.321680429388868e-05,1.318506176241695e-05,2.8823878300144878e-05,7.0667,4.7333
2.6875,4.784924142214076e-05,3.858416114442656e-05,1.8073190322728234e-05,3.2721601727321196e-05,7.0667,4.7333
2.69140625,4.1507453714808794e-05,3.077274001373304e-05,2.1986888026245436e-05,3.5165666007476836e-05,7.0667,4.7333
2.6953125,3.5165666007476836e-05,2.0517254602883878e-05,1.6603556899366672e-05,3.369603258411528e-05,7.0667,4.7333
2.69921875,2.9303106590371475e-05,1.7098759465934153e-05,4.399209774929346e-06,3.2721601727321196e-05,7.0667,4.7333
2.703125,2.6859042310215832e-05,2.002205203631639e-05,1.5629126042572595e-05,3.0277537447165556e-05,7.0667,4.7333
2.70703125,2.4910180596627673e-05,2.099648289311047e-05,2.979830915693896e-05,2.979830915693896e-05,7.0667,4.7333
2.7109375,2.6859042310215832e-05,2.002205203631639e-05,2.8823878300144878e-05,3.2242373437094596e-05,7.0667,4.7333
2.71484375,2.637981401998924e-05,2.3935749739833595e-05,2.540538316319516e-05,3.6140096864270914e-05,7.0667,4.7333
2.71875,2.637981401998924e-05,2.2961318883039517e-05,1.4654695185778513e-05,3.174717087052712e-05,7.0667,4.7333
2.72265625,3.1251968303959634e-05,2.5884611453421754e-05,1.8073190322728234e-05,2.637981401998924e-05,7.0667,4.7333
2.7265625,2.9303106590371475e-05,2.979830915693896e-05,2.4910180596627673e-05,2.7833473167009913e-05,7.0667,4.7333
2.73046875,2.7833473167009913e-05,3.369603258411528e-05,2.637981401998924e-05,2.9303106590371475e-05,7.0667,4.7333
2.734375,3.174717087052712e-05,3.467046344090936e-05,1.9542823746089796e-05,2.9303106590371475e-05,7.0667,4.7333
2.73828125,3.369603258411528e-05,2.735424487678332e-05,7.338476621652475e-06,2.540538316319516e-05,7.0667,4.7333
2.7421875,3.7609730287632476e-05,3.2721601727321196e-05,2.3440547173266114e-05,2.099648289311047e-05,7.0667,4.7333
2.74609375,3.5644894297703436e-05,4.832846971236735e-05,4.6874810565346673e-05,2.637981401998924e-05,7.0667,4.7333
2.75,2.540538316319516e-05,2.5884611453421754e-05,2.002205203631639e-05,2.637981401998924e-05,7.0667,4.7333
2.75390625,2.540538316319516e-05,-1.9425779324026064e-06,-1.072842991989021e-05,2.099648289311047e-05,7.0667,4.7333
2.7578125,3.6140096864270914e-05,1.7098759465934153e-05,2.450348061341188e-06,2.3935749739833595e-05,7.0667,4.7333
2.76171875,4.297708713817036e-05,2.637981401998924e-05,5.868843198290911e-06,2.9303106590371475e-05,7.0667,4.7333
2.765625,3.6140096864270914e-05,2.099648289311047e-05,2.450348061341188e-06,3.2721601727321196e-05,7.0667,4.7333
2.76953125,3.5165666007476836e-05,2.3440547173266114e-05,1.3680264328984436e-05,2.2961318883039517e-05,7.0667,4.7333
2.7734375,3.1251968303959634e-05,2.540538316319516e-05,1.9047621179522312e-05,2.1986888026245436e-05,7.0667,4.7333
2.77734375,2.1491685459677955e-05,2.540538316319516e-05,1.7593962032501634e-05,2.6859042310215832e-05,7.0667,4.7333
2.78125,2.4910180596627673e-05,2.4414978030060192e-05,1.5629126042572595e-05,2.540538316319516e-05,7.0667,4.7333
2.78515625,2.8823878300144878e-05,2.3440547173266114e-05,2.1491685459677955e-05,2.4414978030060192e-05,7.0667,4.7333
2.7890625,3.2721601727321196e-05,2.637981401998924e-05,2.8823878300144878e-05,2.4910180596627673e-05,7.0667,4.7333
2.79296875,3.077274001373304e-05,2.7833473167009913e-05,1.9542823746089796e-05,2.4414978030060192e-05,7.0667,4.7333
2.796875,2.8823878300144878e-05,2.540538316319516e-05,1.6603556899366672e-05,2.3935749739833595e-05,7.0667,4.7333
2.80078125,2.7833473167009913e-05,2.6859042310215832e-05,1.5149897752345996e-05,2.540538316319516e-05,7.0667,4.7333
2.8046875,2.0517254602883878e-05,3.5644894297703436e-05,2.0517254602883878e-05,2.4910180596627673e-05,7.0667,4.7333
2.80859375,1.9542823746089796e-05,3.7609730287632476e-05,2.2466116316472033e-05,2.1491685459677955e-05,7.0667,4.7333
2.8125,2.3935749739833595e-05,3.66352994308384e-05,2.1986888026245436e-05,2.2466116316472033e-05,7.0667,4.7333
2.81640625,2.8328675733577397e-05,3.66352994308384e-05,3.1251968303959634e-05,2.1491685459677955e-05,7.0667,4.7333
2.8203125,2.5884611453421754e-05,2.8823878300144878e-05,2.8823878300144878e-05,2.3440547173266114e-05,7.0667,4.7333
2.82421875,2.735424487678332e-05,3.077274001373304e-05,2.735424487678332e-05,2.3935749739833595e-05,7.0667,4.7333
2.828125,2.6859042310215832e-05,3.906338943465316e-05,3.174717087052712e-05,2.1491685459677955e-05,7.0667,4.7333
2.83203125,2.3440547173266114e-05,3.6140096864270914e-05,3.5644894297703436e-05,2.2466116316472033e-05,7.0667,4.7333
2.8359375,2.3935749739833595e-05,2.099648289311047e-05,2.735424487678332e-05,2.099648289311047e-05,7.0667,4.7333
2.83984375,2.1986888026245436e-05,1.3680264328984436e-05,1.6603556899366672e-05,2.1986888026245436e-05,7.0667,4.7333
2.84375,1.6124328609140075e-05,2.1986888026245436e-05,1.221063090562287e-05,2.2961318883039517e-05,7.0667,4.7333
2.84765625,2.1491685459677955e-05,1.7593962032501634e-05,1.318506176241695e-05,2.637981401998924e-05,7.0667,4.7333
2.8515625,4.0533022858014716e-05,1.6603556899366672e-05,2.002205203631639e-05,3.174717087052712e-05,7.0667,4.7333
2.85546875,4.248188457160287e-05,1.4175466895551916e-05,1.2705833472190353e-05,3.0277537447165556e-05,7.0667,4.7333
2.859375,3.1251968303959634e-05,5.373640631723432e-06,4.894412341496831e-06,2.7833473167009913e-05,7.0667,4.7333
2.86328125,2.637981401998924e-05,1.7098759465934153e-05,1.221063090562287e-05,3.419123515068276e-05,7.0667,4.7333
2.8671875,2.8823878300144878e-05,2.5884611453421754e-05,1.7593962032501634e-05,3.858416114442656e-05,7.0667,4.7333
2.87109375,3.467046344090936e-05,2.540538316319516e-05,2.2961318883039517e-05,3.2721601727321196e-05,7.0667,4.7333
2.875,3.369603258411528e-05,2.8823878300144878e-05,2.7833473167009913e-05,2.8823878300144878e-05,7.0667,4.7333
2.87890625,3.0277537447165556e-05,2.637981401998924e-05,2.1986888026245436e-05,2.637981401998924e-05,7.0667,4.7333
2.8828125,2.8328675733577397e-05,2.8328675733577397e-05,1.6603556899366672e-05,2.2961318883039517e-05,7.0667,4.7333
2.88671875,3.1251968303959634e-05,4.0533022858014716e-05,2.3935749739833595e-05,2.2466116316472033e-05,7.0667,4.7333
2.890625,3.858416114442656e-05,4.3456315428396956e-05,2.8823878300144878e-05,2.540538316319516e-05,7.0667,4.7333
2.89453125,3.467046344090936e-05,3.6140096864270914e-05,2.1986888026245436e-05,2.1491685459677955e-05,7.0667,4.7333
2.8984375,1.8073190322728234e-05,3.7609730287632476e-05,1.3680264328984436e-05,2.002205203631639e-05,7.0667,4.7333
2.90234375,1.1731402615396273e-05,3.858416114442656e-05,1.4175466895551916e-05,2.2466116316472033e-05,7.0667,4.7333
2.90625,3.077274001373304e-05,3.906338943465316e-05,1.7098759465934153e-05,2.1986888026245436e-05,7.0667,4.7333
2.91015625,4.3456315428396956e-05,4.005379456778812e-05,2.7833473167009913e-05,2.2961318883039517e-05,7.0667,4.7333
2.9140625,4.005379456778812e-05,3.808895857785907e-05,2.979830915693896e-05,2.1986888026245436e-05,7.0667,4.7333
2.91796875,4.200265628137628e-05,3.2721601727321196e-05,1.9047621179522312e-05,2.099648289311047e-05,7.0667,4.7333
2.921875,4.9302900569161436e-05,2.7833473167009913e-05,2.0517254602883878e-05,2.637981401998924e-05,7.0667,4.7333
2.92578125,4.248188457160287e-05,2.735424487678332e-05,2.3935749739833595e-05,2.6859042310215832e-05,7.0667,4.7333
2.9296875,2.979830915693896e-05,2.9303106590371475e-05,2.9303106590371475e-05,2.8328675733577397e-05,7.0667,4.7333
2.93359375,2.3440547173266114e-05,2.3935749739833595e-05,2.637981401998924e-05,2.5884611453421754e-05,7.0667,4.7333
2.9375,3.419123515068276e-05,2.540538316319516e-05,1.8073190322728234e-05,2.4414978030060192e-05,7.0667,4.7333
2.94140625,3.7114527721065e-05,2.3440547173266114e-05,7.817704911879068e-06,2.6859042310215832e-05,7.0667,4.7333
2.9453125,2.9303106590371475e-05,2.3440547173266114e-05,1.0261769192034713e-05,2.9303106590371475e-05,7.0667,4.7333
2.94921875,2.2961318883039517e-05,3.5644894297703436e-05,3.5644894297703436e-05,2.735424487678332e-05,7.0667,4.7333
2.953125,2.2961318883039517e-05,4.4430746285191034e-05,5.224216741588455e-05,2.4414978030060192e-05,7.0667,4.7333
2.95703125,2.979830915693896e-05,2.099648289311047e-05,2.002205203631639e-05,2.7833473167009913e-05,7.0667,4.7333
2.9609375,3.0277537447165556e-05,-9.274770772869537e-06,-2.147911789730685e-05,2.540538316319516e-05,7.0667,4.7333
2.96484375,2.6859042310215832e-05,1.2705833472190353e-05,-2.9170087891966855e-06,1.7098759465934153e-05,7.0667,4.7333
2.96875,3.077274001373304e-05,2.3440547173266114e-05,2.0517254602883878e-05,2.002205203631639e-05,7.0667,4.7333
2.97265625,2.8328675733577397e-05,1.7098759465934153e-05,2.4414978030060192e-05,2.4414978030060192e-05,7.0667,4.7333
2.9765625,3.077274001373304e-05,3.6140096864270914e-05,3.321680429388868e-05,2.540538316319516e-05,7.0667,4.7333
2.98046875,3.7114527721065e-05,4.3935543718623556e-05,3.369603258411528e-05,2.6859042310215832e-05,7.0667,4.7333
2.984375,3.2721601727321196e-05,3.7114527721065e-05,2.540538316319516e-05,2.4910180596627673e-05,7.0667,4.7333
2.98828125,3.174717087052712e-05,4.3935543718623556e-05,3.66352994308384e-05,2.1491685459677955e-05,7.0667,4.7333
2.9921875,3.66352994308384e-05,4.7354038855573274e-05,4.588440543221171e-05,2.2961318883039517e-05,7.0667,4.7333
2.99609375,3.369603258411528e-05,3.858416114442656e-05,2.735424487678332e-05,2.2466116316472033e-05,7.0667,4.7333
3.0,3.077274001373304e-05,1.5149897752345996e-05,1.5149897752345996e-05,2.1491685459677955e-05,7.0667,4.7333
3.00390625,3.7609730287632476e-05,5.373640631723432e-06,2.540538316319516e-05,2.2466116316472033e-05,7.0667,4.7333
3.0078125,4.3935543718623556e-05,1.4654695185778513e-05,3.5644894297703436e-05,2.3935749739833595e-05,7.0667,4.7333
3.01171875,4.10282254245822e-05,1.6603556899366672e-05,3.419123515068276e-05,2.637981401998924e-05,7.0667,4.7333
3.015625,3.66352994308384e-05,1.8568392889295715e-05,2.8823878300144878e-05,2.4414978030060192e-05,7.0667,4.7333
3.01953125,3.5644894297703436e-05,1.9542823746089796e-05,2.540538316319516e-05,2.2961318883039517e-05,7.0667,4.7333
3.0234375,3.174717087052712e-05,2.2466116316472033e-05,2.4414978030060192e-05,2.8823878300144878e-05,7.0667,4.7333
3.02734375,3.467046344090936e-05,3.321680429388868e-05,3.077274001373304e-05,3.1251968303959634e-05,7.0667,4.7333
3.03125,3.419123515068276e-05,3.7609730287632476e-05,3.808895857785907e-05,3.0277537447165556e-05,7.0667,4.7333
3.03515625,3.0277537447165556e-05,3.321680429388868e-05,3.174717087052712e-05,3.0277537447165556e-05,7.0667,4.7333
3.0390625,3.467046344090936e-05,2.8823878300144878e-05,1.9047621179522312e-05,2.5884611453421754e-05,7.0667,4.7333
3.04296875,3.7114527721065e-05,2.4414978030060192e-05,2.0517254602883878e-05,2.4910180596627673e-05,7.0667,4.7333
3.046875,3.467046344090936e-05,3.1251968303959634e-05,3.1251968303959634e-05,2.5884611453421754e-05,7.0667,4.7333
3.05078125,3.808895857785907e-05,3.6140096864270914e-05,3.2721601727321196e-05,2.9303106590371475e-05,7.0667,4.7333
3.0546875,4.3935543718623556e-05,2.3440547173266114e-05,2.8823878300144878e-05,3.174717087052712e-05,7.0667,4.7333
3.05859375,3.7609730287632476e-05,2.1491685459677955e-05,2.0517254602883878e-05,2.979830915693896e-05,7.0667,4.7333
3.0625,2.9303106590371475e-05,3.2242373437094596e-05,2.9303106590371475e-05,3.077274001373304e-05,7.0667,4.7333
3.06640625,2.9303106590371475e-05,3.5644894297703436e-05,3.906338943465316e-05,3.2721601727321196e-05,7.0667,4.7333
3.0703125,3.077274001373304e-05,3.5644894297703436e-05,3.955859200122064e-05,3.1251968303959634e-05,7.0667,4.7333
3.07421875,3.467046344090936e-05,4.297708713817036e-05,4.10282254245822e-05,3.0277537447165556e-05,7.0667,4.7333
3.078125,3.369603258411528e-05,4.4430746285191034e-05,3.955859200122064e-05,3.174717087052712e-05,7.0667,4.7333
3.08203125,3.174717087052712e-05,3.6140096864270914e-05,3.808895857785907e-05,3.5165666007476836e-05,7.0667,4.7333
3.0859375,3.7114527721065e-05,3.321680429388868e-05,4.248188457160287e-05,3.467046344090936e-05,7.0667,4.7333
3.08984375,4.297708713817036e-05,4.1507453714808794e-05,5.02933057022964e-05,3.369603258411528e-05,7.0667,4.7333
3.09375,3.955859200122064e-05,4.005379456778812e-05,4.200265628137628e-05,3.174717087052712e-05,7.0667,4.7333
3.09765625,3.174717087052712e-05,2.735424487678332e-05,2.735424487678332e-05,2.735424487678332e-05,7.0667,4.7333
3.1015625,2.8823878300144878e-05,3.0277537447165556e-05,2.6859042310215832e-05,2.9303106590371475e-05,7.0667,4.7333
3.10546875,2.5884611453421754e-05,3.6140096864270914e-05,3.7609730287632476e-05,2.979830915693896e-05,7.0667,4.7333
3.109375,2.8328675733577397e-05,4.1507453714808794e-05,4.3935543718623556e-05,2.8823878300144878e-05,7.0667,4.7333
3.11328125,2.8823878300144878e-05,4.3935543718623556e-05,4.3935543718623556e-05,3.174717087052712e-05,7.0667,4.7333
3.1171875,3.1251968303959634e-05,4.3935543718623556e-05,3.955859200122064e-05,3.419123515068276e-05,7.0667,4.7333
3.12109375,3.5644894297703436e-05,4.784924142214076e-05,3.2242373437094596e-05,3.66352994308384e-05,7.0667,4.7333
3.125,2.735424487678332e-05,4.588440543221171e-05,3.5644894297703436e-05,3.5644894297703436e-05,7.0667,4.7333
3.12890625,2.7833473167009913e-05,4.3456315428396956e-05,4.784924142214076e-05,3.5644894297703436e-05,7.0667,4.7333
3.1328125,4.297708713817036e-05,4.784924142214076e-05,5.858395512321652e-05,3.7114527721065e-05,7.0667,4.7333
3.13671875,3.808895857785907e-05,4.1507453714808794e-05,5.02933057022964e-05,3.5165666007476836e-05,7.0667,4.7333
3.140625,2.8328675733577397e-05,3.1251968303959634e-05,3.5644894297703436e-05,3.369603258411528e-05,7.0667,4.7333
3.14453125,2.7833473167009913e-05,3.369603258411528e-05,3.858416114442656e-05,3.2721601727321196e-05,7.0667,4.7333
3.1484375,2.4910180596627673e-05,3.174717087052712e-05,4.7354038855573274e-05,3.369603258411528e-05,7.0667,4.7333
3.15234375,2.5884611453421754e-05,3.1251968303959634e-05,4.784924142214076e-05,3.6140096864270914e-05,7.0667,4.7333
3.15625,2.735424487678332e-05,3.077274001373304e-05,3.858416114442656e-05,3.66352994308384e-05,7.0667,4.7333
3.16015625,3.1251968303959634e-05,1.7593962032501634e-05,3.2242373437094596e-05,3.5165666007476836e-05,7.0667,4.7333
3.1640625,2.8823878300144878e-05,4.894412341496831e-06,3.1251968303959634e-05,3.5644894297703436e-05,7.0667,4.7333
3.16796875,2.4910180596627673e-05,-9.681470756085274e-07,3.858416114442656e-05,3.66352994308384e-05,7.0667,4.7333
3.171875,3.174717087052712e-05,-1.464212762340741e-05,4.1507453714808794e-05,3.467046344090936e-05,7.0667,4.7333
3.17578125,3.419123515068276e-05,-3.173460330815602e-05,3.419123515068276e-05,3.2721601727321196e-05,7.0667,4.7333
3.1796875,2.735424487678332e-05,-4.54085838559549e-05,2.3440547173266114e-05,2.8328675733577397e-05,7.0667,4.7333
3.18359375,2.0517254602883878e-05,-4.246931700923177e-05,2.3935749739833595e-05,2.4910180596627673e-05,7.0667,4.7333
3.1875,2.0517254602883878e-05,-3.076017245136194e-05,2.979830915693896e-05,2.8328675733577397e-05,7.0667,4.7333
3.19140625,2.637981401998924e-05,-2.489761303425658e-05,3.6140096864270914e-05,2.7833473167009913e-05,7.0667,4.7333
3.1953125,3.2242373437094596e-05,-2.0504687040512778e-05,3.5644894297703436e-05,2.3935749739833595e-05,7.0667,4.7333
3.19921875,3.174717087052712e-05,-1.4146925056839933e-05,1.4175466895551916e-05,2.2466116316472033e-05,7.0667,4.7333
3.203125,2.7833473167009913e-05,-4.38664221255825e-06,1.7593962032501634e-05,2.5884611453421754e-05,7.0667,4.7333
3.20703125,2.7833473167009913e-05,1.4654695185778513e-05,3.66352994308384e-05,2.7833473167009913e-05,7.0667,4.7333
3.2109375,2.7833473167009913e-05,2.8328675733577397e-05,3.7609730287632476e-05,2.6859042310215832e-05,7.0667,4.7333
3.21484375,2.9303106590371475e-05,3.321680429388868e-05,3.2721601727321196e-05,2.540538316319516e-05,7.0667,4.7333
3.21875,3.5644894297703436e-05,3.7114527721065e-05,3.808895857785907e-05,2.4910180596627673e-05,7.0667,4.7333
3.22265625,3.467046344090936e-05,3.5165666007476836e-05,3.369603258411528e-05,2.2961318883039517e-05,7.0667,4.7333
3.2265625,2.8328675733577397e-05,4.10282254245822e-05,2.5884611453421754e-05,2.0517254602883878e-05,7.0667,4.7333
3.23046875,2.6859042310215832e-05,4.4430746285191034e-05,3.858416114442656e-05,2.002205203631639e-05,7.0667,4.7333
3.234375,2.6859042310215832e-05,4.248188457160287e-05,3.7609730287632476e-05,1.7593962032501634e-05,7.0667,4.7333
3.23828125,3.077274001373304e-05,3.7114527721065e-05,2.540538316319516e-05,1.1731402615396273e-05,7.0667,4.7333
3.2421875,2.9303106590371475e-05,3.174717087052712e-05,2.8328675733577397e-05,1.123620004882879e-05,7.0667,4.7333
3.24609375,2.637981401998924e-05,3.467046344090936e-05,3.467046344090936e-05,1.4654695185778513e-05,7.0667,4.7333
3.25,2.7833473167009913e-05,3.2721601727321196e-05,3.5165666007476836e-05,1.0756971758602197e-05,7.0667,4.7333
3.25390625,2.4414978030060192e-05,2.7833473167009913e-05,3.174717087052712e-05,8.792135768673147e-06,7.0667,4.7333
3.2578125,2.6859042310215832e-05,2.5884611453421754e-05,2.1986888026245436e-05,1.5149897752345996e-05,7.0667,4.7333
3.26171875,2.8823878300144878e-05,2.3440547173266114e-05,2.540538316319516e-05,1.9047621179522312e-05,7.0667,4.7333
3.265625,2.3935749739833595e-05,2.637981401998924e-05,3.077274001373304e-05,2.002205203631639e-05,7.0667,4.7333
3.26953125,2.0517254602883878e-05,2.637981401998924e-05,2.540538316319516e-05,2.3440547173266114e-05,7.0667,4.7333
3.2734375,1.7098759465934153e-05,2.540538316319516e-05,2.3935749739833595e-05,2.0517254602883878e-05,7.0667,4.7333
3.27734375,2.2961318883039517e-05,2.735424487678332e-05,2.6859042310215832e-05,1.8073190322728234e-05,7.0667,4.7333
3.28125,2.8823878300144878e-05,2.735424487678332e-05,2.2961318883039517e-05,1.8568392889295715e-05,7.0667,4.7333
3.28515625,2.540538316319516e-05,2.540538316319516e-05,1.7593962032501634e-05,1.5629126042572595e-05,7.0667,4.7333
3.2890625,2.3935749739833595e-05,2.7833473167009913e-05,2.8823878300144878e-05,1.3680264328984436e-05,7.0667,4.7333
3.29296875,2.2961318883039517e-05,2.8328675733577397e-05,3.2242373437094596e-05,1.2705833472190353e-05,7.0667,4.7333
3.296875,2.002205203631639e-05,2.3440547173266114e-05,1.8073190322728234e-05,9.766566625467227e-06,7.0667,4.7333
3.30078125,2.2961318883039517e-05,2.3935749739833595e-05,1.221063090562287e-05,1.0261769192034713e-05,7.0667,4.7333
3.3046875,2.4414978030060192e-05,3.1251968303959634e-05,2.002205203631639e-05,9.287338335240633e-06,7.0667,4.7333
3.30859375,2.7833473167009913e-05,4.0533022858014716e-05,2.979830915693896e-05,9.287338335240633e-06,7.0667,4.7333
3.3125,2.3440547173266114e-05,3.906338943465316e-05,3.2721601727321196e-05,9.287338335240633e-06,7.0667,4.7333
3.31640625,2.099648289311047e-05,3.174717087052712e-05,3.5165666007476836e-05,9.766566625467227e-06,7.0667,4.7333
3.3203125,2.6859042310215832e-05,2.8823878300144878e-05,2.8823878300144878e-05,1.6124328609140075e-05,7.0667,4.7333
3.32421875,2.002205203631639e-05,3.077274001373304e-05,2.8328675733577397e-05,1.6124328609140075e-05,7.0667,4.7333
3.328125,1.5629126042572595e-05,3.321680429388868e-05,3.808895857785907e-05,1.2705833472190353e-05,7.0667,4.7333
3.33203125,2.2466116316472033e-05,3.467046344090936e-05,3.6140096864270914e-05,9.766566625467227e-06,7.0667,4.7333
3.3359375,2.7833473167009913e-05,3.0277537447165556e-05,2.2466116316472033e-05,9.287338335240633e-06,7.0667,4.7333
3.33984375,2.540538316319516e-05,3.5165666007476836e-05,2.3935749739833595e-05,1.318506176241695e-05,7.0667,4.7333
3.34375,2.2466116316472033e-05,6.639537625391004e-05,5.077253399252299e-05,1.4175466895551916e-05,7.0667,4.7333
3.34765625,1.8568392889295715e-05,7.030907395742724e-05,5.858395512321652e-05,2.4414978030060192e-05,7.0667,4.7333
3.3515625,1.8568392889295715e-05,2.3935749739833595e-05,2.540538316319516e-05,3.2242373437094596e-05,7.0667,4.7333
3.35546875,2.5884611453421754e-05,1.0756971758602197e-05,4.894412341496831e-06,2.8328675733577397e-05,7.0667,4.7333
3.359375,2.6859042310215832e-05,1.5629126042572595e-05,6.843274055084989e-06,2.979830915693896e-05,7.0667,4.7333
3.36328125,2.637981401998924e-05,1.3680264328984436e-05,1.8073190322728234e-05,3.858416114442656e-05,7.0667,4.7333
3.3671875,1.6124328609140075e-05,2.735424487678332e-05,3.2242373437094596e-05,4.10282254245822e-05,7.0667,4.7333
3.37109375,8.792135768673147e-06,3.66352994308384e-05,3.369603258411528e-05,3.808895857785907e-05,7.0667,4.7333
3.375,7.817704911879068e-06,3.0277537447165556e-05,2.4414978030060192e-05,3.7609730287632476e-05,7.0667,4.7333
3.37890625,4.399209774929346e-06,2.735424487678332e-05,1.7593962032501634e-05,3.6140096864270914e-05,7.0667,4.7333
3.3828125,1.0261769192034713e-05,3.955859200122064e-05,3.955859200122064e-05,3.66352994308384e-05,7.0667,4.7333
3.38671875,1.4175466895551916e-05,4.784924142214076e-05,4.784924142214076e-05,3.321680429388868e-05,7.0667,4.7333
3.390625,1.221063090562287e-05,4.588440543221171e-05,4.005379456778812e-05,3.0277537447165556e-05,7.0667,4.7333
3.39453125,1.5149897752345996e-05,3.906338943465316e-05,3.955859200122064e-05,3.321680429388868e-05,7.0667,4.7333
3.3984375,1.6124328609140075e-05,3.369603258411528e-05,3.467046344090936e-05,3.077274001373304e-05,7.0667,4.7333
3.40234375,2.002205203631639e-05,3.321680429388868e-05,3.5644894297703436e-05,2.6859042310215832e-05,7.0667,4.7333
3.40625,2.4414978030060192e-05,3.66352994308384e-05,3.369603258411528e-05,2.735424487678332e-05,7.0667,4.7333
3.41015625,2.3440547173266114e-05,4.3456315428396956e-05,4.297708713817036e-05,2.735424487678332e-05,7.0667,4.7333
3.4140625,2.1491685459677955e-05,4.637960799877919e-05,4.6874810565346673e-05,2.8328675733577397e-05,7.0667,4.7333
3.41796875,2.099648289311047e-05,3.66352994308384e-05,3.419123515068276e-05,2.637981401998924e-05,7.0667,4.7333
3.421875,2.2961318883039517e-05,3.5165666007476836e-05,3.2242373437094596e-05,2.1986888026245436e-05,7.0667,4.7333
3.42578125,2.4910180596627673e-05,4.3935543718623556e-05,3.6140096864270914e-05,2.2466116316472033e-05,7.0667,4.7333
3.4296875,2.4414978030060192e-05,4.9798103135728914e-05,3.808895857785907e-05,2.2466116316472033e-05,7.0667,4.7333
3.43359375,2.3935749739833595e-05,5.1267736559090476e-05,4.10282254245822e-05,1.9542823746089796e-05,7.0667,4.7333
3.4375,2.540538316319516e-05,4.200265628137628e-05,2.8328675733577397e-05,1.8073190322728234e-05,7.0667,4.7333
3.44140625,3.077274001373304e-05,3.66352994308384e-05,2.735424487678332e-05,2.0517254602883878e-05,7.0667,4.7333
3.4453125,3.2242373437094596e-05,4.10282254245822e-05,3.174717087052712e-05,2.2961318883039517e-05,7.0667,4.7333
3.44921875,2.8823878300144878e-05,4.1507453714808794e-05,2.6859042310215832e-05,2.540538316319516e-05,7.0667,4.7333
3.453125,2.637981401998924e-05,4.4430746285191034e-05,3.2721601727321196e-05,3.0277537447165556e-05,7.0667,4.7333
3.45703125,1.9047621179522312e-05,3.7609730287632476e-05,3.7114527721065e-05,3.906338943465316e-05,7.0667,4.7333
3.4609375,2.1491685459677955e-05,3.174717087052712e-05,3.077274001373304e-05,4.4430746285191034e-05,7.0667,4.7333
3.46484375,2.540538316319516e-05,3.858416114442656e-05,3.077274001373304e-05,4.248188457160287e-05,7.0667,4.7333
3.46875,2.2466116316472033e-05,4.3935543718623556e-05,3.906338943465316e-05,4.637960799877919e-05,7.0667,4.7333
3.47265625,2.637981401998924e-05,3.808895857785907e-05,3.7609730287632476e-05,4.4909974575417634e-05,7.0667,4.7333
3.4765625,3.0277537447165556e-05,2.7833473167009913e-05,3.6140096864270914e-05,4.0533022858014716e-05,7.0667,4.7333
3.48046875,3.2242373437094596e-05,2.979830915693896e-05,3.5644894297703436e-05,4.0533022858014716e-05,7.0667,4.7333
3.484375,3.321680429388868e-05,2.9303106590371475e-05,3.321680429388868e-05,3.858416114442656e-05,7.0667,4.7333
3.48828125,3.419123515068276e-05,2.9303106590371475e-05,4.0533022858014716e-05,3.808895857785907e-05,7.0667,4.7333
3.4921875,2.9303106590371475e-05,2.9303106590371475e-05,5.321659827267864e-05,4.10282254245822e-05,7.0667,4.7333
3.49609375,2.3935749739833595e-05,2.3935749739833595e-05,4.6874810565346673e-05,4.10282254245822e-05,7.0667,4.7333
3.5,2.637981401998924e-05,1.9047621179522312e-05,2.9303106590371475e-05,3.66352994308384e-05,7.0667,4.7333
3.50390625,2.8823878300144878e-05,2.7833473167009913e-05,3.6140096864270914e-05,3.5644894297703436e-05,7.0667,4.7333
3.5078125,3.1251968303959634e-05,4.297708713817036e-05,4.540517714198511e-05,3.6140096864270914e-05,7.0667,4.7333
3.51171875,2.979830915693896e-05,3.7609730287632476e-05,3.5644894297703436e-05,3.467046344090936e-05,7.0667,4.7333
3.515625,3.077274001373304e-05,3.1251968303959634e-05,3.419123515068276e-05,3.5165666007476836e-05,7.0667,4.7333
3.51953125,3.174717087052712e-05,3.2242373437094596e-05,3.0277537447165556e-05,2.9303106590371475e-05,7.0667,4.7333
3.5234375,3.0277537447165556e-05,3.467046344090936e-05,2.4910180596627673e-05,2.5884611453421754e-05,7.0667,4.7333
3.52734375,2.9303106590371475e-05,3.2721601727321196e-05,3.2242373437094596e-05,2.6859042310215832e-05,7.0667,4.7333
3.53125,3.0277537447165556e-05,3.419123515068276e-05,3.5644894297703436e-05,2.735424487678332e-05,7.0667,4.7333
3.53515625,3.1251968303959634e-05,3.077274001373304e-05,3.321680429388868e-05,2.637981401998924e-05,7.0667,4.7333
3.5390625,3.2242373437094596e-05,2.6859042310215832e-05,3.419123515068276e-05,2.4910180596627673e-05,7.0667,4.7333
3.54296875,3.2721601727321196e-05,3.467046344090936e-05,3.0277537447165556e-05,2.637981401998924e-05,7.0667,4.7333
3.546875,2.979830915693896e-05,3.66352994308384e-05,2.735424487678332e-05,2.7833473167009913e-05,7.0667,4.7333
3.55078125,2.7833473167009913e-05,3.5165666007476836e-05,3.7609730287632476e-05,2.4910180596627673e-05,7.0667,4.7333
3.5546875,1.9542823746089796e-05,5.077253399252299e-05,5.321659827267864e-05,2.5884611453421754e-05,7.0667,4.7333
3.55859375,2.3440547173266114e-05,7.275313823758288e-05,7.372756909437696e-05,2.9303106590371475e-05,7.0667,4.7333
3.5625,4.200265628137628e-05,3.7609730287632476e-05,3.858416114442656e-05,1.9047621179522312e-05,7.0667,4.7333
3.56640625,4.784924142214076e-05,-1.4146925056839933e-05,-9.75399906309613e-06,9.766566625467227e-06,7.0667,4.7333
3.5703125,4.10282254245822e-05,-2.437780498970092e-06,4.399209774929346e-06,1.123620004882879e-05,7.0667,4.7333
3.57421875,4.200265628137628e-05,1.5629126042572595e-05,1.8073190322728234e-05,1.4175466895551916e-05,7.0667,4.7333
3.578125,4.248188457160287e-05,6.283781185551618e-09,-4.7294450904104933e-07,1.123620004882879e-05,7.0667,4.7333
3.58203125,4.1507453714808794e-05,-4.7294450904104933e-07,-3.412211355764171e-06,9.287338335240633e-06,7.0667,4.7333
3.5859375,4.3935543718623556e-05,1.9551454947737097e-06,2.945550627908673e-06,6.843274055084989e-06,7.0667,4.7333
3.58984375,4.7354038855573274e-05,-9.274770772869537e-06,-7.805137349507973e-06,1.9551454947737097e-06,7.0667,4.7333
3.59375,4.832846971236735e-05,-7.309934782940487e-06,-1.170286077668429e-05,3.919981484702753e-06,7.0667,4.7333
3.59765625,4.540517714198511e-05,-6.830706492713894e-06,-1.2198063343251774e-05,9.287338335240633e-06,7.0667,4.7333
3.6015625,5.077253399252299e-05,1.4759172045471088e-06,-1.4633496421760127e-06,8.792135768673147e-06,7.0667,4.7333
3.60546875,5.02933057022964e-05,6.348071488517512e-06,1.3680264328984436e-05,9.766566625467227e-06,7.0667,4.7333
3.609375,4.588440543221171e-05,-6.335503926146409e-06,1.7098759465934153e-05,7.338476621652475e-06,7.0667,4.7333
3.61328125,4.588440543221171e-05,-5.224557412985435e-05,1.8073190322728234e-05,8.312907478446554e-06,7.0667,4.7333
3.6171875,4.005379456778812e-05,-0.00013280384971694518,1.221063090562287e-05,1.2705833472190353e-05,7.0667,4.7333
3.62109375,3.5165666007476836e-05,-0.00022216395156786454,2.945550627908673e-06,1.221063090562287e-05,7.0667,4.7333
3.625,3.5644894297703436e-05,-0.00029443157773403525,5.373640631723432e-06,1.123620004882879e-05,7.0667,4.7333
3.62890625,3.808895857785907e-05,-0.00036473436791027697,1.5629126042572595e-05,1.4175466895551916e-05,7.0667,4.7333
3.6328125,3.906338943465316e-05,-0.00042430244438544293,1.8568392889295715e-05,1.8568392889295715e-05,7.0667,4.7333
3.63671875,3.7114527721065e-05,-0.00044775268205386433,6.843274055084989e-06,1.8073190322728234e-05,7.0667,4.7333
3.640625,4.0533022858014716e-05,-0.0004609314600350958,1.4759172045471088e-06,2.002205203631639e-05,7.0667,4.7333
3.64453125,3.7114527721065e-05,-0.000480468,6.843274055084989e-06,1.9047621179522312e-05,7.0667,4.7333
3.6484375,2.9303106590371475e-05,-0.00047411023801632716,2.0517254602883878e-05,1.318506176241695e-05,7.0667,4.7333
3.65234375,2.7833473167009913e-05,-0.00043553236065308615,2.9303106590371475e-05,1.7098759465934153e-05,7.0667,4.7333
3.65625,3.369603258411528e-05,-0.0004057563095536736,2.0517254602883878e-05,1.8568392889295715e-05,7.0667,4.7333
3.66015625,4.248188457160287e-05,-0.0003632647344869154,1.6603556899366672e-05,1.318506176241695e-05,7.0667,4.7333
3.6640625,4.3456315428396956e-05,-0.0003163962077027543,2.1491685459677955e-05,1.4175466895551916e-05,7.0667,4.7333
3.66796875,3.5644894297703436e-05,-0.0002641443497917144,2.540538316319516e-05,1.2705833472190353e-05,7.0667,4.7333
3.671875,3.0277537447165556e-05,-0.00018650936677500578,1.8073190322728234e-05,9.766566625467227e-06,7.0667,4.7333
3.67578125,3.369603258411528e-05,-0.00010595109118791491,1.5629126042572595e-05,1.3680264328984436e-05,7.0667,4.7333
3.6796875,3.7609730287632476e-05,-4.8331876426337146e-05,1.7593962032501634e-05,1.7098759465934153e-05,7.0667,4.7333
3.68359375,4.248188457160287e-05,-1.4633496421760127e-06,1.221063090562287e-05,2.099648289311047e-05,7.0667,4.7333
3.6875,4.248188457160287e-05,4.10282254245822e-05,1.6124328609140075e-05,1.9542823746089796e-05,7.0667,4.7333
3.69140625,3.808895857785907e-05,6.200245026016624e-05,2.002205203631639e-05,1.6603556899366672e-05,7.0667,4.7333
3.6953125,2.8328675733577397e-05,7.812049508812076e-05,1.5149897752345996e-05,2.002205203631639e-05,7.0667,4.7333
3.69921875,2.6859042310215832e-05,9.324813478294033e-05,7.338476621652475e-06,2.099648289311047e-05,7.0667,4.7333
3.703125,3.955859200122064e-05,0.00010155475848020132,4.399209774929346e-06,1.6603556899366672e-05,7.0667,4.7333
3.70703125,3.66352994308384e-05,0.0001157079673182268,1.318506176241695e-05,1.318506176241695e-05,7.0667,4.7333
3.7109375,3.321680429388868e-05,0.00011669837245136177,1.9542823746089796e-05,1.7098759465934153e-05,7.0667,4.7333
3.71484375,3.2721601727321196e-05,0.00010350362019378949,1.7098759465934153e-05,1.9542823746089796e-05,7.0667,4.7333
3.71875,3.7114527721065e-05,0.00011327987731441206,1.4175466895551916e-05,2.002205203631639e-05,7.0667,4.7333
3.72265625,4.0533022858014716e-05,0.00012645865529564346,2.1491685459677955e-05,2.1986888026245436e-05,7.0667,4.7333
3.7265625,3.5165666007476836e-05,0.0001328004430029754,2.2961318883039517e-05,2.2466116316472033e-05,7.0667,4.7333
3.73046875,2.979830915693896e-05,0.0001328004430029754,2.1986888026245436e-05,2.099648289311047e-05,7.0667,4.7333
3.734375,2.7833473167009913e-05,0.00012157052673533218,2.4910180596627673e-05,2.1986888026245436e-05,7.0667,4.7333
3.73828125,3.2721601727321196e-05,0.00011473353646143273,2.4910180596627673e-05,2.540538316319516e-05,7.0667,4.7333
3.7421875,3.467046344090936e-05,0.0001249890218722819,2.0517254602883878e-05,2.540538316319516e-05,7.0667,4.7333
3.74609375,3.66352994308384e-05,0.00014355113098039204,1.9542823746089796e-05,2.1986888026245436e-05,7.0667,4.7333
3.75,3.419123515068276e-05,0.00014989291868772403,3.0277537447165556e-05,2.1491685459677955e-05,7.0667,4.7333
3.75390625,3.2721601727321196e-05,0.00014061186413366893,2.540538316319516e-05,2.540538316319516e-05,7.0667,4.7333
3.7578125,3.808895857785907e-05,0.00013866300242008076,1.0756971758602197e-05,2.2961318883039517e-05,7.0667,4.7333
3.76171875,3.7609730287632476e-05,0.0001450047901274127,1.318506176241695e-05,2.002205203631639e-05,7.0667,4.7333
3.765625,3.808895857785907e-05,0.00014061186413366893,2.3440547173266114e-05,2.2466116316472033e-05,7.0667,4.7333
3.76953125,3.955859200122064e-05,0.00013963743327687485,2.4910180596627673e-05,2.002205203631639e-05,7.0667,4.7333
3.7734375,3.5165666007476836e-05,0.00014158629499046302,1.9542823746089796e-05,1.6124328609140075e-05,7.0667,4.7333
3.77734375,3.66352994308384e-05,0.00013182601214618134,1.9047621179522312e-05,1.4175466895551916e-05,7.0667,4.7333
3.78125,4.248188457160287e-05,0.0001284075170092316,8.312907478446554e-06,1.0261769192034713e-05,7.0667,4.7333
3.78515625,4.0533022858014716e-05,0.00013476527899290445,1.7593962032501634e-05,9.766566625467227e-06,7.0667,4.7333
3.7890625,4.005379456778812e-05,0.00014110706670023641,3.419123515068276e-05,1.5149897752345996e-05,7.0667,4.7333
3.79296875,3.419123515068276e-05,0.00012743308615243754,2.002205203631639e-05,1.4654695185778513e-05,7.0667,4.7333
3.796875,3.2242373437094596e-05,0.00011473353646143273,1.3680264328984436e-05,1.3680264328984436e-05,7.0667,4.7333
3.80078125,3.369603258411528e-05,0.00012254495759212624,1.5629126042572595e-05,1.8568392889295715e-05,7.0667,4.7333
3.8046875,3.369603258411528e-05,0.00013085158128938723,1.8568392889295715e-05,2.2466116316472033e-05,7.0667,4.7333
3.80859375,3.6140096864270914e-05,0.00013182601214618134,3.077274001373304e-05,2.4910180596627673e-05,7.0667,4.7333
3.8125,3.858416114442656e-05,0.00012304016015869372,3.369603258411528e-05,2.8328675733577397e-05,7.0667,4.7333
3.81640625,4.10282254245822e-05,0.00012059609587853808,2.1491685459677955e-05,2.8823878300144878e-05,7.0667,4.7333
3.8203125,3.858416114442656e-05,0.00011620316988479429,1.6124328609140075e-05,2.9303106590371475e-05,7.0667,4.7333
3.82421875,3.808895857785907e-05,0.00011181024389105049,1.318506176241695e-05,2.8328675733577397e-05,7.0667,4.7333
3.828125,3.2721601727321196e-05,0.00011228947218127709,1.4654695185778513e-05,2.6859042310215832e-05,7.0667,4.7333
3.83203125,3.5644894297703436e-05,0.00010692211533073921,2.1491685459677955e-05,2.8823878300144878e-05,7.0667,4.7333
3.8359375,4.3456315428396956e-05,9.618740162966344e-05,1.9542823746089796e-05,3.174717087052712e-05,7.0667,4.7333
3.83984375,3.66352994308384e-05,9.032484221255807e-05,1.7098759465934153e-05,2.8823878300144878e-05,7.0667,4.7333
3.84375,3.7114527721065e-05,8.740154964217585e-05,1.5149897752345996e-05,2.637981401998924e-05,7.0667,4.7333
3.84765625,4.10282254245822e-05,9.618740162966344e-05,2.2961318883039517e-05,3.6140096864270914e-05,7.0667,4.7333
3.8515625,3.6140096864270914e-05,9.960589676661316e-05,3.077274001373304e-05,4.0533022858014716e-05,7.0667,4.7333
3.85546875,3.321680429388868e-05,9.082004477912556e-05,2.0517254602883878e-05,3.2242373437094596e-05,7.0667,4.7333
3.859375,3.369603258411528e-05,8.885520878919652e-05,1.6603556899366672e-05,2.637981401998924e-05,7.0667,4.7333
3.86328125,3.6140096864270914e-05,8.348785193865865e-05,2.2466116316472033e-05,2.8823878300144878e-05,7.0667,4.7333
3.8671875,3.858416114442656e-05,8.446228279545272e-05,2.1491685459677955e-05,2.8328675733577397e-05,7.0667,4.7333
3.87109375,3.419123515068276e-05,8.788077793240245e-05,2.2961318883039517e-05,2.1986888026245436e-05,7.0667,4.7333
3.875,3.5644894297703436e-05,8.740154964217585e-05,2.1986888026245436e-05,2.0517254602883878e-05,7.0667,4.7333
3.87890625,4.1507453714808794e-05,8.05645593682764e-05,2.0517254602883878e-05,2.002205203631639e-05,7.0667,4.7333
3.8828125,4.10282254245822e-05,7.859972337834736e-05,2.3935749739833595e-05,2.099648289311047e-05,7.0667,4.7333
3.88671875,3.5165666007476836e-05,8.251342108186455e-05,2.6859042310215832e-05,2.637981401998924e-05,7.0667,4.7333
3.890625,3.174717087052712e-05,7.909492594491484e-05,3.5644894297703436e-05,2.1986888026245436e-05,7.0667,4.7333
3.89453125,3.66352994308384e-05,7.128350481422131e-05,2.735424487678332e-05,1.5149897752345996e-05,7.0667,4.7333
3.8984375,3.419123515068276e-05,6.29768811169603e-05,1.7098759465934153e-05,1.4654695185778513e-05,7.0667,4.7333
3.90234375,2.4414978030060192e-05,5.6635093409628355e-05,1.8568392889295715e-05,1.7593962032501634e-05,7.0667,4.7333
3.90625,2.3935749739833595e-05,5.5165459986266793e-05,1.6124328609140075e-05,1.3680264328984436e-05,7.0667,4.7333
3.91015625,3.174717087052712e-05,5.9558385980010596e-05,2.002205203631639e-05,9.287338335240633e-06,7.0667,4.7333
3.9140625,3.5165666007476836e-05,4.9302900569161436e-05,2.7833473167009913e-05,1.2705833472190353e-05,7.0667,4.7333
3.91796875,3.5165666007476836e-05,3.955859200122064e-05,1.6124328609140075e-05,1.4654695185778513e-05,7.0667,4.7333
3.921875,3.2242373437094596e-05,4.3456315428396956e-05,1.318506176241695e-05,1.6603556899366672e-05,7.0667,4.7333
3.92578125,3.2721601727321196e-05,4.3456315428396956e-05,1.8568392889295715e-05,2.099648289311047e-05,7.0667,4.7333
3.9296875,3.5165666007476836e-05,3.321680429388868e-05,1.7098759465934153e-05,2.2961318883039517e-05,7.0667,4.7333
3.93359375,3.955859200122064e-05,9.766566625467227e-06,2.099648289311047e-05,2.0517254602883878e-05,7.0667,4.7333
3.9375,3.5165666007476836e-05,-3.7597162725261386e-05,1.318506176241695e-05,1.9047621179522312e-05,7.0667,4.7333
3.94140625,2.8823878300144878e-05,-9.422597235370417e-05,1.318506176241695e-05,1.7593962032501634e-05,7.0667,4.7333
3.9453125,3.2242373437094596e-05,-0.00013133421629358364,2.8328675733577397e-05,1.7098759465934153e-05,7.0667,4.7333
3.94921875,2.979830915693896e-05,-0.00012548763115281916,3.174717087052712e-05,1.7098759465934153e-05,7.0667,4.7333
3.953125,2.8823878300144878e-05,-0.00010301182434119178,2.5884611453421754e-05,1.5149897752345996e-05,7.0667,4.7333
3.95703125,2.9303106590371475e-05,-9.130267978332196e-05,2.002205203631639e-05,1.4654695185778513e-05,7.0667,4.7333
3.9609375,2.7833473167009913e-05,-7.029650639505614e-05,2.3440547173266114e-05,1.8073190322728234e-05,7.0667,4.7333
3.96484375,2.637981401998924e-05,-4.199008871900518e-05,1.9542823746089796e-05,1.7593962032501634e-05,7.0667,4.7333
3.96875,3.0277537447165556e-05,-2.147911789730685e-05,2.3440547173266114e-05,1.6603556899366672e-05,7.0667,4.7333
3.97265625,2.979830915693896e-05,-7.309934782940487e-06,3.077274001373304e-05,2.4414978030060192e-05,7.0667,4.7333
3.9765625,2.6859042310215832e-05,-4.38664221255825e-06,1.7593962032501634e-05,2.7833473167009913e-05,7.0667,4.7333
3.98046875,3.077274001373304e-05,-1.4633496421760127e-06,1.3680264328984436e-05,2.540538316319516e-05,7.0667,4.7333
3.984375,3.467046344090936e-05,8.792135768673147e-06,1.6124328609140075e-05,2.4414978030060192e-05,7.0667,4.7333
3.98828125,3.66352994308384e-05,5.373640631723432e-06,1.6603556899366672e-05,2.6859042310215832e-05,7.0667,4.7333
3.9921875,3.66352994308384e-05,-1.072842991989021e-05,1.9542823746089796e-05,2.8328675733577397e-05,7.0667,4.7333
3.99609375,4.0533022858014716e-05,-7.309934782940487e-06,2.637981401998924e-05,2.9303106590371475e-05,7.0667,4.7333
4.0,3.66352994308384e-05,-4.38664221255825e-06,1.8568392889295715e-05,2.6859042310215832e-05,7.0667,4.7333
4.00390625,2.540538316319516e-05,-6.830706492713894e-06,2.3440547173266114e-05,2.735424487678332e-05,7.0667,4.7333
4.0078125,2.7833473167009913e-05,4.399209774929346e-06,5.2721395706111154e-05,3.077274001373304e-05,7.0667,4.7333
4.01171875,3.321680429388868e-05,-1.8539851050583735e-05,4.200265628137628e-05,2.6859042310215832e-05,7.0667,4.7333
4.015625,3.321680429388868e-05,-6.444992125429166e-05,5.373640631723432e-06,2.1986888026245436e-05,7.0667,4.7333
4.01953125,3.2242373437094596e-05,-7.812390180209056e-05,-1.4633496421760127e-06,2.002205203631639e-05,7.0667,4.7333
4.0234375,3.7114527721065e-05,-6.298028783093011e-05,-2.437780498970092e-06,1.6603556899366672e-05,7.0667,4.7333
4.02734375,4.297708713817036e-05,-3.954602443884954e-05,-7.309934782940487e-06,1.1731402615396273e-05,7.0667,4.7333
4.03125,3.7114527721065e-05,-5.856275635919814e-06,4.894412341496831e-06,1.3680264328984436e-05,7.0667,4.7333
4.03515625,3.2242373437094596e-05,2.002205203631639e-05,1.5149897752345996e-05,2.0517254602883878e-05,7.0667,4.7333
4.0390625,3.2721601727321196e-05,3.1251968303959634e-05,1.123620004882879e-05,2.3935749739833595e-05,7.0667,4.7333
4.04296875,3.369603258411528e-05,5.02933057022964e-05,1.1731402615396273e-05,2.6859042310215832e-05,7.0667,4.7333
4.046875,3.369603258411528e-05,6.981387139085976e-05,2.4910180596627673e-05,2.8823878300144878e-05,7.0667,4.7333
4.05078125,2.6859042310215832e-05,7.61716333745326e-05,3.2721601727321196e-05,2.9303106590371475e-05,7.0667,4.7333
4.0546875,2.3935749739833595e-05,7.567643080796512e-05,2.4910180596627673e-05,2.8328675733577397e-05,7.0667,4.7333
4.05859375,2.735424487678332e-05,7.66508616647592e-05,1.9047621179522312e-05,2.9303106590371475e-05,7.0667,4.7333
4.0625,2.9303106590371475e-05,7.909492594491484e-05,2.002205203631639e-05,3.174717087052712e-05,7.0667,4.7333
4.06640625,2.979830915693896e-05,7.909492594491484e-05,2.1986888026245436e-05,2.7833473167009913e-05,7.0667,4.7333
4.0703125,2.8328675733577397e-05,8.153899022507047e-05,3.1251968303959634e-05,2.637981401998924e-05,7.0667,4.7333
4.07421875,2.8328675733577397e-05,8.153899022507047e-05,2.979830915693896e-05,2.637981401998924e-05,7.0667,4.7333
4.078125,3.0277537447165556e-05,7.61716333745326e-05,1.1731402615396273e-05,2.540538316319516e-05,7.0667,4.7333
4.08203125,2.7833473167009913e-05,6.78650096772716e-05,9.766566625467227e-06,2.4414978030060192e-05,7.0667,4.7333
4.0859375,2.9303106590371475e-05,7.078830224765383e-05,2.637981401998924e-05,2.4414978030060192e-05,7.0667,4.7333
4.08984375,3.5644894297703436e-05,7.323236652780948e-05,2.979830915693896e-05,2.6859042310215832e-05,7.0667,4.7333
4.09375,3.369603258411528e-05,6.444651454032189e-05,2.4910180596627673e-05,2.7833473167009913e-05,7.0667,4.7333
