timestamp,TP9,AF7,AF8,TP10,Valence,Arousal
0.0,-8.790680499427786e-06,-3.125233648401618e-05,-4.3458170735484856e-05,-3.613412926573586e-05,3.9333,6.1333
0.00390625,-1.5138363412832838e-05,-3.027597792767224e-05,-4.492406086717022e-05,-3.466823913405051e-05,3.9333,6.1333
0.0078125,-1.6114721969176776e-05,-2.1972873307240406e-05,-2.050968776989395e-05,-3.515777070939193e-05,3.9333,6.1333
0.01171875,-1.4162004856488898e-05,-2.1972873307240406e-05,-1.318564630014496e-05,-4.101592204745556e-05,3.9333,6.1333
0.015625,-1.2209287743801027e-05,-3.125233648401618e-05,-3.613412926573586e-05,-4.443452929182879e-05,3.9333,6.1333
0.01953125,-8.790680499427786e-06,-2.5391480551613647e-05,-3.808684637842374e-05,-4.3458170735484856e-05,3.9333,6.1333
0.0234375,-1.3672473281147482e-05,-2.832055622064546e-05,-3.466823913405051e-05,-4.101592204745556e-05,3.9333,6.1333
0.02734375,-2.0020156194552533e-05,-3.4181412153047995e-05,-2.4904653570611125e-05,-3.5644597690394444e-05,3.9333,6.1333
0.03125,-2.1972873307240406e-05,-3.369188057770657e-05,-2.2949231863584342e-05,-3.5644597690394444e-05,3.9333,6.1333
0.03515625,-2.783372923964294e-05,-3.320505359670405e-05,-3.466823913405051e-05,-3.8576377953765166e-05,3.9333,6.1333
0.0390625,-3.027597792767224e-05,-3.662095624673839e-05,-3.5644597690394444e-05,-3.906320493476768e-05,3.9333,6.1333
0.04296875,-2.3438763438925767e-05,-3.7110487822079805e-05,-3.95527365101091e-05,-3.515777070939193e-05,3.9333,6.1333
0.046875,-1.758061210086214e-05,-4.003956349111162e-05,-3.320505359670405e-05,-3.7110487822079805e-05,3.9333,6.1333
0.05078125,-2.1972873307240406e-05,-3.2228695040360115e-05,-2.2949231863584342e-05,-3.271552202136263e-05,3.9333,6.1333
0.0546875,-2.2949231863584342e-05,-2.1972873307240406e-05,-2.783372923964294e-05,-3.027597792767224e-05,3.9333,6.1333
0.05859375,-2.3928295014267185e-05,-3.8576377953765166e-05,-4.296863916014344e-05,-3.662095624673839e-05,3.9333,6.1333
0.0625,-2.832055622064546e-05,-3.906320493476768e-05,-3.95527365101091e-05,-3.125233648401618e-05,3.9333,6.1333
0.06640625,-2.2949231863584342e-05,-2.0020156194552533e-05,-3.906320493476768e-05,-3.271552202136263e-05,3.9333,6.1333
0.0703125,-2.0020156194552533e-05,-2.3438763438925767e-05,-2.4415121995269707e-05,-3.7110487822079805e-05,3.9333,6.1333
0.07421875,-2.5391480551613647e-05,-2.2949231863584342e-05,-2.050968776989395e-05,-3.271552202136263e-05,3.9333,6.1333
0.078125,-2.4904653570611125e-05,-2.5391480551613647e-05,-3.7110487822079805e-05,-3.369188057770657e-05,3.9333,6.1333
0.08203125,-2.5391480551613647e-05,-2.3928295014267185e-05,-3.369188057770657e-05,-3.271552202136263e-05,3.9333,6.1333
0.0859375,-2.3438763438925767e-05,-1.7091080525520716e-05,-2.832055622064546e-05,-2.881008779598688e-05,3.9333,6.1333
0.08984375,-3.173916346501869e-05,-1.562519039383536e-05,-2.2462404882581827e-05,-2.6857370683299e-05,3.9333,6.1333
0.09375,-3.662095624673839e-05,-7.814321943083847e-06,-8.790680499427786e-06,-2.0996514750896473e-05,3.9333,6.1333
0.09765625,-3.4181412153047995e-05,-1.2696114724803542e-05,-1.4162004856488898e-05,-2.4904653570611125e-05,3.9333,6.1333
0.1015625,-3.515777070939193e-05,-3.027597792767224e-05,-3.95527365101091e-05,-3.8576377953765166e-05,3.9333,6.1333
0.10546875,-2.92969147769894e-05,-2.6367839107957583e-05,-3.515777070939193e-05,-4.1505453622796976e-05,3.9333,6.1333
0.109375,-2.783372923964294e-05,-1.3672473281147482e-05,-3.760001939742123e-05,-4.19922806037995e-05,3.9333,6.1333
0.11328125,-3.4181412153047995e-05,-1.6114721969176776e-05,-3.7110487822079805e-05,-3.95527365101091e-05,3.9333,6.1333
0.1171875,-4.0529095066453046e-05,-1.1719756168459604e-05,-2.4904653570611125e-05,-3.662095624673839e-05,3.9333,6.1333
0.12109375,-4.3458170735484856e-05,-2.588101212695506e-05,-3.760001939742123e-05,-3.5644597690394444e-05,3.9333,6.1333
0.125,-4.19922806037995e-05,-3.2228695040360115e-05,-4.19922806037995e-05,-3.4181412153047995e-05,3.9333,6.1333
0.12890625,-3.662095624673839e-05,-2.0020156194552533e-05,-2.92969147769894e-05,-3.369188057770657e-05,3.9333,6.1333
0.1328125,-2.832055622064546e-05,-8.790680499427786e-06,-3.173916346501869e-05,-3.662095624673839e-05,3.9333,6.1333
0.13671875,-3.125233648401618e-05,-1.855697065720607e-05,-3.7110487822079805e-05,-4.394770231082628e-05,3.9333,6.1333
0.140625,-3.613412926573586e-05,-1.4162004856488898e-05,-3.466823913405051e-05,-3.808684637842374e-05,3.9333,6.1333
0.14453125,-3.515777070939193e-05,-2.3928295014267185e-05,-3.613412926573586e-05,-3.0762804908674754e-05,3.9333,6.1333
0.1484375,-4.0529095066453046e-05,-4.3458170735484856e-05,-3.027597792767224e-05,-2.832055622064546e-05,3.9333,6.1333
0.15234375,-3.8576377953765166e-05,-2.050968776989395e-05,-3.2228695040360115e-05,-3.320505359670405e-05,3.9333,6.1333
0.15625,-3.320505359670405e-05,-2.0996514750896473e-05,-3.173916346501869e-05,-3.808684637842374e-05,3.9333,6.1333
0.16015625,-3.4181412153047995e-05,-2.2949231863584342e-05,-2.9786446352330818e-05,-3.466823913405051e-05,3.9333,6.1333
0.1640625,-2.92969147769894e-05,-1.5138363412832838e-05,-3.760001939742123e-05,-3.662095624673839e-05,3.9333,6.1333
0.16796875,-2.783372923964294e-05,-1.0253866036774248e-05,-2.5391480551613647e-05,-3.95527365101091e-05,3.9333,6.1333
0.171875,-3.271552202136263e-05,-2.148604632623789e-05,-3.4181412153047995e-05,-3.320505359670405e-05,3.9333,6.1333
0.17578125,-3.4181412153047995e-05,-3.613412926573586e-05,-3.662095624673839e-05,-2.9786446352330818e-05,3.9333,6.1333
0.1796875,-3.466823913405051e-05,-2.4415121995269707e-05,-3.613412926573586e-05,-3.173916346501869e-05,3.9333,6.1333
0.18359375,-3.271552202136263e-05,-2.6367839107957583e-05,-4.9805853648889906e-05,-3.320505359670405e-05,3.9333,6.1333
0.1875,-2.588101212695506e-05,-2.4904653570611125e-05,-3.515777070939193e-05,-3.515777070939193e-05,3.9333,6.1333
0.19140625,-2.1972873307240406e-05,-2.0996514750896473e-05,-3.271552202136263e-05,-3.515777070939193e-05,3.9333,6.1333
0.1953125,-2.5391480551613647e-05,-3.369188057770657e-05,-4.9805853648889906e-05,-3.271552202136263e-05,3.9333,6.1333
0.19921875,-2.832055622064546e-05,-3.5644597690394444e-05,-4.6876777979858097e-05,-2.9786446352330818e-05,3.9333,6.1333
0.203125,-2.9786446352330818e-05,-1.953332921355001e-05,-3.662095624673839e-05,-2.92969147769894e-05,3.9333,6.1333
0.20703125,-3.369188057770657e-05,-1.1719756168459604e-05,-3.027597792767224e-05,-2.783372923964294e-05,3.9333,6.1333
0.2109375,-3.4181412153047995e-05,-2.92969147769894e-05,-3.320505359670405e-05,-3.173916346501869e-05,3.9333,6.1333
0.21484375,-3.4181412153047995e-05,-2.3928295014267185e-05,-2.2462404882581827e-05,-3.369188057770657e-05,3.9333,6.1333
0.21875,-3.466823913405051e-05,-8.790680499427786e-06,-1.7091080525520716e-05,-2.832055622064546e-05,3.9333,6.1333
0.22265625,-2.588101212695506e-05,-1.0253866036774248e-05,-2.783372923964294e-05,-3.271552202136263e-05,3.9333,6.1333
0.2265625,-2.0996514750896473e-05,-3.0762804908674754e-05,-3.7110487822079805e-05,-3.369188057770657e-05,3.9333,6.1333
0.23046875,-2.7344197664301516e-05,-3.320505359670405e-05,-4.6876777979858097e-05,-3.027597792767224e-05,3.9333,6.1333
0.234375,-2.6367839107957583e-05,-2.050968776989395e-05,-3.320505359670405e-05,-3.0762804908674754e-05,3.9333,6.1333
0.23828125,-2.6857370683299e-05,-2.6857370683299e-05,-3.320505359670405e-05,-3.271552202136263e-05,3.9333,6.1333
0.2421875,-3.613412926573586e-05,-3.466823913405051e-05,-3.4181412153047995e-05,-3.4181412153047995e-05,3.9333,6.1333
0.24609375,-3.4181412153047995e-05,-3.271552202136263e-05,-2.6367839107957583e-05,-4.0529095066453046e-05,3.9333,6.1333
0.25,-3.271552202136263e-05,-3.760001939742123e-05,-1.8067439081864656e-05,-4.248181217914091e-05,3.9333,6.1333
0.25390625,-3.173916346501869e-05,-3.320505359670405e-05,-2.2462404882581827e-05,-3.7110487822079805e-05,3.9333,6.1333
0.2578125,-2.6367839107957583e-05,-2.5391480551613647e-05,-4.9805853648889906e-05,-4.394770231082628e-05,3.9333,6.1333
0.26171875,-3.613412926573586e-05,-3.613412926573586e-05,-4.6876777979858097e-05,-4.1505453622796976e-05,3.9333,6.1333
0.265625,-4.492406086717022e-05,-3.173916346501869e-05,-3.125233648401618e-05,-3.369188057770657e-05,3.9333,6.1333
0.26953125,-3.613412926573586e-05,-1.4162004856488898e-05,-2.148604632623789e-05,-3.369188057770657e-05,3.9333,6.1333
0.2734375,-3.125233648401618e-05,-2.4904653570611125e-05,-2.050968776989395e-05,-3.2228695040360115e-05,3.9333,6.1333
0.27734375,-2.783372923964294e-05,-3.515777070939193e-05,-4.101592204745556e-05,-3.760001939742123e-05,3.9333,6.1333
0.28125,-2.4415121995269707e-05,-3.027597792767224e-05,-3.515777070939193e-05,-4.19922806037995e-05,3.9333,6.1333
0.28515625,-2.2949231863584342e-05,-3.2228695040360115e-05,-2.7344197664301516e-05,-4.3458170735484856e-05,3.9333,6.1333
0.2890625,-1.953332921355001e-05,-2.783372923964294e-05,-2.9786446352330818e-05,-4.1505453622796976e-05,3.9333,6.1333
0.29296875,-2.6857370683299e-05,-1.1232929187457088e-05,-2.2462404882581827e-05,-3.369188057770657e-05,3.9333,6.1333
0.296875,-3.369188057770657e-05,-1.318564630014496e-05,-2.3438763438925767e-05,-3.369188057770657e-05,3.9333,6.1333
0.30078125,-3.125233648401618e-05,-2.92969147769894e-05,-2.2949231863584342e-05,-3.271552202136263e-05,3.9333,6.1333
0.3046875,-2.9786446352330818e-05,-1.855697065720607e-05,-2.588101212695506e-05,-2.9786446352330818e-05,3.9333,6.1333
0.30859375,-2.6857370683299e-05,-2.7344197664301516e-05,-3.271552202136263e-05,-3.7110487822079805e-05,3.9333,6.1333
0.3125,-2.0996514750896473e-05,-4.19922806037995e-05,-2.3928295014267185e-05,-3.906320493476768e-05,3.9333,6.1333
0.31640625,-2.2949231863584342e-05,-4.0529095066453046e-05,-2.6367839107957583e-05,-3.369188057770657e-05,3.9333,6.1333
0.3203125,-2.3438763438925767e-05,-2.9786446352330818e-05,-3.369188057770657e-05,-3.125233648401618e-05,3.9333,6.1333
0.32421875,-2.832055622064546e-05,-2.1972873307240406e-05,-2.3438763438925767e-05,-2.588101212695506e-05,3.9333,6.1333
0.328125,-3.320505359670405e-05,-3.515777070939193e-05,-2.4415121995269707e-05,-2.5391480551613647e-05,3.9333,6.1333
0.33203125,-3.2228695040360115e-05,-2.783372923964294e-05,-2.7344197664301516e-05,-2.783372923964294e-05,3.9333,6.1333
0.3359375,-3.0762804908674754e-05,-2.3438763438925767e-05,-2.148604632623789e-05,-2.6857370683299e-05,3.9333,6.1333
0.33984375,-2.2949231863584342e-05,-2.3928295014267185e-05,-2.6367839107957583e-05,-3.320505359670405e-05,3.9333,6.1333
0.34375,-2.0020156194552533e-05,-2.3928295014267185e-05,-3.808684637842374e-05,-3.808684637842374e-05,3.9333,6.1333
0.34765625,-2.6857370683299e-05,-1.5138363412832838e-05,-2.050968776989395e-05,-3.906320493476768e-05,3.9333,6.1333
0.3515625,-3.7110487822079805e-05,-2.2949231863584342e-05,-8.30114892408637e-06,-4.003956349111162e-05,3.9333,6.1333
0.35546875,-3.760001939742123e-05,-2.6367839107957583e-05,-9.277507480430308e-06,-3.0762804908674754e-05,3.9333,6.1333
0.359375,-3.466823913405051e-05,-2.1972873307240406e-05,-2.148604632623789e-05,-2.4904653570611125e-05,3.9333,6.1333
0.36328125,-3.027597792767224e-05,-1.4162004856488898e-05,-3.027597792767224e-05,-2.5391480551613647e-05,3.9333,6.1333
0.3671875,-2.92969147769894e-05,-1.1719756168459604e-05,-2.2949231863584342e-05,-2.92969147769894e-05,3.9333,6.1333
0.37109375,-2.588101212695506e-05,-2.92969147769894e-05,-3.613412926573586e-05,-3.613412926573586e-05,3.9333,6.1333
0.375,-1.8067439081864656e-05,-2.6367839107957583e-05,-4.1505453622796976e-05,-4.101592204745556e-05,3.9333,6.1333
0.37890625,-2.148604632623789e-05,-2.3928295014267185e-05,-3.271552202136263e-05,-3.808684637842374e-05,3.9333,6.1333
0.3828125,-3.027597792767224e-05,-3.662095624673839e-05,-4.492406086717022e-05,-2.783372923964294e-05,3.9333,6.1333
0.38671875,-3.271552202136263e-05,-3.760001939742123e-05,-4.394770231082628e-05,-3.2228695040360115e-05,3.9333,6.1333
0.390625,-3.0762804908674754e-05,-2.5391480551613647e-05,-3.125233648401618e-05,-3.8576377953765166e-05,3.9333,6.1333
0.39453125,-2.9786446352330818e-05,-6.837963386739915e-06,-4.785313653620203e-05,-3.906320493476768e-05,3.9333,6.1333
0.3984375,-2.92969147769894e-05,-2.3928295014267185e-05,-4.443452929182879e-05,-3.906320493476768e-05,3.9333,6.1333
0.40234375,-3.271552202136263e-05,-4.833996351720455e-05,-3.173916346501869e-05,-3.808684637842374e-05,3.9333,6.1333
0.40625,-3.515777070939193e-05,-3.0762804908674754e-05,-2.783372923964294e-05,-3.5644597690394444e-05,3.9333,6.1333
0.41015625,-3.8576377953765166e-05,-3.466823913405051e-05,-1.1719756168459604e-05,-3.320505359670405e-05,3.9333,6.1333
0.4140625,-3.95527365101091e-05,-3.8576377953765166e-05,-1.1232929187457088e-05,-2.7344197664301516e-05,3.9333,6.1333
0.41796875,-3.2228695040360115e-05,-2.4415121995269707e-05,-3.0762804908674754e-05,-2.1972873307240406e-05,3.9333,6.1333
0.421875,-3.125233648401618e-05,-3.5644597690394444e-05,-3.613412926573586e-05,-2.3438763438925767e-05,3.9333,6.1333
0.42578125,-3.8576377953765166e-05,-5.371128787426566e-05,-3.95527365101091e-05,-3.027597792767224e-05,3.9333,6.1333
0.4296875,-4.19922806037995e-05,-5.517717800595102e-05,-3.173916346501869e-05,-3.4181412153047995e-05,3.9333,6.1333
0.43359375,-4.248181217914091e-05,-4.19922806037995e-05,-2.4415121995269707e-05,-3.320505359670405e-05,3.9333,6.1333
0.4375,-4.833996351720455e-05,-4.785313653620203e-05,-5.420081944960708e-05,-3.320505359670405e-05,3.9333,6.1333
0.44140625,-5.078221220523384e-05,-6.1032624749675754e-05,-7.128844648279546e-05,-3.662095624673839e-05,3.9333,6.1333
0.4453125,-4.590041942351415e-05,-3.8576377953765166e-05,-4.6876777979858097e-05,-3.906320493476768e-05,3.9333,6.1333
0.44921875,-4.492406086717022e-05,-1.758061210086214e-05,-1.758061210086214e-05,-3.906320493476768e-05,3.9333,6.1333
0.453125,-4.19922806037995e-05,-1.953332921355001e-05,-1.953332921355001e-05,-3.760001939742123e-05,3.9333,6.1333
0.45703125,-3.7110487822079805e-05,-3.515777070939193e-05,-3.125233648401618e-05,-3.613412926573586e-05,3.9333,6.1333
0.4609375,-3.906320493476768e-05,-2.0020156194552533e-05,-4.19922806037995e-05,-3.808684637842374e-05,3.9333,6.1333
0.46484375,-3.808684637842374e-05,-9.767039055771726e-06,-2.783372923964294e-05,-3.515777070939193e-05,3.9333,6.1333
0.46875,-4.3458170735484856e-05,-2.050968776989395e-05,-1.5138363412832838e-05,-2.881008779598688e-05,3.9333,6.1333
0.47265625,-4.492406086717022e-05,-1.8067439081864656e-05,-2.3928295014267185e-05,-2.5391480551613647e-05,3.9333,6.1333
0.4765625,-4.0529095066453046e-05,-1.7091080525520716e-05,-3.369188057770657e-05,-2.3438763438925767e-05,3.9333,6.1333
0.48046875,-3.906320493476768e-05,-1.6114721969176776e-05,-3.613412926573586e-05,-2.92969147769894e-05,3.9333,6.1333
0.484375,-3.4181412153047995e-05,-2.3928295014267185e-05,-4.19922806037995e-05,-3.5644597690394444e-05,3.9333,6.1333
0.48828125,-3.173916346501869e-05,-2.588101212695506e-05,-4.5410887848172735e-05,-3.173916346501869e-05,3.9333,6.1333
0.4921875,-3.369188057770657e-05,-2.7344197664301516e-05,-1.953332921355001e-05,-2.5391480551613647e-05,3.9333,6.1333
0.49609375,-3.320505359670405e-05,-3.8576377953765166e-05,-3.8576377953765166e-05,-3.2228695040360115e-05,3.9333,6.1333
0.5,-3.5644597690394444e-05,-3.466823913405051e-05,-6.200898330601968e-05,-3.5644597690394444e-05,3.9333,6.1333
0.50390625,-4.296863916014344e-05,-4.443452929182879e-05,-5.810625367498284e-05,-3.027597792767224e-05,3.9333,6.1333
0.5078125,-4.101592204745556e-05,-4.19922806037995e-05,-5.029538522423133e-05,-2.9786446352330818e-05,3.9333,6.1333
0.51171875,-3.2228695040360115e-05,-3.320505359670405e-05,-3.271552202136263e-05,-3.4181412153047995e-05,3.9333,6.1333
0.515625,-3.173916346501869e-05,-3.2228695040360115e-05,-3.760001939742123e-05,-3.7110487822079805e-05,3.9333,6.1333
0.51953125,-2.881008779598688e-05,-2.783372923964294e-05,-4.638724640451667e-05,-3.7110487822079805e-05,3.9333,6.1333
0.5234375,-2.050968776989395e-05,-3.173916346501869e-05,-6.200898330601968e-05,-3.760001939742123e-05,3.9333,6.1333
0.52734375,-2.3438763438925767e-05,-3.515777070939193e-05,-5.127174378057527e-05,-3.2228695040360115e-05,3.9333,6.1333
0.53125,-2.9786446352330818e-05,-5.029538522423133e-05,-2.6367839107957583e-05,-2.7344197664301516e-05,3.9333,6.1333
0.53515625,-3.173916346501869e-05,-4.1505453622796976e-05,-2.92969147769894e-05,-2.92969147769894e-05,3.9333,6.1333
0.5390625,-3.271552202136263e-05,-2.3438763438925767e-05,-3.7110487822079805e-05,-3.173916346501869e-05,3.9333,6.1333
0.54296875,-3.613412926573586e-05,-3.662095624673839e-05,-3.760001939742123e-05,-3.320505359670405e-05,3.9333,6.1333
0.546875,-3.8576377953765166e-05,-4.101592204745556e-05,-2.832055622064546e-05,-3.271552202136263e-05,3.9333,6.1333
0.55078125,-3.95527365101091e-05,-2.92969147769894e-05,-2.3928295014267185e-05,-3.369188057770657e-05,3.9333,6.1333
0.5546875,-4.882949509254597e-05,-2.0020156194552533e-05,-3.515777070939193e-05,-3.760001939742123e-05,3.9333,6.1333
0.55859375,-5.127174378057527e-05,-1.318564630014496e-05,-5.127174378057527e-05,-3.2228695040360115e-05,3.9333,6.1333
0.5625,-4.931632207354849e-05,-1.660154895017929e-05,-5.7129895118638894e-05,-2.588101212695506e-05,3.9333,6.1333
0.56640625,-4.6876777979858097e-05,-6.837963386739915e-06,-4.0529095066453046e-05,-2.6857370683299e-05,3.9333,6.1333
0.5703125,-4.003956349111162e-05,8.786478109102005e-06,-4.003956349111162e-05,-3.173916346501869e-05,3.9333,6.1333
0.57421875,-3.662095624673839e-05,2.928326771038378e-06,-4.5410887848172735e-05,-3.466823913405051e-05,3.9333,6.1333
0.578125,-3.808684637842374e-05,-4.902804733348631e-07,-5.371128787426566e-05,-4.19922806037995e-05,3.9333,6.1333
0.58203125,-3.760001939742123e-05,-1.5138363412832838e-05,-5.371128787426566e-05,-5.078221220523384e-05,3.9333,6.1333
0.5859375,-4.3458170735484856e-05,-3.808684637842374e-05,-2.1972873307240406e-05,-4.248181217914091e-05,3.9333,6.1333
0.58984375,-5.322446089326315e-05,-4.1505453622796976e-05,-8.790680499427786e-06,-3.4181412153047995e-05,3.9333,6.1333
0.59375,-4.931632207354849e-05,-4.101592204745556e-05,-1.9043797638208593e-05,-3.369188057770657e-05,3.9333,6.1333
0.59765625,-4.492406086717022e-05,-5.1758570761577786e-05,-2.1972873307240406e-05,-3.2228695040360115e-05,3.9333,6.1333
0.6015625,-4.1505453622796976e-05,-5.664306813763638e-05,-2.0020156194552533e-05,-3.515777070939193e-05,3.9333,6.1333
0.60546875,-3.906320493476768e-05,-5.029538522423133e-05,-3.271552202136263e-05,-4.0529095066453046e-05,3.9333,6.1333
0.609375,-3.8576377953765166e-05,-5.273492931792172e-05,-2.6367839107957583e-05,-4.0529095066453046e-05,3.9333,6.1333
0.61328125,-3.4181412153047995e-05,-5.566400498695354e-05,-2.4904653570611125e-05,-4.19922806037995e-05,3.9333,6.1333
0.6171875,-3.8576377953765166e-05,-4.736360496086061e-05,-4.1505453622796976e-05,-4.296863916014344e-05,3.9333,6.1333
0.62109375,-4.1505453622796976e-05,-4.5410887848172735e-05,-4.833996351720455e-05,-4.003956349111162e-05,3.9333,6.1333
0.625,-3.5644597690394444e-05,-4.19922806037995e-05,-3.515777070939193e-05,-3.8576377953765166e-05,3.9333,6.1333
0.62890625,-3.2228695040360115e-05,-4.003956349111162e-05,-1.9043797638208593e-05,-4.003956349111162e-05,3.9333,6.1333
0.6328125,-3.662095624673839e-05,-4.5410887848172735e-05,-3.613412926573586e-05,-4.1505453622796976e-05,3.9333,6.1333
0.63671875,-3.95527365101091e-05,-4.0529095066453046e-05,-4.0529095066453046e-05,-4.5410887848172735e-05,3.9333,6.1333
0.640625,-4.101592204745556e-05,-4.19922806037995e-05,-3.662095624673839e-05,-4.19922806037995e-05,3.9333,6.1333
0.64453125,-3.515777070939193e-05,-2.3438763438925767e-05,-1.758061210086214e-05,-3.613412926573586e-05,3.9333,6.1333
0.6484375,-2.4904653570611125e-05,-1.8067439081864656e-05,-1.2696114724803542e-05,-4.443452929182879e-05,3.9333,6.1333
0.65234375,-2.7344197664301516e-05,-4.9805853648889906e-05,-5.078221220523384e-05,-4.785313653620203e-05,3.9333,6.1333
0.65625,-3.320505359670405e-05,-5.664306813763638e-05,-7.324116359548332e-05,-4.101592204745556e-05,3.9333,6.1333
0.66015625,-2.92969147769894e-05,-4.5410887848172735e-05,-6.054579776867323e-05,-4.3458170735484856e-05,3.9333,6.1333
0.6640625,-2.2462404882581827e-05,-4.3458170735484856e-05,-5.517717800595102e-05,-4.443452929182879e-05,3.9333,6.1333
0.66796875,-1.855697065720607e-05,-2.9786446352330818e-05,-3.613412926573586e-05,-4.394770231082628e-05,3.9333,6.1333
0.671875,-2.0020156194552533e-05,-1.8067439081864656e-05,-2.0996514750896473e-05,-4.9805853648889906e-05,3.9333,6.1333
0.67578125,-2.2462404882581827e-05,-3.0762804908674754e-05,-2.5391480551613647e-05,-4.6876777979858097e-05,3.9333,6.1333
0.6796875,-2.4904653570611125e-05,-2.783372923964294e-05,-2.832055622064546e-05,-4.101592204745556e-05,3.9333,6.1333
0.68359375,-2.832055622064546e-05,-3.2228695040360115e-05,-4.6876777979858097e-05,-3.760001939742123e-05,3.9333,6.1333
0.6875,-3.5644597690394444e-05,-4.9805853648889906e-05,-4.590041942351415e-05,-4.101592204745556e-05,3.9333,6.1333
0.69140625,-3.7110487822079805e-05,-4.5410887848172735e-05,-3.515777070939193e-05,-4.003956349111162e-05,3.9333,6.1333
0.6953125,-3.515777070939193e-05,-3.808684637842374e-05,-5.078221220523384e-05,-3.7110487822079805e-05,3.9333,6.1333
0.69921875,-3.613412926573586e-05,-4.0529095066453046e-05,-5.9082612231326773e-05,-3.466823913405051e-05,3.9333,6.1333
0.703125,-3.125233648401618e-05,-3.613412926573586e-05,-5.1758570761577786e-05,-3.7110487822079805e-05,3.9333,6.1333
0.70703125,-2.783372923964294e-05,-3.515777070939193e-05,-4.931632207354849e-05,-4.101592204745556e-05,3.9333,6.1333
0.7109375,-2.6857370683299e-05,-3.906320493476768e-05,-4.19922806037995e-05,-3.8576377953765166e-05,3.9333,6.1333
0.71484375,-3.2228695040360115e-05,-3.760001939742123e-05,-3.808684637842374e-05,-3.95527365101091e-05,3.9333,6.1333
0.71875,-3.271552202136263e-05,-4.003956349111162e-05,-5.517717800595102e-05,-4.3458170735484856e-05,3.9333,6.1333
0.72265625,-2.783372923964294e-05,-1.9043797638208593e-05,-5.664306813763638e-05,-3.8576377953765166e-05,3.9333,6.1333
0.7265625,-2.92969147769894e-05,-1.7091080525520716e-05,-3.95527365101091e-05,-3.2228695040360115e-05,3.9333,6.1333
0.73046875,-3.271552202136263e-05,-3.8576377953765166e-05,-3.808684637842374e-05,-4.101592204745556e-05,3.9333,6.1333
0.734375,-2.783372923964294e-05,-2.783372923964294e-05,-3.515777070939193e-05,-4.736360496086061e-05,3.9333,6.1333
0.73828125,-2.5391480551613647e-05,-3.125233648401618e-05,-5.1758570761577786e-05,-4.882949509254597e-05,3.9333,6.1333
0.7421875,-2.5391480551613647e-05,-4.736360496086061e-05,-5.420081944960708e-05,-4.3458170735484856e-05,3.9333,6.1333
0.74609375,-2.7344197664301516e-05,-2.7344197664301516e-05,-3.662095624673839e-05,-3.5644597690394444e-05,3.9333,6.1333
0.75,-2.832055622064546e-05,-1.464883183749142e-05,-3.906320493476768e-05,-3.662095624673839e-05,3.9333,6.1333
0.75390625,-2.6857370683299e-05,-2.2949231863584342e-05,-3.662095624673839e-05,-2.92969147769894e-05,3.9333,6.1333
0.7578125,-2.2949231863584342e-05,-2.2462404882581827e-05,-4.296863916014344e-05,-2.4415121995269707e-05,3.9333,6.1333
0.76171875,-2.1972873307240406e-05,-1.5138363412832838e-05,-5.078221220523384e-05,-3.2228695040360115e-05,3.9333,6.1333
0.765625,-2.4415121995269707e-05,-1.464883183749142e-05,-3.808684637842374e-05,-3.125233648401618e-05,3.9333,6.1333
0.76953125,-2.881008779598688e-05,-2.0020156194552533e-05,-1.953332921355001e-05,-3.027597792767224e-05,3.9333,6.1333
0.7734375,-3.0762804908674754e-05,-2.050968776989395e-05,-2.783372923964294e-05,-3.466823913405051e-05,3.9333,6.1333
0.77734375,-2.92969147769894e-05,-2.2949231863584342e-05,-2.3438763438925767e-05,-3.173916346501869e-05,3.9333,6.1333
0.78125,-3.125233648401618e-05,-2.148604632623789e-05,-2.5391480551613647e-05,-3.4181412153047995e-05,3.9333,6.1333
0.78515625,-3.808684637842374e-05,-2.0020156194552533e-05,-2.050968776989395e-05,-3.760001939742123e-05,3.9333,6.1333
0.7890625,-4.492406086717022e-05,-3.173916346501869e-05,-1.855697065720607e-05,-3.369188057770657e-05,3.9333,6.1333
0.79296875,-3.906320493476768e-05,-3.369188057770657e-05,-3.027597792767224e-05,-3.2228695040360115e-05,3.9333,6.1333
0.796875,-3.662095624673839e-05,-2.6367839107957583e-05,-3.173916346501869e-05,-3.027597792767224e-05,3.9333,6.1333
0.80078125,-3.95527365101091e-05,-3.906320493476768e-05,-5.371128787426566e-05,-3.125233648401618e-05,3.9333,6.1333
0.8046875,-3.515777070939193e-05,-4.003956349111162e-05,-4.248181217914091e-05,-3.027597792767224e-05,3.9333,6.1333
0.80859375,-3.271552202136263e-05,-3.0762804908674754e-05,-2.9786446352330818e-05,-3.027597792767224e-05,3.9333,6.1333
0.8125,-2.881008779598688e-05,-3.2228695040360115e-05,-3.125233648401618e-05,-2.92969147769894e-05,3.9333,6.1333
0.81640625,-2.92969147769894e-05,-3.515777070939193e-05,-4.1505453622796976e-05,-2.832055622064546e-05,3.9333,6.1333
0.8203125,-3.2228695040360115e-05,-2.9786446352330818e-05,-4.296863916014344e-05,-3.173916346501869e-05,3.9333,6.1333
0.82421875,-3.5644597690394444e-05,-4.101592204745556e-05,-3.95527365101091e-05,-3.0762804908674754e-05,3.9333,6.1333
0.828125,-3.7110487822079805e-05,-3.613412926573586e-05,-3.2228695040360115e-05,-2.7344197664301516e-05,3.9333,6.1333
0.83203125,-3.4181412153047995e-05,-2.2462404882581827e-05,-3.320505359670405e-05,-2.4415121995269707e-05,3.9333,6.1333
0.8359375,-3.7110487822079805e-05,-3.320505359670405e-05,-3.808684637842374e-05,-3.027597792767224e-05,3.9333,6.1333
0.83984375,-3.4181412153047995e-05,-4.1505453622796976e-05,-4.9805853648889906e-05,-4.101592204745556e-05,3.9333,6.1333
0.84375,-3.0762804908674754e-05,-4.3458170735484856e-05,-5.7129895118638894e-05,-3.760001939742123e-05,3.9333,6.1333
0.84765625,-3.760001939742123e-05,-4.101592204745556e-05,-4.003956349111162e-05,-3.5644597690394444e-05,3.9333,6.1333
0.8515625,-4.101592204745556e-05,-4.638724640451667e-05,-2.6857370683299e-05,-3.515777070939193e-05,3.9333,6.1333
0.85546875,-3.8576377953765166e-05,-5.46876464306096e-05,-4.736360496086061e-05,-3.5644597690394444e-05,3.9333,6.1333
0.859375,-3.760001939742123e-05,-3.466823913405051e-05,-6.591712212573434e-05,-3.515777070939193e-05,3.9333,6.1333
0.86328125,-4.0529095066453046e-05,-3.808684637842374e-05,-5.1758570761577786e-05,-3.2228695040360115e-05,3.9333,6.1333
0.8671875,-4.248181217914091e-05,-5.029538522423133e-05,-3.515777070939193e-05,-3.125233648401618e-05,3.9333,6.1333
0.87109375,-3.8576377953765166e-05,-4.638724640451667e-05,-2.9786446352330818e-05,-3.027597792767224e-05,3.9333,6.1333
0.875,-3.515777070939193e-05,-4.833996351720455e-05,-4.590041942351415e-05,-3.0762804908674754e-05,3.9333,6.1333
0.87890625,-3.466823913405051e-05,-4.638724640451667e-05,-6.005626619333181e-05,-2.92969147769894e-05,3.9333,6.1333
0.8828125,-3.2228695040360115e-05,-4.3458170735484856e-05,-6.298534186236362e-05,-3.027597792767224e-05,3.9333,6.1333
0.88671875,-3.4181412153047995e-05,-4.248181217914091e-05,-5.761942669398032e-05,-3.125233648401618e-05,3.9333,6.1333
0.890625,-3.466823913405051e-05,-5.9082612231326773e-05,-4.6876777979858097e-05,-2.92969147769894e-05,3.9333,6.1333
0.89453125,-4.101592204745556e-05,-3.760001939742123e-05,-3.808684637842374e-05,-2.92969147769894e-05,3.9333,6.1333
0.8984375,-4.296863916014344e-05,-2.0020156194552533e-05,-3.760001939742123e-05,-3.4181412153047995e-05,3.9333,6.1333
0.90234375,-3.4181412153047995e-05,-4.0529095066453046e-05,-4.492406086717022e-05,-3.613412926573586e-05,3.9333,6.1333
0.90625,-3.125233648401618e-05,-2.588101212695506e-05,-4.9805853648889906e-05,-3.027597792767224e-05,3.9333,6.1333
0.91015625,-3.2228695040360115e-05,-3.125233648401618e-05,-4.3458170735484856e-05,-2.3438763438925767e-05,3.9333,6.1333
0.9140625,-2.881008779598688e-05,-5.029538522423133e-05,-3.662095624673839e-05,-2.783372923964294e-05,3.9333,6.1333
0.91796875,-2.832055622064546e-05,-4.296863916014344e-05,-5.1758570761577786e-05,-3.125233648401618e-05,3.9333,6.1333
0.921875,-3.173916346501869e-05,-4.3458170735484856e-05,-6.689348068207829e-05,-3.125233648401618e-05,3.9333,6.1333
0.92578125,-3.515777070939193e-05,-3.369188057770657e-05,-5.029538522423133e-05,-3.2228695040360115e-05,3.9333,6.1333
0.9296875,-3.906320493476768e-05,-2.148604632623789e-05,-2.5391480551613647e-05,-3.027597792767224e-05,3.9333,6.1333
0.93359375,-3.515777070939193e-05,-2.881008779598688e-05,-2.3928295014267185e-05,-2.832055622064546e-05,3.9333,6.1333
0.9375,-3.5644597690394444e-05,-2.7344197664301516e-05,-4.3458170735484856e-05,-2.832055622064546e-05,3.9333,6.1333
0.94140625,-3.95527365101091e-05,-3.7110487822079805e-05,-4.931632207354849e-05,-3.271552202136263e-05,3.9333,6.1333
0.9453125,-3.7110487822079805e-05,-2.7344197664301516e-05,-3.906320493476768e-05,-3.320505359670405e-05,3.9333,6.1333
0.94921875,-3.320505359670405e-05,-2.588101212695506e-05,-3.125233648401618e-05,-2.9786446352330818e-05,3.9333,6.1333
0.953125,-3.271552202136263e-05,-4.101592204745556e-05,-2.6857370683299e-05,-2.6857370683299e-05,3.9333,6.1333
0.95703125,-3.808684637842374e-05,-4.492406086717022e-05,-3.4181412153047995e-05,-2.588101212695506e-05,3.9333,6.1333
0.9609375,-4.1505453622796976e-05,-5.029538522423133e-05,-4.296863916014344e-05,-2.0020156194552533e-05,3.9333,6.1333
0.96484375,-4.248181217914091e-05,-4.19922806037995e-05,-3.662095624673839e-05,-2.3438763438925767e-05,3.9333,6.1333
0.96875,-4.296863916014344e-05,-4.5410887848172735e-05,-3.760001939742123e-05,-3.173916346501869e-05,3.9333,6.1333
0.97265625,-3.95527365101091e-05,-5.420081944960708e-05,-4.19922806037995e-05,-3.125233648401618e-05,3.9333,6.1333
0.9765625,-3.613412926573586e-05,-5.127174378057527e-05,-4.5410887848172735e-05,-3.0762804908674754e-05,3.9333,6.1333
0.98046875,-3.613412926573586e-05,-6.152215632501717e-05,-5.1758570761577786e-05,-2.832055622064546e-05,3.9333,6.1333
0.984375,-3.8576377953765166e-05,-6.054579776867323e-05,-5.078221220523384e-05,-2.6857370683299e-05,3.9333,6.1333
0.98828125,-3.906320493476768e-05,-4.1505453622796976e-05,-3.125233648401618e-05,-2.6857370683299e-05,3.9333,6.1333
0.9921875,-3.906320493476768e-05,-3.515777070939193e-05,-3.515777070939193e-05,-2.832055622064546e-05,3.9333,6.1333
0.99609375,-3.515777070939193e-05,-3.906320493476768e-05,-4.882949509254597e-05,-3.027597792767224e-05,3.9333,6.1333
1.0,-2.881008779598688e-05,-3.515777070939193e-05,-5.322446089326315e-05,-2.783372923964294e-05,3.9333,6.1333
1.00390625,-2.783372923964294e-05,-4.931632207354849e-05,-5.761942669398032e-05,-2.7344197664301516e-05,3.9333,6.1333
1.0078125,-2.7344197664301516e-05,-5.273492931792172e-05,-5.127174378057527e-05,-3.4181412153047995e-05,3.9333,6.1333
1.01171875,-2.832055622064546e-05,-3.760001939742123e-05,-3.808684637842374e-05,-3.320505359670405e-05,3.9333,6.1333
1.015625,-2.6857370683299e-05,-4.785313653620203e-05,-3.760001939742123e-05,-3.0762804908674754e-05,3.9333,6.1333
1.01953125,-2.4904653570611125e-05,-4.833996351720455e-05,-3.173916346501869e-05,-3.125233648401618e-05,3.9333,6.1333
1.0234375,-3.173916346501869e-05,-2.9786446352330818e-05,-3.271552202136263e-05,-2.2949231863584342e-05,3.9333,6.1333
1.02734375,-3.906320493476768e-05,-5.322446089326315e-05,-5.1758570761577786e-05,-2.0020156194552533e-05,3.9333,6.1333
1.03125,-3.271552202136263e-05,-7.128844648279546e-05,-6.200898330601968e-05,-2.5391480551613647e-05,3.9333,6.1333
1.03515625,-2.5391480551613647e-05,-7.177527346379798e-05,-6.542759055039291e-05,-2.5391480551613647e-05,3.9333,6.1333
1.0390625,-2.9786446352330818e-05,-8.105203204623484e-05,-7.763612939620051e-05,-2.3928295014267185e-05,3.9333,6.1333
1.04296875,-3.320505359670405e-05,-8.00756734898909e-05,-8.056520506523233e-05,-2.0996514750896473e-05,3.9333,6.1333
1.046875,-3.5644597690394444e-05,-8.202839060257877e-05,-6.73803076630808e-05,-1.953332921355001e-05,3.9333,6.1333
1.05078125,-3.613412926573586e-05,-8.398381230960555e-05,-6.542759055039291e-05,-2.3928295014267185e-05,3.9333,6.1333
1.0546875,-3.271552202136263e-05,-7.031208792645152e-05,-7.421752215182727e-05,-2.3438763438925767e-05,3.9333,6.1333
1.05859375,-3.662095624673839e-05,-6.689348068207829e-05,-8.056520506523233e-05,-2.3438763438925767e-05,3.9333,6.1333
1.0625,-3.662095624673839e-05,-7.324116359548332e-05,-7.812295637720303e-05,-2.783372923964294e-05,3.9333,6.1333
1.06640625,-3.515777070939193e-05,-5.859578525032426e-05,-5.46876464306096e-05,-2.588101212695506e-05,3.9333,6.1333
1.0703125,-3.7110487822079805e-05,-5.029538522423133e-05,-3.906320493476768e-05,-2.050968776989395e-05,3.9333,6.1333
1.07421875,-3.8576377953765166e-05,-5.566400498695354e-05,-4.19922806037995e-05,-1.9043797638208593e-05,3.9333,6.1333
1.078125,-4.394770231082628e-05,-5.273492931792172e-05,-5.810625367498284e-05,-1.855697065720607e-05,3.9333,6.1333
1.08203125,-4.590041942351415e-05,-5.517717800595102e-05,-6.200898330601968e-05,-2.5391480551613647e-05,3.9333,6.1333
1.0859375,-4.785313653620203e-05,-6.298534186236362e-05,-6.591712212573434e-05,-3.320505359670405e-05,3.9333,6.1333
1.08984375,-4.248181217914091e-05,-6.542759055039291e-05,-5.859578525032426e-05,-2.92969147769894e-05,3.9333,6.1333
1.09375,-3.760001939742123e-05,-6.152215632501717e-05,-4.882949509254597e-05,-2.6367839107957583e-05,3.9333,6.1333
1.09765625,-3.613412926573586e-05,-5.810625367498284e-05,-4.9805853648889906e-05,-3.0762804908674754e-05,3.9333,6.1333
1.1015625,-3.760001939742123e-05,-4.931632207354849e-05,-4.590041942351415e-05,-3.0762804908674754e-05,3.9333,6.1333
1.10546875,-4.19922806037995e-05,-4.19922806037995e-05,-3.7110487822079805e-05,-3.125233648401618e-05,3.9333,6.1333
1.109375,-4.248181217914091e-05,-2.3928295014267185e-05,-3.906320493476768e-05,-3.4181412153047995e-05,3.9333,6.1333
1.11328125,-4.296863916014344e-05,-3.320505359670405e-05,-5.029538522423133e-05,-3.515777070939193e-05,3.9333,6.1333
1.1171875,-4.296863916014344e-05,-5.615353656229496e-05,-4.6876777979858097e-05,-3.808684637842374e-05,3.9333,6.1333
1.12109375,-3.906320493476768e-05,-4.736360496086061e-05,-4.394770231082628e-05,-4.19922806037995e-05,3.9333,6.1333
1.125,-3.760001939742123e-05,-5.224810233691921e-05,-3.5644597690394444e-05,-3.906320493476768e-05,3.9333,6.1333
1.12890625,-3.613412926573586e-05,-3.027597792767224e-05,-2.881008779598688e-05,-3.125233648401618e-05,3.9333,6.1333
1.1328125,-3.125233648401618e-05,-1.0253866036774248e-05,-3.5644597690394444e-05,-3.0762804908674754e-05,3.9333,6.1333
1.13671875,-2.7344197664301516e-05,-1.0253866036774248e-05,-2.2949231863584342e-05,-3.125233648401618e-05,3.9333,6.1333
1.140625,-3.613412926573586e-05,-1.9043797638208593e-05,-1.8067439081864656e-05,-2.9786446352330818e-05,3.9333,6.1333
1.14453125,-3.808684637842374e-05,-2.7344197664301516e-05,-2.832055622064546e-05,-2.92969147769894e-05,3.9333,6.1333
1.1484375,-3.369188057770657e-05,-1.855697065720607e-05,-3.320505359670405e-05,-2.6857370683299e-05,3.9333,6.1333
1.15234375,-3.760001939742123e-05,-1.9043797638208593e-05,-2.4904653570611125e-05,-2.6857370683299e-05,3.9333,6.1333
1.15625,-3.8576377953765166e-05,-3.027597792767224e-05,-1.953332921355001e-05,-2.9786446352330818e-05,3.9333,6.1333
1.16015625,-4.0529095066453046e-05,-3.8576377953765166e-05,-3.8576377953765166e-05,-3.5644597690394444e-05,3.9333,6.1333
1.1640625,-4.0529095066453046e-05,-3.125233648401618e-05,-4.3458170735484856e-05,-3.369188057770657e-05,3.9333,6.1333
1.16796875,-4.0529095066453046e-05,-4.248181217914091e-05,-2.783372923964294e-05,-2.5391480551613647e-05,3.9333,6.1333
1.171875,-4.638724640451667e-05,-5.371128787426566e-05,-3.125233648401618e-05,-3.2228695040360115e-05,3.9333,6.1333
1.17578125,-4.785313653620203e-05,-3.8576377953765166e-05,-3.369188057770657e-05,-3.808684637842374e-05,3.9333,6.1333
1.1796875,-4.394770231082628e-05,-4.19922806037995e-05,-5.127174378057527e-05,-3.760001939742123e-05,3.9333,6.1333
1.18359375,-4.443452929182879e-05,-5.566400498695354e-05,-5.420081944960708e-05,-3.173916346501869e-05,3.9333,6.1333
1.1875,-4.492406086717022e-05,-4.638724640451667e-05,-2.2462404882581827e-05,-2.881008779598688e-05,3.9333,6.1333
1.19140625,-4.003956349111162e-05,-2.6367839107957583e-05,-1.758061210086214e-05,-3.271552202136263e-05,3.9333,6.1333
1.1953125,-4.3458170735484856e-05,-2.4415121995269707e-05,-2.1972873307240406e-05,-2.7344197664301516e-05,3.9333,6.1333
1.19921875,-4.1505453622796976e-05,-3.027597792767224e-05,-3.5644597690394444e-05,-2.5391480551613647e-05,3.9333,6.1333
1.203125,-3.613412926573586e-05,-3.2228695040360115e-05,-4.394770231082628e-05,-3.0762804908674754e-05,3.9333,6.1333
1.20703125,-4.0529095066453046e-05,-4.0529095066453046e-05,-3.7110487822079805e-05,-3.613412926573586e-05,3.9333,6.1333
1.2109375,-4.003956349111162e-05,-3.271552202136263e-05,-4.492406086717022e-05,-4.0529095066453046e-05,3.9333,6.1333
1.21484375,-3.515777070939193e-05,-2.1972873307240406e-05,-5.517717800595102e-05,-3.760001939742123e-05,3.9333,6.1333
1.21875,-3.027597792767224e-05,-1.318564630014496e-05,-5.46876464306096e-05,-3.466823913405051e-05,3.9333,6.1333
1.22265625,-3.369188057770657e-05,-4.395714698710612e-06,-5.420081944960708e-05,-3.613412926573586e-05,3.9333,6.1333
1.2265625,-3.8576377953765166e-05,-1.2696114724803542e-05,-3.173916346501869e-05,-3.369188057770657e-05,3.9333,6.1333
1.23046875,-3.7110487822079805e-05,-2.588101212695506e-05,-2.3438763438925767e-05,-2.7344197664301516e-05,3.9333,6.1333
1.234375,-3.5644597690394444e-05,-3.515777070939193e-05,-3.271552202136263e-05,-3.4181412153047995e-05,3.9333,6.1333
1.23828125,-3.027597792767224e-05,-3.369188057770657e-05,-4.101592204745556e-05,-3.466823913405051e-05,3.9333,6.1333
1.2421875,-3.7110487822079805e-05,-4.443452929182879e-05,-3.613412926573586e-05,-3.027597792767224e-05,3.9333,6.1333
1.24609375,-4.3458170735484856e-05,-5.664306813763638e-05,-1.1232929187457088e-05,-3.125233648401618e-05,3.9333,6.1333
1.25,-3.906320493476768e-05,-3.906320493476768e-05,-3.906183123369196e-06,-2.6857370683299e-05,3.9333,6.1333
1.25390625,-3.8576377953765166e-05,-3.0762804908674754e-05,-1.318564630014496e-05,-2.7344197664301516e-05,3.9333,6.1333
1.2578125,-3.4181412153047995e-05,-4.101592204745556e-05,-2.3438763438925767e-05,-2.9786446352330818e-05,3.9333,6.1333
1.26171875,-2.9786446352330818e-05,-3.613412926573586e-05,-2.2949231863584342e-05,-2.9786446352330818e-05,3.9333,6.1333
1.265625,-3.613412926573586e-05,-4.394770231082628e-05,-2.783372923964294e-05,-3.173916346501869e-05,3.9333,6.1333
1.26953125,-4.3458170735484856e-05,-5.078221220523384e-05,-2.7344197664301516e-05,-3.320505359670405e-05,3.9333,6.1333
1.2734375,-4.394770231082628e-05,-3.95527365101091e-05,-2.1972873307240406e-05,-3.320505359670405e-05,3.9333,6.1333
1.27734375,-4.5410887848172735e-05,-4.394770231082628e-05,-3.662095624673839e-05,-3.4181412153047995e-05,3.9333,6.1333
1.28125,-4.590041942351415e-05,-5.224810233691921e-05,-5.078221220523384e-05,-3.466823913405051e-05,3.9333,6.1333
1.28515625,-3.95527365101091e-05,-4.443452929182879e-05,-3.271552202136263e-05,-2.6857370683299e-05,3.9333,6.1333
1.2890625,-3.906320493476768e-05,-4.3458170735484856e-05,-1.1232929187457088e-05,-2.1972873307240406e-05,3.9333,6.1333
1.29296875,-4.003956349111162e-05,-5.078221220523384e-05,-3.466823913405051e-05,-2.832055622064546e-05,3.9333,6.1333
1.296875,-3.613412926573586e-05,-3.271552202136263e-05,-4.443452929182879e-05,-3.4181412153047995e-05,3.9333,6.1333
1.30078125,-4.1505453622796976e-05,-4.0529095066453046e-05,-3.466823913405051e-05,-3.320505359670405e-05,3.9333,6.1333
1.3046875,-4.5410887848172735e-05,-6.054579776867323e-05,-3.4181412153047995e-05,-3.271552202136263e-05,3.9333,6.1333
1.30859375,-4.101592204745556e-05,-4.882949509254597e-05,-2.6367839107957583e-05,-3.0762804908674754e-05,3.9333,6.1333
1.3125,-3.5644597690394444e-05,-4.443452929182879e-05,-1.4162004856488898e-05,-2.4415121995269707e-05,3.9333,6.1333
1.31640625,-3.027597792767224e-05,-5.371128787426566e-05,-3.369188057770657e-05,-2.5391480551613647e-05,3.9333,6.1333
1.3203125,-3.320505359670405e-05,-4.443452929182879e-05,-5.615353656229496e-05,-3.369188057770657e-05,3.9333,6.1333
1.32421875,-3.515777070939193e-05,-3.95527365101091e-05,-4.6876777979858097e-05,-3.5644597690394444e-05,3.9333,6.1333
1.328125,-3.515777070939193e-05,-4.19922806037995e-05,-2.6857370683299e-05,-3.271552202136263e-05,3.9333,6.1333
1.33203125,-3.8576377953765166e-05,-3.173916346501869e-05,-2.3438763438925767e-05,-3.4181412153047995e-05,3.9333,6.1333
1.3359375,-3.7110487822079805e-05,-3.2228695040360115e-05,-3.466823913405051e-05,-3.515777070939193e-05,3.9333,6.1333
1.33984375,-3.662095624673839e-05,-4.19922806037995e-05,-4.6876777979858097e-05,-3.320505359670405e-05,3.9333,6.1333
1.34375,-3.125233648401618e-05,-3.906320493476768e-05,-3.808684637842374e-05,-2.9786446352330818e-05,3.9333,6.1333
1.34765625,-3.369188057770657e-05,-4.394770231082628e-05,-2.3438763438925767e-05,-3.173916346501869e-05,3.9333,6.1333
1.3515625,-3.7110487822079805e-05,-4.248181217914091e-05,-1.8067439081864656e-05,-3.7110487822079805e-05,3.9333,6.1333
1.35546875,-3.0762804908674754e-05,-3.613412926573586e-05,-2.588101212695506e-05,-3.95527365101091e-05,3.9333,6.1333
1.359375,-2.6857370683299e-05,-3.027597792767224e-05,-3.5644597690394444e-05,-3.320505359670405e-05,3.9333,6.1333
1.36328125,-3.2228695040360115e-05,-2.4904653570611125e-05,-3.613412926573586e-05,-2.588101212695506e-05,3.9333,6.1333
1.3671875,-4.492406086717022e-05,-4.0529095066453046e-05,-3.515777070939193e-05,-3.320505359670405e-05,3.9333,6.1333
1.37109375,-4.6876777979858097e-05,-4.785313653620203e-05,-3.515777070939193e-05,-3.760001939742123e-05,3.9333,6.1333
1.375,-4.248181217914091e-05,-4.590041942351415e-05,-4.101592204745556e-05,-3.4181412153047995e-05,3.9333,6.1333
1.37890625,-4.1505453622796976e-05,-4.785313653620203e-05,-3.8576377953765166e-05,-3.4181412153047995e-05,3.9333,6.1333
1.3828125,-4.1505453622796976e-05,-3.760001939742123e-05,-3.173916346501869e-05,-3.320505359670405e-05,3.9333,6.1333
1.38671875,-3.8576377953765166e-05,-2.7344197664301516e-05,-2.588101212695506e-05,-3.5644597690394444e-05,3.9333,6.1333
1.390625,-4.003956349111162e-05,-3.662095624673839e-05,-3.369188057770657e-05,-3.95527365101091e-05,3.9333,6.1333
1.39453125,-4.1505453622796976e-05,-4.590041942351415e-05,-3.271552202136263e-05,-4.3458170735484856e-05,3.9333,6.1333
1.3984375,-3.808684637842374e-05,-4.003956349111162e-05,-4.1505453622796976e-05,-4.296863916014344e-05,3.9333,6.1333
1.40234375,-2.92969147769894e-05,-3.662095624673839e-05,-5.127174378057527e-05,-3.760001939742123e-05,3.9333,6.1333
1.40625,-2.4415121995269707e-05,-3.515777070939193e-05,-4.003956349111162e-05,-3.2228695040360115e-05,3.9333,6.1333
1.41015625,-2.4415121995269707e-05,-2.881008779598688e-05,-3.271552202136263e-05,-3.662095624673839e-05,3.9333,6.1333
1.4140625,-2.4904653570611125e-05,-3.95527365101091e-05,-3.906320493476768e-05,-3.662095624673839e-05,3.9333,6.1333
1.41796875,-3.0762804908674754e-05,-3.95527365101091e-05,-4.296863916014344e-05,-3.027597792767224e-05,3.9333,6.1333
1.421875,-3.173916346501869e-05,-3.662095624673839e-05,-4.492406086717022e-05,-2.7344197664301516e-05,3.9333,6.1333
1.42578125,-3.0762804908674754e-05,-4.296863916014344e-05,-4.833996351720455e-05,-2.9786446352330818e-05,3.9333,6.1333
1.4296875,-3.320505359670405e-05,-3.95527365101091e-05,-3.271552202136263e-05,-3.613412926573586e-05,3.9333,6.1333
1.43359375,-3.466823913405051e-05,-3.5644597690394444e-05,-2.832055622064546e-05,-3.95527365101091e-05,3.9333,6.1333
1.4375,-3.027597792767224e-05,-4.101592204745556e-05,-3.808684637842374e-05,-3.5644597690394444e-05,3.9333,6.1333
1.44140625,-2.3928295014267185e-05,-4.443452929182879e-05,-4.1505453622796976e-05,-3.369188057770657e-05,3.9333,6.1333
1.4453125,-2.1972873307240406e-05,-3.271552202136263e-05,-3.95527365101091e-05,-3.466823913405051e-05,3.9333,6.1333
1.44921875,-2.050968776989395e-05,-2.881008779598688e-05,-2.588101212695506e-05,-2.832055622064546e-05,3.9333,6.1333
1.453125,-2.4415121995269707e-05,-4.1505453622796976e-05,-2.2949231863584342e-05,-2.881008779598688e-05,3.9333,6.1333
1.45703125,-3.2228695040360115e-05,-4.638724640451667e-05,-3.760001939742123e-05,-3.271552202136263e-05,3.9333,6.1333
1.4609375,-3.027597792767224e-05,-3.808684637842374e-05,-4.19922806037995e-05,-3.173916346501869e-05,3.9333,6.1333
1.46484375,-2.3928295014267185e-05,-3.320505359670405e-05,-4.0529095066453046e-05,-3.320505359670405e-05,3.9333,6.1333
1.46875,-2.92969147769894e-05,-4.882949509254597e-05,-3.2228695040360115e-05,-3.613412926573586e-05,3.9333,6.1333
1.47265625,-3.4181412153047995e-05,-4.492406086717022e-05,-2.0996514750896473e-05,-3.320505359670405e-05,3.9333,6.1333
1.4765625,-3.515777070939193e-05,-5.127174378057527e-05,-3.95527365101091e-05,-3.0762804908674754e-05,3.9333,6.1333
1.48046875,-4.492406086717022e-05,-4.3458170735484856e-05,-3.271552202136263e-05,-2.3438763438925767e-05,3.9333,6.1333
1.484375,-4.1505453622796976e-05,-2.0996514750896473e-05,-7.32479036774243e-06,-2.1972873307240406e-05,3.9333,6.1333
1.48828125,-3.320505359670405e-05,-4.101592204745556e-05,-3.125233648401618e-05,-2.5391480551613647e-05,3.9333,6.1333
1.4921875,-3.173916346501869e-05,-6.445123199404898e-05,-6.005626619333181e-05,-3.515777070939193e-05,3.9333,6.1333
1.49609375,-2.9786446352330818e-05,-6.005626619333181e-05,-5.7129895118638894e-05,-4.3458170735484856e-05,3.9333,6.1333
1.5,-3.808684637842374e-05,-4.492406086717022e-05,-4.785313653620203e-05,-3.4181412153047995e-05,3.9333,6.1333
1.50390625,-4.6876777979858097e-05,-6.494076356939041e-05,-4.492406086717022e-05,-3.027597792767224e-05,3.9333,6.1333
1.5078125,-4.19922806037995e-05,-7.421752215182727e-05,-4.19922806037995e-05,-2.9786446352330818e-05,3.9333,6.1333
1.51171875,-3.662095624673839e-05,-4.248181217914091e-05,-3.7110487822079805e-05,-2.6857370683299e-05,3.9333,6.1333
1.515625,-3.906320493476768e-05,-5.273492931792172e-05,-3.5644597690394444e-05,-2.7344197664301516e-05,3.9333,6.1333
1.51953125,-3.5644597690394444e-05,-7.226480503913941e-05,-4.19922806037995e-05,-2.7344197664301516e-05,3.9333,6.1333
1.5234375,-3.125233648401618e-05,-5.810625367498284e-05,-4.833996351720455e-05,-2.4415121995269707e-05,3.9333,6.1333
1.52734375,-3.7110487822079805e-05,-6.054579776867323e-05,-3.95527365101091e-05,-3.027597792767224e-05,3.9333,6.1333
1.53125,-3.369188057770657e-05,-4.9805853648889906e-05,-3.271552202136263e-05,-3.466823913405051e-05,3.9333,6.1333
1.53515625,-2.92969147769894e-05,-3.906320493476768e-05,-4.394770231082628e-05,-3.0762804908674754e-05,3.9333,6.1333
1.5390625,-3.8576377953765166e-05,-4.590041942351415e-05,-6.249851488136111e-05,-2.6857370683299e-05,3.9333,6.1333
1.54296875,-3.808684637842374e-05,-5.078221220523384e-05,-6.249851488136111e-05,-2.783372923964294e-05,3.9333,6.1333
1.546875,-4.003956349111162e-05,-6.152215632501717e-05,-5.273492931792172e-05,-3.613412926573586e-05,3.9333,6.1333
1.55078125,-4.296863916014344e-05,-4.882949509254597e-05,-4.394770231082628e-05,-3.7110487822079805e-05,3.9333,6.1333
1.5546875,-3.5644597690394444e-05,-4.590041942351415e-05,-4.785313653620203e-05,-3.027597792767224e-05,3.9333,6.1333
1.55859375,-3.613412926573586e-05,-4.492406086717022e-05,-4.736360496086061e-05,-2.9786446352330818e-05,3.9333,6.1333
1.5625,-4.394770231082628e-05,-3.808684637842374e-05,-4.492406086717022e-05,-2.783372923964294e-05,3.9333,6.1333
1.56640625,-4.101592204745556e-05,-4.5410887848172735e-05,-3.027597792767224e-05,-2.3928295014267185e-05,3.9333,6.1333
1.5703125,-3.808684637842374e-05,-3.906320493476768e-05,-1.562519039383536e-05,-2.4415121995269707e-05,3.9333,6.1333
1.57421875,-4.394770231082628e-05,-4.638724640451667e-05,-3.760001939742123e-05,-3.320505359670405e-05,3.9333,6.1333
1.578125,-3.808684637842374e-05,-4.3458170735484856e-05,-5.127174378057527e-05,-4.443452929182879e-05,3.9333,6.1333
1.58203125,-3.125233648401618e-05,-4.590041942351415e-05,-4.785313653620203e-05,-4.0529095066453046e-05,3.9333,6.1333
1.5859375,-3.0762804908674754e-05,-5.224810233691921e-05,-3.5644597690394444e-05,-3.808684637842374e-05,3.9333,6.1333
1.58984375,-3.515777070939193e-05,-3.271552202136263e-05,-2.783372923964294e-05,-3.662095624673839e-05,3.9333,6.1333
1.59375,-4.0529095066453046e-05,-3.125233648401618e-05,-2.7344197664301516e-05,-3.125233648401618e-05,3.9333,6.1333
1.59765625,-4.101592204745556e-05,-3.5644597690394444e-05,-4.3458170735484856e-05,-3.4181412153047995e-05,3.9333,6.1333
1.6015625,-3.95527365101091e-05,-4.5410887848172735e-05,-5.615353656229496e-05,-3.5644597690394444e-05,3.9333,6.1333
1.60546875,-2.832055622064546e-05,-4.590041942351415e-05,-5.127174378057527e-05,-3.125233648401618e-05,3.9333,6.1333
1.609375,-2.4415121995269707e-05,-4.394770231082628e-05,-4.931632207354849e-05,-2.783372923964294e-05,3.9333,6.1333
1.61328125,-3.0762804908674754e-05,-4.833996351720455e-05,-3.027597792767224e-05,-2.148604632623789e-05,3.9333,6.1333
1.6171875,-2.6857370683299e-05,-3.808684637842374e-05,-1.5138363412832838e-05,-2.4415121995269707e-05,3.9333,6.1333
1.62109375,-2.832055622064546e-05,-5.273492931792172e-05,-2.9786446352330818e-05,-2.832055622064546e-05,3.9333,6.1333
1.625,-3.0762804908674754e-05,-4.394770231082628e-05,-4.3458170735484856e-05,-1.9043797638208593e-05,3.9333,6.1333
1.62890625,-3.271552202136263e-05,-3.320505359670405e-05,-4.394770231082628e-05,-1.855697065720607e-05,3.9333,6.1333
1.6328125,-3.369188057770657e-05,-7.128844648279546e-05,-5.7129895118638894e-05,-2.6367839107957583e-05,3.9333,6.1333
1.63671875,-2.5391480551613647e-05,-8.202839060257877e-05,-6.933302477576867e-05,-2.7344197664301516e-05,3.9333,6.1333
1.640625,-2.4415121995269707e-05,-7.421752215182727e-05,-8.447063929060808e-05,-2.881008779598688e-05,3.9333,6.1333
1.64453125,-2.3928295014267185e-05,-8.886560509132524e-05,-8.544699784695201e-05,-3.0762804908674754e-05,3.9333,6.1333
1.6484375,-2.783372923964294e-05,-0.00010156097091813534,-7.226480503913941e-05,-2.4904653570611125e-05,3.9333,6.1333
1.65234375,-3.808684637842374e-05,-0.00010156097091813534,-7.617023926451514e-05,-1.7091080525520716e-05,3.9333,6.1333
1.65625,-3.906320493476768e-05,-0.00011327997818860151,-0.0001054664051435111,-1.464883183749142e-05,3.9333,6.1333
1.66015625,-3.0762804908674754e-05,-0.00012890441968444345,-0.00012304626834637979,-1.7091080525520716e-05,3.9333,6.1333
1.6640625,-2.588101212695506e-05,-0.00012109084663935302,-0.00011181408805691615,-1.3672473281147482e-05,3.9333,6.1333
1.66796875,-3.027597792767224e-05,-0.00014013389537956817,-0.00011962766110200656,-1.2209287743801027e-05,3.9333,6.1333
1.671875,-3.320505359670405e-05,-0.00014208931708659496,-0.00012353309532738232,-1.1719756168459604e-05,3.9333,6.1333
1.67578125,-2.881008779598688e-05,-0.0001181617709703212,-0.00011523269530128939,-1.6114721969176776e-05,3.9333,6.1333
1.6796875,-3.125233648401618e-05,-0.00013427574404150454,-0.00013134666837247272,-2.0020156194552533e-05,3.9333,6.1333
1.68359375,-4.1505453622796976e-05,-0.00014452886118028536,-0.00012206720519569696,-8.790680499427786e-06,3.9333,6.1333
1.6875,-4.492406086717022e-05,-0.00012353309532738232,-9.76555366927596e-05,-8.30114892408637e-06,3.9333,6.1333
1.69140625,-3.7110487822079805e-05,-0.00010693229527519646,-9.423692944838638e-05,-1.4162004856488898e-05,3.9333,6.1333
1.6953125,-2.832055622064546e-05,-9.911872223010605e-05,-9.76555366927596e-05,-1.660154895017929e-05,3.9333,6.1333
1.69921875,-2.7344197664301516e-05,-9.618964656107424e-05,-9.2771039316701e-05,-2.148604632623789e-05,3.9333,6.1333
1.703125,-3.662095624673839e-05,-9.374739787304494e-05,-9.423692944838638e-05,-2.0020156194552533e-05,3.9333,6.1333
1.70703125,-4.296863916014344e-05,-0.00010351368803082323,-9.130785377935456e-05,-2.4904653570611125e-05,3.9333,6.1333
1.7109375,-3.8576377953765166e-05,-0.0001049795781625086,-8.447063929060808e-05,-2.6857370683299e-05,3.9333,6.1333
1.71484375,-3.5644597690394444e-05,-7.763612939620051e-05,-7.421752215182727e-05,-2.6367839107957583e-05,3.9333,6.1333
1.71875,-3.4181412153047995e-05,-6.152215632501717e-05,-6.1032624749675754e-05,-3.320505359670405e-05,3.9333,6.1333
1.72265625,-3.662095624673839e-05,-7.372799057648585e-05,-7.177527346379798e-05,-3.2228695040360115e-05,3.9333,6.1333
1.7265625,-3.95527365101091e-05,-7.909931493354696e-05,-6.396440501304647e-05,-3.173916346501869e-05,3.9333,6.1333
1.73046875,-4.248181217914091e-05,-6.835666621942474e-05,-4.003956349111162e-05,-3.125233648401618e-05,3.9333,6.1333
1.734375,-5.371128787426566e-05,-6.005626619333181e-05,-2.832055622064546e-05,-2.1972873307240406e-05,3.9333,6.1333
1.73828125,-5.95721438066682e-05,-5.615353656229496e-05,-4.248181217914091e-05,-2.3928295014267185e-05,3.9333,6.1333
1.7421875,-5.420081944960708e-05,-5.46876464306096e-05,-4.5410887848172735e-05,-2.92969147769894e-05,3.9333,6.1333
1.74609375,-4.833996351720455e-05,-4.248181217914091e-05,-3.0762804908674754e-05,-3.466823913405051e-05,3.9333,6.1333
1.75,-4.248181217914091e-05,-3.95527365101091e-05,-2.3928295014267185e-05,-3.4181412153047995e-05,3.9333,6.1333
1.75390625,-3.760001939742123e-05,-2.881008779598688e-05,-1.855697065720607e-05,-3.320505359670405e-05,3.9333,6.1333
1.7578125,-4.101592204745556e-05,-3.369188057770657e-05,-2.6367839107957583e-05,-3.466823913405051e-05,3.9333,6.1333
1.76171875,-4.3458170735484856e-05,-2.2462404882581827e-05,-1.9043797638208593e-05,-3.466823913405051e-05,3.9333,6.1333
1.765625,-4.638724640451667e-05,-9.767039055771726e-06,-1.8067439081864656e-05,-3.8576377953765166e-05,3.9333,6.1333
1.76953125,-4.492406086717022e-05,-2.4904653570611125e-05,-3.125233648401618e-05,-4.003956349111162e-05,3.9333,6.1333
1.7734375,-4.003956349111162e-05,-3.173916346501869e-05,-1.855697065720607e-05,-3.7110487822079805e-05,3.9333,6.1333
1.77734375,-4.296863916014344e-05,-2.2462404882581827e-05,-1.1232929187457088e-05,-3.4181412153047995e-05,3.9333,6.1333
1.78125,-4.3458170735484856e-05,-2.2949231863584342e-05,-1.758061210086214e-05,-3.271552202136263e-05,3.9333,6.1333
1.78515625,-4.248181217914091e-05,-3.369188057770657e-05,-5.372073255054552e-06,-3.369188057770657e-05,3.9333,6.1333
1.7890625,-4.6876777979858097e-05,-2.4415121995269707e-05,-2.4429975860227344e-06,-3.5644597690394444e-05,3.9333,6.1333
1.79296875,-4.785313653620203e-05,-2.148604632623789e-05,-1.953332921355001e-05,-3.5644597690394444e-05,3.9333,6.1333
1.796875,-4.1505453622796976e-05,-3.0762804908674754e-05,-2.6857370683299e-05,-3.271552202136263e-05,3.9333,6.1333
1.80078125,-3.808684637842374e-05,-2.881008779598688e-05,-1.0743397612115664e-05,-3.7110487822079805e-05,3.9333,6.1333
1.8046875,-3.808684637842374e-05,-1.2209287743801027e-05,-5.861604830395976e-06,-3.95527365101091e-05,3.9333,6.1333
1.80859375,-3.760001939742123e-05,-1.855697065720607e-05,-1.8067439081864656e-05,-4.0529095066453046e-05,3.9333,6.1333
1.8125,-3.760001939742123e-05,-3.2228695040360115e-05,-1.464883183749142e-05,-4.492406086717022e-05,3.9333,6.1333
1.81640625,-3.906320493476768e-05,-2.3928295014267185e-05,-1.464883183749142e-05,-4.443452929182879e-05,3.9333,6.1333
1.8203125,-3.906320493476768e-05,-1.4162004856488898e-05,-2.2462404882581827e-05,-3.906320493476768e-05,3.9333,6.1333
1.82421875,-3.808684637842374e-05,-9.767039055771726e-06,-1.660154895017929e-05,-3.4181412153047995e-05,3.9333,6.1333
1.828125,-3.95527365101091e-05,-4.395714698710612e-06,-4.395714698710612e-06,-3.027597792767224e-05,3.9333,6.1333
1.83203125,-4.003956349111162e-05,-8.30114892408637e-06,-1.1232929187457088e-05,-3.613412926573586e-05,3.9333,6.1333
1.8359375,-3.906320493476768e-05,-2.881008779598688e-05,-2.1972873307240406e-05,-4.3458170735484856e-05,3.9333,6.1333
1.83984375,-3.906320493476768e-05,-3.466823913405051e-05,-3.173916346501869e-05,-4.19922806037995e-05,3.9333,6.1333
1.84375,-4.492406086717022e-05,-3.369188057770657e-05,-2.5391480551613647e-05,-4.19922806037995e-05,3.9333,6.1333
1.84765625,-4.882949509254597e-05,-2.881008779598688e-05,-1.0743397612115664e-05,-4.5410887848172735e-05,3.9333,6.1333
1.8515625,-4.19922806037995e-05,-1.3672473281147482e-05,-5.372073255054552e-06,-4.248181217914091e-05,3.9333,6.1333
1.85546875,-4.296863916014344e-05,-1.7091080525520716e-05,-2.929824567025257e-06,-3.515777070939193e-05,3.9333,6.1333
1.859375,-4.6876777979858097e-05,-1.3672473281147482e-05,-9.767039055771726e-06,-3.760001939742123e-05,3.9333,6.1333
1.86328125,-3.906320493476768e-05,-1.5138363412832838e-05,-1.758061210086214e-05,-4.5410887848172735e-05,3.9333,6.1333
1.8671875,-4.101592204745556e-05,-2.4904653570611125e-05,-1.1719756168459604e-05,-4.492406086717022e-05,3.9333,6.1333
1.87109375,-4.931632207354849e-05,-2.4904653570611125e-05,7.810119552758067e-06,-4.1505453622796976e-05,3.9333,6.1333
1.875,-4.882949509254597e-05,-3.613412926573586e-05,5.857402440070188e-06,-3.8576377953765166e-05,3.9333,6.1333
1.87890625,-4.882949509254597e-05,-3.173916346501869e-05,-2.148604632623789e-05,-3.5644597690394444e-05,3.9333,6.1333
1.8828125,-4.882949509254597e-05,-3.2228695040360115e-05,-2.5391480551613647e-05,-3.320505359670405e-05,3.9333,6.1333
1.88671875,-4.3458170735484856e-05,-2.7344197664301516e-05,-7.32479036774243e-06,-2.92969147769894e-05,3.9333,6.1333
1.890625,-3.760001939742123e-05,-2.148604632623789e-05,-7.814321943083847e-06,-2.783372923964294e-05,3.9333,6.1333
1.89453125,-3.027597792767224e-05,-1.0743397612115664e-05,-1.318564630014496e-05,-2.588101212695506e-05,3.9333,6.1333
1.8984375,-3.0762804908674754e-05,-4.395714698710612e-06,-3.760001939742123e-05,-3.0762804908674754e-05,3.9333,6.1333
1.90234375,-3.173916346501869e-05,-3.906183123369196e-06,-3.662095624673839e-05,-3.369188057770657e-05,3.9333,6.1333
1.90625,-3.173916346501869e-05,-1.9534660106813175e-06,-2.4415121995269707e-05,-2.588101212695506e-05,3.9333,6.1333
1.91015625,-3.808684637842374e-05,-2.050968776989395e-05,-2.4415121995269707e-05,-2.3928295014267185e-05,3.9333,6.1333
1.9140625,-3.8576377953765166e-05,-3.95527365101091e-05,-1.1232929187457088e-05,-2.0996514750896473e-05,3.9333,6.1333
1.91796875,-3.8576377953765166e-05,-5.517717800595102e-05,-2.588101212695506e-05,-1.953332921355001e-05,3.9333,6.1333
1.921875,-3.95527365101091e-05,-4.785313653620203e-05,-3.808684637842374e-05,-1.953332921355001e-05,3.9333,6.1333
1.92578125,-3.466823913405051e-05,-4.931632207354849e-05,-2.588101212695506e-05,-1.855697065720607e-05,3.9333,6.1333
1.9296875,-3.760001939742123e-05,-5.273492931792172e-05,-2.148604632623789e-05,-1.660154895017929e-05,3.9333,6.1333
1.93359375,-4.1505453622796976e-05,-6.200898330601968e-05,-3.906320493476768e-05,-1.562519039383536e-05,3.9333,6.1333
1.9375,-3.906320493476768e-05,-6.982255635111009e-05,-5.810625367498284e-05,-8.30114892408637e-06,3.9333,6.1333
1.94140625,-3.95527365101091e-05,-7.714659782085908e-05,-6.640394910673685e-05,-6.837963386739915e-06,3.9333,6.1333
1.9453125,-4.101592204745556e-05,-8.00756734898909e-05,-6.933302477576867e-05,-1.660154895017929e-05,3.9333,6.1333
1.94921875,-3.808684637842374e-05,-9.081832220401313e-05,-6.249851488136111e-05,-1.2696114724803542e-05,3.9333,6.1333
1.953125,-3.466823913405051e-05,-0.00012402262690272374,-7.128844648279546e-05,-1.3672473281147482e-05,3.9333,6.1333
1.95703125,-3.027597792767224e-05,-0.00012939395125978484,-8.886560509132524e-05,-1.7091080525520716e-05,3.9333,6.1333
1.9609375,-2.92969147769894e-05,-0.00011132726107591364,-9.814236367376211e-05,-1.3672473281147482e-05,3.9333,6.1333
1.96484375,-2.92969147769894e-05,-0.00010937454396322575,-8.886560509132524e-05,-1.1232929187457088e-05,3.9333,6.1333
1.96875,-2.5391480551613647e-05,-0.0001049795781625086,-9.326057089204243e-05,-1.8067439081864656e-05,3.9333,6.1333
1.97265625,-2.9786446352330818e-05,-0.00011620905385763333,-9.716600511741818e-05,-1.7091080525520716e-05,3.9333,6.1333
1.9765625,-4.0529095066453046e-05,-0.0001479474684246586,-0.00012060401965835051,-1.5138363412832838e-05,3.9333,6.1333
1.98046875,-3.808684637842374e-05,-0.00014843700000000002,-0.00011718541241397727,-1.562519039383536e-05,3.9333,6.1333
1.984375,-3.173916346501869e-05,-0.00012695170257175556,-8.544699784695201e-05,-1.3672473281147482e-05,3.9333,6.1333
1.98828125,-3.515777070939193e-05,-0.00012109084663935302,-9.863189524910353e-05,-2.2949231863584342e-05,3.9333,6.1333
1.9921875,-4.19922806037995e-05,-0.00012695170257175556,-9.911872223010605e-05,-1.758061210086214e-05,3.9333,6.1333
1.99609375,-4.394770231082628e-05,-0.00012939395125978484,-9.521328800473029e-05,-1.2696114724803542e-05,3.9333,6.1333
2.0,-4.443452929182879e-05,-0.00013671799272953384,-0.00012206720519569696,-1.6114721969176776e-05,3.9333,6.1333
2.00390625,-4.590041942351415e-05,-0.00012890441968444345,-0.00012011448808300909,-1.758061210086214e-05,3.9333,6.1333
2.0078125,-4.833996351720455e-05,-0.00010790865383154041,-8.691288797863737e-05,-2.2949231863584342e-05,3.9333,6.1333
2.01171875,-5.1758570761577786e-05,-0.00011669858543297475,-8.300745375326161e-05,-2.0996514750896473e-05,3.9333,6.1333
2.015625,-5.078221220523384e-05,-0.00011425633674494546,-8.984196364766918e-05,-2.050968776989395e-05,3.9333,6.1333
2.01953125,-4.443452929182879e-05,-0.00010204779789913787,-8.202839060257877e-05,-2.881008779598688e-05,3.9333,6.1333
2.0234375,-4.492406086717022e-05,-8.886560509132524e-05,-8.49601708659495e-05,-2.1972873307240406e-05,3.9333,6.1333
2.02734375,-4.590041942351415e-05,-7.519388070817121e-05,-8.642335640329595e-05,-1.953332921355001e-05,3.9333,6.1333
2.03125,-4.492406086717022e-05,-7.470434913282979e-05,-7.617023926451514e-05,-2.783372923964294e-05,3.9333,6.1333
2.03515625,-4.5410887848172735e-05,-7.958884650888839e-05,-7.031208792645152e-05,-2.0020156194552533e-05,3.9333,6.1333
2.0390625,-5.029538522423133e-05,-6.835666621942474e-05,-5.7129895118638894e-05,-2.783372923964294e-05,3.9333,6.1333
2.04296875,-4.736360496086061e-05,-4.1505453622796976e-05,-4.443452929182879e-05,-4.5410887848172735e-05,3.9333,6.1333
2.046875,-4.296863916014344e-05,-3.369188057770657e-05,-3.5644597690394444e-05,-4.003956349111162e-05,3.9333,6.1333
2.05078125,-4.003956349111162e-05,-3.369188057770657e-05,-2.7344197664301516e-05,-3.271552202136263e-05,3.9333,6.1333
2.0546875,-3.2228695040360115e-05,-2.3928295014267185e-05,-1.0253866036774248e-05,-3.0762804908674754e-05,3.9333,6.1333
2.05859375,-3.369188057770657e-05,-2.1972873307240406e-05,-2.050968776989395e-05,-3.662095624673839e-05,3.9333,6.1333
2.0625,-3.4181412153047995e-05,-2.832055622064546e-05,-3.0762804908674754e-05,-3.7110487822079805e-05,3.9333,6.1333
2.06640625,-3.271552202136263e-05,-1.953332921355001e-05,-8.30114892408637e-06,-3.173916346501869e-05,3.9333,6.1333
2.0703125,-3.271552202136263e-05,9.756096583504998e-07,1.4624366393530152e-06,-3.7110487822079805e-05,3.9333,6.1333
2.07421875,-3.027597792767224e-05,3.90468532738231e-06,-4.395714698710612e-06,-4.3458170735484856e-05,3.9333,6.1333
2.078125,-3.173916346501869e-05,3.90468532738231e-06,1.4624366393530152e-06,-4.590041942351415e-05,3.9333,6.1333
2.08203125,-3.5644597690394444e-05,4.394216902723741e-06,1.7089582729533828e-05,-4.296863916014344e-05,3.9333,6.1333
2.0859375,-3.320505359670405e-05,9.765541259784853e-06,1.0741899816128778e-05,-4.1505453622796976e-05,3.9333,6.1333
2.08984375,-2.832055622064546e-05,8.786478109102005e-06,5.370575459067666e-06,-4.736360496086061e-05,3.9333,6.1333
2.09375,-3.125233648401618e-05,1.1228726797131301e-05,1.2694616928816657e-05,-4.6876777979858097e-05,3.9333,6.1333
2.09765625,-4.101592204745556e-05,1.220508535347524e-05,9.276009684443423e-06,-4.443452929182879e-05,3.9333,6.1333
2.1015625,-3.906320493476768e-05,1.2694616928816657e-05,5.370575459067666e-06,-4.394770231082628e-05,3.9333,6.1333
2.10546875,-3.369188057770657e-05,2.2947734067597465e-05,8.786478109102005e-06,-4.248181217914091e-05,3.9333,6.1333
2.109375,-3.027597792767224e-05,2.2460907086594942e-05,1.7576409710536354e-05,-4.296863916014344e-05,3.9333,6.1333
2.11328125,-2.7344197664301516e-05,1.9042299842221708e-05,2.1971375511253525e-05,-4.19922806037995e-05,3.9333,6.1333
2.1171875,-2.588101212695506e-05,5.857402440070188e-06,3.4178583463797946e-06,-4.443452929182879e-05,3.9333,6.1333
2.12109375,-2.7344197664301516e-05,-1.9534660106813175e-06,-1.464883183749142e-05,-5.127174378057527e-05,3.9333,6.1333
2.125,-2.832055622064546e-05,-4.902804733348631e-07,4.860780830090761e-07,-5.615353656229496e-05,3.9333,6.1333
2.12890625,-2.92969147769894e-05,9.756096583504998e-07,2.1971375511253525e-05,-5.078221220523384e-05,3.9333,6.1333
2.1328125,-3.027597792767224e-05,-4.902804733348631e-07,1.2694616928816657e-05,-4.3458170735484856e-05,3.9333,6.1333
2.13671875,-3.320505359670405e-05,1.951968214694439e-06,7.323292571755544e-06,-4.443452929182879e-05,3.9333,6.1333
2.140625,-3.125233648401618e-05,1.6600051154192414e-05,1.6113224173189892e-05,-4.003956349111162e-05,3.9333,6.1333
2.14453125,-2.6857370683299e-05,2.538998275562676e-05,1.6600051154192414e-05,-3.320505359670405e-05,3.9333,6.1333
2.1484375,-3.0762804908674754e-05,1.318144390981918e-05,9.765541259784853e-06,-3.613412926573586e-05,3.9333,6.1333
2.15234375,-3.4181412153047995e-05,-8.30114892408637e-06,7.323292571755544e-06,-4.101592204745556e-05,3.9333,6.1333
2.15625,-3.2228695040360115e-05,-1.660154895017929e-05,4.860780830090761e-07,-4.296863916014344e-05,3.9333,6.1333
2.16015625,-3.2228695040360115e-05,-6.837963386739915e-06,-5.861604830395976e-06,-4.590041942351415e-05,3.9333,6.1333
2.1640625,-3.4181412153047995e-05,-4.902804733348631e-07,-2.4429975860227344e-06,-4.6876777979858097e-05,3.9333,6.1333
2.16796875,-2.881008779598688e-05,5.370575459067666e-06,7.323292571755544e-06,-4.296863916014344e-05,3.9333,6.1333
2.171875,-2.6367839107957583e-05,1.4624366393530152e-06,2.0018658398565648e-05,-4.1505453622796976e-05,3.9333,6.1333
2.17578125,-3.173916346501869e-05,6.833760996414128e-06,1.220508535347524e-05,-3.8576377953765166e-05,3.9333,6.1333
2.1796875,-3.125233648401618e-05,1.1718258372472718e-05,5.370575459067666e-06,-4.1505453622796976e-05,3.9333,6.1333
2.18359375,-2.6367839107957583e-05,8.299651128099483e-06,-4.902804733348631e-07,-4.101592204745556e-05,3.9333,6.1333
2.1875,-2.2462404882581827e-05,-5.372073255054552e-06,7.323292571755544e-06,-3.760001939742123e-05,3.9333,6.1333
2.19140625,-2.6367839107957583e-05,-8.30114892408637e-06,2.1971375511253525e-05,-3.271552202136263e-05,3.9333,6.1333
2.1953125,-2.6857370683299e-05,6.346934015411605e-06,1.0252368240787361e-05,-3.027597792767224e-05,3.9333,6.1333
2.19921875,-2.6857370683299e-05,1.951968214694439e-06,1.3670975485160596e-05,-3.2228695040360115e-05,3.9333,6.1333
2.203125,-3.5644597690394444e-05,1.4624366393530152e-06,1.1718258372472718e-05,-3.173916346501869e-05,3.9333,6.1333
2.20703125,-3.4181412153047995e-05,-9.771074543373786e-07,6.346934015411605e-06,-3.662095624673839e-05,3.9333,6.1333
2.2109375,-3.271552202136263e-05,-2.5391480551613647e-05,9.756096583504998e-07,-3.95527365101091e-05,3.9333,6.1333
2.21484375,-3.369188057770657e-05,-2.4415121995269707e-05,-2.6857370683299e-05,-4.3458170735484856e-05,3.9333,6.1333
2.21875,-3.173916346501869e-05,-4.395714698710612e-06,-2.3438763438925767e-05,-4.0529095066453046e-05,3.9333,6.1333
2.22265625,-2.92969147769894e-05,-7.32479036774243e-06,-8.30114892408637e-06,-3.2228695040360115e-05,3.9333,6.1333
2.2265625,-2.6857370683299e-05,-2.1972873307240406e-05,-8.790680499427786e-06,-3.0762804908674754e-05,3.9333,6.1333
2.23046875,-3.125233648401618e-05,-2.050968776989395e-05,-5.372073255054552e-06,-3.515777070939193e-05,3.9333,6.1333
2.234375,-3.173916346501869e-05,-1.9043797638208593e-05,-6.837963386739915e-06,-3.8576377953765166e-05,3.9333,6.1333
2.23828125,-3.173916346501869e-05,-1.758061210086214e-05,-3.466823913405051e-05,-4.1505453622796976e-05,3.9333,6.1333
2.2421875,-3.125233648401618e-05,-2.2462404882581827e-05,-5.371128787426566e-05,-4.0529095066453046e-05,3.9333,6.1333
2.24609375,-3.0762804908674754e-05,-2.5391480551613647e-05,-3.613412926573586e-05,-4.101592204745556e-05,3.9333,6.1333
2.25,-3.271552202136263e-05,-1.2696114724803542e-05,-2.148604632623789e-05,-4.3458170735484856e-05,3.9333,6.1333
2.25390625,-3.466823913405051e-05,-2.7344197664301516e-05,-3.4181412153047995e-05,-3.95527365101091e-05,3.9333,6.1333
2.2578125,-3.662095624673839e-05,-2.881008779598688e-05,-3.173916346501869e-05,-3.7110487822079805e-05,3.9333,6.1333
2.26171875,-3.760001939742123e-05,-2.5391480551613647e-05,-2.9786446352330818e-05,-4.492406086717022e-05,3.9333,6.1333
2.265625,-3.5644597690394444e-05,-3.662095624673839e-05,-2.3438763438925767e-05,-4.296863916014344e-05,3.9333,6.1333
2.26953125,-3.125233648401618e-05,-1.6114721969176776e-05,-5.372073255054552e-06,-3.613412926573586e-05,3.9333,6.1333
2.2734375,-2.783372923964294e-05,-1.562519039383536e-05,-1.2696114724803542e-05,-3.466823913405051e-05,3.9333,6.1333
2.27734375,-2.7344197664301516e-05,-2.1972873307240406e-05,-1.660154895017929e-05,-3.369188057770657e-05,3.9333,6.1333
2.28125,-2.7344197664301516e-05,-2.4415121995269707e-05,-1.660154895017929e-05,-3.613412926573586e-05,3.9333,6.1333
2.28515625,-2.92969147769894e-05,-2.3928295014267185e-05,-7.32479036774243e-06,-3.613412926573586e-05,3.9333,6.1333
2.2890625,-3.125233648401618e-05,-1.464883183749142e-05,-3.906183123369196e-06,-3.4181412153047995e-05,3.9333,6.1333
2.29296875,-3.466823913405051e-05,-2.3438763438925767e-05,-1.2696114724803542e-05,-3.906320493476768e-05,3.9333,6.1333
2.296875,-4.003956349111162e-05,-2.588101212695506e-05,-7.32479036774243e-06,-4.3458170735484856e-05,3.9333,6.1333
2.30078125,-3.808684637842374e-05,-3.173916346501869e-05,-1.2696114724803542e-05,-4.296863916014344e-05,3.9333,6.1333
2.3046875,-3.8576377953765166e-05,-2.7344197664301516e-05,-1.9043797638208593e-05,-4.248181217914091e-05,3.9333,6.1333
2.30859375,-3.5644597690394444e-05,-1.5138363412832838e-05,-3.027597792767224e-05,-3.95527365101091e-05,3.9333,6.1333
2.3125,-2.0996514750896473e-05,-1.855697065720607e-05,-1.758061210086214e-05,-4.0529095066453046e-05,3.9333,6.1333
2.31640625,-2.1972873307240406e-05,-2.0020156194552533e-05,-1.2696114724803542e-05,-4.003956349111162e-05,3.9333,6.1333
2.3203125,-3.027597792767224e-05,-1.0743397612115664e-05,-2.050968776989395e-05,-3.613412926573586e-05,3.9333,6.1333
2.32421875,-2.881008779598688e-05,-2.0996514750896473e-05,-6.837963386739915e-06,-3.4181412153047995e-05,3.9333,6.1333
2.328125,-2.832055622064546e-05,-3.662095624673839e-05,-8.30114892408637e-06,-2.5391480551613647e-05,3.9333,6.1333
2.33203125,-2.1972873307240406e-05,-1.758061210086214e-05,-1.1232929187457088e-05,-2.4415121995269707e-05,3.9333,6.1333
2.3359375,-2.2462404882581827e-05,-2.3438763438925767e-05,-2.2949231863584342e-05,-3.173916346501869e-05,3.9333,6.1333
2.33984375,-3.5644597690394444e-05,-3.95527365101091e-05,-4.492406086717022e-05,-3.662095624673839e-05,3.9333,6.1333
2.34375,-3.369188057770657e-05,-3.760001939742123e-05,-4.296863916014344e-05,-4.1505453622796976e-05,3.9333,6.1333
2.34765625,-2.5391480551613647e-05,-3.95527365101091e-05,-3.808684637842374e-05,-4.101592204745556e-05,3.9333,6.1333
2.3515625,-2.7344197664301516e-05,-4.394770231082628e-05,-3.662095624673839e-05,-3.8576377953765166e-05,3.9333,6.1333
2.35546875,-3.0762804908674754e-05,-4.003956349111162e-05,-3.466823913405051e-05,-3.95527365101091e-05,3.9333,6.1333
2.359375,-3.2228695040360115e-05,-3.906320493476768e-05,-3.662095624673839e-05,-3.125233648401618e-05,3.9333,6.1333
2.36328125,-3.515777070939193e-05,-3.369188057770657e-05,-4.1505453622796976e-05,-3.613412926573586e-05,3.9333,6.1333
2.3671875,-4.101592204745556e-05,-2.588101212695506e-05,-1.7091080525520716e-05,-4.003956349111162e-05,3.9333,6.1333
2.37109375,-4.590041942351415e-05,-3.2228695040360115e-05,1.4624366393530152e-06,-3.173916346501869e-05,3.9333,6.1333
2.375,-3.8576377953765166e-05,-3.320505359670405e-05,-1.0743397612115664e-05,-3.4181412153047995e-05,3.9333,6.1333
2.37890625,-3.662095624673839e-05,-3.95527365101091e-05,-1.3672473281147482e-05,-3.760001939742123e-05,3.9333,6.1333
2.3828125,-4.248181217914091e-05,-3.613412926573586e-05,-1.7091080525520716e-05,-3.8576377953765166e-05,3.9333,6.1333
2.38671875,-3.808684637842374e-05,-3.027597792767224e-05,-1.2696114724803542e-05,-4.0529095066453046e-05,3.9333,6.1333
2.390625,-3.5644597690394444e-05,-2.92969147769894e-05,-6.837963386739915e-06,-3.906320493476768e-05,3.9333,6.1333
2.39453125,-4.248181217914091e-05,-2.9786446352330818e-05,-1.0253866036774248e-05,-3.8576377953765166e-05,3.9333,6.1333
2.3984375,-4.003956349111162e-05,-2.4904653570611125e-05,-1.7091080525520716e-05,-4.1505453622796976e-05,3.9333,6.1333
2.40234375,-3.173916346501869e-05,-2.3438763438925767e-05,-2.881008779598688e-05,-4.003956349111162e-05,3.9333,6.1333
2.40625,-3.271552202136263e-05,-4.394770231082628e-05,-2.2949231863584342e-05,-4.296863916014344e-05,3.9333,6.1333
2.41015625,-4.1505453622796976e-05,-4.6876777979858097e-05,-1.0253866036774248e-05,-4.296863916014344e-05,3.9333,6.1333
2.4140625,-4.5410887848172735e-05,-4.1505453622796976e-05,-1.7091080525520716e-05,-4.248181217914091e-05,3.9333,6.1333
2.41796875,-4.296863916014344e-05,-4.003956349111162e-05,-3.271552202136263e-05,-4.9805853648889906e-05,3.9333,6.1333
2.421875,-3.7110487822079805e-05,-3.808684637842374e-05,-4.443452929182879e-05,-5.224810233691921e-05,3.9333,6.1333
2.42578125,-2.9786446352330818e-05,-2.92969147769894e-05,-2.6857370683299e-05,-4.3458170735484856e-05,3.9333,6.1333
2.4296875,-3.173916346501869e-05,-2.1972873307240406e-05,-1.3672473281147482e-05,-3.613412926573586e-05,3.9333,6.1333
2.43359375,-3.95527365101091e-05,-1.855697065720607e-05,-1.855697065720607e-05,-3.662095624673839e-05,3.9333,6.1333
2.4375,-4.003956349111162e-05,-2.5391480551613647e-05,-3.466823913405051e-05,-3.515777070939193e-05,3.9333,6.1333
2.44140625,-3.662095624673839e-05,-4.736360496086061e-05,-3.906320493476768e-05,-3.173916346501869e-05,3.9333,6.1333
2.4453125,-4.3458170735484856e-05,-3.7110487822079805e-05,-2.2462404882581827e-05,-3.0762804908674754e-05,3.9333,6.1333
2.44921875,-4.296863916014344e-05,-3.0762804908674754e-05,-1.855697065720607e-05,-2.9786446352330818e-05,3.9333,6.1333
2.453125,-3.613412926573586e-05,-3.906320493476768e-05,-2.2462404882581827e-05,-3.173916346501869e-05,3.9333,6.1333
2.45703125,-4.248181217914091e-05,-3.95527365101091e-05,-3.2228695040360115e-05,-3.320505359670405e-05,3.9333,6.1333
2.4609375,-4.394770231082628e-05,-2.9786446352330818e-05,-3.173916346501869e-05,-3.4181412153047995e-05,3.9333,6.1333
2.46484375,-3.662095624673839e-05,-2.050968776989395e-05,-3.4181412153047995e-05,-3.173916346501869e-05,3.9333,6.1333
2.46875,-3.027597792767224e-05,-2.5391480551613647e-05,-3.369188057770657e-05,-2.881008779598688e-05,3.9333,6.1333
2.47265625,-3.027597792767224e-05,-3.173916346501869e-05,-1.6114721969176776e-05,-2.783372923964294e-05,3.9333,6.1333
2.4765625,-3.515777070939193e-05,-2.148604632623789e-05,-1.5138363412832838e-05,-2.588101212695506e-05,3.9333,6.1333
2.48046875,-3.2228695040360115e-05,-1.1232929187457088e-05,-2.5391480551613647e-05,-3.027597792767224e-05,3.9333,6.1333
2.484375,-2.5391480551613647e-05,-1.4162004856488898e-05,-1.9043797638208593e-05,-3.515777070939193e-05,3.9333,6.1333
2.48828125,-2.3928295014267185e-05,-1.318564630014496e-05,-1.6114721969176776e-05,-3.760001939742123e-05,3.9333,6.1333
2.4921875,-2.832055622064546e-05,-2.148604632623789e-05,-3.0762804908674754e-05,-4.248181217914091e-05,3.9333,6.1333
2.49609375,-3.613412926573586e-05,-3.2228695040360115e-05,-4.590041942351415e-05,-4.394770231082628e-05,3.9333,6.1333
2.5,-4.5410887848172735e-05,-3.613412926573586e-05,-5.273492931792172e-05,-3.8576377953765166e-05,3.9333,6.1333
2.50390625,-4.296863916014344e-05,-2.92969147769894e-05,-4.19922806037995e-05,-3.760001939742123e-05,3.9333,6.1333
2.5078125,-3.906320493476768e-05,-2.881008779598688e-05,-2.832055622064546e-05,-4.296863916014344e-05,3.9333,6.1333
2.51171875,-4.101592204745556e-05,-2.832055622064546e-05,-2.588101212695506e-05,-4.296863916014344e-05,3.9333,6.1333
2.515625,-3.613412926573586e-05,-2.3438763438925767e-05,-3.271552202136263e-05,-4.0529095066453046e-05,3.9333,6.1333
2.51953125,-3.8576377953765166e-05,-1.3672473281147482e-05,-2.881008779598688e-05,-4.443452929182879e-05,3.9333,6.1333
2.5234375,-4.5410887848172735e-05,-1.660154895017929e-05,-1.660154895017929e-05,-3.7110487822079805e-05,3.9333,6.1333
2.52734375,-4.5410887848172735e-05,-4.785313653620203e-05,-4.248181217914091e-05,-2.783372923964294e-05,3.9333,6.1333
2.53125,-4.492406086717022e-05,-5.859578525032426e-05,-5.420081944960708e-05,-3.271552202136263e-05,3.9333,6.1333
2.53515625,-4.19922806037995e-05,-4.638724640451667e-05,-3.0762804908674754e-05,-3.173916346501869e-05,3.9333,6.1333
2.5390625,-4.638724640451667e-05,-5.371128787426566e-05,-4.296863916014344e-05,-3.0762804908674754e-05,3.9333,6.1333
2.54296875,-4.5410887848172735e-05,-6.005626619333181e-05,-4.9805853648889906e-05,-2.9786446352330818e-05,3.9333,6.1333
2.546875,-3.808684637842374e-05,-4.0529095066453046e-05,-2.92969147769894e-05,-2.9786446352330818e-05,3.9333,6.1333
2.55078125,-3.369188057770657e-05,-3.125233648401618e-05,-2.050968776989395e-05,-3.320505359670405e-05,3.9333,6.1333
2.5546875,-3.760001939742123e-05,-3.466823913405051e-05,-3.125233648401618e-05,-2.783372923964294e-05,3.9333,6.1333
2.55859375,-4.931632207354849e-05,-3.906320493476768e-05,-5.078221220523384e-05,-2.6367839107957583e-05,3.9333,6.1333
2.5625,-4.833996351720455e-05,-4.3458170735484856e-05,-5.273492931792172e-05,-3.173916346501869e-05,3.9333,6.1333
2.56640625,-4.1505453622796976e-05,-3.2228695040360115e-05,-4.003956349111162e-05,-4.19922806037995e-05,3.9333,6.1333
2.5703125,-4.1505453622796976e-05,-2.588101212695506e-05,-5.029538522423133e-05,-4.394770231082628e-05,3.9333,6.1333
2.57421875,-4.443452929182879e-05,-3.2228695040360115e-05,-5.859578525032426e-05,-4.638724640451667e-05,3.9333,6.1333
2.578125,-4.296863916014344e-05,-2.832055622064546e-05,-5.029538522423133e-05,-4.590041942351415e-05,3.9333,6.1333
2.58203125,-4.296863916014344e-05,-2.2462404882581827e-05,-4.5410887848172735e-05,-3.5644597690394444e-05,3.9333,6.1333
2.5859375,-4.3458170735484856e-05,-1.855697065720607e-05,-3.515777070939193e-05,-3.173916346501869e-05,3.9333,6.1333
2.58984375,-4.1505453622796976e-05,-1.318564630014496e-05,-3.8576377953765166e-05,-3.5644597690394444e-05,3.9333,6.1333
2.59375,-3.906320493476768e-05,-1.660154895017929e-05,-4.638724640451667e-05,-3.7110487822079805e-05,3.9333,6.1333
2.59765625,-3.515777070939193e-05,-1.562519039383536e-05,-5.7129895118638894e-05,-4.19922806037995e-05,3.9333,6.1333
2.6015625,-2.92969147769894e-05,-8.790680499427786e-06,-5.810625367498284e-05,-4.0529095066453046e-05,3.9333,6.1333
2.60546875,-3.5644597690394444e-05,-1.562519039383536e-05,-4.931632207354849e-05,-3.2228695040360115e-05,3.9333,6.1333
2.609375,-4.394770231082628e-05,-4.248181217914091e-05,-2.4415121995269707e-05,-3.0762804908674754e-05,3.9333,6.1333
2.61328125,-4.248181217914091e-05,-4.443452929182879e-05,-2.4415121995269707e-05,-2.7344197664301516e-05,3.9333,6.1333
2.6171875,-4.003956349111162e-05,-4.296863916014344e-05,-3.466823913405051e-05,-2.2462404882581827e-05,3.9333,6.1333
2.62109375,-3.8576377953765166e-05,-3.5644597690394444e-05,-2.2949231863584342e-05,-2.783372923964294e-05,3.9333,6.1333
2.625,-3.320505359670405e-05,-3.027597792767224e-05,-1.758061210086214e-05,-2.881008779598688e-05,3.9333,6.1333
2.62890625,-2.588101212695506e-05,-3.271552202136263e-05,-5.861604830395976e-06,-2.7344197664301516e-05,3.9333,6.1333
2.6328125,-2.4415121995269707e-05,-3.125233648401618e-05,-7.32479036774243e-06,-3.271552202136263e-05,3.9333,6.1333
2.63671875,-3.027597792767224e-05,-3.271552202136263e-05,-3.662095624673839e-05,-3.8576377953765166e-05,3.9333,6.1333
2.640625,-3.466823913405051e-05,-4.590041942351415e-05,-2.9786446352330818e-05,-2.92969147769894e-05,3.9333,6.1333
2.64453125,-3.125233648401618e-05,-4.882949509254597e-05,-2.4904653570611125e-05,-2.7344197664301516e-05,3.9333,6.1333
2.6484375,-3.027597792767224e-05,-4.296863916014344e-05,-2.9786446352330818e-05,-3.173916346501869e-05,3.9333,6.1333
2.65234375,-3.271552202136263e-05,-5.1758570761577786e-05,-1.4162004856488898e-05,-2.6367839107957583e-05,3.9333,6.1333
2.65625,-3.0762804908674754e-05,-4.003956349111162e-05,-1.7091080525520716e-05,-3.027597792767224e-05,3.9333,6.1333
2.66015625,-3.2228695040360115e-05,-3.760001939742123e-05,-3.320505359670405e-05,-3.2228695040360115e-05,3.9333,6.1333
2.6640625,-3.369188057770657e-05,-4.1505453622796976e-05,-3.466823913405051e-05,-3.125233648401618e-05,3.9333,6.1333
2.66796875,-3.173916346501869e-05,-2.881008779598688e-05,-4.19922806037995e-05,-3.760001939742123e-05,3.9333,6.1333
2.671875,-3.125233648401618e-05,-2.92969147769894e-05,-3.515777070939193e-05,-4.1505453622796976e-05,3.9333,6.1333
2.67578125,-3.4181412153047995e-05,-4.443452929182879e-05,-3.515777070939193e-05,-3.2228695040360115e-05,3.9333,6.1333
2.6796875,-3.760001939742123e-05,-5.810625367498284e-05,-5.566400498695354e-05,-2.3928295014267185e-05,3.9333,6.1333
2.68359375,-4.248181217914091e-05,-5.371128787426566e-05,-4.6876777979858097e-05,-2.050968776989395e-05,3.9333,6.1333
2.6875,-4.6876777979858097e-05,-5.029538522423133e-05,-3.613412926573586e-05,-2.1972873307240406e-05,3.9333,6.1333
2.69140625,-4.638724640451667e-05,-4.882949509254597e-05,-2.6857370683299e-05,-2.6857370683299e-05,3.9333,6.1333
2.6953125,-4.5410887848172735e-05,-4.394770231082628e-05,-3.466823913405051e-05,-2.4904653570611125e-05,3.9333,6.1333
2.69921875,-4.248181217914091e-05,-4.003956349111162e-05,-4.296863916014344e-05,-2.783372923964294e-05,3.9333,6.1333
2.703125,-3.613412926573586e-05,-4.0529095066453046e-05,-4.882949509254597e-05,-3.515777070939193e-05,3.9333,6.1333
2.70703125,-4.003956349111162e-05,-3.95527365101091e-05,-4.785313653620203e-05,-3.808684637842374e-05,3.9333,6.1333
2.7109375,-4.3458170735484856e-05,-2.92969147769894e-05,-3.515777070939193e-05,-4.443452929182879e-05,3.9333,6.1333
2.71484375,-3.466823913405051e-05,-3.0762804908674754e-05,-4.590041942351415e-05,-4.443452929182879e-05,3.9333,6.1333
2.71875,-2.3438763438925767e-05,-1.8067439081864656e-05,-5.322446089326315e-05,-3.760001939742123e-05,3.9333,6.1333
2.72265625,-2.92969147769894e-05,-2.148604632623789e-05,-4.9805853648889906e-05,-3.95527365101091e-05,3.9333,6.1333
2.7265625,-3.808684637842374e-05,-3.369188057770657e-05,-3.0762804908674754e-05,-4.248181217914091e-05,3.9333,6.1333
2.73046875,-3.8576377953765166e-05,-2.6367839107957583e-05,-2.832055622064546e-05,-3.7110487822079805e-05,3.9333,6.1333
2.734375,-4.003956349111162e-05,-3.369188057770657e-05,-5.566400498695354e-05,-3.369188057770657e-05,3.9333,6.1333
2.73828125,-3.515777070939193e-05,-3.369188057770657e-05,-5.566400498695354e-05,-3.4181412153047995e-05,3.9333,6.1333
2.7421875,-3.662095624673839e-05,-3.466823913405051e-05,-3.2228695040360115e-05,-3.369188057770657e-05,3.9333,6.1333
2.74609375,-4.590041942351415e-05,-3.271552202136263e-05,-3.0762804908674754e-05,-3.8576377953765166e-05,3.9333,6.1333
2.75,-4.0529095066453046e-05,-2.148604632623789e-05,-1.953332921355001e-05,-4.443452929182879e-05,3.9333,6.1333
2.75390625,-2.588101212695506e-05,-1.3672473281147482e-05,-1.6114721969176776e-05,-4.9805853648889906e-05,3.9333,6.1333
2.7578125,-2.832055622064546e-05,-2.4415121995269707e-05,-3.760001939742123e-05,-3.808684637842374e-05,3.9333,6.1333
2.76171875,-3.760001939742123e-05,-3.906320493476768e-05,-4.101592204745556e-05,-2.2462404882581827e-05,3.9333,6.1333
2.765625,-3.808684637842374e-05,-4.003956349111162e-05,-3.95527365101091e-05,-2.5391480551613647e-05,3.9333,6.1333
2.76953125,-3.906320493476768e-05,-2.6367839107957583e-05,-2.2462404882581827e-05,-2.1972873307240406e-05,3.9333,6.1333
2.7734375,-3.662095624673839e-05,-3.906320493476768e-05,-2.3438763438925767e-05,-2.6367839107957583e-05,3.9333,6.1333
2.77734375,-3.173916346501869e-05,-3.760001939742123e-05,-4.736360496086061e-05,-4.101592204745556e-05,3.9333,6.1333
2.78125,-2.92969147769894e-05,-2.783372923964294e-05,-4.931632207354849e-05,-3.8576377953765166e-05,3.9333,6.1333
2.78515625,-3.7110487822079805e-05,-3.369188057770657e-05,-2.92969147769894e-05,-3.8576377953765166e-05,3.9333,6.1333
2.7890625,-4.003956349111162e-05,-2.881008779598688e-05,-1.660154895017929e-05,-4.443452929182879e-05,3.9333,6.1333
2.79296875,-3.662095624673839e-05,-3.2228695040360115e-05,-2.2949231863584342e-05,-3.7110487822079805e-05,3.9333,6.1333
2.796875,-3.4181412153047995e-05,-2.6367839107957583e-05,-3.95527365101091e-05,-3.760001939742123e-05,3.9333,6.1333
2.80078125,-3.369188057770657e-05,-3.906320493476768e-05,-4.296863916014344e-05,-3.95527365101091e-05,3.9333,6.1333
2.8046875,-3.515777070939193e-05,-5.761942669398032e-05,-3.173916346501869e-05,-3.662095624673839e-05,3.9333,6.1333
2.80859375,-3.2228695040360115e-05,-4.492406086717022e-05,-2.92969147769894e-05,-3.760001939742123e-05,3.9333,6.1333
2.8125,-2.6857370683299e-05,-3.7110487822079805e-05,-3.0762804908674754e-05,-3.760001939742123e-05,3.9333,6.1333
2.81640625,-2.3928295014267185e-05,-2.050968776989395e-05,-3.662095624673839e-05,-3.7110487822079805e-05,3.9333,6.1333
2.8203125,-2.881008779598688e-05,-2.5391480551613647e-05,-3.369188057770657e-05,-4.0529095066453046e-05,3.9333,6.1333
2.82421875,-3.8576377953765166e-05,-3.613412926573586e-05,-2.783372923964294e-05,-3.760001939742123e-05,3.9333,6.1333
2.828125,-4.1505453622796976e-05,-2.0020156194552533e-05,-1.464883183749142e-05,-2.92969147769894e-05,3.9333,6.1333
2.83203125,-3.808684637842374e-05,-3.906320493476768e-05,-1.758061210086214e-05,-3.173916346501869e-05,3.9333,6.1333
2.8359375,-3.369188057770657e-05,-5.566400498695354e-05,-3.662095624673839e-05,-4.003956349111162e-05,3.9333,6.1333
2.83984375,-3.466823913405051e-05,-4.1505453622796976e-05,-2.9786446352330818e-05,-4.101592204745556e-05,3.9333,6.1333
2.84375,-3.125233648401618e-05,-3.320505359670405e-05,-3.271552202136263e-05,-3.466823913405051e-05,3.9333,6.1333
2.84765625,-2.7344197664301516e-05,-3.320505359670405e-05,-3.125233648401618e-05,-3.125233648401618e-05,3.9333,6.1333
2.8515625,-3.466823913405051e-05,-2.3438763438925767e-05,-1.6114721969176776e-05,-2.783372923964294e-05,3.9333,6.1333
2.85546875,-4.296863916014344e-05,-2.7344197664301516e-05,-3.369188057770657e-05,-3.369188057770657e-05,3.9333,6.1333
2.859375,-3.906320493476768e-05,-4.9805853648889906e-05,-2.4904653570611125e-05,-3.466823913405051e-05,3.9333,6.1333
2.86328125,-2.9786446352330818e-05,-4.394770231082628e-05,-2.3438763438925767e-05,-2.881008779598688e-05,3.9333,6.1333
2.8671875,-2.832055622064546e-05,-3.027597792767224e-05,-3.4181412153047995e-05,-3.5644597690394444e-05,3.9333,6.1333
2.87109375,-3.613412926573586e-05,-3.515777070939193e-05,-2.3438763438925767e-05,-3.369188057770657e-05,3.9333,6.1333
2.875,-4.1505453622796976e-05,-3.760001939742123e-05,-1.4162004856488898e-05,-2.6367839107957583e-05,3.9333,6.1333
2.87890625,-3.8576377953765166e-05,-3.515777070939193e-05,-1.7091080525520716e-05,-2.881008779598688e-05,3.9333,6.1333
2.8828125,-3.7110487822079805e-05,-3.369188057770657e-05,-4.785313653620203e-05,-2.9786446352330818e-05,3.9333,6.1333
2.88671875,-3.906320493476768e-05,-4.248181217914091e-05,-4.1505453622796976e-05,-2.92969147769894e-05,3.9333,6.1333
2.890625,-3.8576377953765166e-05,-4.638724640451667e-05,-2.1972873307240406e-05,-3.320505359670405e-05,3.9333,6.1333
2.89453125,-4.003956349111162e-05,-3.5644597690394444e-05,-3.5644597690394444e-05,-3.4181412153047995e-05,3.9333,6.1333
2.8984375,-4.0529095066453046e-05,-3.027597792767224e-05,-3.320505359670405e-05,-3.125233648401618e-05,3.9333,6.1333
2.90234375,-3.906320493476768e-05,-4.5410887848172735e-05,-4.492406086717022e-05,-3.2228695040360115e-05,3.9333,6.1333
2.90625,-4.101592204745556e-05,-3.760001939742123e-05,-3.7110487822079805e-05,-3.125233648401618e-05,3.9333,6.1333
2.91015625,-4.1505453622796976e-05,-3.0762804908674754e-05,-1.8067439081864656e-05,-3.2228695040360115e-05,3.9333,6.1333
2.9140625,-3.760001939742123e-05,-4.003956349111162e-05,-4.3458170735484856e-05,-3.5644597690394444e-05,3.9333,6.1333
2.91796875,-3.466823913405051e-05,-3.125233648401618e-05,-4.590041942351415e-05,-3.271552202136263e-05,3.9333,6.1333
2.921875,-3.662095624673839e-05,-2.9786446352330818e-05,-4.1505453622796976e-05,-3.2228695040360115e-05,3.9333,6.1333
2.92578125,-3.95527365101091e-05,-3.7110487822079805e-05,-4.248181217914091e-05,-3.271552202136263e-05,3.9333,6.1333
2.9296875,-4.296863916014344e-05,-5.029538522423133e-05,-2.6857370683299e-05,-3.2228695040360115e-05,3.9333,6.1333
2.93359375,-4.296863916014344e-05,-4.5410887848172735e-05,-3.027597792767224e-05,-3.7110487822079805e-05,3.9333,6.1333
2.9375,-4.19922806037995e-05,-4.1505453622796976e-05,-3.662095624673839e-05,-3.808684637842374e-05,3.9333,6.1333
2.94140625,-3.906320493476768e-05,-3.906320493476768e-05,-3.515777070939193e-05,-3.125233648401618e-05,3.9333,6.1333
2.9453125,-3.027597792767224e-05,-3.5644597690394444e-05,-2.783372923964294e-05,-3.4181412153047995e-05,3.9333,6.1333
2.94921875,-3.125233648401618e-05,-3.027597792767224e-05,-2.588101212695506e-05,-3.662095624673839e-05,3.9333,6.1333
2.953125,-3.027597792767224e-05,-3.027597792767224e-05,-2.5391480551613647e-05,-3.4181412153047995e-05,3.9333,6.1333
2.95703125,-2.881008779598688e-05,-3.662095624673839e-05,-3.173916346501869e-05,-3.027597792767224e-05,3.9333,6.1333
2.9609375,-3.369188057770657e-05,-3.662095624673839e-05,-4.0529095066453046e-05,-2.4415121995269707e-05,3.9333,6.1333
2.96484375,-3.7110487822079805e-05,-2.881008779598688e-05,-2.7344197664301516e-05,-2.6367839107957583e-05,3.9333,6.1333
2.96875,-3.662095624673839e-05,-2.3438763438925767e-05,-2.148604632623789e-05,-3.271552202136263e-05,3.9333,6.1333
2.97265625,-3.760001939742123e-05,-2.6367839107957583e-05,-3.125233648401618e-05,-4.003956349111162e-05,3.9333,6.1333
2.9765625,-3.515777070939193e-05,-3.466823913405051e-05,-4.101592204745556e-05,-4.0529095066453046e-05,3.9333,6.1333
2.98046875,-2.9786446352330818e-05,-3.906320493476768e-05,-4.492406086717022e-05,-3.808684637842374e-05,3.9333,6.1333
2.984375,-3.320505359670405e-05,-3.8576377953765166e-05,-3.466823913405051e-05,-3.5644597690394444e-05,3.9333,6.1333
2.98828125,-3.5644597690394444e-05,-4.736360496086061e-05,-2.4904653570611125e-05,-3.662095624673839e-05,3.9333,6.1333
2.9921875,-3.515777070939193e-05,-4.101592204745556e-05,-3.7110487822079805e-05,-3.95527365101091e-05,3.9333,6.1333
2.99609375,-3.369188057770657e-05,-3.125233648401618e-05,-4.1505453622796976e-05,-3.95527365101091e-05,3.9333,6.1333
3.0,-3.8576377953765166e-05,-3.4181412153047995e-05,-5.517717800595102e-05,-3.613412926573586e-05,3.9333,6.1333
3.00390625,-3.808684637842374e-05,-3.320505359670405e-05,-6.786983923842223e-05,-3.515777070939193e-05,3.9333,6.1333
3.0078125,-3.125233648401618e-05,-2.4415121995269707e-05,-3.4181412153047995e-05,-3.808684637842374e-05,3.9333,6.1333
3.01171875,-3.662095624673839e-05,-3.662095624673839e-05,-2.6857370683299e-05,-3.613412926573586e-05,3.9333,6.1333
3.015625,-3.7110487822079805e-05,-4.931632207354849e-05,-4.9805853648889906e-05,-2.92969147769894e-05,3.9333,6.1333
3.01953125,-2.881008779598688e-05,-2.881008779598688e-05,-4.443452929182879e-05,-3.125233648401618e-05,3.9333,6.1333
3.0234375,-2.588101212695506e-05,-2.1972873307240406e-05,-4.3458170735484856e-05,-3.2228695040360115e-05,3.9333,6.1333
3.02734375,-2.2462404882581827e-05,-2.050968776989395e-05,-3.662095624673839e-05,-3.2228695040360115e-05,3.9333,6.1333
3.03125,-2.050968776989395e-05,-2.3438763438925767e-05,-2.588101212695506e-05,-3.760001939742123e-05,3.9333,6.1333
3.03515625,-2.2462404882581827e-05,-2.881008779598688e-05,-4.590041942351415e-05,-3.7110487822079805e-05,3.9333,6.1333
3.0390625,-2.4904653570611125e-05,-2.5391480551613647e-05,-5.322446089326315e-05,-3.7110487822079805e-05,3.9333,6.1333
3.04296875,-2.832055622064546e-05,-3.125233648401618e-05,-2.92969147769894e-05,-3.808684637842374e-05,3.9333,6.1333
3.046875,-3.369188057770657e-05,-2.881008779598688e-05,-1.7091080525520716e-05,-2.881008779598688e-05,3.9333,6.1333
3.05078125,-3.369188057770657e-05,-3.173916346501869e-05,-2.881008779598688e-05,-2.5391480551613647e-05,3.9333,6.1333
3.0546875,-3.466823913405051e-05,-2.6857370683299e-05,-3.027597792767224e-05,-2.881008779598688e-05,3.9333,6.1333
3.05859375,-3.515777070939193e-05,-3.2228695040360115e-05,-3.8576377953765166e-05,-3.320505359670405e-05,3.9333,6.1333
3.0625,-3.173916346501869e-05,-5.224810233691921e-05,-3.95527365101091e-05,-3.760001939742123e-05,3.9333,6.1333
3.06640625,-3.173916346501869e-05,-5.46876464306096e-05,-4.9805853648889906e-05,-3.95527365101091e-05,3.9333,6.1333
3.0703125,-3.271552202136263e-05,-4.6876777979858097e-05,-3.906320493476768e-05,-3.125233648401618e-05,3.9333,6.1333
3.07421875,-3.320505359670405e-05,-3.4181412153047995e-05,-3.320505359670405e-05,-2.2949231863584342e-05,3.9333,6.1333
3.078125,-3.5644597690394444e-05,-4.19922806037995e-05,-5.566400498695354e-05,-2.5391480551613647e-05,3.9333,6.1333
3.08203125,-3.95527365101091e-05,-4.638724640451667e-05,-5.810625367498284e-05,-3.271552202136263e-05,3.9333,6.1333
3.0859375,-3.95527365101091e-05,-4.882949509254597e-05,-4.443452929182879e-05,-3.515777070939193e-05,3.9333,6.1333
3.08984375,-3.271552202136263e-05,-4.736360496086061e-05,-3.95527365101091e-05,-3.271552202136263e-05,3.9333,6.1333
3.09375,-3.466823913405051e-05,-5.371128787426566e-05,-5.566400498695354e-05,-3.808684637842374e-05,3.9333,6.1333
3.09765625,-3.8576377953765166e-05,-5.322446089326315e-05,-7.27516320201419e-05,-4.0529095066453046e-05,3.9333,6.1333
3.1015625,-3.466823913405051e-05,-4.931632207354849e-05,-6.640394910673685e-05,-4.0529095066453046e-05,3.9333,6.1333
3.10546875,-3.8576377953765166e-05,-5.810625367498284e-05,-6.689348068207829e-05,-4.3458170735484856e-05,3.9333,6.1333
3.109375,-4.443452929182879e-05,-6.152215632501717e-05,-6.591712212573434e-05,-4.443452929182879e-05,3.9333,6.1333
3.11328125,-4.443452929182879e-05,-6.152215632501717e-05,-4.931632207354849e-05,-4.736360496086061e-05,3.9333,6.1333
3.1171875,-4.394770231082628e-05,-5.46876464306096e-05,-4.492406086717022e-05,-4.3458170735484856e-05,3.9333,6.1333
3.12109375,-4.003956349111162e-05,-4.590041942351415e-05,-5.371128787426566e-05,-4.101592204745556e-05,3.9333,6.1333
3.125,-3.8576377953765166e-05,-4.3458170735484856e-05,-5.1758570761577786e-05,-4.394770231082628e-05,3.9333,6.1333
3.12890625,-3.906320493476768e-05,-4.6876777979858097e-05,-5.029538522423133e-05,-3.906320493476768e-05,3.9333,6.1333
3.1328125,-3.7110487822079805e-05,-4.0529095066453046e-05,-4.5410887848172735e-05,-3.271552202136263e-05,3.9333,6.1333
3.13671875,-3.808684637842374e-05,-3.515777070939193e-05,-3.515777070939193e-05,-3.320505359670405e-05,3.9333,6.1333
3.140625,-3.808684637842374e-05,-4.394770231082628e-05,-4.5410887848172735e-05,-3.027597792767224e-05,3.9333,6.1333
3.14453125,-4.003956349111162e-05,-4.882949509254597e-05,-4.590041942351415e-05,-2.9786446352330818e-05,3.9333,6.1333
3.1484375,-3.95527365101091e-05,-4.3458170735484856e-05,-2.9786446352330818e-05,-3.4181412153047995e-05,3.9333,6.1333
3.15234375,-3.271552202136263e-05,-2.881008779598688e-05,-3.5644597690394444e-05,-3.5644597690394444e-05,3.9333,6.1333
3.15625,-3.125233648401618e-05,-2.3438763438925767e-05,-3.95527365101091e-05,-3.7110487822079805e-05,3.9333,6.1333
3.16015625,-2.9786446352330818e-05,-2.9786446352330818e-05,-3.5644597690394444e-05,-3.8576377953765166e-05,3.9333,6.1333
3.1640625,-2.832055622064546e-05,-2.881008779598688e-05,-2.9786446352330818e-05,-3.662095624673839e-05,3.9333,6.1333
3.16796875,-3.125233648401618e-05,-3.5644597690394444e-05,-1.953332921355001e-05,-3.320505359670405e-05,3.9333,6.1333
3.171875,-3.271552202136263e-05,-3.8576377953765166e-05,-2.5391480551613647e-05,-3.2228695040360115e-05,3.9333,6.1333
3.17578125,-3.4181412153047995e-05,-3.027597792767224e-05,-4.19922806037995e-05,-3.2228695040360115e-05,3.9333,6.1333
3.1796875,-3.662095624673839e-05,-4.833996351720455e-05,-4.736360496086061e-05,-3.2228695040360115e-05,3.9333,6.1333
3.18359375,-3.662095624673839e-05,-5.420081944960708e-05,-5.322446089326315e-05,-3.7110487822079805e-05,3.9333,6.1333
3.1875,-3.95527365101091e-05,-4.590041942351415e-05,-4.6876777979858097e-05,-4.101592204745556e-05,3.9333,6.1333
3.19140625,-3.7110487822079805e-05,-5.1758570761577786e-05,-4.003956349111162e-05,-3.5644597690394444e-05,3.9333,6.1333
3.1953125,-2.881008779598688e-05,-4.931632207354849e-05,-4.736360496086061e-05,-3.2228695040360115e-05,3.9333,6.1333
3.19921875,-2.881008779598688e-05,-4.590041942351415e-05,-4.6876777979858097e-05,-3.125233648401618e-05,3.9333,6.1333
3.203125,-3.369188057770657e-05,-4.638724640451667e-05,-5.7129895118638894e-05,-3.4181412153047995e-05,3.9333,6.1333
3.20703125,-3.613412926573586e-05,-4.833996351720455e-05,-4.248181217914091e-05,-3.4181412153047995e-05,3.9333,6.1333
3.2109375,-3.466823913405051e-05,-4.590041942351415e-05,-3.4181412153047995e-05,-3.613412926573586e-05,3.9333,6.1333
3.21484375,-3.613412926573586e-05,-4.492406086717022e-05,-5.322446089326315e-05,-4.003956349111162e-05,3.9333,6.1333
3.21875,-3.760001939742123e-05,-4.3458170735484856e-05,-5.46876464306096e-05,-3.4181412153047995e-05,3.9333,6.1333
3.22265625,-3.662095624673839e-05,-2.92969147769894e-05,-4.6876777979858097e-05,-2.588101212695506e-05,3.9333,6.1333
3.2265625,-4.1505453622796976e-05,-1.8067439081864656e-05,-4.736360496086061e-05,-2.783372923964294e-05,3.9333,6.1333
3.23046875,-3.8576377953765166e-05,-2.148604632623789e-05,-5.566400498695354e-05,-3.0762804908674754e-05,3.9333,6.1333
3.234375,-3.613412926573586e-05,-1.4162004856488898e-05,-6.005626619333181e-05,-2.6857370683299e-05,3.9333,6.1333
3.23828125,-4.0529095066453046e-05,-4.885246274052036e-06,-7.079891490745403e-05,-2.881008779598688e-05,3.9333,6.1333
3.2421875,-4.19922806037995e-05,-2.832055622064546e-05,-7.763612939620051e-05,-3.515777070939193e-05,3.9333,6.1333
3.24609375,-4.19922806037995e-05,-3.8576377953765166e-05,-6.298534186236362e-05,-3.808684637842374e-05,3.9333,6.1333
3.25,-3.8576377953765166e-05,-3.2228695040360115e-05,-3.4181412153047995e-05,-3.466823913405051e-05,3.9333,6.1333
3.25390625,-3.662095624673839e-05,-4.492406086717022e-05,-1.758061210086214e-05,-2.783372923964294e-05,3.9333,6.1333
3.2578125,-4.101592204745556e-05,-4.5410887848172735e-05,-2.6367839107957583e-05,-2.4415121995269707e-05,3.9333,6.1333
3.26171875,-4.492406086717022e-05,-4.101592204745556e-05,-3.271552202136263e-05,-2.6857370683299e-05,3.9333,6.1333
3.265625,-4.9805853648889906e-05,-5.029538522423133e-05,-4.296863916014344e-05,-3.369188057770657e-05,3.9333,6.1333
3.26953125,-5.224810233691921e-05,-5.664306813763638e-05,-3.466823913405051e-05,-3.808684637842374e-05,3.9333,6.1333
3.2734375,-5.371128787426566e-05,-5.664306813763638e-05,-2.5391480551613647e-05,-3.271552202136263e-05,3.9333,6.1333
3.27734375,-4.833996351720455e-05,-4.296863916014344e-05,-3.466823913405051e-05,-2.92969147769894e-05,3.9333,6.1333
3.28125,-4.1505453622796976e-05,-4.3458170735484856e-05,-3.808684637842374e-05,-3.369188057770657e-05,3.9333,6.1333
3.28515625,-3.95527365101091e-05,-5.322446089326315e-05,-3.808684637842374e-05,-2.92969147769894e-05,3.9333,6.1333
3.2890625,-3.5644597690394444e-05,-5.566400498695354e-05,-4.736360496086061e-05,-3.125233648401618e-05,3.9333,6.1333
3.29296875,-3.613412926573586e-05,-5.029538522423133e-05,-4.492406086717022e-05,-3.173916346501869e-05,3.9333,6.1333
3.296875,-3.613412926573586e-05,-4.003956349111162e-05,-3.760001939742123e-05,-2.4904653570611125e-05,3.9333,6.1333
3.30078125,-3.369188057770657e-05,-4.736360496086061e-05,-4.296863916014344e-05,-2.4904653570611125e-05,3.9333,6.1333
3.3046875,-3.2228695040360115e-05,-5.322446089326315e-05,-4.590041942351415e-05,-2.783372923964294e-05,3.9333,6.1333
3.30859375,-3.173916346501869e-05,-4.638724640451667e-05,-3.320505359670405e-05,-2.0996514750896473e-05,3.9333,6.1333
3.3125,-3.369188057770657e-05,-4.785313653620203e-05,-2.3928295014267185e-05,-1.9043797638208593e-05,3.9333,6.1333
3.31640625,-3.4181412153047995e-05,-3.8576377953765166e-05,-4.5410887848172735e-05,-2.6857370683299e-05,3.9333,6.1333
3.3203125,-3.662095624673839e-05,-4.931632207354849e-05,-7.27516320201419e-05,-2.7344197664301516e-05,3.9333,6.1333
3.32421875,-3.808684637842374e-05,-5.761942669398032e-05,-6.542759055039291e-05,-2.9786446352330818e-05,3.9333,6.1333
3.328125,-3.173916346501869e-05,-4.1505453622796976e-05,-4.833996351720455e-05,-3.271552202136263e-05,3.9333,6.1333
3.33203125,-2.6857370683299e-05,-4.0529095066453046e-05,-4.394770231082628e-05,-3.125233648401618e-05,3.9333,6.1333
3.3359375,-2.7344197664301516e-05,-3.2228695040360115e-05,-5.371128787426566e-05,-3.4181412153047995e-05,3.9333,6.1333
3.33984375,-2.92969147769894e-05,-3.808684637842374e-05,-6.1032624749675754e-05,-3.369188057770657e-05,3.9333,6.1333
3.34375,-3.466823913405051e-05,-5.273492931792172e-05,-5.224810233691921e-05,-2.92969147769894e-05,3.9333,6.1333
3.34765625,-3.5644597690394444e-05,-4.296863916014344e-05,-4.736360496086061e-05,-3.125233648401618e-05,3.9333,6.1333
3.3515625,-3.515777070939193e-05,-4.0529095066453046e-05,-4.736360496086061e-05,-3.369188057770657e-05,3.9333,6.1333
3.35546875,-3.613412926573586e-05,-5.029538522423133e-05,-4.736360496086061e-05,-3.369188057770657e-05,3.9333,6.1333
3.359375,-4.0529095066453046e-05,-5.664306813763638e-05,-4.785313653620203e-05,-3.613412926573586e-05,3.9333,6.1333
3.36328125,-3.8576377953765166e-05,-3.808684637842374e-05,-5.1758570761577786e-05,-3.613412926573586e-05,3.9333,6.1333
3.3671875,-3.0762804908674754e-05,-2.1972873307240406e-05,-3.271552202136263e-05,-3.2228695040360115e-05,3.9333,6.1333
3.37109375,-3.0762804908674754e-05,-2.783372923964294e-05,-1.758061210086214e-05,-3.515777070939193e-05,3.9333,6.1333
3.375,-2.783372923964294e-05,-2.2949231863584342e-05,-2.9786446352330818e-05,-3.515777070939193e-05,3.9333,6.1333
3.37890625,-2.6367839107957583e-05,-2.3438763438925767e-05,-5.1758570761577786e-05,-3.125233648401618e-05,3.9333,6.1333
3.3828125,-3.173916346501869e-05,-3.4181412153047995e-05,-5.517717800595102e-05,-2.881008779598688e-05,3.9333,6.1333
3.38671875,-2.9786446352330818e-05,-3.320505359670405e-05,-2.7344197664301516e-05,-2.783372923964294e-05,3.9333,6.1333
3.390625,-3.173916346501869e-05,-2.4904653570611125e-05,-3.027597792767224e-05,-3.125233648401618e-05,3.9333,6.1333
3.39453125,-3.613412926573586e-05,-3.7110487822079805e-05,-4.296863916014344e-05,-3.515777070939193e-05,3.9333,6.1333
3.3984375,-3.320505359670405e-05,-4.0529095066453046e-05,-5.810625367498284e-05,-3.906320493476768e-05,3.9333,6.1333
3.40234375,-3.662095624673839e-05,-4.3458170735484856e-05,-5.615353656229496e-05,-3.613412926573586e-05,3.9333,6.1333
3.40625,-4.003956349111162e-05,-4.492406086717022e-05,-4.492406086717022e-05,-3.5644597690394444e-05,3.9333,6.1333
3.41015625,-4.638724640451667e-05,-3.7110487822079805e-05,-3.906320493476768e-05,-3.271552202136263e-05,3.9333,6.1333
3.4140625,-4.9805853648889906e-05,-4.1505453622796976e-05,-4.492406086717022e-05,-3.515777070939193e-05,3.9333,6.1333
3.41796875,-4.5410887848172735e-05,-3.7110487822079805e-05,-4.5410887848172735e-05,-4.0529095066453046e-05,3.9333,6.1333
3.421875,-3.7110487822079805e-05,-2.5391480551613647e-05,-4.5410887848172735e-05,-3.808684637842374e-05,3.9333,6.1333
3.42578125,-3.808684637842374e-05,-2.6857370683299e-05,-5.1758570761577786e-05,-3.7110487822079805e-05,3.9333,6.1333
3.4296875,-4.0529095066453046e-05,-4.19922806037995e-05,-4.492406086717022e-05,-4.3458170735484856e-05,3.9333,6.1333
3.43359375,-3.515777070939193e-05,-3.613412926573586e-05,-4.492406086717022e-05,-3.906320493476768e-05,3.9333,6.1333
3.4375,-4.1505453622796976e-05,-4.3458170735484856e-05,-5.95721438066682e-05,-3.466823913405051e-05,3.9333,6.1333
3.44140625,-4.394770231082628e-05,-5.127174378057527e-05,-5.859578525032426e-05,-3.760001939742123e-05,3.9333,6.1333
3.4453125,-3.320505359670405e-05,-3.8576377953765166e-05,-3.760001939742123e-05,-3.4181412153047995e-05,3.9333,6.1333
3.44921875,-3.2228695040360115e-05,-2.881008779598688e-05,-2.6367839107957583e-05,-3.5644597690394444e-05,3.9333,6.1333
3.453125,-3.173916346501869e-05,-3.173916346501869e-05,-3.808684637842374e-05,-3.808684637842374e-05,3.9333,6.1333
3.45703125,-3.173916346501869e-05,-3.906320493476768e-05,-5.517717800595102e-05,-4.003956349111162e-05,3.9333,6.1333
3.4609375,-2.92969147769894e-05,-3.808684637842374e-05,-6.542759055039291e-05,-3.808684637842374e-05,3.9333,6.1333
3.46484375,-2.881008779598688e-05,-2.4904653570611125e-05,-5.615353656229496e-05,-3.760001939742123e-05,3.9333,6.1333
3.46875,-3.027597792767224e-05,-1.6114721969176776e-05,-2.5391480551613647e-05,-3.515777070939193e-05,3.9333,6.1333
3.47265625,-3.515777070939193e-05,-4.248181217914091e-05,-3.369188057770657e-05,-3.2228695040360115e-05,3.9333,6.1333
3.4765625,-3.760001939742123e-05,-3.5644597690394444e-05,-4.6876777979858097e-05,-3.613412926573586e-05,3.9333,6.1333
3.48046875,-3.2228695040360115e-05,-1.953332921355001e-05,-4.1505453622796976e-05,-3.515777070939193e-05,3.9333,6.1333
3.484375,-3.125233648401618e-05,-2.881008779598688e-05,-3.906320493476768e-05,-3.2228695040360115e-05,3.9333,6.1333
3.48828125,-3.0762804908674754e-05,-3.7110487822079805e-05,-2.832055622064546e-05,-3.0762804908674754e-05,3.9333,6.1333
3.4921875,-3.5644597690394444e-05,-4.3458170735484856e-05,-2.3928295014267185e-05,-2.9786446352330818e-05,3.9333,6.1333
3.49609375,-4.248181217914091e-05,-3.515777070939193e-05,-3.4181412153047995e-05,-3.369188057770657e-05,3.9333,6.1333
3.5,-4.296863916014344e-05,-4.0529095066453046e-05,-4.3458170735484856e-05,-3.5644597690394444e-05,3.9333,6.1333
3.50390625,-4.296863916014344e-05,-4.101592204745556e-05,-3.613412926573586e-05,-3.027597792767224e-05,3.9333,6.1333
3.5078125,-3.662095624673839e-05,-3.466823913405051e-05,-2.6367839107957583e-05,-3.0762804908674754e-05,3.9333,6.1333
3.51171875,-3.0762804908674754e-05,-4.492406086717022e-05,-2.6367839107957583e-05,-3.466823913405051e-05,3.9333,6.1333
3.515625,-3.4181412153047995e-05,-4.19922806037995e-05,-4.101592204745556e-05,-3.5644597690394444e-05,3.9333,6.1333
3.51953125,-3.95527365101091e-05,-4.785313653620203e-05,-5.7129895118638894e-05,-3.808684637842374e-05,3.9333,6.1333
3.5234375,-3.760001939742123e-05,-3.369188057770657e-05,-5.810625367498284e-05,-3.8576377953765166e-05,3.9333,6.1333
3.52734375,-3.515777070939193e-05,-2.0020156194552533e-05,-3.760001939742123e-05,-3.8576377953765166e-05,3.9333,6.1333
3.53125,-3.0762804908674754e-05,-2.588101212695506e-05,-2.7344197664301516e-05,-4.296863916014344e-05,3.9333,6.1333
3.53515625,-2.832055622064546e-05,2.4387951956969543e-06,-4.885246274052036e-06,-4.638724640451667e-05,3.9333,6.1333
3.5390625,-3.125233648401618e-05,-1.9043797638208593e-05,-1.6114721969176776e-05,-3.8576377953765166e-05,3.9333,6.1333
3.54296875,-3.173916346501869e-05,-4.882949509254597e-05,-5.615353656229496e-05,-3.271552202136263e-05,3.9333,6.1333
3.546875,-2.832055622064546e-05,-1.4162004856488898e-05,-3.4181412153047995e-05,-3.369188057770657e-05,3.9333,6.1333
3.55078125,-3.173916346501869e-05,-3.027597792767224e-05,-3.125233648401618e-05,-3.0762804908674754e-05,3.9333,6.1333
3.5546875,-3.173916346501869e-05,-3.5644597690394444e-05,-4.590041942351415e-05,-2.6367839107957583e-05,3.9333,6.1333
3.55859375,-3.125233648401618e-05,-1.2696114724803542e-05,-3.027597792767224e-05,-2.4904653570611125e-05,3.9333,6.1333
3.5625,-3.2228695040360115e-05,-1.855697065720607e-05,-2.92969147769894e-05,-2.783372923964294e-05,3.9333,6.1333
3.56640625,-3.369188057770657e-05,-2.148604632623789e-05,-3.8576377953765166e-05,-2.783372923964294e-05,3.9333,6.1333
3.5703125,-3.271552202136263e-05,-1.2696114724803542e-05,-4.248181217914091e-05,-2.9786446352330818e-05,3.9333,6.1333
3.57421875,-3.125233648401618e-05,-2.2462404882581827e-05,-2.6857370683299e-05,-3.320505359670405e-05,3.9333,6.1333
3.578125,-3.369188057770657e-05,-3.466823913405051e-05,-3.027597792767224e-05,-3.2228695040360115e-05,3.9333,6.1333
3.58203125,-3.613412926573586e-05,-2.5391480551613647e-05,-3.320505359670405e-05,-2.881008779598688e-05,3.9333,6.1333
3.5859375,-3.662095624673839e-05,-1.464883183749142e-05,-2.6857370683299e-05,-2.6857370683299e-05,3.9333,6.1333
3.58984375,-3.125233648401618e-05,-2.2949231863584342e-05,-2.92969147769894e-05,-2.881008779598688e-05,3.9333,6.1333
3.59375,-2.6367839107957583e-05,-3.271552202136263e-05,-2.4904653570611125e-05,-2.881008779598688e-05,3.9333,6.1333
3.59765625,-3.320505359670405e-05,-3.613412926573586e-05,-3.173916346501869e-05,-2.148604632623789e-05,3.9333,6.1333
3.6015625,-3.320505359670405e-05,-3.0762804908674754e-05,-4.003956349111162e-05,-2.5391480551613647e-05,3.9333,6.1333
3.60546875,-3.0762804908674754e-05,-1.7091080525520716e-05,-4.19922806037995e-05,-3.2228695040360115e-05,3.9333,6.1333
3.609375,-3.271552202136263e-05,-2.783372923964294e-05,-2.881008779598688e-05,-2.92969147769894e-05,3.9333,6.1333
3.61328125,-3.173916346501869e-05,-3.8576377953765166e-05,-2.6367839107957583e-05,-2.6367839107957583e-05,3.9333,6.1333
3.6171875,-3.613412926573586e-05,-4.101592204745556e-05,-4.248181217914091e-05,-2.5391480551613647e-05,3.9333,6.1333
3.62109375,-4.19922806037995e-05,-4.931632207354849e-05,-4.931632207354849e-05,-2.6367839107957583e-05,3.9333,6.1333
3.625,-4.1505453622796976e-05,-3.515777070939193e-05,-5.273492931792172e-05,-3.369188057770657e-05,3.9333,6.1333
3.62890625,-3.760001939742123e-05,-3.271552202136263e-05,-4.785313653620203e-05,-3.662095624673839e-05,3.9333,6.1333
3.6328125,-3.320505359670405e-05,-4.9805853648889906e-05,-4.833996351720455e-05,-3.760001939742123e-05,3.9333,6.1333
3.63671875,-3.271552202136263e-05,-4.101592204745556e-05,-4.5410887848172735e-05,-4.003956349111162e-05,3.9333,6.1333
3.640625,-3.662095624673839e-05,-3.173916346501869e-05,-3.2228695040360115e-05,-3.7110487822079805e-05,3.9333,6.1333
3.64453125,-3.515777070939193e-05,-2.5391480551613647e-05,-1.660154895017929e-05,-3.320505359670405e-05,3.9333,6.1333
3.6484375,-3.369188057770657e-05,-2.2949231863584342e-05,-1.5138363412832838e-05,-3.173916346501869e-05,3.9333,6.1333
3.65234375,-3.0762804908674754e-05,-2.6857370683299e-05,-2.1972873307240406e-05,-3.7110487822079805e-05,3.9333,6.1333
3.65625,-2.6367839107957583e-05,-3.2228695040360115e-05,-2.92969147769894e-05,-4.1505453622796976e-05,3.9333,6.1333
3.66015625,-3.125233648401618e-05,-3.369188057770657e-05,-3.369188057770657e-05,-4.3458170735484856e-05,3.9333,6.1333
3.6640625,-3.515777070939193e-05,-3.173916346501869e-05,-4.003956349111162e-05,-4.248181217914091e-05,3.9333,6.1333
3.66796875,-3.369188057770657e-05,-3.369188057770657e-05,-4.003956349111162e-05,-3.5644597690394444e-05,3.9333,6.1333
3.671875,-2.832055622064546e-05,-3.662095624673839e-05,-2.2949231863584342e-05,-3.613412926573586e-05,3.9333,6.1333
3.67578125,-2.9786446352330818e-05,-4.19922806037995e-05,-3.027597792767224e-05,-4.1505453622796976e-05,3.9333,6.1333
3.6796875,-3.369188057770657e-05,-4.638724640451667e-05,-3.95527365101091e-05,-2.881008779598688e-05,3.9333,6.1333
3.68359375,-3.125233648401618e-05,-3.906320493476768e-05,-4.1505453622796976e-05,-2.832055622064546e-05,3.9333,6.1333
3.6875,-2.832055622064546e-05,-3.369188057770657e-05,-3.7110487822079805e-05,-3.369188057770657e-05,3.9333,6.1333
3.69140625,-2.783372923964294e-05,-4.0529095066453046e-05,-3.2228695040360115e-05,-3.271552202136263e-05,3.9333,6.1333
3.6953125,-2.783372923964294e-05,-2.92969147769894e-05,-2.832055622064546e-05,-3.027597792767224e-05,3.9333,6.1333
3.69921875,-2.783372923964294e-05,-2.7344197664301516e-05,-3.369188057770657e-05,-2.92969147769894e-05,3.9333,6.1333
3.703125,-4.101592204745556e-05,-4.5410887848172735e-05,-4.5410887848172735e-05,-3.271552202136263e-05,3.9333,6.1333
3.70703125,-4.3458170735484856e-05,-4.785313653620203e-05,-3.808684637842374e-05,-2.92969147769894e-05,3.9333,6.1333
3.7109375,-3.515777070939193e-05,-3.613412926573586e-05,-4.736360496086061e-05,-3.808684637842374e-05,3.9333,6.1333
3.71484375,-3.515777070939193e-05,-4.394770231082628e-05,-5.615353656229496e-05,-4.296863916014344e-05,3.9333,6.1333
3.71875,-2.9786446352330818e-05,-4.101592204745556e-05,-6.005626619333181e-05,-4.1505453622796976e-05,3.9333,6.1333
3.72265625,-3.125233648401618e-05,-2.832055622064546e-05,-5.761942669398032e-05,-4.394770231082628e-05,3.9333,6.1333
3.7265625,-3.95527365101091e-05,-3.271552202136263e-05,-4.248181217914091e-05,-4.248181217914091e-05,3.9333,6.1333
3.73046875,-3.613412926573586e-05,-3.320505359670405e-05,-3.027597792767224e-05,-3.906320493476768e-05,3.9333,6.1333
3.734375,-2.832055622064546e-05,-3.7110487822079805e-05,-3.515777070939193e-05,-4.003956349111162e-05,3.9333,6.1333
3.73828125,-2.6367839107957583e-05,-2.783372923964294e-05,-4.9805853648889906e-05,-4.101592204745556e-05,3.9333,6.1333
3.7421875,-2.92969147769894e-05,-3.027597792767224e-05,-4.101592204745556e-05,-4.1505453622796976e-05,3.9333,6.1333
3.74609375,-3.5644597690394444e-05,-5.078221220523384e-05,-3.95527365101091e-05,-4.3458170735484856e-05,3.9333,6.1333
3.75,-2.9786446352330818e-05,-3.613412926573586e-05,-2.1972873307240406e-05,-4.296863916014344e-05,3.9333,6.1333
3.75390625,-2.4415121995269707e-05,-1.2209287743801027e-05,-8.30114892408637e-06,-3.95527365101091e-05,3.9333,6.1333
3.7578125,-3.2228695040360115e-05,-3.906320493476768e-05,-3.662095624673839e-05,-3.5644597690394444e-05,3.9333,6.1333
3.76171875,-3.271552202136263e-05,-4.931632207354849e-05,-5.224810233691921e-05,-3.95527365101091e-05,3.9333,6.1333
3.765625,-2.4904653570611125e-05,-1.758061210086214e-05,-3.369188057770657e-05,-4.394770231082628e-05,3.9333,6.1333
3.76953125,-2.4904653570611125e-05,-1.562519039383536e-05,-3.4181412153047995e-05,-4.0529095066453046e-05,3.9333,6.1333
3.7734375,-2.783372923964294e-05,-3.662095624673839e-05,-3.369188057770657e-05,-3.613412926573586e-05,3.9333,6.1333
3.77734375,-3.0762804908674754e-05,-4.248181217914091e-05,-1.758061210086214e-05,-3.173916346501869e-05,3.9333,6.1333
3.78125,-2.832055622064546e-05,-3.125233648401618e-05,-3.027597792767224e-05,-3.271552202136263e-05,3.9333,6.1333
3.78515625,-2.2949231863584342e-05,-2.5391480551613647e-05,-3.5644597690394444e-05,-3.515777070939193e-05,3.9333,6.1333
3.7890625,-2.3928295014267185e-05,-2.2462404882581827e-05,-3.271552202136263e-05,-3.7110487822079805e-05,3.9333,6.1333
3.79296875,-3.027597792767224e-05,-1.9043797638208593e-05,-3.7110487822079805e-05,-4.003956349111162e-05,3.9333,6.1333
3.796875,-2.9786446352330818e-05,-3.2228695040360115e-05,-4.638724640451667e-05,-3.662095624673839e-05,3.9333,6.1333
3.80078125,-2.5391480551613647e-05,-4.296863916014344e-05,-4.443452929182879e-05,-3.320505359670405e-05,3.9333,6.1333
3.8046875,-3.613412926573586e-05,-3.8576377953765166e-05,-3.662095624673839e-05,-3.4181412153047995e-05,3.9333,6.1333
3.80859375,-4.0529095066453046e-05,-3.369188057770657e-05,-2.4415121995269707e-05,-3.515777070939193e-05,3.9333,6.1333
3.8125,-3.320505359670405e-05,-2.9786446352330818e-05,-1.318564630014496e-05,-3.369188057770657e-05,3.9333,6.1333
3.81640625,-3.8576377953765166e-05,-1.9043797638208593e-05,-2.5391480551613647e-05,-3.466823913405051e-05,3.9333,6.1333
3.8203125,-4.638724640451667e-05,-2.2949231863584342e-05,-3.662095624673839e-05,-3.662095624673839e-05,3.9333,6.1333
3.82421875,-3.760001939742123e-05,-3.466823913405051e-05,-1.4162004856488898e-05,-3.808684637842374e-05,3.9333,6.1333
3.828125,-3.466823913405051e-05,-2.050968776989395e-05,-1.318564630014496e-05,-3.5644597690394444e-05,3.9333,6.1333
3.83203125,-3.760001939742123e-05,-2.2462404882581827e-05,-2.92969147769894e-05,-3.4181412153047995e-05,3.9333,6.1333
3.8359375,-3.466823913405051e-05,-3.808684637842374e-05,-3.613412926573586e-05,-3.760001939742123e-05,3.9333,6.1333
3.83984375,-3.0762804908674754e-05,-3.906320493476768e-05,-4.833996351720455e-05,-4.0529095066453046e-05,3.9333,6.1333
3.84375,-3.125233648401618e-05,-3.7110487822079805e-05,-4.638724640451667e-05,-3.613412926573586e-05,3.9333,6.1333
3.84765625,-3.466823913405051e-05,-1.318564630014496e-05,-2.588101212695506e-05,-3.271552202136263e-05,3.9333,6.1333
3.8515625,-3.173916346501869e-05,-9.767039055771726e-06,-2.1972873307240406e-05,-3.5644597690394444e-05,3.9333,6.1333
3.85546875,-3.173916346501869e-05,-1.4162004856488898e-05,-4.443452929182879e-05,-3.7110487822079805e-05,3.9333,6.1333
3.859375,-2.6857370683299e-05,8.299651128099483e-06,-4.19922806037995e-05,-3.027597792767224e-05,3.9333,6.1333
3.86328125,-2.1972873307240406e-05,2.0018658398565648e-05,-4.443452929182879e-05,-2.7344197664301516e-05,3.9333,6.1333
3.8671875,-2.4415121995269707e-05,7.810119552758067e-06,-3.369188057770657e-05,-3.125233648401618e-05,3.9333,6.1333
3.87109375,-2.588101212695506e-05,4.394216902723741e-06,-1.953332921355001e-05,-2.6857370683299e-05,3.9333,6.1333
3.875,-2.783372923964294e-05,-9.277507480430308e-06,-2.0996514750896473e-05,-2.5391480551613647e-05,3.9333,6.1333
3.87890625,-3.271552202136263e-05,-3.466823913405051e-05,-1.758061210086214e-05,-2.783372923964294e-05,3.9333,6.1333
3.8828125,-3.2228695040360115e-05,-3.027597792767224e-05,-2.832055622064546e-05,-2.832055622064546e-05,3.9333,6.1333
3.88671875,-3.466823913405051e-05,-2.5391480551613647e-05,-2.148604632623789e-05,-3.027597792767224e-05,3.9333,6.1333
3.890625,-4.003956349111162e-05,-3.4181412153047995e-05,-1.1232929187457088e-05,-3.027597792767224e-05,3.9333,6.1333
3.89453125,-3.613412926573586e-05,-3.906320493476768e-05,-2.1972873307240406e-05,-2.832055622064546e-05,3.9333,6.1333
3.8984375,-3.5644597690394444e-05,-4.19922806037995e-05,-2.0996514750896473e-05,-2.3928295014267185e-05,3.9333,6.1333
3.90234375,-4.1505453622796976e-05,-2.5391480551613647e-05,-1.758061210086214e-05,-2.588101212695506e-05,3.9333,6.1333
3.90625,-3.95527365101091e-05,-2.881008779598688e-05,-3.0762804908674754e-05,-2.588101212695506e-05,3.9333,6.1333
3.91015625,-4.0529095066453046e-05,-4.443452929182879e-05,-1.9043797638208593e-05,-2.783372923964294e-05,3.9333,6.1333
3.9140625,-4.3458170735484856e-05,-3.95527365101091e-05,-1.562519039383536e-05,-3.515777070939193e-05,3.9333,6.1333
3.91796875,-3.8576377953765166e-05,-3.2228695040360115e-05,-4.003956349111162e-05,-3.515777070939193e-05,3.9333,6.1333
3.921875,-3.320505359670405e-05,-3.4181412153047995e-05,-3.95527365101091e-05,-3.369188057770657e-05,3.9333,6.1333
3.92578125,-3.2228695040360115e-05,-4.1505453622796976e-05,-3.5644597690394444e-05,-3.613412926573586e-05,3.9333,6.1333
3.9296875,-2.832055622064546e-05,-2.050968776989395e-05,-3.027597792767224e-05,-3.808684637842374e-05,3.9333,6.1333
3.93359375,-2.6857370683299e-05,-1.953332921355001e-05,-2.6367839107957583e-05,-3.662095624673839e-05,3.9333,6.1333
3.9375,-3.027597792767224e-05,-4.443452929182879e-05,-4.736360496086061e-05,-3.8576377953765166e-05,3.9333,6.1333
3.94140625,-3.515777070939193e-05,-4.443452929182879e-05,-6.200898330601968e-05,-3.808684637842374e-05,3.9333,6.1333
3.9453125,-3.5644597690394444e-05,-4.1505453622796976e-05,-3.906320493476768e-05,-3.760001939742123e-05,3.9333,6.1333
3.94921875,-3.515777070939193e-05,-4.003956349111162e-05,-1.7091080525520716e-05,-4.101592204745556e-05,3.9333,6.1333
3.953125,-3.320505359670405e-05,-4.6876777979858097e-05,-2.832055622064546e-05,-4.248181217914091e-05,3.9333,6.1333
3.95703125,-3.125233648401618e-05,-4.1505453622796976e-05,-4.590041942351415e-05,-3.95527365101091e-05,3.9333,6.1333
3.9609375,-3.466823913405051e-05,-4.003956349111162e-05,-5.615353656229496e-05,-3.7110487822079805e-05,3.9333,6.1333
3.96484375,-3.466823913405051e-05,-4.003956349111162e-05,-5.1758570761577786e-05,-3.613412926573586e-05,3.9333,6.1333
3.96875,-3.4181412153047995e-05,-3.369188057770657e-05,-3.8576377953765166e-05,-3.5644597690394444e-05,3.9333,6.1333
3.97265625,-3.369188057770657e-05,-4.443452929182879e-05,-2.5391480551613647e-05,-3.515777070939193e-05,3.9333,6.1333
3.9765625,-2.6367839107957583e-05,-3.7110487822079805e-05,-3.8576377953765166e-05,-3.0762804908674754e-05,3.9333,6.1333
3.98046875,-2.3438763438925767e-05,-3.515777070939193e-05,-5.224810233691921e-05,-2.832055622064546e-05,3.9333,6.1333
3.984375,-2.6367839107957583e-05,-5.420081944960708e-05,-5.371128787426566e-05,-3.515777070939193e-05,3.9333,6.1333
3.98828125,-2.6367839107957583e-05,-4.6876777979858097e-05,-5.9082612231326773e-05,-3.760001939742123e-05,3.9333,6.1333
3.9921875,-2.6367839107957583e-05,-4.736360496086061e-05,-6.542759055039291e-05,-3.369188057770657e-05,3.9333,6.1333
3.99609375,-3.466823913405051e-05,-6.73803076630808e-05,-6.835666621942474e-05,-3.5644597690394444e-05,3.9333,6.1333
