timestamp,TP9,AF7,AF8,TP10,Valence,Arousal
0.0,4.491726416418703e-05,5.3205064753185266e-05,3.5148571306935194e-05,2.4392616937514275e-05,4.9333,7.2667
0.00390625,3.171913658045315e-05,5.564723796749826e-05,3.8552025467307516e-05,2.878333261005565e-05,4.9333,7.2667
0.0078125,3.2706398092622237e-05,7.079390800946055e-05,4.930797983672843e-05,3.026422487830925e-05,4.9333,7.2667
0.01171875,3.5642202063019706e-05,6.884536555123213e-05,5.419232626535435e-05,3.075785563439379e-05,4.9333,7.2667
0.015625,3.366767903868157e-05,6.003795364003963e-05,5.271143399710075e-05,3.2706398092622237e-05,4.9333,7.2667
0.01953125,3.709711376516361e-05,4.6865806622415474e-05,4.6372175866330934e-05,2.9276963366140193e-05,4.9333,7.2667
0.0234375,3.5148571306935194e-05,4.930797983672843e-05,4.587854511024639e-05,2.831568242008083e-05,4.9333,7.2667
0.02734375,3.610985225299456e-05,5.076289153887231e-05,4.6865806622415474e-05,3.075785563439379e-05,4.9333,7.2667
0.03125,3.5642202063019706e-05,4.491726416418703e-05,3.953928697947657e-05,3.320002884870675e-05,4.9333,7.2667
0.03515625,3.660348300907907e-05,4.247509094987407e-05,2.878333261005565e-05,3.122550582436861e-05,4.9333,7.2667
0.0390625,3.80843752773327e-05,3.709711376516361e-05,3.171913658045315e-05,2.831568242008083e-05,4.9333,7.2667
0.04296875,3.80843752773327e-05,4.247509094987407e-05,4.099419868162047e-05,2.7822051663996288e-05,4.9333,7.2667
0.046875,4.0032917735561115e-05,4.442363340810249e-05,3.4654940550850654e-05,2.9770594122224736e-05,4.9333,7.2667
0.05078125,3.904565622339203e-05,4.881434908064389e-05,2.0989162777141956e-05,2.7328420907911776e-05,4.9333,7.2667
0.0546875,3.709711376516361e-05,4.7827087568474805e-05,1.3169012378118537e-05,2.4886247693598788e-05,4.9333,7.2667
0.05859375,3.759074452124815e-05,3.8552025467307516e-05,1.9040620318913512e-05,2.7328420907911776e-05,4.9333,7.2667
0.0625,4.099419868162047e-05,3.904565622339203e-05,2.000190126497287e-05,2.5873509205767874e-05,4.9333,7.2667
0.06640625,4.0526548491645655e-05,3.075785563439379e-05,1.4156273890287593e-05,2.878333261005565e-05,4.9333,7.2667
0.0703125,3.80843752773327e-05,3.026422487830925e-05,2.0495532021057413e-05,2.6367139961852414e-05,4.9333,7.2667
0.07421875,3.660348300907907e-05,2.878333261005565e-05,1.5117554836346954e-05,3.416130979476611e-05,4.9333,7.2667
0.078125,3.709711376516361e-05,2.7822051663996288e-05,2.0989162777141956e-05,3.320002884870675e-05,4.9333,7.2667
0.08203125,3.8552025467307516e-05,3.416130979476611e-05,3.709711376516361e-05,2.148279353322647e-05,4.9333,7.2667
0.0859375,3.759074452124815e-05,2.878333261005565e-05,2.7822051663996288e-05,2.7822051663996288e-05,4.9333,7.2667
0.08984375,2.878333261005565e-05,2.1950443723201318e-05,3.026422487830925e-05,3.22127673365377e-05,4.9333,7.2667
0.09375,2.878333261005565e-05,2.4886247693598788e-05,3.80843752773327e-05,3.4654940550850654e-05,4.9333,7.2667
0.09765625,4.0032917735561115e-05,3.320002884870675e-05,3.2706398092622237e-05,3.171913658045315e-05,4.9333,7.2667
0.1015625,3.5642202063019706e-05,3.2706398092622237e-05,2.7328420907911776e-05,3.709711376516361e-05,4.9333,7.2667
0.10546875,2.9276963366140193e-05,3.075785563439379e-05,3.122550582436861e-05,3.075785563439379e-05,4.9333,7.2667
0.109375,3.953928697947657e-05,3.320002884870675e-05,3.320002884870675e-05,2.5873509205767874e-05,4.9333,7.2667
0.11328125,3.80843752773327e-05,3.5642202063019706e-05,3.416130979476611e-05,2.6834790151827232e-05,4.9333,7.2667
0.1171875,3.2706398092622237e-05,3.2706398092622237e-05,3.2706398092622237e-05,2.831568242008083e-05,4.9333,7.2667
0.12109375,3.5148571306935194e-05,2.831568242008083e-05,3.709711376516361e-05,3.122550582436861e-05,4.9333,7.2667
0.125,3.366767903868157e-05,2.4886247693598788e-05,3.80843752773327e-05,2.9276963366140193e-05,4.9333,7.2667
0.12890625,3.709711376516361e-05,2.1950443723201318e-05,3.953928697947657e-05,2.878333261005565e-05,4.9333,7.2667
0.1328125,3.5148571306935194e-05,3.5148571306935194e-05,5.614086872358277e-05,2.878333261005565e-05,4.9333,7.2667
0.13671875,3.026422487830925e-05,4.442363340810249e-05,5.125652229495685e-05,3.075785563439379e-05,4.9333,7.2667
0.140625,3.416130979476611e-05,3.366767903868157e-05,3.171913658045315e-05,3.026422487830925e-05,4.9333,7.2667
0.14453125,3.904565622339203e-05,3.660348300907907e-05,2.7822051663996288e-05,2.9770594122224736e-05,4.9333,7.2667
0.1484375,4.0032917735561115e-05,4.148782943770501e-05,2.9276963366140193e-05,3.22127673365377e-05,4.9333,7.2667
0.15234375,3.709711376516361e-05,4.393000265201798e-05,2.831568242008083e-05,2.9276963366140193e-05,4.9333,7.2667
0.15625,3.366767903868157e-05,3.5148571306935194e-05,2.4886247693598788e-05,3.953928697947657e-05,4.9333,7.2667
0.16015625,3.759074452124815e-05,3.22127673365377e-05,3.80843752773327e-05,3.904565622339203e-05,4.9333,7.2667
0.1640625,3.5148571306935194e-05,4.099419868162047e-05,4.491726416418703e-05,2.537987844968333e-05,4.9333,7.2667
0.16796875,3.171913658045315e-05,2.9770594122224736e-05,3.416130979476611e-05,2.9276963366140193e-05,4.9333,7.2667
0.171875,3.4654940550850654e-05,2.7822051663996288e-05,3.2706398092622237e-05,3.075785563439379e-05,4.9333,7.2667
0.17578125,3.366767903868157e-05,3.366767903868157e-05,3.320002884870675e-05,3.026422487830925e-05,4.9333,7.2667
0.1796875,3.416130979476611e-05,3.122550582436861e-05,3.366767903868157e-05,3.122550582436861e-05,4.9333,7.2667
0.18359375,3.5642202063019706e-05,3.5642202063019706e-05,3.22127673365377e-05,3.171913658045315e-05,4.9333,7.2667
0.1875,3.660348300907907e-05,3.8552025467307516e-05,2.831568242008083e-05,3.2706398092622237e-05,4.9333,7.2667
0.19140625,3.610985225299456e-05,3.709711376516361e-05,2.537987844968333e-05,3.026422487830925e-05,4.9333,7.2667
0.1953125,3.904565622339203e-05,3.8552025467307516e-05,3.660348300907907e-05,2.878333261005565e-05,4.9333,7.2667
0.19921875,3.8552025467307516e-05,3.366767903868157e-05,4.296872170595861e-05,3.366767903868157e-05,4.9333,7.2667
0.203125,3.709711376516361e-05,2.7328420907911776e-05,3.122550582436861e-05,2.6834790151827232e-05,4.9333,7.2667
0.20703125,3.416130979476611e-05,2.6834790151827232e-05,3.610985225299456e-05,3.5642202063019706e-05,4.9333,7.2667
0.2109375,3.026422487830925e-05,2.878333261005565e-05,3.8552025467307516e-05,4.247509094987407e-05,4.9333,7.2667
0.21484375,3.22127673365377e-05,3.122550582436861e-05,3.5148571306935194e-05,2.6367139961852414e-05,4.9333,7.2667
0.21875,3.4654940550850654e-05,3.5148571306935194e-05,4.296872170595861e-05,2.831568242008083e-05,4.9333,7.2667
0.22265625,3.4654940550850654e-05,3.171913658045315e-05,2.6834790151827232e-05,3.026422487830925e-05,4.9333,7.2667
0.2265625,3.4654940550850654e-05,2.537987844968333e-05,2.4886247693598788e-05,2.6367139961852414e-05,4.9333,7.2667
0.23046875,3.320002884870675e-05,2.1950443723201318e-05,3.5642202063019706e-05,3.075785563439379e-05,4.9333,7.2667
0.234375,3.4654940550850654e-05,2.7328420907911776e-05,2.3924966747539457e-05,3.122550582436861e-05,4.9333,7.2667
0.23828125,3.122550582436861e-05,2.878333261005565e-05,2.5873509205767874e-05,3.709711376516361e-05,4.9333,7.2667
0.2421875,2.9770594122224736e-05,2.4392616937514275e-05,4.296872170595861e-05,3.075785563439379e-05,4.9333,7.2667
0.24609375,3.610985225299456e-05,2.6367139961852414e-05,4.296872170595861e-05,2.6834790151827232e-05,4.9333,7.2667
0.25,3.5148571306935194e-05,2.3431335991454914e-05,3.660348300907907e-05,3.026422487830925e-05,4.9333,7.2667
0.25390625,3.075785563439379e-05,3.610985225299456e-05,4.393000265201798e-05,2.9276963366140193e-05,4.9333,7.2667
0.2578125,3.416130979476611e-05,3.610985225299456e-05,3.416130979476611e-05,2.878333261005565e-05,4.9333,7.2667
0.26171875,3.5642202063019706e-05,2.831568242008083e-05,2.148279353322647e-05,2.5873509205767874e-05,4.9333,7.2667
0.265625,3.075785563439379e-05,4.148782943770501e-05,3.709711376516361e-05,3.026422487830925e-05,4.9333,7.2667
0.26953125,3.5148571306935194e-05,3.22127673365377e-05,3.075785563439379e-05,3.22127673365377e-05,4.9333,7.2667
0.2734375,4.247509094987407e-05,1.4517770626382571e-06,1.945407818722771e-06,2.4886247693598788e-05,4.9333,7.2667
0.27734375,3.660348300907907e-05,-1.9046889597924815e-05,-1.2214000711070455e-05,2.244407447928583e-05,4.9333,7.2667
0.28125,4.0526548491645655e-05,-3.858427531242852e-05,-3.858427531242852e-05,2.6367139961852414e-05,4.9333,7.2667
0.28515625,4.832071832455935e-05,-5.4692226300450185e-05,-6.495454991378656e-05,2.0989162777141956e-05,4.9333,7.2667
0.2890625,5.125652229495685e-05,-6.594181142595563e-05,-7.422961201495388e-05,5.842492735179633e-06,4.9333,7.2667
0.29296875,5.125652229495685e-05,-7.960758919966434e-05,-9.426062848554211e-05,7.791035193408077e-06,4.9333,7.2667
0.296875,5.271143399710075e-05,-9.181845527122916e-05,-0.00010499060228885332,1.0233208407721036e-05,4.9333,7.2667
0.30078125,5.663449947966731e-05,-0.00010693914474708175,-0.00011475929514610516,8.284665949492592e-06,4.9333,7.2667
0.3046875,5.8089411181811214e-05,-0.00011086221022964832,-0.0001196436415747311,6.829754247348717e-06,4.9333,7.2667
0.30859375,5.663449947966731e-05,-0.00011182349117570767,-0.00012208581478904406,1.072683916380555e-05,4.9333,7.2667
0.3125,6.003795364003963e-05,-0.00010743277550316628,-0.00012891870367589842,4.881211789120271e-06,4.9333,7.2667
0.31640625,5.957030345006481e-05,-0.00010548423304493786,-0.00012502161875944156,1.945407818722771e-06,4.9333,7.2667
0.3203125,5.858304193789573e-05,-0.00010842003701533535,-0.00012208581478904406,8.778296705577133e-06,4.9333,7.2667
0.32421875,5.712813023575185e-05,-0.00010205479831845582,-0.00011086221022964832,3.400319520866674e-06,4.9333,7.2667
0.328125,5.564723796749826e-05,-8.984393224689101e-05,-0.00010402932134279396,9.765558217746218e-06,4.9333,7.2667
0.33203125,5.564723796749826e-05,-8.789538978866258e-05,-9.426062848554211e-05,1.659844710460055e-05,4.9333,7.2667
0.3359375,5.515360721141371e-05,-8.693410884260322e-05,-8.301104336003667e-05,4.38758103303573e-06,4.9333,7.2667
0.33984375,5.515360721141371e-05,-7.277470031280999e-05,-7.667178522926685e-05,1.2181750865949454e-05,4.9333,7.2667
0.34375,5.564723796749826e-05,-6.495454991378656e-05,-7.765904674143591e-05,7.791035193408077e-06,4.9333,7.2667
0.34765625,5.3698695509269806e-05,-6.300600745555813e-05,-7.521687352712294e-05,1.5611185592431495e-05,4.9333,7.2667
0.3515625,4.9801610592812944e-05,-5.2743683842221754e-05,-6.594181142595563e-05,2.3431335991454914e-05,4.9333,7.2667
0.35546875,5.1750153051041395e-05,-4.201371003891055e-05,-5.1782402896162396e-05,1.0233208407721036e-05,4.9333,7.2667
0.359375,5.3698695509269806e-05,-4.4455883253223504e-05,-5.861529178301674e-05,1.4156273890287593e-05,4.9333,7.2667
0.36328125,5.125652229495685e-05,-4.2481360228885365e-05,-5.713439951476314e-05,1.3662643134203051e-05,4.9333,7.2667
0.3671875,5.2243783807125935e-05,-2.4918497538719802e-05,-2.5412128294804346e-05,2.0495532021057413e-05,4.9333,7.2667
0.37109375,5.125652229495685e-05,-1.6137066193637026e-05,-2.7854301509117306e-05,2.244407447928583e-05,4.9333,7.2667
0.375,5.1750153051041395e-05,-3.4687190395971655e-05,-3.957153682459758e-05,2.000190126497287e-05,4.9333,7.2667
0.37890625,5.3205064753185266e-05,-4.346862174105443e-05,-4.396225249713898e-05,2.000190126497287e-05,4.9333,7.2667
0.3828125,4.7359437378499987e-05,-4.00391870145724e-05,-4.736570665751129e-05,1.3662643134203051e-05,4.9333,7.2667
0.38671875,5.0269260782787796e-05,-3.614210209811554e-05,-3.762299436636915e-05,2.000190126497287e-05,4.9333,7.2667
0.390625,5.712813023575185e-05,-4.689805646753646e-05,-4.6404425711451935e-05,1.8546989562828996e-05,4.9333,7.2667
0.39453125,5.907667269398027e-05,-8.010121995574887e-05,-7.765904674143591e-05,7.32338500343323e-06,4.9333,7.2667
0.3984375,5.515360721141371e-05,-9.620917094377055e-05,-9.376699772945759e-05,1.3662643134203051e-05,4.9333,7.2667
0.40234375,6.248012685435258e-05,-0.00010402932134279396,-9.766408264591442e-05,1.706609729457537e-05,4.9333,7.2667
0.40625,6.884536555123213e-05,-0.00013084126556801712,-0.00011720146836041812,1.3169012378118537e-05,4.9333,7.2667
0.41015625,6.835173479514759e-05,-0.00013084126556801712,-0.00013084126556801712,1.4623924080262412e-05,4.9333,7.2667
0.4140625,6.835173479514759e-05,-0.00012697016121766998,-0.00013767415445487148,1.5611185592431495e-05,4.9333,7.2667
0.41796875,7.175518895551991e-05,-0.00013232215783627073,-0.0001391550467231251,1.4156273890287593e-05,4.9333,7.2667
0.421875,6.98066464972915e-05,-0.00012941233443198295,-0.00013572561199664307,1.3169012378118537e-05,4.9333,7.2667
0.42578125,6.442866931258103e-05,-0.0001259828997055009,-0.00013133489632410165,2.3924966747539457e-05,4.9333,7.2667
0.4296875,6.346738836652168e-05,-0.0001167078376043336,-0.00012842507291981387,2.537987844968333e-05,4.9333,7.2667
0.43359375,6.297375761043714e-05,-0.00010010625586022741,-0.00010205479831845582,1.2181750865949454e-05,4.9333,7.2667
0.4375,5.957030345006481e-05,-9.181845527122916e-05,-8.449193562829026e-05,2.000190126497287e-05,4.9333,7.2667
0.44140625,5.564723796749826e-05,-7.277470031280999e-05,-8.010121995574887e-05,2.3431335991454914e-05,4.9333,7.2667
0.4453125,5.614086872358277e-05,-5.762803027084767e-05,-6.300600745555813e-05,1.950827050888833e-05,4.9333,7.2667
0.44921875,4.881434908064389e-05,-5.66407687586786e-05,-5.908294197299157e-05,2.878333261005565e-05,4.9333,7.2667
0.453125,4.148782943770501e-05,-4.396225249713898e-05,-5.373094535439083e-05,3.171913658045315e-05,4.9333,7.2667
0.45703125,4.491726416418703e-05,-2.0527781866178414e-05,-3.1257755669489625e-05,1.706609729457537e-05,4.9333,7.2667
0.4609375,4.1981460193789526e-05,1.945407818722771e-06,-2.1021412622262957e-05,1.950827050888833e-05,4.9333,7.2667
0.46484375,3.709711376516361e-05,2.9066887647821315e-06,-1.8579239407949983e-05,2.537987844968333e-05,4.9333,7.2667
0.46875,3.4654940550850654e-05,8.284665949492592e-06,-6.836023526359994e-06,2.7328420907911776e-05,4.9333,7.2667
0.47265625,3.366767903868157e-05,1.7559728050659913e-05,5.842492735179633e-06,2.537987844968333e-05,4.9333,7.2667
0.4765625,3.122550582436861e-05,2.244407447928583e-05,1.2675381622033995e-05,2.6834790151827232e-05,4.9333,7.2667
0.48046875,2.7822051663996288e-05,2.9276963366140193e-05,2.148279353322647e-05,3.026422487830925e-05,4.9333,7.2667
0.484375,2.5873509205767874e-05,3.5148571306935194e-05,3.4654940550850654e-05,3.026422487830925e-05,4.9333,7.2667
0.48828125,2.4886247693598788e-05,3.709711376516361e-05,5.468595702143889e-05,3.416130979476611e-05,4.9333,7.2667
0.4921875,2.4392616937514275e-05,3.5148571306935194e-05,4.247509094987407e-05,3.660348300907907e-05,4.9333,7.2667
0.49609375,2.4392616937514275e-05,4.296872170595861e-05,2.6834790151827232e-05,4.1981460193789526e-05,4.9333,7.2667
0.5,2.537987844968333e-05,4.1981460193789526e-05,4.0032917735561115e-05,4.1981460193789526e-05,4.9333,7.2667
0.50390625,2.6367139961852414e-05,3.8552025467307516e-05,4.343637189593343e-05,2.7328420907911776e-05,4.9333,7.2667
0.5078125,2.0495532021057413e-05,4.881434908064389e-05,5.2243783807125935e-05,3.22127673365377e-05,4.9333,7.2667
0.51171875,2.148279353322647e-05,4.9801610592812944e-05,5.957030345006481e-05,3.4654940550850654e-05,4.9333,7.2667
0.515625,2.244407447928583e-05,5.125652229495685e-05,5.3205064753185266e-05,3.366767903868157e-05,4.9333,7.2667
0.51953125,2.000190126497287e-05,5.419232626535435e-05,5.0269260782787796e-05,3.5642202063019706e-05,4.9333,7.2667
0.5234375,2.0495532021057413e-05,5.419232626535435e-05,5.419232626535435e-05,3.122550582436861e-05,4.9333,7.2667
0.52734375,1.7559728050659913e-05,4.491726416418703e-05,4.1981460193789526e-05,4.099419868162047e-05,4.9333,7.2667
0.53125,1.4623924080262412e-05,3.8552025467307516e-05,3.610985225299456e-05,4.1981460193789526e-05,4.9333,7.2667
0.53515625,1.8053358806744456e-05,4.881434908064389e-05,4.442363340810249e-05,2.5873509205767874e-05,4.9333,7.2667
0.5390625,1.8546989562828996e-05,5.076289153887231e-05,4.7359437378499987e-05,2.9770594122224736e-05,4.9333,7.2667
0.54296875,1.6104816348516008e-05,4.6372175866330934e-05,4.9801610592812944e-05,3.4654940550850654e-05,4.9333,7.2667
0.546875,1.659844710460055e-05,5.2243783807125935e-05,4.7827087568474805e-05,3.366767903868157e-05,4.9333,7.2667
0.55078125,2.0989162777141956e-05,6.053158439612417e-05,4.0526548491645655e-05,3.2706398092622237e-05,4.9333,7.2667
0.5546875,2.293770523537037e-05,6.785810403906305e-05,4.0032917735561115e-05,3.22127673365377e-05,4.9333,7.2667
0.55859375,2.1950443723201318e-05,8.64082282413977e-05,4.343637189593343e-05,3.2706398092622237e-05,4.9333,7.2667
0.5625,2.3924966747539457e-05,9.861909431296248e-05,3.904565622339203e-05,2.831568242008083e-05,4.9333,7.2667
0.56640625,2.0989162777141956e-05,7.858807784237427e-05,2.7822051663996288e-05,3.953928697947657e-05,4.9333,7.2667
0.5703125,2.244407447928583e-05,7.175518895551991e-05,3.759074452124815e-05,3.8552025467307516e-05,4.9333,7.2667
0.57421875,2.6834790151827232e-05,7.617188519417101e-05,6.151884590829323e-05,2.3924966747539457e-05,4.9333,7.2667
0.578125,2.0989162777141956e-05,6.198649609826807e-05,6.931301574120695e-05,3.416130979476611e-05,4.9333,7.2667
0.58203125,1.7559728050659913e-05,5.076289153887231e-05,6.346738836652168e-05,3.610985225299456e-05,4.9333,7.2667
0.5859375,1.5611185592431495e-05,4.538491435416185e-05,6.835173479514759e-05,3.80843752773327e-05,4.9333,7.2667
0.58984375,1.706609729457537e-05,4.0526548491645655e-05,6.98066464972915e-05,3.5642202063019706e-05,4.9333,7.2667
0.59375,1.7559728050659913e-05,4.0032917735561115e-05,6.396101912260621e-05,3.22127673365377e-05,4.9333,7.2667
0.59765625,1.5117554836346954e-05,4.930797983672843e-05,5.907667269398027e-05,4.1981460193789526e-05,4.9333,7.2667
0.6015625,1.7559728050659913e-05,4.6372175866330934e-05,5.515360721141371e-05,4.099419868162047e-05,4.9333,7.2667
0.60546875,2.148279353322647e-05,5.3698695509269806e-05,5.907667269398027e-05,2.6367139961852414e-05,4.9333,7.2667
0.609375,2.3431335991454914e-05,6.151884590829323e-05,5.515360721141371e-05,3.2706398092622237e-05,4.9333,7.2667
0.61328125,2.3431335991454914e-05,5.8089411181811214e-05,5.614086872358277e-05,3.660348300907907e-05,4.9333,7.2667
0.6171875,2.4886247693598788e-05,5.759578042572667e-05,6.003795364003963e-05,3.22127673365377e-05,4.9333,7.2667
0.62109375,2.1950443723201318e-05,5.712813023575185e-05,6.736447328297854e-05,3.320002884870675e-05,4.9333,7.2667
0.625,1.8053358806744456e-05,5.3205064753185266e-05,8.056260086671242e-05,3.5642202063019706e-05,4.9333,7.2667
0.62890625,2.148279353322647e-05,5.515360721141371e-05,6.785810403906305e-05,3.416130979476611e-05,4.9333,7.2667
0.6328125,2.3924966747539457e-05,5.907667269398027e-05,4.296872170595861e-05,3.320002884870675e-05,4.9333,7.2667
0.63671875,2.3924966747539457e-05,5.907667269398027e-05,5.2243783807125935e-05,3.5148571306935194e-05,4.9333,7.2667
0.640625,2.4886247693598788e-05,5.957030345006481e-05,5.957030345006481e-05,3.366767903868157e-05,4.9333,7.2667
0.64453125,2.3924966747539457e-05,4.930797983672843e-05,4.7359437378499987e-05,3.953928697947657e-05,4.9333,7.2667
0.6484375,2.293770523537037e-05,5.1750153051041395e-05,5.2243783807125935e-05,3.709711376516361e-05,4.9333,7.2667
0.65234375,2.1950443723201318e-05,5.759578042572667e-05,5.663449947966731e-05,2.293770523537037e-05,4.9333,7.2667
0.65625,2.000190126497287e-05,6.248012685435258e-05,5.3698695509269806e-05,2.9770594122224736e-05,4.9333,7.2667
0.66015625,2.148279353322647e-05,5.957030345006481e-05,5.2243783807125935e-05,3.22127673365377e-05,4.9333,7.2667
0.6640625,2.0495532021057413e-05,5.1750153051041395e-05,5.515360721141371e-05,3.366767903868157e-05,4.9333,7.2667
0.66796875,1.950827050888833e-05,5.2243783807125935e-05,6.346738836652168e-05,3.416130979476611e-05,4.9333,7.2667
0.671875,2.1950443723201318e-05,5.468595702143889e-05,6.053158439612417e-05,3.22127673365377e-05,4.9333,7.2667
0.67578125,2.3924966747539457e-05,5.614086872358277e-05,5.614086872358277e-05,3.416130979476611e-05,4.9333,7.2667
0.6796875,2.6367139961852414e-05,5.0269260782787796e-05,5.3698695509269806e-05,3.2706398092622237e-05,4.9333,7.2667
0.68359375,2.7328420907911776e-05,5.419232626535435e-05,5.614086872358277e-05,3.122550582436861e-05,4.9333,7.2667
0.6875,2.5873509205767874e-05,5.712813023575185e-05,5.125652229495685e-05,3.2706398092622237e-05,4.9333,7.2667
0.69140625,2.7822051663996288e-05,5.858304193789573e-05,4.7359437378499987e-05,2.9770594122224736e-05,4.9333,7.2667
0.6953125,3.026422487830925e-05,5.712813023575185e-05,5.419232626535435e-05,2.7822051663996288e-05,4.9333,7.2667
0.69921875,2.4392616937514275e-05,5.468595702143889e-05,6.442866931258103e-05,3.709711376516361e-05,4.9333,7.2667
0.703125,2.3924966747539457e-05,5.663449947966731e-05,6.442866931258103e-05,3.80843752773327e-05,4.9333,7.2667
0.70703125,2.878333261005565e-05,6.003795364003963e-05,5.614086872358277e-05,2.878333261005565e-05,4.9333,7.2667
0.7109375,2.831568242008083e-05,5.858304193789573e-05,4.9801610592812944e-05,3.122550582436861e-05,4.9333,7.2667
0.71484375,2.5873509205767874e-05,5.419232626535435e-05,4.832071832455935e-05,3.22127673365377e-05,4.9333,7.2667
0.71875,2.6834790151827232e-05,4.881434908064389e-05,5.515360721141371e-05,3.320002884870675e-05,4.9333,7.2667
0.72265625,2.9770594122224736e-05,4.442363340810249e-05,5.907667269398027e-05,3.2706398092622237e-05,4.9333,7.2667
0.7265625,2.831568242008083e-05,4.393000265201798e-05,5.076289153887231e-05,3.026422487830925e-05,4.9333,7.2667
0.73046875,2.4886247693598788e-05,4.442363340810249e-05,5.1750153051041395e-05,2.9770594122224736e-05,4.9333,7.2667
0.734375,2.3431335991454914e-05,4.442363340810249e-05,4.9801610592812944e-05,2.9770594122224736e-05,4.9333,7.2667
0.73828125,2.5873509205767874e-05,4.881434908064389e-05,4.491726416418703e-05,3.026422487830925e-05,4.9333,7.2667
0.7421875,2.6367139961852414e-05,5.564723796749826e-05,4.7827087568474805e-05,3.22127673365377e-05,4.9333,7.2667
0.74609375,2.7822051663996288e-05,5.1750153051041395e-05,5.3698695509269806e-05,3.22127673365377e-05,4.9333,7.2667
0.75,2.9770594122224736e-05,5.076289153887231e-05,4.832071832455935e-05,2.9770594122224736e-05,4.9333,7.2667
0.75390625,3.171913658045315e-05,5.907667269398027e-05,4.0526548491645655e-05,3.122550582436861e-05,4.9333,7.2667
0.7578125,3.026422487830925e-05,6.297375761043714e-05,4.9801610592812944e-05,3.366767903868157e-05,4.9333,7.2667
0.76171875,3.026422487830925e-05,4.7827087568474805e-05,4.832071832455935e-05,3.171913658045315e-05,4.9333,7.2667
0.765625,3.4654940550850654e-05,4.9801610592812944e-05,4.442363340810249e-05,3.075785563439379e-05,4.9333,7.2667
0.76953125,3.5642202063019706e-05,5.907667269398027e-05,4.930797983672843e-05,3.075785563439379e-05,4.9333,7.2667
0.7734375,3.2706398092622237e-05,4.930797983672843e-05,4.099419868162047e-05,4.247509094987407e-05,4.9333,7.2667
0.77734375,3.171913658045315e-05,5.2243783807125935e-05,3.660348300907907e-05,3.416130979476611e-05,4.9333,7.2667
0.78125,3.80843752773327e-05,7.372971197985804e-05,4.930797983672843e-05,1.4623924080262412e-05,4.9333,7.2667
0.78515625,4.099419868162047e-05,7.419736216983287e-05,5.515360721141371e-05,1.950827050888833e-05,4.9333,7.2667
0.7890625,3.366767903868157e-05,5.3698695509269806e-05,4.148782943770501e-05,2.4392616937514275e-05,4.9333,7.2667
0.79296875,2.1950443723201318e-05,4.6865806622415474e-05,4.099419868162047e-05,3.660348300907907e-05,4.9333,7.2667
0.796875,2.0495532021057413e-05,5.957030345006481e-05,6.492230006866555e-05,3.8552025467307516e-05,4.9333,7.2667
0.80078125,1.950827050888833e-05,7.224881971160445e-05,8.690185899748224e-05,3.80843752773327e-05,4.9333,7.2667
0.8046875,1.3662643134203051e-05,8.056260086671242e-05,8.98376629678797e-05,4.247509094987407e-05,4.9333,7.2667
0.80859375,9.271927461661675e-06,8.788912050965129e-05,0.00010350344074158844,4.296872170595861e-05,4.9333,7.2667
0.8125,9.765558217746218e-06,8.835677069962611e-05,0.00012644428061646442,4.442363340810249e-05,4.9333,7.2667
0.81640625,1.3169012378118537e-05,9.373474788433657e-05,0.00011327213359884027,4.1981460193789526e-05,4.9333,7.2667
0.8203125,1.659844710460055e-05,0.00010056763677119093,8.544694729533833e-05,4.0032917735561115e-05,4.9333,7.2667
0.82421875,1.8546989562828996e-05,0.00010545198319981684,8.885040145571065e-05,3.953928697947657e-05,4.9333,7.2667
0.828125,1.950827050888833e-05,0.00010838778717021435,9.667055185473406e-05,3.5148571306935194e-05,4.9333,7.2667
0.83203125,2.0989162777141956e-05,0.0001059456139559014,8.98376629678797e-05,3.5642202063019706e-05,4.9333,7.2667
0.8359375,2.244407447928583e-05,0.00010007400601510639,9.472200939650565e-05,3.709711376516361e-05,4.9333,7.2667
0.83984375,2.293770523537037e-05,9.617692109864952e-05,9.861909431296248e-05,3.8552025467307516e-05,4.9333,7.2667
0.84375,2.244407447928583e-05,9.812546355687797e-05,9.861909431296248e-05,4.0032917735561115e-05,4.9333,7.2667
0.84765625,2.1950443723201318e-05,9.079894391393907e-05,9.518965958648047e-05,4.0032917735561115e-05,4.9333,7.2667
0.8515625,2.148279353322647e-05,8.347242427100018e-05,9.033129372396425e-05,3.8552025467307516e-05,4.9333,7.2667
0.85546875,2.3924966747539457e-05,7.957533935454332e-05,8.934403221179519e-05,3.709711376516361e-05,4.9333,7.2667
0.859375,2.293770523537037e-05,7.76267968963149e-05,8.739548975356675e-05,3.8552025467307516e-05,4.9333,7.2667
0.86328125,1.9040620318913512e-05,6.884536555123213e-05,8.739548975356675e-05,3.953928697947657e-05,4.9333,7.2667
0.8671875,2.244407447928583e-05,5.957030345006481e-05,9.033129372396425e-05,3.5642202063019706e-05,4.9333,7.2667
0.87109375,2.4392616937514275e-05,6.736447328297854e-05,9.861909431296248e-05,3.5148571306935194e-05,4.9333,7.2667
0.875,2.6834790151827232e-05,7.128753876554509e-05,8.300477408102537e-05,3.2706398092622237e-05,4.9333,7.2667
0.87890625,2.878333261005565e-05,6.6870842526894e-05,5.076289153887231e-05,3.122550582436861e-05,4.9333,7.2667
0.8828125,2.6834790151827232e-05,6.396101912260621e-05,5.076289153887231e-05,3.171913658045315e-05,4.9333,7.2667
0.88671875,2.6834790151827232e-05,6.003795364003963e-05,5.957030345006481e-05,3.2706398092622237e-05,4.9333,7.2667
0.890625,2.5873509205767874e-05,5.515360721141371e-05,5.8089411181811214e-05,3.2706398092622237e-05,4.9333,7.2667
0.89453125,2.7822051663996288e-05,5.858304193789573e-05,6.151884590829323e-05,3.171913658045315e-05,4.9333,7.2667
0.8984375,3.075785563439379e-05,6.151884590829323e-05,6.6870842526894e-05,3.416130979476611e-05,4.9333,7.2667
0.90234375,3.026422487830925e-05,5.759578042572667e-05,6.785810403906305e-05,3.22127673365377e-05,4.9333,7.2667
0.90625,2.9276963366140193e-05,5.858304193789573e-05,6.931301574120695e-05,3.122550582436861e-05,4.9333,7.2667
0.91015625,2.7328420907911776e-05,5.759578042572667e-05,5.663449947966731e-05,3.075785563439379e-05,4.9333,7.2667
0.9140625,3.171913658045315e-05,5.3205064753185266e-05,4.442363340810249e-05,2.7822051663996288e-05,4.9333,7.2667
0.91796875,3.5642202063019706e-05,4.7827087568474805e-05,4.296872170595861e-05,2.6834790151827232e-05,4.9333,7.2667
0.921875,3.22127673365377e-05,4.6372175866330934e-05,4.538491435416185e-05,2.7822051663996288e-05,4.9333,7.2667
0.92578125,3.122550582436861e-05,5.1750153051041395e-05,4.6865806622415474e-05,3.122550582436861e-05,4.9333,7.2667
0.9296875,3.122550582436861e-05,4.7827087568474805e-05,5.271143399710075e-05,2.9770594122224736e-05,4.9333,7.2667
0.93359375,2.878333261005565e-05,4.7359437378499987e-05,5.2243783807125935e-05,3.026422487830925e-05,4.9333,7.2667
0.9375,3.171913658045315e-05,5.0269260782787796e-05,4.881434908064389e-05,3.171913658045315e-05,4.9333,7.2667
0.94140625,3.320002884870675e-05,4.6865806622415474e-05,5.2243783807125935e-05,3.366767903868157e-05,4.9333,7.2667
0.9453125,3.075785563439379e-05,4.587854511024639e-05,5.125652229495685e-05,3.366767903868157e-05,4.9333,7.2667
0.94921875,3.171913658045315e-05,3.8552025467307516e-05,5.1750153051041395e-05,3.122550582436861e-05,4.9333,7.2667
0.953125,3.320002884870675e-05,4.0526548491645655e-05,4.148782943770501e-05,3.026422487830925e-05,4.9333,7.2667
0.95703125,3.22127673365377e-05,4.587854511024639e-05,3.904565622339203e-05,3.026422487830925e-05,4.9333,7.2667
0.9609375,3.22127673365377e-05,4.0526548491645655e-05,4.0526548491645655e-05,3.026422487830925e-05,4.9333,7.2667
0.96484375,3.5148571306935194e-05,4.247509094987407e-05,4.393000265201798e-05,2.9276963366140193e-05,4.9333,7.2667
0.96875,3.416130979476611e-05,4.881434908064389e-05,4.881434908064389e-05,3.171913658045315e-05,4.9333,7.2667
0.97265625,2.9276963366140193e-05,4.1981460193789526e-05,4.538491435416185e-05,3.366767903868157e-05,4.9333,7.2667
0.9765625,2.9276963366140193e-05,3.8552025467307516e-05,4.7827087568474805e-05,3.366767903868157e-05,4.9333,7.2667
0.98046875,3.026422487830925e-05,4.247509094987407e-05,4.491726416418703e-05,3.22127673365377e-05,4.9333,7.2667
0.984375,3.2706398092622237e-05,4.0032917735561115e-05,4.099419868162047e-05,2.9770594122224736e-05,4.9333,7.2667
0.98828125,3.2706398092622237e-05,3.953928697947657e-05,3.709711376516361e-05,2.9276963366140193e-05,4.9333,7.2667
0.9921875,3.122550582436861e-05,3.80843752773327e-05,3.026422487830925e-05,3.122550582436861e-05,4.9333,7.2667
0.99609375,3.416130979476611e-05,3.904565622339203e-05,3.171913658045315e-05,3.122550582436861e-05,4.9333,7.2667
1.0,3.416130979476611e-05,4.393000265201798e-05,3.709711376516361e-05,3.075785563439379e-05,4.9333,7.2667
1.00390625,3.22127673365377e-05,3.709711376516361e-05,3.5642202063019706e-05,4.442363340810249e-05,4.9333,7.2667
1.0078125,3.320002884870675e-05,3.5642202063019706e-05,4.099419868162047e-05,3.8552025467307516e-05,4.9333,7.2667
1.01171875,3.5642202063019706e-05,4.6865806622415474e-05,4.1981460193789526e-05,2.4392616937514275e-05,4.9333,7.2667
1.015625,3.416130979476611e-05,4.0032917735561115e-05,2.9276963366140193e-05,2.9770594122224736e-05,4.9333,7.2667
1.01953125,3.122550582436861e-05,3.5642202063019706e-05,3.80843752773327e-05,3.122550582436861e-05,4.9333,7.2667
1.0234375,3.075785563439379e-05,4.148782943770501e-05,4.247509094987407e-05,2.9770594122224736e-05,4.9333,7.2667
1.02734375,3.22127673365377e-05,3.320002884870675e-05,4.393000265201798e-05,3.171913658045315e-05,4.9333,7.2667
1.03125,3.5148571306935194e-05,2.9276963366140193e-05,4.0526548491645655e-05,3.122550582436861e-05,4.9333,7.2667
1.03515625,3.416130979476611e-05,3.5148571306935194e-05,3.026422487830925e-05,3.122550582436861e-05,4.9333,7.2667
1.0390625,3.5148571306935194e-05,4.1981460193789526e-05,3.660348300907907e-05,2.9770594122224736e-05,4.9333,7.2667
1.04296875,3.904565622339203e-05,4.7827087568474805e-05,4.6865806622415474e-05,2.7822051663996288e-05,4.9333,7.2667
1.046875,3.610985225299456e-05,5.8089411181811214e-05,4.6372175866330934e-05,2.5873509205767874e-05,4.9333,7.2667
1.05078125,3.320002884870675e-05,6.198649609826807e-05,5.3205064753185266e-05,2.7822051663996288e-05,4.9333,7.2667
1.0546875,3.075785563439379e-05,4.9801610592812944e-05,5.125652229495685e-05,2.7822051663996288e-05,4.9333,7.2667
1.05859375,3.366767903868157e-05,4.442363340810249e-05,5.125652229495685e-05,2.537987844968333e-05,4.9333,7.2667
1.0625,3.5642202063019706e-05,6.346738836652168e-05,7.617188519417101e-05,2.293770523537037e-05,4.9333,7.2667
1.06640625,3.075785563439379e-05,8.056260086671242e-05,8.006897011062788e-05,2.0495532021057413e-05,4.9333,7.2667
1.0703125,2.878333261005565e-05,8.934403221179519e-05,6.785810403906305e-05,1.706609729457537e-05,4.9333,7.2667
1.07421875,3.22127673365377e-05,9.227983618219269e-05,7.32360812237735e-05,2.1950443723201318e-05,4.9333,7.2667
1.078125,3.22127673365377e-05,9.373474788433657e-05,8.788912050965129e-05,2.6834790151827232e-05,4.9333,7.2667
1.08203125,3.122550582436861e-05,9.617692109864952e-05,9.763183280079343e-05,1.706609729457537e-05,4.9333,7.2667
1.0859375,3.075785563439379e-05,8.591459748531314e-05,8.885040145571065e-05,2.0495532021057413e-05,4.9333,7.2667
1.08984375,2.9276963366140193e-05,8.396605502708472e-05,8.103025105668723e-05,2.0495532021057413e-05,4.9333,7.2667
1.09375,2.9276963366140193e-05,8.396605502708472e-05,8.201751256885628e-05,2.000190126497287e-05,4.9333,7.2667
1.09765625,3.122550582436861e-05,7.617188519417101e-05,8.445968578316925e-05,2.1950443723201318e-05,4.9333,7.2667
1.1015625,3.320002884870675e-05,7.372971197985804e-05,8.64082282413977e-05,2.293770523537037e-05,4.9333,7.2667
1.10546875,3.366767903868157e-05,7.76267968963149e-05,8.103025105668723e-05,2.4392616937514275e-05,4.9333,7.2667
1.109375,3.171913658045315e-05,6.102521515220871e-05,7.079390800946055e-05,2.6367139961852414e-05,4.9333,7.2667
1.11328125,2.9770594122224736e-05,6.151884590829323e-05,6.346738836652168e-05,2.6367139961852414e-05,4.9333,7.2667
1.1171875,2.9276963366140193e-05,6.492230006866555e-05,5.564723796749826e-05,2.5873509205767874e-05,4.9333,7.2667
1.12109375,3.320002884870675e-05,6.198649609826807e-05,4.7827087568474805e-05,2.6367139961852414e-05,4.9333,7.2667
1.125,3.366767903868157e-05,6.442866931258103e-05,4.930797983672843e-05,2.537987844968333e-05,4.9333,7.2667
1.12890625,3.22127673365377e-05,5.907667269398027e-05,5.1750153051041395e-05,2.6834790151827232e-05,4.9333,7.2667
1.1328125,3.4654940550850654e-05,6.003795364003963e-05,5.0269260782787796e-05,2.7328420907911776e-05,4.9333,7.2667
1.13671875,3.610985225299456e-05,5.8089411181811214e-05,5.663449947966731e-05,2.831568242008083e-05,4.9333,7.2667
1.140625,3.5642202063019706e-05,5.125652229495685e-05,6.198649609826807e-05,2.7822051663996288e-05,4.9333,7.2667
1.14453125,3.416130979476611e-05,4.930797983672843e-05,6.198649609826807e-05,2.878333261005565e-05,4.9333,7.2667
1.1484375,3.122550582436861e-05,4.7827087568474805e-05,5.3698695509269806e-05,3.610985225299456e-05,4.9333,7.2667
1.15234375,3.5148571306935194e-05,5.3698695509269806e-05,5.2243783807125935e-05,2.7328420907911776e-05,4.9333,7.2667
1.15625,3.709711376516361e-05,5.3205064753185266e-05,5.3698695509269806e-05,2.293770523537037e-05,4.9333,7.2667
1.16015625,3.5148571306935194e-05,4.491726416418703e-05,4.491726416418703e-05,2.6834790151827232e-05,4.9333,7.2667
1.1640625,3.610985225299456e-05,4.832071832455935e-05,3.80843752773327e-05,2.878333261005565e-05,4.9333,7.2667
1.16796875,4.0526548491645655e-05,4.6865806622415474e-05,3.8552025467307516e-05,2.6834790151827232e-05,4.9333,7.2667
1.171875,3.8552025467307516e-05,4.343637189593343e-05,4.148782943770501e-05,2.7328420907911776e-05,4.9333,7.2667
1.17578125,3.320002884870675e-05,5.0269260782787796e-05,4.393000265201798e-05,2.7822051663996288e-05,4.9333,7.2667
1.1796875,3.366767903868157e-05,4.832071832455935e-05,3.904565622339203e-05,2.831568242008083e-05,4.9333,7.2667
1.18359375,3.2706398092622237e-05,5.1750153051041395e-05,4.393000265201798e-05,3.026422487830925e-05,4.9333,7.2667
1.1875,3.366767903868157e-05,5.2243783807125935e-05,5.3205064753185266e-05,2.9276963366140193e-05,4.9333,7.2667
1.19140625,3.2706398092622237e-05,5.2243783807125935e-05,5.3205064753185266e-05,3.075785563439379e-05,4.9333,7.2667
1.1953125,3.416130979476611e-05,5.076289153887231e-05,4.587854511024639e-05,3.22127673365377e-05,4.9333,7.2667
1.19921875,3.610985225299456e-05,4.393000265201798e-05,4.9801610592812944e-05,3.122550582436861e-05,4.9333,7.2667
1.203125,3.22127673365377e-05,4.296872170595861e-05,5.8089411181811214e-05,3.026422487830925e-05,4.9333,7.2667
1.20703125,3.4654940550850654e-05,4.0526548491645655e-05,5.076289153887231e-05,3.2706398092622237e-05,4.9333,7.2667
1.2109375,3.4654940550850654e-05,3.5642202063019706e-05,3.80843752773327e-05,3.610985225299456e-05,4.9333,7.2667
1.21484375,3.5642202063019706e-05,4.296872170595861e-05,3.2706398092622237e-05,2.1950443723201318e-05,4.9333,7.2667
1.21875,3.660348300907907e-05,4.6865806622415474e-05,3.4654940550850654e-05,2.293770523537037e-05,4.9333,7.2667
1.22265625,3.416130979476611e-05,3.80843752773327e-05,3.660348300907907e-05,2.6367139961852414e-05,4.9333,7.2667
1.2265625,3.416130979476611e-05,3.366767903868157e-05,5.076289153887231e-05,2.6834790151827232e-05,4.9333,7.2667
1.23046875,3.320002884870675e-05,3.904565622339203e-05,4.247509094987407e-05,2.6367139961852414e-05,4.9333,7.2667
1.234375,3.4654940550850654e-05,3.953928697947657e-05,2.7328420907911776e-05,2.4886247693598788e-05,4.9333,7.2667
1.23828125,3.80843752773327e-05,3.80843752773327e-05,3.5148571306935194e-05,2.5873509205767874e-05,4.9333,7.2667
1.2421875,3.660348300907907e-05,3.075785563439379e-05,3.610985225299456e-05,2.7328420907911776e-05,4.9333,7.2667
1.24609375,3.171913658045315e-05,2.7328420907911776e-05,3.953928697947657e-05,2.9770594122224736e-05,4.9333,7.2667
1.25,2.9770594122224736e-05,2.7328420907911776e-05,3.610985225299456e-05,3.075785563439379e-05,4.9333,7.2667
1.25390625,3.075785563439379e-05,2.0989162777141956e-05,2.3924966747539457e-05,3.22127673365377e-05,4.9333,7.2667
1.2578125,3.075785563439379e-05,2.5873509205767874e-05,2.0989162777141956e-05,3.075785563439379e-05,4.9333,7.2667
1.26171875,2.831568242008083e-05,1.4623924080262412e-05,2.0989162777141956e-05,2.9770594122224736e-05,4.9333,7.2667
1.265625,3.320002884870675e-05,2.0495532021057413e-05,2.7822051663996288e-05,3.122550582436861e-05,4.9333,7.2667
1.26953125,3.366767903868157e-05,1.8546989562828996e-05,3.366767903868157e-05,3.5642202063019706e-05,4.9333,7.2667
1.2734375,3.075785563439379e-05,1.3662643134203051e-05,3.366767903868157e-05,3.660348300907907e-05,4.9333,7.2667
1.27734375,3.416130979476611e-05,2.6834790151827232e-05,3.366767903868157e-05,3.22127673365377e-05,4.9333,7.2667
1.28125,3.8552025467307516e-05,4.0032917735561115e-05,3.026422487830925e-05,3.075785563439379e-05,4.9333,7.2667
1.28515625,4.247509094987407e-05,3.026422487830925e-05,1.706609729457537e-05,3.026422487830925e-05,4.9333,7.2667
1.2890625,3.22127673365377e-05,4.0032917735561115e-05,2.000190126497287e-05,2.9276963366140193e-05,4.9333,7.2667
1.29296875,3.171913658045315e-05,6.492230006866555e-05,1.8546989562828996e-05,2.7328420907911776e-05,4.9333,7.2667
1.296875,3.953928697947657e-05,5.712813023575185e-05,1.4156273890287593e-05,2.3431335991454914e-05,4.9333,7.2667
1.30078125,3.759074452124815e-05,4.881434908064389e-05,2.000190126497287e-05,2.7328420907911776e-05,4.9333,7.2667
1.3046875,2.9276963366140193e-05,4.099419868162047e-05,3.026422487830925e-05,3.171913658045315e-05,4.9333,7.2667
1.30859375,3.5148571306935194e-05,2.9770594122224736e-05,4.148782943770501e-05,2.878333261005565e-05,4.9333,7.2667
1.3125,3.8552025467307516e-05,2.000190126497287e-05,3.759074452124815e-05,3.026422487830925e-05,4.9333,7.2667
1.31640625,3.122550582436861e-05,1.659844710460055e-05,3.5148571306935194e-05,3.5642202063019706e-05,4.9333,7.2667
1.3203125,3.8552025467307516e-05,2.4886247693598788e-05,3.122550582436861e-05,3.22127673365377e-05,4.9333,7.2667
1.32421875,4.296872170595861e-05,1.1714100675974634e-05,2.7822051663996288e-05,2.9770594122224736e-05,4.9333,7.2667
1.328125,4.148782943770501e-05,-1.4162543169298885e-05,2.3924966747539457e-05,3.075785563439379e-05,4.9333,7.2667
1.33203125,3.171913658045315e-05,1.6104816348516008e-05,3.366767903868157e-05,3.320002884870675e-05,4.9333,7.2667
1.3359375,3.22127673365377e-05,4.1981460193789526e-05,3.660348300907907e-05,3.171913658045315e-05,4.9333,7.2667
1.33984375,3.660348300907907e-05,1.1220469919890092e-05,1.706609729457537e-05,2.4886247693598788e-05,4.9333,7.2667
1.34375,3.904565622339203e-05,-7.329654282444537e-06,6.829754247348717e-06,2.3924966747539457e-05,4.9333,7.2667
1.34765625,4.491726416418703e-05,-2.1021412622262957e-05,-8.810546550698134e-06,2.1950443723201318e-05,4.9333,7.2667
1.3515625,4.9801610592812944e-05,-4.980787987182425e-05,-3.4687190395971655e-05,1.8053358806744456e-05,4.9333,7.2667
1.35546875,4.0526548491645655e-05,-5.4692226300450185e-05,-4.8352968169680366e-05,1.8546989562828996e-05,4.9333,7.2667
1.359375,4.0032917735561115e-05,-4.2974990984969905e-05,-5.323731459830628e-05,1.8546989562828996e-05,4.9333,7.2667
1.36328125,5.515360721141371e-05,-5.2743683842221754e-05,-6.446091915770203e-05,1.5117554836346954e-05,4.9333,7.2667
1.3671875,6.248012685435258e-05,-8.594684733043416e-05,-7.277470031280999e-05,1.3169012378118537e-05,4.9333,7.2667
1.37109375,5.614086872358277e-05,-0.00011475929514610516,-8.984393224689101e-05,1.2675381622033995e-05,4.9333,7.2667
1.375,5.759578042572667e-05,-0.00012159218403295952,-0.00011915001081864655,5.842492735179633e-06,4.9333,7.2667
1.37890625,6.98066464972915e-05,-0.00011330438344396129,-0.00012403435724727248,5.3488619790950904e-06,4.9333,7.2667
1.3828125,7.030027725337601e-05,-9.914497491416804e-05,-0.00011231712193179221,6.829754247348717e-06,4.9333,7.2667
1.38671875,5.663449947966731e-05,-8.155613165789276e-05,-0.00010449697153276878,1.072683916380555e-05,4.9333,7.2667
1.390625,6.736447328297854e-05,-0.00010059988661631193,-0.000124527988003357,7.32338500343323e-06,4.9333,7.2667
1.39453125,6.590956158083463e-05,-0.00012159218403295952,-0.00013671287350881212,6.829754247348717e-06,4.9333,7.2667
1.3984375,5.2243783807125935e-05,-0.0001225794455451286,-0.00012109855327687498,1.4156273890287593e-05,4.9333,7.2667
1.40234375,6.053158439612417e-05,-0.00011086221022964832,-0.00010938131796139471,1.1220469919890092e-05,4.9333,7.2667
1.40625,6.442866931258103e-05,-8.449193562829026e-05,-0.00010402932134279396,1.072683916380555e-05,4.9333,7.2667
1.41015625,5.515360721141371e-05,-7.716541598535139e-05,-9.914497491416804e-05,1.2181750865949454e-05,4.9333,7.2667
1.4140625,5.468595702143889e-05,-8.693410884260322e-05,-0.00010205479831845582,1.4156273890287593e-05,4.9333,7.2667
1.41796875,6.151884590829323e-05,-0.00013133489632410165,-0.00012403435724727248,1.1714100675974634e-05,4.9333,7.2667
1.421875,6.736447328297854e-05,-0.00011426566439002064,-0.00012891870367589842,8.284665949492592e-06,4.9333,7.2667
1.42578125,6.98066464972915e-05,-0.00011525292590218969,-0.00012891870367589842,9.271927461661675e-06,4.9333,7.2667
1.4296875,6.248012685435258e-05,-0.00014305213163958192,-0.00013671287350881212,1.659844710460055e-05,4.9333,7.2667
1.43359375,6.346738836652168e-05,-0.00014354576239566648,-0.00014011632766918443,1.950827050888833e-05,4.9333,7.2667
1.4375,6.590956158083463e-05,-0.00016160225584191658,-0.00013621924275272757,2.000190126497287e-05,4.9333,7.2667
1.44140625,6.248012685435258e-05,-0.00013377706953841462,-0.0001318285270801862,2.244407447928583e-05,4.9333,7.2667
1.4453125,6.248012685435258e-05,-0.00011720146836041812,-0.00014793647806820787,1.8053358806744456e-05,4.9333,7.2667
1.44921875,6.736447328297854e-05,-0.000124527988003357,-0.00014354576239566648,2.000190126497287e-05,4.9333,7.2667
1.453125,6.785810403906305e-05,-0.00011426566439002064,-0.0001352319812405585,2.537987844968333e-05,4.9333,7.2667
1.45703125,5.957030345006481e-05,-0.00011086221022964832,-0.0001347643310505837,2.6367139961852414e-05,4.9333,7.2667
1.4609375,5.125652229495685e-05,-0.00010693914474708175,-0.00012063090308690016,2.6367139961852414e-05,4.9333,7.2667
1.46484375,5.663449947966731e-05,-9.181845527122916e-05,-0.00010499060228885332,2.5873509205767874e-05,4.9333,7.2667
1.46875,5.564723796749826e-05,-8.350467411612119e-05,-9.71704518898299e-05,2.537987844968333e-05,4.9333,7.2667
1.47265625,5.125652229495685e-05,-8.594684733043416e-05,-8.742773959868776e-05,2.878333261005565e-05,4.9333,7.2667
1.4765625,4.442363340810249e-05,-6.594181142595563e-05,-7.178743880064092e-05,2.878333261005565e-05,4.9333,7.2667
1.48046875,4.296872170595861e-05,-5.762803027084767e-05,-6.495454991378656e-05,3.075785563439379e-05,4.9333,7.2667
1.484375,4.1981460193789526e-05,-4.4455883253223504e-05,-5.567948781261926e-05,3.171913658045315e-05,4.9333,7.2667
1.48828125,3.8552025467307516e-05,-3.22450171816587e-05,-4.1026448526741474e-05,3.416130979476611e-05,4.9333,7.2667
1.4921875,3.5148571306935194e-05,-2.296995508049137e-05,-3.564847134203101e-05,3.366767903868157e-05,4.9333,7.2667
1.49609375,3.709711376516361e-05,-2.4453078538186045e-06,-2.7360670753032763e-05,2.831568242008083e-05,4.9333,7.2667
1.5,3.366767903868157e-05,2.9066887647821315e-06,-1.1252719765011107e-05,2.5873509205767874e-05,4.9333,7.2667
1.50390625,2.5873509205767874e-05,4.881211789120271e-06,-1.0265458252842037e-05,2.9770594122224736e-05,4.9333,7.2667
1.5078125,2.3431335991454914e-05,1.0233208407721036e-05,4.881211789120271e-06,3.122550582436861e-05,4.9333,7.2667
1.51171875,2.7328420907911776e-05,2.148279353322647e-05,9.765558217746218e-06,2.4886247693598788e-05,4.9333,7.2667
1.515625,2.000190126497287e-05,3.026422487830925e-05,8.778296705577133e-06,3.8552025467307516e-05,4.9333,7.2667
1.51953125,1.8546989562828996e-05,3.5148571306935194e-05,3.320002884870675e-05,3.80843752773327e-05,4.9333,7.2667
1.5234375,1.950827050888833e-05,3.709711376516361e-05,2.000190126497287e-05,3.610985225299456e-05,4.9333,7.2667
1.52734375,2.000190126497287e-05,4.7827087568474805e-05,1.8053358806744456e-05,3.171913658045315e-05,4.9333,7.2667
1.53125,2.293770523537037e-05,6.053158439612417e-05,5.271143399710075e-05,1.8053358806744456e-05,4.9333,7.2667
1.53515625,1.950827050888833e-05,5.3698695509269806e-05,4.7827087568474805e-05,2.831568242008083e-05,4.9333,7.2667
1.5390625,1.8546989562828996e-05,5.3698695509269806e-05,4.442363340810249e-05,3.171913658045315e-05,4.9333,7.2667
1.54296875,1.8546989562828996e-05,5.3698695509269806e-05,2.7822051663996288e-05,3.610985225299456e-05,4.9333,7.2667
1.546875,1.8546989562828996e-05,5.125652229495685e-05,2.7822051663996288e-05,3.171913658045315e-05,4.9333,7.2667
1.55078125,2.0495532021057413e-05,6.151884590829323e-05,5.564723796749826e-05,3.075785563439379e-05,4.9333,7.2667
1.5546875,1.7559728050659913e-05,5.858304193789573e-05,6.151884590829323e-05,3.8552025467307516e-05,4.9333,7.2667
1.55859375,1.8546989562828996e-05,5.663449947966731e-05,4.9801610592812944e-05,3.759074452124815e-05,4.9333,7.2667
1.5625,2.1950443723201318e-05,6.884536555123213e-05,6.248012685435258e-05,3.122550582436861e-05,4.9333,7.2667
1.56640625,1.9040620318913512e-05,7.030027725337601e-05,7.079390800946055e-05,3.5642202063019706e-05,4.9333,7.2667
1.5703125,1.8053358806744456e-05,6.835173479514759e-05,5.663449947966731e-05,3.320002884870675e-05,4.9333,7.2667
1.57421875,1.9040620318913512e-05,6.835173479514759e-05,7.030027725337601e-05,3.4654940550850654e-05,4.9333,7.2667
1.578125,1.7559728050659913e-05,6.884536555123213e-05,7.224881971160445e-05,4.6865806622415474e-05,4.9333,7.2667
1.58203125,1.9040620318913512e-05,6.492230006866555e-05,6.931301574120695e-05,4.0032917735561115e-05,4.9333,7.2667
1.5859375,2.4392616937514275e-05,6.640319233691917e-05,7.030027725337601e-05,2.878333261005565e-05,4.9333,7.2667
1.58984375,2.0989162777141956e-05,5.907667269398027e-05,6.640319233691917e-05,3.660348300907907e-05,4.9333,7.2667
1.59375,2.0495532021057413e-05,5.858304193789573e-05,6.590956158083463e-05,3.22127673365377e-05,4.9333,7.2667
1.59765625,2.244407447928583e-05,6.640319233691917e-05,7.32360812237735e-05,3.122550582436861e-05,4.9333,7.2667
1.6015625,2.148279353322647e-05,6.590956158083463e-05,7.617188519417101e-05,3.80843752773327e-05,4.9333,7.2667
1.60546875,2.4886247693598788e-05,6.98066464972915e-05,7.663953538414583e-05,3.709711376516361e-05,4.9333,7.2667
1.609375,2.244407447928583e-05,6.541593082475009e-05,8.788912050965129e-05,3.80843752773327e-05,4.9333,7.2667
1.61328125,2.000190126497287e-05,6.492230006866555e-05,7.469099292591741e-05,3.759074452124815e-05,4.9333,7.2667
1.6171875,2.4886247693598788e-05,6.346738836652168e-05,6.053158439612417e-05,3.610985225299456e-05,4.9333,7.2667
1.62109375,2.6834790151827232e-05,6.492230006866555e-05,6.492230006866555e-05,3.759074452124815e-05,4.9333,7.2667
1.625,2.244407447928583e-05,6.6870842526894e-05,6.297375761043714e-05,4.343637189593343e-05,4.9333,7.2667
1.62890625,2.4392616937514275e-05,6.6870842526894e-05,7.32360812237735e-05,3.2706398092622237e-05,4.9333,7.2667
1.6328125,2.3924966747539457e-05,6.931301574120695e-05,8.006897011062788e-05,3.4654940550850654e-05,4.9333,7.2667
1.63671875,1.8546989562828996e-05,6.884536555123213e-05,7.175518895551991e-05,3.953928697947657e-05,4.9333,7.2667
1.640625,2.148279353322647e-05,7.175518895551991e-05,8.056260086671242e-05,3.759074452124815e-05,4.9333,7.2667
1.64453125,2.293770523537037e-05,7.372971197985804e-05,8.445968578316925e-05,3.904565622339203e-05,4.9333,7.2667
1.6484375,2.3924966747539457e-05,6.492230006866555e-05,6.346738836652168e-05,3.8552025467307516e-05,4.9333,7.2667
1.65234375,2.537987844968333e-05,6.198649609826807e-05,6.931301574120695e-05,3.709711376516361e-05,4.9333,7.2667
1.65625,2.3924966747539457e-05,6.492230006866555e-05,7.908170859845878e-05,3.80843752773327e-05,4.9333,7.2667
1.66015625,2.0495532021057413e-05,5.957030345006481e-05,6.346738836652168e-05,4.587854511024639e-05,4.9333,7.2667
1.6640625,2.1950443723201318e-05,5.858304193789573e-05,7.469099292591741e-05,4.099419868162047e-05,4.9333,7.2667
1.66796875,2.6367139961852414e-05,6.248012685435258e-05,8.544694729533833e-05,3.320002884870675e-05,4.9333,7.2667
1.671875,2.5873509205767874e-05,6.736447328297854e-05,7.419736216983287e-05,3.709711376516361e-05,4.9333,7.2667
1.67578125,2.3924966747539457e-05,6.736447328297854e-05,5.759578042572667e-05,3.5148571306935194e-05,4.9333,7.2667
1.6796875,2.4392616937514275e-05,5.712813023575185e-05,5.8089411181811214e-05,3.416130979476611e-05,4.9333,7.2667
1.68359375,2.4886247693598788e-05,5.8089411181811214e-05,7.617188519417101e-05,3.610985225299456e-05,4.9333,7.2667
1.6875,2.4392616937514275e-05,6.102521515220871e-05,6.198649609826807e-05,3.320002884870675e-05,4.9333,7.2667
1.69140625,2.537987844968333e-05,6.248012685435258e-05,5.663449947966731e-05,2.9276963366140193e-05,4.9333,7.2667
1.6953125,2.6834790151827232e-05,6.102521515220871e-05,7.32360812237735e-05,3.610985225299456e-05,4.9333,7.2667
1.69921875,2.4392616937514275e-05,6.102521515220871e-05,6.590956158083463e-05,4.491726416418703e-05,4.9333,7.2667
1.703125,2.537987844968333e-05,6.151884590829323e-05,5.3698695509269806e-05,3.171913658045315e-05,4.9333,7.2667
1.70703125,2.7822051663996288e-05,5.8089411181811214e-05,5.564723796749826e-05,2.6367139961852414e-05,4.9333,7.2667
1.7109375,2.3431335991454914e-05,5.957030345006481e-05,6.396101912260621e-05,3.320002884870675e-05,4.9333,7.2667
1.71484375,2.1950443723201318e-05,5.957030345006481e-05,5.907667269398027e-05,3.075785563439379e-05,4.9333,7.2667
1.71875,2.4392616937514275e-05,5.663449947966731e-05,5.8089411181811214e-05,3.075785563439379e-05,4.9333,7.2667
1.72265625,2.6367139961852414e-05,6.442866931258103e-05,7.518462368200195e-05,3.026422487830925e-05,4.9333,7.2667
1.7265625,2.3924966747539457e-05,5.907667269398027e-05,6.785810403906305e-05,3.80843752773327e-05,4.9333,7.2667
1.73046875,2.3924966747539457e-05,5.3698695509269806e-05,5.858304193789573e-05,4.0526548491645655e-05,4.9333,7.2667
1.734375,2.831568242008083e-05,5.515360721141371e-05,6.835173479514759e-05,2.6834790151827232e-05,4.9333,7.2667
1.73828125,2.6834790151827232e-05,5.468595702143889e-05,6.640319233691917e-05,3.122550582436861e-05,4.9333,7.2667
1.7421875,2.7328420907911776e-05,5.076289153887231e-05,6.151884590829323e-05,3.709711376516361e-05,4.9333,7.2667
1.74609375,2.6834790151827232e-05,5.1750153051041395e-05,5.1750153051041395e-05,3.5148571306935194e-05,4.9333,7.2667
1.75,2.3924966747539457e-05,5.419232626535435e-05,4.9801610592812944e-05,3.4654940550850654e-05,4.9333,7.2667
1.75390625,2.537987844968333e-05,5.3698695509269806e-05,4.7827087568474805e-05,3.5642202063019706e-05,4.9333,7.2667
1.7578125,2.7328420907911776e-05,5.614086872358277e-05,4.296872170595861e-05,3.5642202063019706e-05,4.9333,7.2667
1.76171875,2.7328420907911776e-05,4.6372175866330934e-05,4.0526548491645655e-05,3.075785563439379e-05,4.9333,7.2667
1.765625,2.7822051663996288e-05,3.610985225299456e-05,4.393000265201798e-05,4.1981460193789526e-05,4.9333,7.2667
1.76953125,2.878333261005565e-05,4.491726416418703e-05,5.419232626535435e-05,4.247509094987407e-05,4.9333,7.2667
1.7734375,3.171913658045315e-05,5.419232626535435e-05,5.614086872358277e-05,2.6367139961852414e-05,4.9333,7.2667
1.77734375,3.366767903868157e-05,6.736447328297854e-05,6.640319233691917e-05,2.6834790151827232e-05,4.9333,7.2667
1.78125,2.7822051663996288e-05,6.884536555123213e-05,6.736447328297854e-05,3.075785563439379e-05,4.9333,7.2667
1.78515625,2.4886247693598788e-05,2.878333261005565e-05,4.442363340810249e-05,2.9770594122224736e-05,4.9333,7.2667
1.7890625,2.6834790151827232e-05,3.2706398092622237e-05,4.538491435416185e-05,2.7328420907911776e-05,4.9333,7.2667
1.79296875,2.3431335991454914e-05,7.419736216983287e-05,7.224881971160445e-05,2.878333261005565e-05,4.9333,7.2667
1.796875,2.0989162777141956e-05,7.518462368200195e-05,7.858807784237427e-05,2.9770594122224736e-05,4.9333,7.2667
1.80078125,2.293770523537037e-05,7.858807784237427e-05,8.006897011062788e-05,2.7328420907911776e-05,4.9333,7.2667
1.8046875,2.244407447928583e-05,8.396605502708472e-05,9.129257467002361e-05,2.3431335991454914e-05,4.9333,7.2667
1.80859375,2.6367139961852414e-05,9.617692109864952e-05,0.00010106126752727547,2.244407447928583e-05,4.9333,7.2667
1.8125,3.22127673365377e-05,0.00011716921851529713,0.00011179124133058667,2.000190126497287e-05,4.9333,7.2667
1.81640625,2.3431335991454914e-05,0.00010449070225375749,0.00011228487208667121,3.2706398092622237e-05,4.9333,7.2667
1.8203125,1.950827050888833e-05,9.324111712825203e-05,0.00011522067605706871,2.7328420907911776e-05,4.9333,7.2667
1.82421875,2.7328420907911776e-05,0.00011033632962844277,0.00012155993418783853,2.293770523537037e-05,4.9333,7.2667
1.828125,3.171913658045315e-05,0.00010204852903944453,0.00010789415641412981,2.9770594122224736e-05,4.9333,7.2667
1.83203125,2.3924966747539457e-05,9.373474788433657e-05,0.00010789415641412981,3.171913658045315e-05,4.9333,7.2667
1.8359375,2.7328420907911776e-05,0.00010545198319981684,0.00011423341454489963,2.9770594122224736e-05,4.9333,7.2667
1.83984375,3.122550582436861e-05,0.0001093750486823834,0.00010155489828335998,2.831568242008083e-05,4.9333,7.2667
1.84375,3.075785563439379e-05,0.00010300980998550388,9.079894391393907e-05,2.878333261005565e-05,4.9333,7.2667
1.84765625,3.122550582436861e-05,8.201751256885628e-05,8.300477408102537e-05,2.7328420907911776e-05,4.9333,7.2667
1.8515625,3.122550582436861e-05,8.056260086671242e-05,8.835677069962611e-05,2.831568242008083e-05,4.9333,7.2667
1.85546875,3.5642202063019706e-05,8.056260086671242e-05,9.422837864042111e-05,2.9276963366140193e-05,4.9333,7.2667
1.859375,2.6367139961852414e-05,6.6870842526894e-05,9.079894391393907e-05,3.171913658045315e-05,4.9333,7.2667
1.86328125,2.9276963366140193e-05,7.908170859845878e-05,8.251114332494083e-05,3.075785563439379e-05,4.9333,7.2667
1.8671875,3.026422487830925e-05,8.885040145571065e-05,7.713316614023037e-05,3.026422487830925e-05,4.9333,7.2667
1.87109375,2.4392616937514275e-05,8.98376629678797e-05,8.591459748531314e-05,3.5148571306935194e-05,4.9333,7.2667
1.875,2.9770594122224736e-05,8.98376629678797e-05,9.422837864042111e-05,3.5148571306935194e-05,4.9333,7.2667
1.87890625,3.5148571306935194e-05,7.32360812237735e-05,9.178620542610815e-05,3.366767903868157e-05,4.9333,7.2667
1.8828125,3.759074452124815e-05,7.76267968963149e-05,8.690185899748224e-05,3.366767903868157e-05,4.9333,7.2667
1.88671875,1.9040620318913512e-05,6.346738836652168e-05,7.419736216983287e-05,3.5642202063019706e-05,4.9333,7.2667
1.890625,2.0989162777141956e-05,5.564723796749826e-05,6.053158439612417e-05,3.4654940550850654e-05,4.9333,7.2667
1.89453125,3.8552025467307516e-05,4.538491435416185e-05,5.564723796749826e-05,3.075785563439379e-05,4.9333,7.2667
1.8984375,3.80843752773327e-05,3.953928697947657e-05,5.663449947966731e-05,3.122550582436861e-05,4.9333,7.2667
1.90234375,1.950827050888833e-05,7.079390800946055e-05,6.98066464972915e-05,3.610985225299456e-05,4.9333,7.2667
1.90625,2.537987844968333e-05,5.663449947966731e-05,6.98066464972915e-05,3.416130979476611e-05,4.9333,7.2667
1.91015625,3.5148571306935194e-05,4.881434908064389e-05,5.957030345006481e-05,3.171913658045315e-05,4.9333,7.2667
1.9140625,2.9770594122224736e-05,7.274245046768899e-05,5.858304193789573e-05,3.22127673365377e-05,4.9333,7.2667
1.91796875,3.8552025467307516e-05,6.102521515220871e-05,6.297375761043714e-05,2.9770594122224736e-05,4.9333,7.2667
1.921875,3.5148571306935194e-05,6.053158439612417e-05,6.396101912260621e-05,2.7822051663996288e-05,4.9333,7.2667
1.92578125,1.950827050888833e-05,4.0032917735561115e-05,6.492230006866555e-05,3.2706398092622237e-05,4.9333,7.2667
1.9296875,2.0495532021057413e-05,3.759074452124815e-05,6.736447328297854e-05,3.2706398092622237e-05,4.9333,7.2667
1.93359375,3.8552025467307516e-05,8.056260086671242e-05,6.98066464972915e-05,2.6834790151827232e-05,4.9333,7.2667
1.9375,2.1950443723201318e-05,5.663449947966731e-05,6.248012685435258e-05,2.831568242008083e-05,4.9333,7.2667
1.94140625,2.5873509205767874e-05,4.9801610592812944e-05,5.858304193789573e-05,2.878333261005565e-05,4.9333,7.2667
1.9453125,3.953928697947657e-05,7.812042765239946e-05,6.396101912260621e-05,3.122550582436861e-05,4.9333,7.2667
1.94921875,3.5642202063019706e-05,6.736447328297854e-05,6.785810403906305e-05,3.2706398092622237e-05,4.9333,7.2667
1.953125,3.416130979476611e-05,5.468595702143889e-05,6.541593082475009e-05,3.171913658045315e-05,4.9333,7.2667
1.95703125,2.7822051663996288e-05,5.3205064753185266e-05,5.858304193789573e-05,3.366767903868157e-05,4.9333,7.2667
1.9609375,1.8053358806744456e-05,5.8089411181811214e-05,5.1750153051041395e-05,3.8552025467307516e-05,4.9333,7.2667
1.96484375,2.3431335991454914e-05,6.541593082475009e-05,5.3698695509269806e-05,3.80843752773327e-05,4.9333,7.2667
1.96875,3.416130979476611e-05,4.7827087568474805e-05,5.663449947966731e-05,3.171913658045315e-05,4.9333,7.2667
1.97265625,3.5148571306935194e-05,4.099419868162047e-05,4.930797983672843e-05,2.9770594122224736e-05,4.9333,7.2667
1.9765625,3.80843752773327e-05,4.832071832455935e-05,4.343637189593343e-05,3.026422487830925e-05,4.9333,7.2667
1.98046875,3.075785563439379e-05,6.003795364003963e-05,5.515360721141371e-05,3.320002884870675e-05,4.9333,7.2667
1.984375,2.9276963366140193e-05,6.003795364003963e-05,5.957030345006481e-05,3.320002884870675e-05,4.9333,7.2667
1.98828125,2.5873509205767874e-05,3.660348300907907e-05,4.881434908064389e-05,3.2706398092622237e-05,4.9333,7.2667
1.9921875,3.026422487830925e-05,2.9276963366140193e-05,4.587854511024639e-05,3.416130979476611e-05,4.9333,7.2667
1.99609375,2.537987844968333e-05,5.858304193789573e-05,6.151884590829323e-05,3.759074452124815e-05,4.9333,7.2667
2.0,2.7328420907911776e-05,5.957030345006481e-05,5.712813023575185e-05,3.610985225299456e-05,4.9333,7.2667
2.00390625,2.6367139961852414e-05,4.832071832455935e-05,4.832071832455935e-05,3.5642202063019706e-05,4.9333,7.2667
2.0078125,3.366767903868157e-05,5.2243783807125935e-05,4.247509094987407e-05,3.320002884870675e-05,4.9333,7.2667
2.01171875,3.366767903868157e-05,5.2243783807125935e-05,3.8552025467307516e-05,3.171913658045315e-05,4.9333,7.2667
2.015625,2.5873509205767874e-05,5.468595702143889e-05,4.930797983672843e-05,3.416130979476611e-05,4.9333,7.2667
2.01953125,2.3924966747539457e-05,4.9801610592812944e-05,5.419232626535435e-05,3.4654940550850654e-05,4.9333,7.2667
2.0234375,2.831568242008083e-05,4.247509094987407e-05,4.491726416418703e-05,3.320002884870675e-05,4.9333,7.2667
2.02734375,3.122550582436861e-05,4.247509094987407e-05,4.247509094987407e-05,3.416130979476611e-05,4.9333,7.2667
2.03125,2.4886247693598788e-05,4.148782943770501e-05,4.832071832455935e-05,3.904565622339203e-05,4.9333,7.2667
2.03515625,2.4886247693598788e-05,4.296872170595861e-05,4.7359437378499987e-05,3.660348300907907e-05,4.9333,7.2667
2.0390625,2.831568242008083e-05,4.587854511024639e-05,4.538491435416185e-05,2.6834790151827232e-05,4.9333,7.2667
2.04296875,2.9770594122224736e-05,4.442363340810249e-05,4.6865806622415474e-05,3.2706398092622237e-05,4.9333,7.2667
2.046875,3.075785563439379e-05,4.6865806622415474e-05,5.614086872358277e-05,3.075785563439379e-05,4.9333,7.2667
2.05078125,2.831568242008083e-05,5.271143399710075e-05,4.1981460193789526e-05,3.5148571306935194e-05,4.9333,7.2667
2.0546875,2.831568242008083e-05,6.346738836652168e-05,1.8546989562828996e-05,3.416130979476611e-05,4.9333,7.2667
2.05859375,3.320002884870675e-05,7.617188519417101e-05,1.950827050888833e-05,2.0495532021057413e-05,4.9333,7.2667
2.0625,3.4654940550850654e-05,7.713316614023037e-05,1.4156273890287593e-05,2.878333261005565e-05,4.9333,7.2667
2.06640625,3.709711376516361e-05,7.518462368200195e-05,2.3924966747539457e-05,3.026422487830925e-05,4.9333,7.2667
2.0703125,3.5148571306935194e-05,5.907667269398027e-05,1.659844710460055e-05,4.0032917735561115e-05,4.9333,7.2667
2.07421875,2.9770594122224736e-05,4.587854511024639e-05,8.778296705577133e-06,4.393000265201798e-05,4.9333,7.2667
2.078125,3.2706398092622237e-05,4.343637189593343e-05,3.416130979476611e-05,2.293770523537037e-05,4.9333,7.2667
2.08203125,3.122550582436861e-05,3.22127673365377e-05,4.832071832455935e-05,2.9770594122224736e-05,4.9333,7.2667
2.0859375,3.026422487830925e-05,2.293770523537037e-05,3.660348300907907e-05,2.6834790151827232e-05,4.9333,7.2667
2.08984375,3.366767903868157e-05,2.4392616937514275e-05,2.4886247693598788e-05,2.7328420907911776e-05,4.9333,7.2667
2.09375,3.075785563439379e-05,2.9770594122224736e-05,5.0269260782787796e-05,3.709711376516361e-05,4.9333,7.2667
2.09765625,3.075785563439379e-05,2.6367139961852414e-05,6.297375761043714e-05,3.075785563439379e-05,4.9333,7.2667
2.1015625,3.075785563439379e-05,1.7559728050659913e-05,2.831568242008083e-05,3.026422487830925e-05,4.9333,7.2667
2.10546875,3.2706398092622237e-05,2.6367139961852414e-05,3.416130979476611e-05,2.1950443723201318e-05,4.9333,7.2667
2.109375,3.416130979476611e-05,4.6372175866330934e-05,6.835173479514759e-05,2.1950443723201318e-05,4.9333,7.2667
2.11328125,3.610985225299456e-05,4.148782943770501e-05,5.3205064753185266e-05,2.5873509205767874e-05,4.9333,7.2667
2.1171875,3.075785563439379e-05,9.271927461661675e-06,2.244407447928583e-05,3.026422487830925e-05,4.9333,7.2667
2.12109375,2.4392616937514275e-05,1.945407818722771e-06,1.6104816348516008e-05,3.5148571306935194e-05,4.9333,7.2667
2.125,3.026422487830925e-05,-3.926200122072216e-06,-3.134639505645964e-09,3.171913658045315e-05,4.9333,7.2667
2.12890625,3.2706398092622237e-05,-9.278196740672968e-06,-1.3694892979324065e-05,2.7328420907911776e-05,4.9333,7.2667
2.1328125,2.878333261005565e-05,-2.0034151110093888e-05,-2.4918497538719802e-05,3.904565622339203e-05,4.9333,7.2667
2.13671875,2.878333261005565e-05,-3.0764124913405085e-05,-2.4918497538719802e-05,3.80843752773327e-05,4.9333,7.2667
2.140625,3.171913658045315e-05,-2.9309213211261194e-05,-5.874742580300647e-06,2.6367139961852414e-05,4.9333,7.2667
2.14453125,2.6834790151827232e-05,-3.2738647937743224e-05,-1.8579239407949983e-05,3.5148571306935194e-05,4.9333,7.2667
2.1484375,2.5873509205767874e-05,-2.8321951699092124e-05,-2.1021412622262957e-05,3.366767903868157e-05,4.9333,7.2667
2.15234375,2.878333261005565e-05,-1.8085608651865457e-05,-1.4162543169298885e-05,2.9276963366140193e-05,4.9333,7.2667
2.15625,2.9276963366140193e-05,-1.2214000711070455e-05,-1.6137066193637026e-05,3.2706398092622237e-05,4.9333,7.2667
2.16015625,3.075785563439379e-05,-1.8085608651865457e-05,-2.938938609903147e-06,3.5148571306935194e-05,4.9333,7.2667
2.1640625,3.2706398092622237e-05,-1.4162543169298885e-05,-7.329654282444537e-06,3.22127673365377e-05,4.9333,7.2667
2.16796875,3.320002884870675e-05,4.645155504691729e-07,-6.836023526359994e-06,3.22127673365377e-05,4.9333,7.2667
2.171875,3.026422487830925e-05,-3.926200122072216e-06,-2.4453078538186045e-06,4.0526548491645655e-05,4.9333,7.2667
2.17578125,2.7822051663996288e-05,-5.874742580300647e-06,3.400319520866674e-06,4.296872170595861e-05,4.9333,7.2667
2.1796875,3.075785563439379e-05,7.791035193408077e-06,2.000190126497287e-05,3.122550582436861e-05,4.9333,7.2667
2.18359375,2.9770594122224736e-05,5.842492735179633e-06,2.3924966747539457e-05,3.22127673365377e-05,4.9333,7.2667
2.1875,2.4886247693598788e-05,-1.4840269077592437e-06,2.0495532021057413e-05,3.904565622339203e-05,4.9333,7.2667
2.19140625,2.9276963366140193e-05,5.842492735179633e-06,1.659844710460055e-05,3.709711376516361e-05,4.9333,7.2667
2.1953125,3.5148571306935194e-05,1.2181750865949454e-05,1.4623924080262412e-05,3.320002884870675e-05,4.9333,7.2667
2.19921875,3.075785563439379e-05,1.3169012378118537e-05,1.5611185592431495e-05,3.4654940550850654e-05,4.9333,7.2667
2.203125,2.831568242008083e-05,1.4623924080262412e-05,2.4886247693598788e-05,3.709711376516361e-05,4.9333,7.2667
2.20703125,3.075785563439379e-05,1.3169012378118537e-05,2.293770523537037e-05,3.2706398092622237e-05,4.9333,7.2667
2.2109375,3.075785563439379e-05,8.778296705577133e-06,1.2181750865949454e-05,3.953928697947657e-05,4.9333,7.2667
2.21484375,2.6367139961852414e-05,7.32338500343323e-06,3.400319520866674e-06,4.343637189593343e-05,4.9333,7.2667
2.21875,3.171913658045315e-05,1.6104816348516008e-05,1.3662643134203051e-05,2.7822051663996288e-05,4.9333,7.2667
2.22265625,3.5148571306935194e-05,2.000190126497287e-05,1.8053358806744456e-05,3.416130979476611e-05,4.9333,7.2667
2.2265625,3.22127673365377e-05,1.8546989562828996e-05,8.284665949492592e-06,3.660348300907907e-05,4.9333,7.2667
2.23046875,3.22127673365377e-05,2.7328420907911776e-05,1.2181750865949454e-05,3.171913658045315e-05,4.9333,7.2667
2.234375,3.2706398092622237e-05,3.80843752773327e-05,3.5148571306935194e-05,3.320002884870675e-05,4.9333,7.2667
2.23828125,3.22127673365377e-05,8.778296705577133e-06,1.6104816348516008e-05,3.2706398092622237e-05,4.9333,7.2667
2.2421875,2.7328420907911776e-05,-1.2214000711070455e-05,-4.887481068131578e-06,3.660348300907907e-05,4.9333,7.2667
2.24609375,2.9276963366140193e-05,-1.5643435437552496e-05,-4.887481068131578e-06,3.660348300907907e-05,4.9333,7.2667
2.25,3.5148571306935194e-05,-2.3931236026550733e-05,-1.4162543169298885e-05,2.3924966747539457e-05,4.9333,7.2667
2.25390625,3.320002884870675e-05,-2.7854301509117306e-05,-1.6137066193637026e-05,3.320002884870675e-05,4.9333,7.2667
2.2578125,3.171913658045315e-05,-3.1257755669489625e-05,-1.5643435437552496e-05,3.4654940550850654e-05,4.9333,7.2667
2.26171875,3.660348300907907e-05,-3.5180821152056195e-05,-1.4656173925383427e-05,2.3431335991454914e-05,4.9333,7.2667
2.265625,3.610985225299456e-05,-3.564847134203101e-05,-2.9802843967345737e-05,2.5873509205767874e-05,4.9333,7.2667
2.26953125,3.171913658045315e-05,-2.3931236026550733e-05,-4.2974990984969905e-05,2.244407447928583e-05,4.9333,7.2667
2.2734375,3.171913658045315e-05,-2.1982693568322302e-05,-3.419355963988713e-05,2.6834790151827232e-05,4.9333,7.2667
2.27734375,3.366767903868157e-05,-1.9540520354009345e-05,-3.0764124913405085e-05,2.7328420907911776e-05,4.9333,7.2667
2.28125,3.366767903868157e-05,-1.4656173925383427e-05,-2.1489062812237776e-05,3.075785563439379e-05,4.9333,7.2667
2.28515625,3.2706398092622237e-05,-1.4656173925383427e-05,-4.419830878156744e-06,3.953928697947657e-05,4.9333,7.2667
2.2890625,3.2706398092622237e-05,-2.938938609903147e-06,1.4517770626382571e-06,2.831568242008083e-05,4.9333,7.2667
2.29296875,3.171913658045315e-05,7.32338500343323e-06,-2.4453078538186045e-06,2.3924966747539457e-05,4.9333,7.2667
2.296875,3.171913658045315e-05,1.4156273890287593e-05,-2.4453078538186045e-06,2.831568242008083e-05,4.9333,7.2667
2.30078125,3.2706398092622237e-05,1.4623924080262412e-05,9.765558217746218e-06,2.7328420907911776e-05,4.9333,7.2667
2.3046875,3.2706398092622237e-05,1.1714100675974634e-05,2.0989162777141956e-05,3.026422487830925e-05,4.9333,7.2667
2.30859375,3.366767903868157e-05,1.4623924080262412e-05,2.000190126497287e-05,2.9770594122224736e-05,4.9333,7.2667
2.3125,2.9276963366140193e-05,1.2675381622033995e-05,3.893950276951215e-06,3.4654940550850654e-05,4.9333,7.2667
2.31640625,2.5873509205767874e-05,1.4156273890287593e-05,8.778296705577133e-06,3.2706398092622237e-05,4.9333,7.2667
2.3203125,2.6367139961852414e-05,2.293770523537037e-05,2.537987844968333e-05,3.122550582436861e-05,4.9333,7.2667
2.32421875,2.7328420907911776e-05,2.293770523537037e-05,2.3431335991454914e-05,3.4654940550850654e-05,4.9333,7.2667
2.328125,2.5873509205767874e-05,1.5117554836346954e-05,8.778296705577133e-06,4.0032917735561115e-05,4.9333,7.2667
2.33203125,2.537987844968333e-05,2.0495532021057413e-05,1.5611185592431495e-05,3.904565622339203e-05,4.9333,7.2667
2.3359375,2.831568242008083e-05,2.1950443723201318e-05,2.000190126497287e-05,2.7328420907911776e-05,4.9333,7.2667
2.33984375,3.320002884870675e-05,1.4156273890287593e-05,8.778296705577133e-06,2.537987844968333e-05,4.9333,7.2667
2.34375,2.7822051663996288e-05,1.5117554836346954e-05,1.2181750865949454e-05,2.7822051663996288e-05,4.9333,7.2667
2.34765625,2.4886247693598788e-05,1.1714100675974634e-05,1.5611185592431495e-05,2.9770594122224736e-05,4.9333,7.2667
2.3515625,2.9770594122224736e-05,7.32338500343323e-06,1.8053358806744456e-05,3.075785563439379e-05,4.9333,7.2667
2.35546875,3.122550582436861e-05,1.8053358806744456e-05,2.6367139961852414e-05,3.075785563439379e-05,4.9333,7.2667
2.359375,3.320002884870675e-05,1.1220469919890092e-05,1.5611185592431495e-05,2.7822051663996288e-05,4.9333,7.2667
2.36328125,3.5148571306935194e-05,8.778296705577133e-06,8.284665949492592e-06,2.878333261005565e-05,4.9333,7.2667
2.3671875,3.122550582436861e-05,1.5611185592431495e-05,9.765558217746218e-06,3.22127673365377e-05,4.9333,7.2667
2.37109375,2.9276963366140193e-05,2.000190126497287e-05,1.3662643134203051e-05,2.9276963366140193e-05,4.9333,7.2667
2.375,2.831568242008083e-05,2.000190126497287e-05,1.6104816348516008e-05,3.904565622339203e-05,4.9333,7.2667
2.37890625,3.4654940550850654e-05,1.2181750865949454e-05,1.5117554836346954e-05,3.610985225299456e-05,4.9333,7.2667
2.3828125,3.953928697947657e-05,1.9040620318913512e-05,2.5873509205767874e-05,2.0495532021057413e-05,4.9333,7.2667
2.38671875,3.22127673365377e-05,1.2675381622033995e-05,2.7328420907911776e-05,2.6367139961852414e-05,4.9333,7.2667
2.390625,3.075785563439379e-05,1.8546989562828996e-05,2.537987844968333e-05,2.7822051663996288e-05,4.9333,7.2667
2.39453125,2.831568242008083e-05,2.148279353322647e-05,2.6834790151827232e-05,2.7328420907911776e-05,4.9333,7.2667
2.3984375,3.122550582436861e-05,1.7559728050659913e-05,3.2706398092622237e-05,2.6834790151827232e-05,4.9333,7.2667
2.40234375,3.4654940550850654e-05,1.9040620318913512e-05,3.4654940550850654e-05,2.6834790151827232e-05,4.9333,7.2667
2.40625,2.9770594122224736e-05,1.8053358806744456e-05,3.122550582436861e-05,2.7328420907911776e-05,4.9333,7.2667
2.41015625,3.4654940550850654e-05,2.5873509205767874e-05,4.0526548491645655e-05,2.831568242008083e-05,4.9333,7.2667
2.4140625,3.660348300907907e-05,2.831568242008083e-05,4.0526548491645655e-05,2.9770594122224736e-05,4.9333,7.2667
2.41796875,3.22127673365377e-05,2.9770594122224736e-05,2.6367139961852414e-05,2.7822051663996288e-05,4.9333,7.2667
2.421875,3.904565622339203e-05,2.6367139961852414e-05,2.878333261005565e-05,2.537987844968333e-05,4.9333,7.2667
2.42578125,2.878333261005565e-05,3.026422487830925e-05,3.660348300907907e-05,2.9770594122224736e-05,4.9333,7.2667
2.4296875,2.7328420907911776e-05,3.610985225299456e-05,4.393000265201798e-05,3.026422487830925e-05,4.9333,7.2667
2.43359375,3.610985225299456e-05,3.5642202063019706e-05,4.393000265201798e-05,2.6834790151827232e-05,4.9333,7.2667
2.4375,3.122550582436861e-05,3.709711376516361e-05,3.5642202063019706e-05,2.7822051663996288e-05,4.9333,7.2667
2.44140625,2.878333261005565e-05,2.7328420907911776e-05,3.660348300907907e-05,2.9770594122224736e-05,4.9333,7.2667
2.4453125,2.6367139961852414e-05,3.171913658045315e-05,4.343637189593343e-05,3.122550582436861e-05,4.9333,7.2667
2.44921875,2.6834790151827232e-05,4.587854511024639e-05,4.0032917735561115e-05,3.122550582436861e-05,4.9333,7.2667
2.453125,3.122550582436861e-05,3.5642202063019706e-05,2.9770594122224736e-05,2.9770594122224736e-05,4.9333,7.2667
2.45703125,3.660348300907907e-05,3.610985225299456e-05,3.171913658045315e-05,2.7328420907911776e-05,4.9333,7.2667
2.4609375,3.026422487830925e-05,3.22127673365377e-05,3.759074452124815e-05,3.22127673365377e-05,4.9333,7.2667
2.46484375,3.5148571306935194e-05,1.950827050888833e-05,3.8552025467307516e-05,3.2706398092622237e-05,4.9333,7.2667
2.46875,3.610985225299456e-05,3.026422487830925e-05,3.8552025467307516e-05,3.026422487830925e-05,4.9333,7.2667
2.47265625,3.366767903868157e-05,3.4654940550850654e-05,2.6367139961852414e-05,3.122550582436861e-05,4.9333,7.2667
2.4765625,3.5642202063019706e-05,2.9770594122224736e-05,2.7328420907911776e-05,3.122550582436861e-05,4.9333,7.2667
2.48046875,2.9770594122224736e-05,2.6367139961852414e-05,2.9276963366140193e-05,3.122550582436861e-05,4.9333,7.2667
2.484375,2.9276963366140193e-05,2.244407447928583e-05,1.950827050888833e-05,2.878333261005565e-05,4.9333,7.2667
2.48828125,3.366767903868157e-05,3.075785563439379e-05,1.950827050888833e-05,2.6834790151827232e-05,4.9333,7.2667
2.4921875,2.7328420907911776e-05,4.587854511024639e-05,3.2706398092622237e-05,2.5873509205767874e-05,4.9333,7.2667
2.49609375,1.9040620318913512e-05,3.904565622339203e-05,4.832071832455935e-05,2.6367139961852414e-05,4.9333,7.2667
2.5,2.9770594122224736e-05,1.8546989562828996e-05,4.393000265201798e-05,2.831568242008083e-05,4.9333,7.2667
2.50390625,3.610985225299456e-05,3.026422487830925e-05,3.5148571306935194e-05,2.831568242008083e-05,4.9333,7.2667
2.5078125,3.171913658045315e-05,6.442866931258103e-05,4.6372175866330934e-05,2.3431335991454914e-05,4.9333,7.2667
2.51171875,2.9276963366140193e-05,6.346738836652168e-05,5.468595702143889e-05,1.9040620318913512e-05,4.9333,7.2667
2.515625,3.171913658045315e-05,6.736447328297854e-05,7.224881971160445e-05,1.8053358806744456e-05,4.9333,7.2667
2.51953125,3.5642202063019706e-05,9.178620542610815e-05,9.71641826108186e-05,1.8546989562828996e-05,4.9333,7.2667
2.5234375,2.831568242008083e-05,9.617692109864952e-05,9.324111712825203e-05,1.9040620318913512e-05,4.9333,7.2667
2.52734375,1.9040620318913512e-05,9.911272506904702e-05,8.788912050965129e-05,2.000190126497287e-05,4.9333,7.2667
2.53125,2.6834790151827232e-05,0.00010888141792629889,0.00010300980998550388,1.9040620318913512e-05,4.9333,7.2667
2.53515625,3.026422487830925e-05,0.00011277850284275573,0.00011423341454489963,1.9040620318913512e-05,4.9333,7.2667
2.5390625,3.22127673365377e-05,0.00011865011078355072,0.00011716921851529713,1.659844710460055e-05,4.9333,7.2667
2.54296875,2.5873509205767874e-05,0.00012155993418783853,0.00012304082645609213,2.1950443723201318e-05,4.9333,7.2667
2.546875,2.148279353322647e-05,0.00011620793756923776,0.00012155993418783853,2.537987844968333e-05,4.9333,7.2667
2.55078125,2.537987844968333e-05,0.00010888141792629889,0.00011620793756923776,2.4392616937514275e-05,4.9333,7.2667
2.5546875,2.878333261005565e-05,9.71641826108186e-05,0.0001137657643549248,2.537987844968333e-05,4.9333,7.2667
2.55859375,2.5873509205767874e-05,9.568329034256501e-05,0.00011961139172961008,2.537987844968333e-05,4.9333,7.2667
2.5625,2.1950443723201318e-05,9.27734669382772e-05,0.00010643924471198593,2.878333261005565e-05,4.9333,7.2667
2.56640625,3.22127673365377e-05,8.445968578316925e-05,8.056260086671242e-05,3.075785563439379e-05,4.9333,7.2667
2.5703125,3.4654940550850654e-05,9.27734669382772e-05,8.788912050965129e-05,1.706609729457537e-05,4.9333,7.2667
2.57421875,2.9770594122224736e-05,9.27734669382772e-05,9.129257467002361e-05,1.950827050888833e-05,4.9333,7.2667
2.578125,2.7822051663996288e-05,9.129257467002361e-05,7.908170859845878e-05,2.3431335991454914e-05,4.9333,7.2667
2.58203125,2.7822051663996288e-05,9.079894391393907e-05,7.957533935454332e-05,2.0495532021057413e-05,4.9333,7.2667
2.5859375,2.9276963366140193e-05,7.957533935454332e-05,7.224881971160445e-05,2.9276963366140193e-05,4.9333,7.2667
2.58984375,3.122550582436861e-05,7.713316614023037e-05,7.617188519417101e-05,3.026422487830925e-05,4.9333,7.2667
2.59375,3.366767903868157e-05,7.812042765239946e-05,7.908170859845878e-05,2.148279353322647e-05,4.9333,7.2667
2.59765625,3.075785563439379e-05,7.76267968963149e-05,7.518462368200195e-05,2.4886247693598788e-05,4.9333,7.2667
2.6015625,2.7822051663996288e-05,7.567825443808646e-05,7.957533935454332e-05,2.4392616937514275e-05,4.9333,7.2667
2.60546875,2.878333261005565e-05,6.736447328297854e-05,7.274245046768899e-05,2.537987844968333e-05,4.9333,7.2667
2.609375,3.22127673365377e-05,6.835173479514759e-05,6.297375761043714e-05,2.7822051663996288e-05,4.9333,7.2667
2.61328125,3.22127673365377e-05,6.785810403906305e-05,6.6870842526894e-05,2.7822051663996288e-05,4.9333,7.2667
2.6171875,2.9276963366140193e-05,6.198649609826807e-05,5.564723796749826e-05,3.171913658045315e-05,4.9333,7.2667
2.62109375,2.7328420907911776e-05,5.8089411181811214e-05,4.442363340810249e-05,3.4654940550850654e-05,4.9333,7.2667
2.625,2.9770594122224736e-05,5.663449947966731e-05,5.564723796749826e-05,2.4886247693598788e-05,4.9333,7.2667
2.62890625,3.320002884870675e-05,5.2243783807125935e-05,4.881434908064389e-05,2.9276963366140193e-05,4.9333,7.2667
2.6328125,3.122550582436861e-05,4.881434908064389e-05,4.491726416418703e-05,2.878333261005565e-05,4.9333,7.2667
2.63671875,3.2706398092622237e-05,4.9801610592812944e-05,4.296872170595861e-05,2.3431335991454914e-05,4.9333,7.2667
2.640625,3.416130979476611e-05,4.148782943770501e-05,3.759074452124815e-05,2.831568242008083e-05,4.9333,7.2667
2.64453125,3.416130979476611e-05,4.099419868162047e-05,5.1750153051041395e-05,2.0495532021057413e-05,4.9333,7.2667
2.6484375,3.22127673365377e-05,4.442363340810249e-05,4.1981460193789526e-05,3.320002884870675e-05,4.9333,7.2667
2.65234375,3.122550582436861e-05,4.587854511024639e-05,3.610985225299456e-05,3.5148571306935194e-05,4.9333,7.2667
2.65625,3.320002884870675e-05,5.1750153051041395e-05,5.271143399710075e-05,1.9040620318913512e-05,4.9333,7.2667
2.66015625,3.320002884870675e-05,5.759578042572667e-05,5.419232626535435e-05,2.5873509205767874e-05,4.9333,7.2667
2.6640625,3.610985225299456e-05,5.3698695509269806e-05,5.759578042572667e-05,2.244407447928583e-05,4.9333,7.2667
2.66796875,3.416130979476611e-05,5.0269260782787796e-05,7.128753876554509e-05,2.4886247693598788e-05,4.9333,7.2667
2.671875,3.5148571306935194e-05,5.419232626535435e-05,6.053158439612417e-05,2.7822051663996288e-05,4.9333,7.2667
2.67578125,3.4654940550850654e-05,5.2243783807125935e-05,4.7827087568474805e-05,3.171913658045315e-05,4.9333,7.2667
2.6796875,3.22127673365377e-05,5.0269260782787796e-05,5.614086872358277e-05,3.416130979476611e-05,4.9333,7.2667
2.68359375,3.416130979476611e-05,4.6865806622415474e-05,5.3205064753185266e-05,3.2706398092622237e-05,4.9333,7.2667
2.6875,3.5148571306935194e-05,4.538491435416185e-05,4.343637189593343e-05,2.6367139961852414e-05,4.9333,7.2667
2.69140625,3.4654940550850654e-05,4.6865806622415474e-05,4.0526548491645655e-05,3.320002884870675e-05,4.9333,7.2667
2.6953125,3.320002884870675e-05,4.930797983672843e-05,4.148782943770501e-05,4.148782943770501e-05,4.9333,7.2667
2.69921875,3.366767903868157e-05,4.538491435416185e-05,4.6865806622415474e-05,2.3431335991454914e-05,4.9333,7.2667
2.703125,3.5148571306935194e-05,4.343637189593343e-05,4.538491435416185e-05,2.000190126497287e-05,4.9333,7.2667
2.70703125,3.5148571306935194e-05,4.491726416418703e-05,4.7359437378499987e-05,2.7822051663996288e-05,4.9333,7.2667
2.7109375,3.416130979476611e-05,4.491726416418703e-05,5.2243783807125935e-05,2.7822051663996288e-05,4.9333,7.2667
2.71484375,3.171913658045315e-05,4.1981460193789526e-05,3.366767903868157e-05,2.3924966747539457e-05,4.9333,7.2667
2.71875,2.7328420907911776e-05,3.904565622339203e-05,3.171913658045315e-05,2.9276963366140193e-05,4.9333,7.2667
2.72265625,3.075785563439379e-05,4.0032917735561115e-05,4.538491435416185e-05,3.122550582436861e-05,4.9333,7.2667
2.7265625,2.9770594122224736e-05,3.075785563439379e-05,4.7359437378499987e-05,3.8552025467307516e-05,4.9333,7.2667
2.73046875,2.9770594122224736e-05,2.537987844968333e-05,4.343637189593343e-05,3.610985225299456e-05,4.9333,7.2667
2.734375,3.122550582436861e-05,2.878333261005565e-05,3.4654940550850654e-05,2.3924966747539457e-05,4.9333,7.2667
2.73828125,2.878333261005565e-05,2.5873509205767874e-05,3.4654940550850654e-05,3.122550582436861e-05,4.9333,7.2667
2.7421875,3.366767903868157e-05,2.4392616937514275e-05,3.171913658045315e-05,2.878333261005565e-05,4.9333,7.2667
2.74609375,3.416130979476611e-05,2.4392616937514275e-05,2.9770594122224736e-05,3.22127673365377e-05,4.9333,7.2667
2.75,3.122550582436861e-05,2.4886247693598788e-05,2.878333261005565e-05,2.878333261005565e-05,4.9333,7.2667
2.75390625,2.9770594122224736e-05,2.4392616937514275e-05,1.2675381622033995e-05,2.878333261005565e-05,4.9333,7.2667
2.7578125,3.171913658045315e-05,3.122550582436861e-05,2.1950443723201318e-05,3.660348300907907e-05,4.9333,7.2667
2.76171875,3.5148571306935194e-05,3.5148571306935194e-05,3.366767903868157e-05,3.075785563439379e-05,4.9333,7.2667
2.765625,3.416130979476611e-05,3.22127673365377e-05,2.7822051663996288e-05,2.9770594122224736e-05,4.9333,7.2667
2.76953125,3.122550582436861e-05,2.7822051663996288e-05,2.9276963366140193e-05,3.660348300907907e-05,4.9333,7.2667
2.7734375,3.320002884870675e-05,3.320002884870675e-05,3.759074452124815e-05,2.6367139961852414e-05,4.9333,7.2667
2.77734375,3.5148571306935194e-05,4.148782943770501e-05,3.709711376516361e-05,2.3924966747539457e-05,4.9333,7.2667
2.78125,3.660348300907907e-05,3.709711376516361e-05,2.7822051663996288e-05,2.7822051663996288e-05,4.9333,7.2667
2.78515625,3.171913658045315e-05,2.7328420907911776e-05,2.537987844968333e-05,3.22127673365377e-05,4.9333,7.2667
2.7890625,3.2706398092622237e-05,1.8546989562828996e-05,2.9770594122224736e-05,2.9276963366140193e-05,4.9333,7.2667
2.79296875,3.660348300907907e-05,1.950827050888833e-05,3.320002884870675e-05,2.831568242008083e-05,4.9333,7.2667
2.796875,3.22127673365377e-05,3.610985225299456e-05,4.1981460193789526e-05,3.075785563439379e-05,4.9333,7.2667
2.80078125,2.9276963366140193e-05,3.22127673365377e-05,4.538491435416185e-05,3.171913658045315e-05,4.9333,7.2667
2.8046875,3.320002884870675e-05,2.3431335991454914e-05,3.660348300907907e-05,2.4886247693598788e-05,4.9333,7.2667
2.80859375,3.709711376516361e-05,2.9770594122224736e-05,2.3924966747539457e-05,2.7328420907911776e-05,4.9333,7.2667
2.8125,3.22127673365377e-05,3.22127673365377e-05,2.3431335991454914e-05,3.5642202063019706e-05,4.9333,7.2667
2.81640625,3.122550582436861e-05,2.7328420907911776e-05,3.171913658045315e-05,2.537987844968333e-05,4.9333,7.2667
2.8203125,3.320002884870675e-05,2.6367139961852414e-05,2.0495532021057413e-05,2.3431335991454914e-05,4.9333,7.2667
2.82421875,3.075785563439379e-05,2.7822051663996288e-05,2.537987844968333e-05,2.831568242008083e-05,4.9333,7.2667
2.828125,3.122550582436861e-05,2.3924966747539457e-05,3.8552025467307516e-05,2.9276963366140193e-05,4.9333,7.2667
2.83203125,3.026422487830925e-05,2.148279353322647e-05,3.026422487830925e-05,2.9276963366140193e-05,4.9333,7.2667
2.8359375,2.7822051663996288e-05,2.148279353322647e-05,3.122550582436861e-05,3.122550582436861e-05,4.9333,7.2667
2.83984375,3.026422487830925e-05,2.0495532021057413e-05,2.7328420907911776e-05,3.171913658045315e-05,4.9333,7.2667
2.84375,3.075785563439379e-05,2.6367139961852414e-05,2.244407447928583e-05,3.026422487830925e-05,4.9333,7.2667
2.84765625,2.6367139961852414e-05,2.3431335991454914e-05,2.9276963366140193e-05,2.9276963366140193e-05,4.9333,7.2667
2.8515625,3.026422487830925e-05,2.244407447928583e-05,3.5642202063019706e-05,2.7822051663996288e-05,4.9333,7.2667
2.85546875,3.610985225299456e-05,3.026422487830925e-05,3.80843752773327e-05,2.878333261005565e-05,4.9333,7.2667
2.859375,3.2706398092622237e-05,1.950827050888833e-05,4.587854511024639e-05,2.9770594122224736e-05,4.9333,7.2667
2.86328125,3.22127673365377e-05,2.148279353322647e-05,4.587854511024639e-05,2.878333261005565e-05,4.9333,7.2667
2.8671875,3.320002884870675e-05,2.9276963366140193e-05,2.6367139961852414e-05,3.416130979476611e-05,4.9333,7.2667
2.87109375,3.416130979476611e-05,2.6367139961852414e-05,1.4156273890287593e-05,1.950827050888833e-05,4.9333,7.2667
2.875,3.759074452124815e-05,4.0526548491645655e-05,1.950827050888833e-05,1.6104816348516008e-05,4.9333,7.2667
2.87890625,3.709711376516361e-05,5.1750153051041395e-05,1.8546989562828996e-05,2.3431335991454914e-05,4.9333,7.2667
2.8828125,3.026422487830925e-05,6.003795364003963e-05,1.1220469919890092e-05,2.3431335991454914e-05,4.9333,7.2667
2.88671875,3.366767903868157e-05,6.248012685435258e-05,1.3662643134203051e-05,2.244407447928583e-05,4.9333,7.2667
2.890625,3.8552025467307516e-05,5.712813023575185e-05,2.3924966747539457e-05,2.3924966747539457e-05,4.9333,7.2667
2.89453125,4.0526548491645655e-05,5.614086872358277e-05,2.4886247693598788e-05,2.5873509205767874e-05,4.9333,7.2667
2.8984375,3.904565622339203e-05,2.9770594122224736e-05,2.9276963366140193e-05,2.4886247693598788e-05,4.9333,7.2667
2.90234375,3.366767903868157e-05,1.3662643134203051e-05,3.320002884870675e-05,2.6367139961852414e-05,4.9333,7.2667
2.90625,3.5642202063019706e-05,2.3431335991454914e-05,3.5148571306935194e-05,2.831568242008083e-05,4.9333,7.2667
2.91015625,3.4654940550850654e-05,2.244407447928583e-05,4.099419868162047e-05,2.9276963366140193e-05,4.9333,7.2667
2.9140625,3.2706398092622237e-05,1.950827050888833e-05,3.320002884870675e-05,2.7822051663996288e-05,4.9333,7.2667
2.91796875,3.759074452124815e-05,2.148279353322647e-05,3.416130979476611e-05,2.6367139961852414e-05,4.9333,7.2667
2.921875,4.148782943770501e-05,2.831568242008083e-05,3.660348300907907e-05,2.7822051663996288e-05,4.9333,7.2667
2.92578125,3.2706398092622237e-05,2.0989162777141956e-05,3.4654940550850654e-05,3.026422487830925e-05,4.9333,7.2667
2.9296875,3.22127673365377e-05,2.0989162777141956e-05,4.148782943770501e-05,3.4654940550850654e-05,4.9333,7.2667
2.93359375,4.0526548491645655e-05,3.80843752773327e-05,3.5148571306935194e-05,3.366767903868157e-05,4.9333,7.2667
2.9375,3.366767903868157e-05,3.709711376516361e-05,3.366767903868157e-05,3.366767903868157e-05,4.9333,7.2667
2.94140625,2.537987844968333e-05,3.22127673365377e-05,3.610985225299456e-05,3.5642202063019706e-05,4.9333,7.2667
2.9453125,2.831568242008083e-05,3.2706398092622237e-05,2.9276963366140193e-05,3.2706398092622237e-05,4.9333,7.2667
2.94921875,2.878333261005565e-05,3.026422487830925e-05,3.075785563439379e-05,3.2706398092622237e-05,4.9333,7.2667
2.953125,2.7328420907911776e-05,4.343637189593343e-05,2.9770594122224736e-05,3.2706398092622237e-05,4.9333,7.2667
2.95703125,3.5642202063019706e-05,4.7827087568474805e-05,3.075785563439379e-05,3.2706398092622237e-05,4.9333,7.2667
2.9609375,3.660348300907907e-05,3.5642202063019706e-05,3.759074452124815e-05,3.5148571306935194e-05,4.9333,7.2667
2.96484375,3.5642202063019706e-05,2.9770594122224736e-05,3.320002884870675e-05,3.22127673365377e-05,4.9333,7.2667
2.96875,3.5148571306935194e-05,2.244407447928583e-05,3.075785563439379e-05,4.1981460193789526e-05,4.9333,7.2667
2.97265625,2.878333261005565e-05,2.831568242008083e-05,3.660348300907907e-05,4.1981460193789526e-05,4.9333,7.2667
2.9765625,2.878333261005565e-05,3.80843752773327e-05,3.8552025467307516e-05,2.6834790151827232e-05,4.9333,7.2667
2.98046875,2.9276963366140193e-05,3.075785563439379e-05,3.5148571306935194e-05,3.171913658045315e-05,4.9333,7.2667
2.984375,2.7328420907911776e-05,3.026422487830925e-05,3.22127673365377e-05,3.320002884870675e-05,4.9333,7.2667
2.98828125,2.831568242008083e-05,3.80843752773327e-05,3.759074452124815e-05,3.171913658045315e-05,4.9333,7.2667
2.9921875,3.22127673365377e-05,3.904565622339203e-05,3.660348300907907e-05,3.026422487830925e-05,4.9333,7.2667
2.99609375,3.171913658045315e-05,3.026422487830925e-05,2.244407447928583e-05,3.904565622339203e-05,4.9333,7.2667
3.0,3.075785563439379e-05,2.878333261005565e-05,3.075785563439379e-05,3.5148571306935194e-05,4.9333,7.2667
3.00390625,3.5148571306935194e-05,3.759074452124815e-05,4.247509094987407e-05,2.0989162777141956e-05,4.9333,7.2667
3.0078125,3.22127673365377e-05,3.075785563439379e-05,3.171913658045315e-05,2.7822051663996288e-05,4.9333,7.2667
3.01171875,3.22127673365377e-05,3.122550582436861e-05,1.6104816348516008e-05,2.6367139961852414e-05,4.9333,7.2667
3.015625,3.366767903868157e-05,3.759074452124815e-05,1.9040620318913512e-05,2.244407447928583e-05,4.9333,7.2667
3.01953125,3.026422487830925e-05,3.416130979476611e-05,3.80843752773327e-05,2.6367139961852414e-05,4.9333,7.2667
3.0234375,3.22127673365377e-05,2.4392616937514275e-05,2.7822051663996288e-05,3.122550582436861e-05,4.9333,7.2667
3.02734375,3.610985225299456e-05,2.6834790151827232e-05,1.5117554836346954e-05,2.4392616937514275e-05,4.9333,7.2667
3.03125,3.22127673365377e-05,2.831568242008083e-05,1.2675381622033995e-05,3.22127673365377e-05,4.9333,7.2667
3.03515625,2.9276963366140193e-05,2.4392616937514275e-05,1.8546989562828996e-05,3.2706398092622237e-05,4.9333,7.2667
3.0390625,3.4654940550850654e-05,3.122550582436861e-05,4.442363340810249e-05,2.000190126497287e-05,4.9333,7.2667
3.04296875,3.320002884870675e-05,3.416130979476611e-05,3.416130979476611e-05,2.7822051663996288e-05,4.9333,7.2667
3.046875,3.026422487830925e-05,3.320002884870675e-05,2.439038574807313e-06,2.537987844968333e-05,4.9333,7.2667
3.05078125,3.122550582436861e-05,3.366767903868157e-05,1.8546989562828996e-05,2.4886247693598788e-05,4.9333,7.2667
3.0546875,2.9770594122224736e-05,3.5642202063019706e-05,3.416130979476611e-05,2.6367139961852414e-05,4.9333,7.2667
3.05859375,2.9770594122224736e-05,3.5642202063019706e-05,3.660348300907907e-05,2.4886247693598788e-05,4.9333,7.2667
3.0625,2.878333261005565e-05,3.171913658045315e-05,4.0032917735561115e-05,3.171913658045315e-05,4.9333,7.2667
3.06640625,2.7328420907911776e-05,3.416130979476611e-05,4.1981460193789526e-05,2.6834790151827232e-05,4.9333,7.2667
3.0703125,2.831568242008083e-05,3.610985225299456e-05,3.320002884870675e-05,2.1950443723201318e-05,4.9333,7.2667
3.07421875,3.122550582436861e-05,3.416130979476611e-05,2.148279353322647e-05,2.1950443723201318e-05,4.9333,7.2667
3.078125,3.075785563439379e-05,3.5642202063019706e-05,1.706609729457537e-05,2.6367139961852414e-05,4.9333,7.2667
3.08203125,2.6834790151827232e-05,3.953928697947657e-05,2.9276963366140193e-05,3.075785563439379e-05,4.9333,7.2667
3.0859375,2.6367139961852414e-05,3.320002884870675e-05,3.709711376516361e-05,4.099419868162047e-05,4.9333,7.2667
3.08984375,2.537987844968333e-05,3.366767903868157e-05,3.5148571306935194e-05,4.0526548491645655e-05,4.9333,7.2667
3.09375,2.6367139961852414e-05,3.8552025467307516e-05,4.538491435416185e-05,2.6834790151827232e-05,4.9333,7.2667
3.09765625,2.5873509205767874e-05,4.442363340810249e-05,4.296872170595861e-05,3.320002884870675e-05,4.9333,7.2667
3.1015625,2.4886247693598788e-05,4.099419868162047e-05,3.8552025467307516e-05,4.099419868162047e-05,4.9333,7.2667
3.10546875,2.4392616937514275e-05,3.610985225299456e-05,3.759074452124815e-05,3.610985225299456e-05,4.9333,7.2667
3.109375,2.5873509205767874e-05,4.0526548491645655e-05,3.709711376516361e-05,2.7328420907911776e-05,4.9333,7.2667
3.11328125,2.9276963366140193e-05,4.442363340810249e-05,4.148782943770501e-05,2.9276963366140193e-05,4.9333,7.2667
3.1171875,2.5873509205767874e-05,4.247509094987407e-05,4.6865806622415474e-05,3.366767903868157e-05,4.9333,7.2667
3.12109375,2.6367139961852414e-05,3.416130979476611e-05,3.660348300907907e-05,2.9770594122224736e-05,4.9333,7.2667
3.125,3.122550582436861e-05,3.026422487830925e-05,2.9770594122224736e-05,2.831568242008083e-05,4.9333,7.2667
3.12890625,3.026422487830925e-05,3.026422487830925e-05,3.122550582436861e-05,3.22127673365377e-05,4.9333,7.2667
3.1328125,2.7822051663996288e-05,3.2706398092622237e-05,3.660348300907907e-05,2.6367139961852414e-05,4.9333,7.2667
3.13671875,2.9770594122224736e-05,3.610985225299456e-05,3.660348300907907e-05,2.831568242008083e-05,4.9333,7.2667
3.140625,3.4654940550850654e-05,3.5148571306935194e-05,2.5873509205767874e-05,2.148279353322647e-05,4.9333,7.2667
3.14453125,3.171913658045315e-05,2.5873509205767874e-05,1.3662643134203051e-05,2.293770523537037e-05,4.9333,7.2667
3.1484375,3.22127673365377e-05,3.320002884870675e-05,1.8546989562828996e-05,2.7328420907911776e-05,4.9333,7.2667
3.15234375,3.171913658045315e-05,3.4654940550850654e-05,3.320002884870675e-05,2.7328420907911776e-05,4.9333,7.2667
3.15625,3.22127673365377e-05,2.878333261005565e-05,3.026422487830925e-05,2.7822051663996288e-05,4.9333,7.2667
3.16015625,3.22127673365377e-05,3.026422487830925e-05,2.6834790151827232e-05,2.9276963366140193e-05,4.9333,7.2667
3.1640625,3.22127673365377e-05,2.3924966747539457e-05,2.9276963366140193e-05,2.5873509205767874e-05,4.9333,7.2667
3.16796875,3.320002884870675e-05,2.1950443723201318e-05,1.5611185592431495e-05,2.537987844968333e-05,4.9333,7.2667
3.171875,3.22127673365377e-05,3.026422487830925e-05,1.706609729457537e-05,2.878333261005565e-05,4.9333,7.2667
3.17578125,3.22127673365377e-05,2.878333261005565e-05,2.1950443723201318e-05,3.610985225299456e-05,4.9333,7.2667
3.1796875,3.22127673365377e-05,2.5873509205767874e-05,2.0989162777141956e-05,3.2706398092622237e-05,4.9333,7.2667
3.18359375,3.5148571306935194e-05,2.9770594122224736e-05,3.610985225299456e-05,2.0989162777141956e-05,4.9333,7.2667
3.1875,3.122550582436861e-05,2.4886247693598788e-05,3.4654940550850654e-05,2.7822051663996288e-05,4.9333,7.2667
3.19140625,3.171913658045315e-05,1.950827050888833e-05,2.831568242008083e-05,2.9770594122224736e-05,4.9333,7.2667
3.1953125,3.2706398092622237e-05,2.0495532021057413e-05,3.171913658045315e-05,2.4886247693598788e-05,4.9333,7.2667
3.19921875,3.2706398092622237e-05,2.7328420907911776e-05,2.0495532021057413e-05,2.537987844968333e-05,4.9333,7.2667
3.203125,3.4654940550850654e-05,2.537987844968333e-05,2.4392616937514275e-05,2.6367139961852414e-05,4.9333,7.2667
3.20703125,3.026422487830925e-05,2.148279353322647e-05,4.296872170595861e-05,2.5873509205767874e-05,4.9333,7.2667
3.2109375,2.537987844968333e-05,1.8053358806744456e-05,4.148782943770501e-05,3.171913658045315e-05,4.9333,7.2667
3.21484375,2.9770594122224736e-05,1.950827050888833e-05,3.5148571306935194e-05,3.122550582436861e-05,4.9333,7.2667
3.21875,3.610985225299456e-05,3.026422487830925e-05,2.831568242008083e-05,2.831568242008083e-05,4.9333,7.2667
3.22265625,3.366767903868157e-05,2.831568242008083e-05,3.660348300907907e-05,3.2706398092622237e-05,4.9333,7.2667
3.2265625,3.171913658045315e-05,2.6834790151827232e-05,4.7827087568474805e-05,3.4654940550850654e-05,4.9333,7.2667
3.23046875,3.171913658045315e-05,3.026422487830925e-05,3.416130979476611e-05,3.366767903868157e-05,4.9333,7.2667
3.234375,3.320002884870675e-05,2.6834790151827232e-05,2.0495532021057413e-05,3.171913658045315e-05,4.9333,7.2667
3.23828125,3.075785563439379e-05,2.0989162777141956e-05,2.5873509205767874e-05,2.831568242008083e-05,4.9333,7.2667
3.2421875,3.171913658045315e-05,1.9040620318913512e-05,2.293770523537037e-05,2.537987844968333e-05,4.9333,7.2667
3.24609375,2.5873509205767874e-05,2.000190126497287e-05,2.244407447928583e-05,2.6834790151827232e-05,4.9333,7.2667
3.25,2.6834790151827232e-05,2.7822051663996288e-05,2.7328420907911776e-05,2.7328420907911776e-05,4.9333,7.2667
3.25390625,2.878333261005565e-05,1.8546989562828996e-05,2.6834790151827232e-05,2.878333261005565e-05,4.9333,7.2667
3.2578125,3.2706398092622237e-05,1.950827050888833e-05,2.831568242008083e-05,2.9276963366140193e-05,4.9333,7.2667
3.26171875,3.2706398092622237e-05,1.659844710460055e-05,2.5873509205767874e-05,3.075785563439379e-05,4.9333,7.2667
3.265625,3.416130979476611e-05,1.7559728050659913e-05,2.293770523537037e-05,2.831568242008083e-05,4.9333,7.2667
3.26953125,3.8552025467307516e-05,2.4392616937514275e-05,2.5873509205767874e-05,2.3431335991454914e-05,4.9333,7.2667
3.2734375,2.1950443723201318e-05,1.0233208407721036e-05,3.22127673365377e-05,2.9276963366140193e-05,4.9333,7.2667
3.27734375,4.099419868162047e-05,1.7559728050659913e-05,2.537987844968333e-05,2.3431335991454914e-05,4.9333,7.2667
3.28125,4.491726416418703e-05,3.2706398092622237e-05,3.026422487830925e-05,2.3924966747539457e-05,4.9333,7.2667
3.28515625,3.320002884870675e-05,2.3431335991454914e-05,3.4654940550850654e-05,2.7328420907911776e-05,4.9333,7.2667
3.2890625,4.099419868162047e-05,2.7822051663996288e-05,2.9276963366140193e-05,2.537987844968333e-05,4.9333,7.2667
3.29296875,3.709711376516361e-05,3.660348300907907e-05,2.6367139961852414e-05,2.5873509205767874e-05,4.9333,7.2667
3.296875,3.4654940550850654e-05,3.904565622339203e-05,2.878333261005565e-05,2.831568242008083e-05,4.9333,7.2667
3.30078125,2.9276963366140193e-05,3.366767903868157e-05,4.0526548491645655e-05,3.075785563439379e-05,4.9333,7.2667
3.3046875,2.6367139961852414e-05,2.9276963366140193e-05,4.296872170595861e-05,3.122550582436861e-05,4.9333,7.2667
3.30859375,3.22127673365377e-05,2.4392616937514275e-05,3.22127673365377e-05,3.075785563439379e-05,4.9333,7.2667
3.3125,3.416130979476611e-05,1.9040620318913512e-05,2.148279353322647e-05,2.7328420907911776e-05,4.9333,7.2667
3.31640625,3.366767903868157e-05,3.122550582436861e-05,2.7822051663996288e-05,2.4886247693598788e-05,4.9333,7.2667
3.3203125,3.2706398092622237e-05,3.366767903868157e-05,4.148782943770501e-05,2.6367139961852414e-05,4.9333,7.2667
3.32421875,3.171913658045315e-05,3.4654940550850654e-05,3.904565622339203e-05,3.075785563439379e-05,4.9333,7.2667
3.328125,3.171913658045315e-05,3.2706398092622237e-05,3.4654940550850654e-05,2.831568242008083e-05,4.9333,7.2667
3.33203125,3.4654940550850654e-05,3.320002884870675e-05,3.171913658045315e-05,3.904565622339203e-05,4.9333,7.2667
3.3359375,3.122550582436861e-05,4.442363340810249e-05,3.4654940550850654e-05,3.5148571306935194e-05,4.9333,7.2667
3.33984375,3.171913658045315e-05,4.491726416418703e-05,3.5148571306935194e-05,2.244407447928583e-05,4.9333,7.2667
3.34375,3.2706398092622237e-05,3.366767903868157e-05,3.171913658045315e-05,2.9276963366140193e-05,4.9333,7.2667
3.34765625,3.5148571306935194e-05,3.171913658045315e-05,2.6367139961852414e-05,2.831568242008083e-05,4.9333,7.2667
3.3515625,3.904565622339203e-05,3.5148571306935194e-05,2.9276963366140193e-05,2.7328420907911776e-05,4.9333,7.2667
3.35546875,2.878333261005565e-05,3.2706398092622237e-05,4.491726416418703e-05,2.9276963366140193e-05,4.9333,7.2667
3.359375,3.5148571306935194e-05,2.878333261005565e-05,3.416130979476611e-05,2.9770594122224736e-05,4.9333,7.2667
3.36328125,3.660348300907907e-05,2.7328420907911776e-05,3.075785563439379e-05,2.244407447928583e-05,4.9333,7.2667
3.3671875,3.075785563439379e-05,2.4886247693598788e-05,2.000190126497287e-05,3.709711376516361e-05,4.9333,7.2667
3.37109375,3.660348300907907e-05,3.4654940550850654e-05,1.9040620318913512e-05,3.4654940550850654e-05,4.9333,7.2667
3.375,3.5148571306935194e-05,4.491726416418703e-05,2.7328420907911776e-05,1.5117554836346954e-05,4.9333,7.2667
3.37890625,3.122550582436861e-05,3.610985225299456e-05,1.8546989562828996e-05,2.3924966747539457e-05,4.9333,7.2667
3.3828125,3.320002884870675e-05,3.416130979476611e-05,1.950827050888833e-05,2.537987844968333e-05,4.9333,7.2667
3.38671875,2.9276963366140193e-05,2.6834790151827232e-05,3.759074452124815e-05,2.6367139961852414e-05,4.9333,7.2667
3.390625,2.9276963366140193e-05,1.4623924080262412e-05,2.000190126497287e-05,2.7822051663996288e-05,4.9333,7.2667
3.39453125,3.075785563439379e-05,2.0989162777141956e-05,7.32338500343323e-06,3.171913658045315e-05,4.9333,7.2667
3.3984375,2.6834790151827232e-05,2.878333261005565e-05,4.587854511024639e-05,2.9276963366140193e-05,4.9333,7.2667
3.40234375,2.5873509205767874e-05,2.9770594122224736e-05,3.416130979476611e-05,2.4392616937514275e-05,4.9333,7.2667
3.40625,2.6367139961852414e-05,3.026422487830925e-05,1.5117554836346954e-05,3.759074452124815e-05,4.9333,7.2667
3.41015625,2.878333261005565e-05,2.878333261005565e-05,1.7559728050659913e-05,3.709711376516361e-05,4.9333,7.2667
3.4140625,3.026422487830925e-05,2.7822051663996288e-05,2.9276963366140193e-05,2.3924966747539457e-05,4.9333,7.2667
3.41796875,2.7822051663996288e-05,2.7328420907911776e-05,2.9770594122224736e-05,3.171913658045315e-05,4.9333,7.2667
3.421875,3.320002884870675e-05,3.22127673365377e-05,2.7328420907911776e-05,2.4392616937514275e-05,4.9333,7.2667
3.42578125,3.026422487830925e-05,3.026422487830925e-05,3.709711376516361e-05,2.5873509205767874e-05,4.9333,7.2667
3.4296875,2.5873509205767874e-05,2.878333261005565e-05,2.9770594122224736e-05,3.122550582436861e-05,4.9333,7.2667
3.43359375,3.026422487830925e-05,3.075785563439379e-05,2.6367139961852414e-05,2.7822051663996288e-05,4.9333,7.2667
3.4375,3.075785563439379e-05,2.5873509205767874e-05,3.416130979476611e-05,3.026422487830925e-05,4.9333,7.2667
3.44140625,3.171913658045315e-05,2.878333261005565e-05,3.5642202063019706e-05,3.026422487830925e-05,4.9333,7.2667
3.4453125,3.122550582436861e-05,3.4654940550850654e-05,3.4654940550850654e-05,2.9276963366140193e-05,4.9333,7.2667
3.44921875,2.9276963366140193e-05,3.4654940550850654e-05,3.026422487830925e-05,2.7822051663996288e-05,4.9333,7.2667
3.453125,3.026422487830925e-05,3.2706398092622237e-05,2.3431335991454914e-05,2.3924966747539457e-05,4.9333,7.2667
3.45703125,3.320002884870675e-05,3.366767903868157e-05,1.706609729457537e-05,2.6367139961852414e-05,4.9333,7.2667
3.4609375,3.320002884870675e-05,3.5642202063019706e-05,3.610985225299456e-05,2.878333261005565e-05,4.9333,7.2667
3.46484375,3.026422487830925e-05,3.026422487830925e-05,4.587854511024639e-05,3.8552025467307516e-05,4.9333,7.2667
3.46875,3.026422487830925e-05,3.320002884870675e-05,3.026422487830925e-05,3.075785563439379e-05,4.9333,7.2667
3.47265625,3.610985225299456e-05,3.759074452124815e-05,3.660348300907907e-05,1.9040620318913512e-05,4.9333,7.2667
3.4765625,3.5642202063019706e-05,3.709711376516361e-05,3.22127673365377e-05,2.9770594122224736e-05,4.9333,7.2667
3.48046875,3.2706398092622237e-05,3.5148571306935194e-05,2.9770594122224736e-05,2.878333261005565e-05,4.9333,7.2667
3.484375,3.22127673365377e-05,2.9770594122224736e-05,4.0526548491645655e-05,2.7822051663996288e-05,4.9333,7.2667
3.48828125,3.122550582436861e-05,3.320002884870675e-05,4.393000265201798e-05,2.7822051663996288e-05,4.9333,7.2667
3.4921875,3.171913658045315e-05,3.4654940550850654e-05,4.0526548491645655e-05,2.878333261005565e-05,4.9333,7.2667
3.49609375,3.2706398092622237e-05,3.416130979476611e-05,3.610985225299456e-05,3.5148571306935194e-05,4.9333,7.2667
3.5,3.026422487830925e-05,3.5148571306935194e-05,3.8552025467307516e-05,2.9276963366140193e-05,4.9333,7.2667
3.50390625,2.831568242008083e-05,3.320002884870675e-05,3.610985225299456e-05,2.878333261005565e-05,4.9333,7.2667
3.5078125,2.9276963366140193e-05,3.075785563439379e-05,2.831568242008083e-05,3.2706398092622237e-05,4.9333,7.2667
3.51171875,3.320002884870675e-05,3.5148571306935194e-05,3.953928697947657e-05,2.537987844968333e-05,4.9333,7.2667
3.515625,3.122550582436861e-05,3.709711376516361e-05,4.393000265201798e-05,3.8552025467307516e-05,4.9333,7.2667
3.51953125,2.9770594122224736e-05,3.610985225299456e-05,4.296872170595861e-05,3.660348300907907e-05,4.9333,7.2667
3.5234375,3.122550582436861e-05,3.953928697947657e-05,1.1714100675974634e-05,2.0495532021057413e-05,4.9333,7.2667
3.52734375,2.9276963366140193e-05,3.5642202063019706e-05,1.4517770626382571e-06,2.7822051663996288e-05,4.9333,7.2667
3.53125,2.9276963366140193e-05,3.5642202063019706e-05,3.416130979476611e-05,3.026422487830925e-05,4.9333,7.2667
3.53515625,3.075785563439379e-05,3.4654940550850654e-05,3.660348300907907e-05,3.026422487830925e-05,4.9333,7.2667
3.5390625,3.22127673365377e-05,2.9276963366140193e-05,3.075785563439379e-05,3.075785563439379e-05,4.9333,7.2667
3.54296875,3.320002884870675e-05,2.831568242008083e-05,2.0495532021057413e-05,2.537987844968333e-05,4.9333,7.2667
3.546875,2.9770594122224736e-05,2.3924966747539457e-05,2.0989162777141956e-05,2.5873509205767874e-05,4.9333,7.2667
3.55078125,2.831568242008083e-05,2.537987844968333e-05,3.122550582436861e-05,3.2706398092622237e-05,4.9333,7.2667
3.5546875,2.6367139961852414e-05,2.9770594122224736e-05,3.660348300907907e-05,3.122550582436861e-05,4.9333,7.2667
3.55859375,2.6834790151827232e-05,2.9276963366140193e-05,3.953928697947657e-05,3.026422487830925e-05,4.9333,7.2667
3.5625,2.9276963366140193e-05,2.9276963366140193e-05,3.366767903868157e-05,2.7328420907911776e-05,4.9333,7.2667
3.56640625,2.6834790151827232e-05,2.3924966747539457e-05,2.4392616937514275e-05,3.904565622339203e-05,4.9333,7.2667
3.5703125,2.7328420907911776e-05,2.878333261005565e-05,2.244407447928583e-05,4.0032917735561115e-05,4.9333,7.2667
3.57421875,3.075785563439379e-05,3.366767903868157e-05,3.171913658045315e-05,2.831568242008083e-05,4.9333,7.2667
3.578125,3.122550582436861e-05,3.366767903868157e-05,3.4654940550850654e-05,3.2706398092622237e-05,4.9333,7.2667
3.58203125,3.5642202063019706e-05,3.22127673365377e-05,3.5148571306935194e-05,2.6367139961852414e-05,4.9333,7.2667
3.5859375,3.416130979476611e-05,2.878333261005565e-05,3.953928697947657e-05,2.9276963366140193e-05,4.9333,7.2667
3.58984375,2.5873509205767874e-05,3.026422487830925e-05,3.5642202063019706e-05,3.4654940550850654e-05,4.9333,7.2667
3.59375,3.122550582436861e-05,2.878333261005565e-05,2.3431335991454914e-05,3.122550582436861e-05,4.9333,7.2667
3.59765625,3.171913658045315e-05,2.7822051663996288e-05,2.7328420907911776e-05,2.9770594122224736e-05,4.9333,7.2667
3.6015625,2.831568242008083e-05,2.5873509205767874e-05,2.3924966747539457e-05,3.22127673365377e-05,4.9333,7.2667
3.60546875,3.416130979476611e-05,2.831568242008083e-05,2.148279353322647e-05,2.5873509205767874e-05,4.9333,7.2667
3.609375,3.171913658045315e-05,3.80843752773327e-05,2.4886247693598788e-05,2.7822051663996288e-05,4.9333,7.2667
3.61328125,3.709711376516361e-05,3.320002884870675e-05,2.0989162777141956e-05,2.878333261005565e-05,4.9333,7.2667
3.6171875,3.759074452124815e-05,2.9276963366140193e-05,2.5873509205767874e-05,2.5873509205767874e-05,4.9333,7.2667
3.62109375,3.320002884870675e-05,3.8552025467307516e-05,4.0526548491645655e-05,2.4886247693598788e-05,4.9333,7.2667
3.625,2.7822051663996288e-05,3.2706398092622237e-05,3.610985225299456e-05,4.0032917735561115e-05,4.9333,7.2667
3.62890625,2.7822051663996288e-05,2.537987844968333e-05,2.4392616937514275e-05,3.8552025467307516e-05,4.9333,7.2667
3.6328125,3.80843752773327e-05,2.9770594122224736e-05,2.244407447928583e-05,1.5611185592431495e-05,4.9333,7.2667
3.63671875,3.4654940550850654e-05,3.4654940550850654e-05,3.026422487830925e-05,2.4886247693598788e-05,4.9333,7.2667
3.640625,3.416130979476611e-05,3.5642202063019706e-05,4.442363340810249e-05,3.075785563439379e-05,4.9333,7.2667
3.64453125,3.122550582436861e-05,2.3924966747539457e-05,5.0269260782787796e-05,2.9276963366140193e-05,4.9333,7.2667
3.6484375,3.4654940550850654e-05,2.9770594122224736e-05,5.271143399710075e-05,3.026422487830925e-05,4.9333,7.2667
3.65234375,3.904565622339203e-05,4.343637189593343e-05,3.2706398092622237e-05,2.878333261005565e-05,4.9333,7.2667
3.65625,2.9770594122224736e-05,2.831568242008083e-05,1.706609729457537e-05,2.831568242008083e-05,4.9333,7.2667
3.66015625,2.7822051663996288e-05,3.122550582436861e-05,2.7822051663996288e-05,2.6367139961852414e-05,4.9333,7.2667
3.6640625,3.80843752773327e-05,3.709711376516361e-05,2.293770523537037e-05,2.4392616937514275e-05,4.9333,7.2667
3.66796875,4.6865806622415474e-05,2.9770594122224736e-05,2.5873509205767874e-05,2.3431335991454914e-05,4.9333,7.2667
3.671875,4.099419868162047e-05,3.122550582436861e-05,3.075785563439379e-05,2.537987844968333e-05,4.9333,7.2667
3.67578125,3.171913658045315e-05,2.6367139961852414e-05,3.80843752773327e-05,2.831568242008083e-05,4.9333,7.2667
3.6796875,3.416130979476611e-05,3.4654940550850654e-05,4.587854511024639e-05,3.075785563439379e-05,4.9333,7.2667
3.68359375,3.5148571306935194e-05,4.6865806622415474e-05,3.171913658045315e-05,3.122550582436861e-05,4.9333,7.2667
3.6875,3.2706398092622237e-05,3.2706398092622237e-05,2.293770523537037e-05,2.9276963366140193e-05,4.9333,7.2667
3.69140625,3.171913658045315e-05,2.7822051663996288e-05,3.171913658045315e-05,2.9770594122224736e-05,4.9333,7.2667
3.6953125,3.610985225299456e-05,4.442363340810249e-05,3.171913658045315e-05,2.831568242008083e-05,4.9333,7.2667
3.69921875,3.320002884870675e-05,2.6367139961852414e-05,2.4886247693598788e-05,2.7328420907911776e-05,4.9333,7.2667
3.703125,3.366767903868157e-05,3.2706398092622237e-05,2.878333261005565e-05,2.878333261005565e-05,4.9333,7.2667
3.70703125,3.5148571306935194e-05,3.80843752773327e-05,2.7328420907911776e-05,2.9276963366140193e-05,4.9333,7.2667
3.7109375,3.075785563439379e-05,2.537987844968333e-05,2.0495532021057413e-05,2.7328420907911776e-05,4.9333,7.2667
3.71484375,2.6834790151827232e-05,3.171913658045315e-05,3.075785563439379e-05,2.878333261005565e-05,4.9333,7.2667
3.71875,3.075785563439379e-05,3.2706398092622237e-05,3.80843752773327e-05,3.075785563439379e-05,4.9333,7.2667
3.72265625,3.171913658045315e-05,3.171913658045315e-05,3.610985225299456e-05,3.026422487830925e-05,4.9333,7.2667
3.7265625,3.075785563439379e-05,3.8552025467307516e-05,2.9276963366140193e-05,2.9770594122224736e-05,4.9333,7.2667
3.73046875,3.171913658045315e-05,4.099419868162047e-05,3.075785563439379e-05,3.22127673365377e-05,4.9333,7.2667
3.734375,3.075785563439379e-05,3.075785563439379e-05,2.9276963366140193e-05,3.075785563439379e-05,4.9333,7.2667
3.73828125,2.7822051663996288e-05,2.4392616937514275e-05,3.075785563439379e-05,3.122550582436861e-05,4.9333,7.2667
3.7421875,3.075785563439379e-05,3.22127673365377e-05,4.148782943770501e-05,3.122550582436861e-05,4.9333,7.2667
3.74609375,2.9770594122224736e-05,2.878333261005565e-05,4.0526548491645655e-05,2.7328420907911776e-05,4.9333,7.2667
3.75,3.075785563439379e-05,1.659844710460055e-05,4.0032917735561115e-05,2.7822051663996288e-05,4.9333,7.2667
3.75390625,2.878333261005565e-05,8.284665949492592e-06,3.80843752773327e-05,3.026422487830925e-05,4.9333,7.2667
3.7578125,2.6367139961852414e-05,2.6834790151827232e-05,2.7822051663996288e-05,2.7328420907911776e-05,4.9333,7.2667
3.76171875,3.171913658045315e-05,5.419232626535435e-05,2.0989162777141956e-05,2.537987844968333e-05,4.9333,7.2667
3.765625,3.5642202063019706e-05,5.3205064753185266e-05,1.6104816348516008e-05,2.6834790151827232e-05,4.9333,7.2667
3.76953125,3.660348300907907e-05,4.9801610592812944e-05,4.38758103303573e-06,2.537987844968333e-05,4.9333,7.2667
3.7734375,2.831568242008083e-05,6.151884590829323e-05,9.271927461661675e-06,2.878333261005565e-05,4.9333,7.2667
3.77734375,2.9770594122224736e-05,7.030027725337601e-05,2.000190126497287e-05,2.9770594122224736e-05,4.9333,7.2667
3.78125,3.2706398092622237e-05,5.759578042572667e-05,2.4886247693598788e-05,3.026422487830925e-05,4.9333,7.2667
3.78515625,2.9276963366140193e-05,4.148782943770501e-05,3.122550582436861e-05,3.2706398092622237e-05,4.9333,7.2667
3.7890625,3.22127673365377e-05,3.2706398092622237e-05,3.759074452124815e-05,3.075785563439379e-05,4.9333,7.2667
3.79296875,2.878333261005565e-05,2.4886247693598788e-05,4.1981460193789526e-05,3.026422487830925e-05,4.9333,7.2667
3.796875,2.831568242008083e-05,2.3431335991454914e-05,4.587854511024639e-05,3.075785563439379e-05,4.9333,7.2667
3.80078125,3.171913658045315e-05,2.0989162777141956e-05,5.1750153051041395e-05,3.416130979476611e-05,4.9333,7.2667
3.8046875,2.9276963366140193e-05,2.3924966747539457e-05,3.953928697947657e-05,3.320002884870675e-05,4.9333,7.2667
3.80859375,2.6834790151827232e-05,3.416130979476611e-05,2.7822051663996288e-05,3.171913658045315e-05,4.9333,7.2667
3.8125,2.7822051663996288e-05,3.171913658045315e-05,3.22127673365377e-05,3.122550582436861e-05,4.9333,7.2667
3.81640625,2.9770594122224736e-05,2.4886247693598788e-05,2.6834790151827232e-05,3.80843752773327e-05,4.9333,7.2667
3.8203125,2.831568242008083e-05,3.320002884870675e-05,3.2706398092622237e-05,3.953928697947657e-05,4.9333,7.2667
3.82421875,3.2706398092622237e-05,3.320002884870675e-05,5.125652229495685e-05,2.7822051663996288e-05,4.9333,7.2667
3.828125,3.2706398092622237e-05,2.7328420907911776e-05,4.930797983672843e-05,2.9276963366140193e-05,4.9333,7.2667
3.83203125,3.416130979476611e-05,3.122550582436861e-05,4.0526548491645655e-05,3.22127673365377e-05,4.9333,7.2667
3.8359375,3.660348300907907e-05,3.709711376516361e-05,2.5873509205767874e-05,2.9770594122224736e-05,4.9333,7.2667
3.83984375,3.075785563439379e-05,4.343637189593343e-05,3.5642202063019706e-05,2.9770594122224736e-05,4.9333,7.2667
3.84375,3.22127673365377e-05,3.759074452124815e-05,4.7359437378499987e-05,3.22127673365377e-05,4.9333,7.2667
3.84765625,3.22127673365377e-05,3.171913658045315e-05,3.660348300907907e-05,4.538491435416185e-05,4.9333,7.2667
3.8515625,3.2706398092622237e-05,3.026422487830925e-05,3.5642202063019706e-05,4.538491435416185e-05,4.9333,7.2667
3.85546875,3.660348300907907e-05,3.416130979476611e-05,3.416130979476611e-05,2.3924966747539457e-05,4.9333,7.2667
3.859375,3.5642202063019706e-05,3.4654940550850654e-05,2.7822051663996288e-05,2.5873509205767874e-05,4.9333,7.2667
3.86328125,3.366767903868157e-05,3.2706398092622237e-05,1.706609729457537e-05,3.171913658045315e-05,4.9333,7.2667
3.8671875,3.5642202063019706e-05,3.075785563439379e-05,1.950827050888833e-05,2.7328420907911776e-05,4.9333,7.2667
3.87109375,3.2706398092622237e-05,2.7328420907911776e-05,1.2675381622033995e-05,3.171913658045315e-05,4.9333,7.2667
3.875,3.366767903868157e-05,3.026422487830925e-05,1.5611185592431495e-05,2.878333261005565e-05,4.9333,7.2667
3.87890625,3.5642202063019706e-05,2.878333261005565e-05,3.80843752773327e-05,2.6834790151827232e-05,4.9333,7.2667
3.8828125,3.660348300907907e-05,3.026422487830925e-05,2.831568242008083e-05,2.293770523537037e-05,4.9333,7.2667
3.88671875,3.4654940550850654e-05,2.7822051663996288e-05,2.831568242008083e-05,2.7328420907911776e-05,4.9333,7.2667
3.890625,3.416130979476611e-05,3.2706398092622237e-05,4.0032917735561115e-05,2.9770594122224736e-05,4.9333,7.2667
3.89453125,3.122550582436861e-05,2.7822051663996288e-05,2.9276963366140193e-05,3.660348300907907e-05,4.9333,7.2667
3.8984375,3.22127673365377e-05,2.1950443723201318e-05,1.3169012378118537e-05,3.122550582436861e-05,4.9333,7.2667
3.90234375,3.759074452124815e-05,3.075785563439379e-05,2.5873509205767874e-05,2.0495532021057413e-05,4.9333,7.2667
3.90625,3.4654940550850654e-05,2.9276963366140193e-05,3.660348300907907e-05,2.878333261005565e-05,4.9333,7.2667
3.91015625,3.5642202063019706e-05,3.22127673365377e-05,2.0989162777141956e-05,2.6367139961852414e-05,4.9333,7.2667
3.9140625,3.5148571306935194e-05,3.366767903868157e-05,1.659844710460055e-05,3.026422487830925e-05,4.9333,7.2667
3.91796875,3.171913658045315e-05,3.416130979476611e-05,2.6834790151827232e-05,3.171913658045315e-05,4.9333,7.2667
3.921875,3.366767903868157e-05,3.171913658045315e-05,3.026422487830925e-05,2.5873509205767874e-05,4.9333,7.2667
3.92578125,3.416130979476611e-05,3.660348300907907e-05,4.148782943770501e-05,2.7328420907911776e-05,4.9333,7.2667
3.9296875,3.2706398092622237e-05,3.80843752773327e-05,3.953928697947657e-05,2.831568242008083e-05,4.9333,7.2667
3.93359375,3.2706398092622237e-05,3.320002884870675e-05,4.7359437378499987e-05,2.878333261005565e-05,4.9333,7.2667
3.9375,3.171913658045315e-05,3.709711376516361e-05,5.271143399710075e-05,3.2706398092622237e-05,4.9333,7.2667
3.94140625,3.075785563439379e-05,3.5148571306935194e-05,3.22127673365377e-05,4.099419868162047e-05,4.9333,7.2667
3.9453125,3.22127673365377e-05,3.320002884870675e-05,3.075785563439379e-05,3.366767903868157e-05,4.9333,7.2667
3.94921875,3.5642202063019706e-05,3.80843752773327e-05,4.442363340810249e-05,2.1950443723201318e-05,4.9333,7.2667
3.953125,3.5642202063019706e-05,3.416130979476611e-05,4.0032917735561115e-05,2.7822051663996288e-05,4.9333,7.2667
3.95703125,3.22127673365377e-05,3.416130979476611e-05,3.171913658045315e-05,2.831568242008083e-05,4.9333,7.2667
3.9609375,3.320002884870675e-05,3.709711376516361e-05,2.9276963366140193e-05,2.5873509205767874e-05,4.9333,7.2667
3.96484375,3.416130979476611e-05,4.099419868162047e-05,3.610985225299456e-05,2.831568242008083e-05,4.9333,7.2667
3.96875,3.075785563439379e-05,3.759074452124815e-05,3.80843752773327e-05,3.171913658045315e-05,4.9333,7.2667
3.97265625,2.7822051663996288e-05,3.075785563439379e-05,3.366767903868157e-05,3.075785563439379e-05,4.9333,7.2667
3.9765625,3.366767903868157e-05,3.660348300907907e-05,2.7822051663996288e-05,2.9276963366140193e-05,4.9333,7.2667
3.98046875,3.075785563439379e-05,3.610985225299456e-05,2.000190126497287e-05,2.537987844968333e-05,4.9333,7.2667
3.984375,3.075785563439379e-05,3.2706398092622237e-05,2.1950443723201318e-05,2.3431335991454914e-05,4.9333,7.2667
3.98828125,3.22127673365377e-05,3.171913658045315e-05,2.7822051663996288e-05,2.6834790151827232e-05,4.9333,7.2667
3.9921875,2.6834790151827232e-05,2.831568242008083e-05,3.22127673365377e-05,2.878333261005565e-05,4.9333,7.2667
3.99609375,2.878333261005565e-05,3.171913658045315e-05,3.075785563439379e-05,2.7328420907911776e-05,4.9333,7.2667
4.0,2.4886247693598788e-05,3.075785563439379e-05,2.148279353322647e-05,3.759074452124815e-05,4.9333,7.2667
4.00390625,2.5873509205767874e-05,3.366767903868157e-05,3.22127673365377e-05,2.7822051663996288e-05,4.9333,7.2667
4.0078125,3.5642202063019706e-05,3.171913658045315e-05,2.831568242008083e-05,2.244407447928583e-05,4.9333,7.2667
4.01171875,3.2706398092622237e-05,2.878333261005565e-05,2.293770523537037e-05,2.7328420907911776e-05,4.9333,7.2667
4.015625,3.026422487830925e-05,3.320002884870675e-05,3.953928697947657e-05,2.6367139961852414e-05,4.9333,7.2667
4.01953125,3.171913658045315e-05,2.9276963366140193e-05,3.80843752773327e-05,2.7822051663996288e-05,4.9333,7.2667
4.0234375,3.026422487830925e-05,2.7822051663996288e-05,3.026422487830925e-05,3.122550582436861e-05,4.9333,7.2667
4.02734375,2.9276963366140193e-05,2.9276963366140193e-05,1.950827050888833e-05,2.831568242008083e-05,4.9333,7.2667
4.03125,2.7822051663996288e-05,2.4392616937514275e-05,9.765558217746218e-06,2.3924966747539457e-05,4.9333,7.2667
4.03515625,3.2706398092622237e-05,2.6834790151827232e-05,2.0495532021057413e-05,2.4392616937514275e-05,4.9333,7.2667
4.0390625,3.660348300907907e-05,2.9770594122224736e-05,1.950827050888833e-05,2.3924966747539457e-05,4.9333,7.2667
4.04296875,3.80843752773327e-05,2.9770594122224736e-05,2.5873509205767874e-05,2.3924966747539457e-05,4.9333,7.2667
4.046875,3.416130979476611e-05,2.9276963366140193e-05,4.099419868162047e-05,2.9770594122224736e-05,4.9333,7.2667
4.05078125,3.22127673365377e-05,3.366767903868157e-05,5.125652229495685e-05,2.878333261005565e-05,4.9333,7.2667
4.0546875,2.878333261005565e-05,3.5642202063019706e-05,4.6372175866330934e-05,2.9770594122224736e-05,4.9333,7.2667
4.05859375,2.878333261005565e-05,2.9770594122224736e-05,2.9770594122224736e-05,3.075785563439379e-05,4.9333,7.2667
4.0625,3.22127673365377e-05,1.2181750865949454e-05,3.5642202063019706e-05,2.9276963366140193e-05,4.9333,7.2667
4.06640625,2.878333261005565e-05,1.5611185592431495e-05,3.660348300907907e-05,2.9276963366140193e-05,4.9333,7.2667
4.0703125,2.878333261005565e-05,3.171913658045315e-05,2.1950443723201318e-05,3.953928697947657e-05,4.9333,7.2667
4.07421875,3.075785563439379e-05,2.6834790151827232e-05,3.22127673365377e-05,3.366767903868157e-05,4.9333,7.2667
4.078125,2.7822051663996288e-05,1.950827050888833e-05,4.491726416418703e-05,2.537987844968333e-05,4.9333,7.2667
4.08203125,2.3431335991454914e-05,2.878333261005565e-05,4.148782943770501e-05,3.075785563439379e-05,4.9333,7.2667
4.0859375,3.366767903868157e-05,3.709711376516361e-05,4.099419868162047e-05,2.6367139961852414e-05,4.9333,7.2667
4.08984375,3.22127673365377e-05,1.9040620318913512e-05,4.343637189593343e-05,3.075785563439379e-05,4.9333,7.2667
4.09375,2.831568242008083e-05,1.659844710460055e-05,4.0032917735561115e-05,3.122550582436861e-05,4.9333,7.2667
4.09765625,3.075785563439379e-05,2.7328420907911776e-05,4.1981460193789526e-05,2.9770594122224736e-05,4.9333,7.2667
4.1015625,2.831568242008083e-05,2.9276963366140193e-05,4.9801610592812944e-05,3.2706398092622237e-05,4.9333,7.2667
4.10546875,3.22127673365377e-05,3.2706398092622237e-05,4.6372175866330934e-05,3.171913658045315e-05,4.9333,7.2667
4.109375,3.22127673365377e-05,1.3662643134203051e-05,4.491726416418703e-05,3.22127673365377e-05,4.9333,7.2667
4.11328125,2.9276963366140193e-05,2.000190126497287e-05,5.076289153887231e-05,3.320002884870675e-05,4.9333,7.2667
