timestamp,TP9,AF7,AF8,TP10,Valence,Arousal
0.0,-2.0999227313649186e-05,-2.2950739705500878e-05,-3.222710682841229e-05,-3.12558061402304e-05,4.1429,4.2143
0.00390625,-2.2950739705500878e-05,-4.1993579803158605e-05,-3.858066087129015e-05,-3.0275594436560607e-05,4.1429,4.2143
0.0078125,-2.490225209735256e-05,-3.564893677576867e-05,-3.222710682841229e-05,-3.613904262760357e-05,4.1429,4.2143
0.01171875,-3.2717212680247185e-05,-2.6372569652857252e-05,-2.8814187896543826e-05,-4.004206741130693e-05,4.1429,4.2143
0.015625,-3.320731853208208e-05,-2.5392357949187455e-05,-2.978548858472571e-05,-2.832408204470893e-05,4.1429,4.2143
0.01953125,-3.564893677576867e-05,-3.222710682841229e-05,-2.5392357949187455e-05,-1.855760906996261e-05,4.1429,4.2143
0.0234375,-3.858066087129015e-05,-3.711034331578546e-05,-2.5392357949187455e-05,-1.855760906996261e-05,4.1429,4.2143
0.02734375,-3.369742438391698e-05,-3.6629148479438466e-05,-3.12558061402304e-05,-1.9537820773632402e-05,4.1429,4.2143
0.03125,-2.832408204470893e-05,-2.7833976192874033e-05,-3.0275594436560607e-05,-2.0027926625467302e-05,4.1429,4.2143
0.03515625,-2.9304293748378726e-05,-2.6862675504692148e-05,-3.12558061402304e-05,-2.0999227313649186e-05,4.1429,4.2143
0.0390625,-3.5158830923933776e-05,-2.7833976192874033e-05,-3.2717212680247185e-05,-2.3440845557335777e-05,4.1429,4.2143
0.04296875,-2.978548858472571e-05,-3.0275594436560607e-05,-2.3440845557335777e-05,-2.5882463801022352e-05,4.1429,4.2143
0.046875,-3.7600449167620354e-05,-3.12558061402304e-05,-2.832408204470893e-05,-2.6372569652857252e-05,4.1429,4.2143
0.05078125,-4.736692214236667e-05,-1.8067503218127712e-05,-3.2717212680247185e-05,-2.0027926625467302e-05,4.1429,4.2143
0.0546875,-3.613904262760357e-05,-1.8067503218127712e-05,-2.6862675504692148e-05,-1.7586308381780724e-05,4.1429,4.2143
0.05859375,-3.1745911992065304e-05,-2.490225209735256e-05,-2.2469544869153876e-05,-2.6862675504692148e-05,4.1429,4.2143
0.0625,-3.613904262760357e-05,-4.1993579803158605e-05,-3.6629148479438466e-05,-3.320731853208208e-05,4.1429,4.2143
0.06640625,-5.0298646237888145e-05,-4.248368565499351e-05,-2.6862675504692148e-05,-3.1745911992065304e-05,4.1429,4.2143
0.0703125,-2.490225209735256e-05,-1.026145365072098e-05,1.1223004690623326e-05,-2.6862675504692148e-05,4.1429,4.2143
0.07421875,1.8547859421683058e-05,-2.3930951409170674e-05,-1.026145365072098e-05,-2.6862675504692148e-05,4.1429,4.2143
0.078125,3.898149959563597e-06,-5.323037033340962e-05,-4.6876816290531774e-05,-2.7833976192874033e-05,4.1429,4.2143
0.08203125,-2.0999227313649186e-05,-5.176005277790493e-05,-4.7857027994201574e-05,-2.978548858472571e-05,4.1429,4.2143
0.0859375,-3.0275594436560607e-05,-3.858066087129015e-05,-3.858066087129015e-05,-3.2717212680247185e-05,4.1429,4.2143
0.08984375,-3.2717212680247185e-05,-3.2717212680247185e-05,-3.7600449167620354e-05,-3.466872507209888e-05,4.1429,4.2143
0.09375,-2.0999227313649186e-05,-3.2717212680247185e-05,-3.613904262760357e-05,-3.7600449167620354e-05,4.1429,4.2143
0.09765625,-2.978548858472571e-05,-3.320731853208208e-05,-2.832408204470893e-05,-3.907076672312504e-05,4.1429,4.2143
0.1015625,-4.443519804684518e-05,-2.7833976192874033e-05,-1.1232754338902879e-05,-3.12558061402304e-05,4.1429,4.2143
0.10546875,-4.6876816290531774e-05,-2.7833976192874033e-05,-1.026145365072098e-05,-2.0999227313649186e-05,4.1429,4.2143
0.109375,-4.004206741130693e-05,-3.613904262760357e-05,-3.12558061402304e-05,-3.369742438391698e-05,4.1429,4.2143
0.11328125,-3.369742438391698e-05,-3.466872507209888e-05,-3.12558061402304e-05,-4.248368565499351e-05,4.1429,4.2143
0.1171875,-2.5882463801022352e-05,-3.5158830923933776e-05,-3.12558061402304e-05,-4.1022279114976724e-05,4.1429,4.2143
0.12109375,-2.1489333165484083e-05,-3.7600449167620354e-05,-4.541540975051498e-05,-4.590551560234988e-05,4.1429,4.2143
0.125,-2.442105726100557e-05,-2.5392357949187455e-05,-3.564893677576867e-05,-4.590551560234988e-05,4.1429,4.2143
0.12890625,-3.0765700288395504e-05,-2.2469544869153876e-05,-3.12558061402304e-05,-3.858066087129015e-05,4.1429,4.2143
0.1328125,-3.7600449167620354e-05,-3.320731853208208e-05,-4.2973791506828405e-05,-4.1022279114976724e-05,4.1429,4.2143
0.13671875,-2.832408204470893e-05,-3.12558061402304e-05,-4.6876816290531774e-05,-3.711034331578546e-05,4.1429,4.2143
0.140625,-4.2973791506828405e-05,-2.6862675504692148e-05,-5.51818827252613e-05,-3.0275594436560607e-05,4.1429,4.2143
0.14453125,-5.323037033340962e-05,-3.613904262760357e-05,-5.957501336079957e-05,-3.711034331578546e-05,4.1429,4.2143
0.1484375,-2.8814187896543826e-05,-4.053217326314183e-05,-4.541540975051498e-05,-3.907076672312504e-05,4.1429,4.2143
0.15234375,-9.771347798886083e-06,-3.1745911992065304e-05,-4.151238496681162e-05,-4.34638973586633e-05,4.1429,4.2143
0.15625,-2.6372569652857252e-05,-2.490225209735256e-05,-4.1993579803158605e-05,-4.443519804684518e-05,4.1429,4.2143
0.16015625,-4.1022279114976724e-05,-3.613904262760357e-05,-2.8814187896543826e-05,-3.564893677576867e-05,4.1429,4.2143
0.1640625,-3.12558061402304e-05,-3.4187530235751874e-05,-3.320731853208208e-05,-3.5158830923933776e-05,4.1429,4.2143
0.16796875,-2.3440845557335777e-05,-2.442105726100557e-05,-3.711034331578546e-05,-2.7833976192874033e-05,4.1429,4.2143
0.171875,-2.6862675504692148e-05,-2.5882463801022352e-05,-3.6629148479438466e-05,-2.0027926625467302e-05,4.1429,4.2143
0.17578125,-3.369742438391698e-05,-2.7343870341039133e-05,-4.248368565499351e-05,-2.3930951409170674e-05,4.1429,4.2143
0.1796875,-3.858066087129015e-05,-3.0765700288395504e-05,-4.3945092195010287e-05,-3.369742438391698e-05,4.1429,4.2143
0.18359375,-5.859480165712977e-05,-1.9047714921797505e-05,-4.151238496681162e-05,-3.5158830923933776e-05,4.1429,4.2143
0.1875,-5.615318341344319e-05,-1.5625884974441134e-05,-3.711034331578546e-05,-2.978548858472571e-05,4.1429,4.2143
0.19140625,-2.978548858472571e-05,-3.369742438391698e-05,-4.980854038605325e-05,-3.564893677576867e-05,4.1429,4.2143
0.1953125,-9.771347798886083e-06,-4.931843453421835e-05,-6.445824984817272e-05,-3.6629148479438466e-05,4.1429,4.2143
0.19921875,-1.4662813641565435e-06,-6.0555225064469366e-05,-6.347803814450293e-05,-3.1745911992065304e-05,4.1429,4.2143
0.203125,-8.301030243381405e-06,-6.201663160448614e-05,-6.885138048371098e-05,-2.9304293748378726e-05,4.1429,4.2143
0.20703125,-2.197943901731898e-05,-6.103641990081635e-05,-7.275440526741436e-05,-2.0027926625467302e-05,4.1429,4.2143
0.2109375,-2.6862675504692148e-05,-7.324451111924925e-05,-7.715644691844052e-05,-1.1722860190737776e-05,4.1429,4.2143
0.21484375,-3.4187530235751874e-05,-9.082594467689019e-05,-0.00011084008546272983,-1.9537820773632402e-05,4.1429,4.2143
0.21875,-4.6876816290531774e-05,-0.00010888857307087815,-0.00010888857307087815,-1.4164478434424353e-05,4.1429,4.2143
0.22265625,-3.907076672312504e-05,-0.00012012536360112915,-0.0001035152307316701,-4.874824139761813e-09,4.1429,4.2143
0.2265625,-2.7343870341039133e-05,-0.00011865504604562447,-0.00011719363950560768,4.878361663233392e-06,4.1429,4.2143
0.23046875,-2.2950739705500878e-05,-0.0001352473568841077,-0.00013915929268329898,-3.907899607843149e-06,4.1429,4.2143
0.234375,-1.5144690138094148e-05,-0.00017480335463492788,-0.00019042436478522922,-7.819835407034403e-06,4.1429,4.2143
0.23828125,-3.369742438391698e-05,-0.00022851004498054473,-0.00023534479385976955,-4.949806759746593e-07,4.1429,4.2143
0.2421875,-4.151238496681162e-05,-0.00025731935805294883,-0.00024706277922636755,1.952807112535285e-05,4.1429,4.2143
0.24609375,-1.855760906996261e-05,-0.00026269270039215684,-0.0002646442127840085,2.880443824826429e-05,4.1429,4.2143
0.25,-1.026145365072098e-05,-0.00030223978712748905,-0.00031054485356221863,7.810085758754866e-06,4.1429,4.2143
0.25390625,-3.0275594436560607e-05,-0.0003354422308354314,-0.0003427670855664912,2.4367434195468148e-06,4.1429,4.2143
0.2578125,-4.004206741130693e-05,-0.00034765032205386434,-0.00035887820156862743,6.3397682032501735e-06,4.1429,4.2143
0.26171875,-1.465458428625925e-05,-0.0003671832680033569,-0.00037841114751812005,6.829874055085071e-06,4.1429,4.2143
0.265625,1.41547287861448e-05,-0.0003657129504478523,-0.0003710862927870603,1.5625046341649492e-05,4.1429,4.2143
0.26953125,1.269332224612802e-05,-0.0003642515439078355,-0.0003710862927870603,1.1223004690623326e-05,4.1429,4.2143
0.2734375,-7.819835407034403e-06,-0.0003637614380560006,-0.0003837844898573281,1.45653171587702e-06,4.1429,4.2143
0.27734375,-2.197943901731898e-05,-0.0003681545686915389,-0.000384274595709163,-4.949806759746593e-07,4.1429,4.2143
0.28125,-2.3440845557335777e-05,-0.0003710862927870603,-0.00038036265990997175,-1.956387215991441e-06,4.1429,4.2143
0.28515625,-2.7343870341039133e-05,-0.0003413056790264744,-0.0003583970067322804,-4.949806759746593e-07,4.1429,4.2143
0.2890625,-2.832408204470893e-05,-0.00033153920605172803,-0.0003491117285938811,-7.819835407034403e-06,4.1429,4.2143
0.29296875,-1.611599082627603e-05,-0.0003344709301472495,-0.0003422769797146562,-1.7586308381780724e-05,4.1429,4.2143
0.296875,-2.936598919661236e-06,-0.0003154280900495918,-0.0003178697082932784,-1.660609667811093e-05,4.1429,4.2143
0.30078125,-4.949806759746593e-07,-0.00031298647180590523,-0.0003134676666422522,-2.3440845557335777e-05,4.1429,4.2143
0.3046875,-1.660609667811093e-05,-0.0003037101046829938,-0.00031884100898146026,-2.978548858472571e-05,4.1429,4.2143
0.30859375,-2.490225209735256e-05,-0.00026415410693217357,-0.0002934535258564126,-2.6372569652857252e-05,4.1429,4.2143
0.3125,-2.832408204470893e-05,-0.00023778641210345613,-0.00025097471502555884,-2.0027926625467302e-05,4.1429,4.2143
0.31640625,-3.0765700288395504e-05,-0.00022508821503318836,-0.00022411691434500648,-2.0027926625467302e-05,4.1429,4.2143
0.3203125,-9.850865278095569e-07,-0.00023485468800793467,-0.00021581184791027693,-2.6862675504692148e-05,4.1429,4.2143
0.32421875,1.610624117799648e-05,-0.00021435044137026017,-0.000209467204882887,-3.466872507209888e-05,4.1429,4.2143
0.328125,3.4169551232166096e-06,-0.0001699201181475547,-0.0001982393253681239,-3.9551961559472035e-05,4.1429,4.2143
0.33203125,-1.1232754338902879e-05,-0.0001459940415625238,-0.00016747849990386812,-3.711034331578546e-05,4.1429,4.2143
0.3359375,-2.7833976192874033e-05,-0.00010986878477454794,-0.0001284215190203708,-2.9304293748378726e-05,4.1429,4.2143
0.33984375,-4.151238496681162e-05,-0.0001030340358953231,-0.00012012536360112915,-3.369742438391698e-05,4.1429,4.2143
0.34375,-2.0509121461814303e-05,-9.668048185244525e-05,-9.961220594796672e-05,-5.274026448157472e-05,4.1429,4.2143
0.34765625,-6.349517851529711e-06,-9.13160505287251e-05,-9.668048185244525e-05,-6.250673745632104e-05,4.1429,4.2143
0.3515625,-3.0765700288395504e-05,-6.787116878004119e-05,-9.668048185244525e-05,-6.298793229266803e-05,4.1429,4.2143
0.35546875,-2.3930951409170674e-05,-3.6629148479438466e-05,-6.250673745632104e-05,-6.006511921263447e-05,4.1429,4.2143
0.359375,-2.442105726100557e-05,-2.0027926625467302e-05,-4.053217326314183e-05,-5.762350096894788e-05,4.1429,4.2143
0.36328125,-2.7833976192874033e-05,-9.850865278095569e-07,-1.074264848706798e-05,-6.298793229266803e-05,4.1429,4.2143
0.3671875,-1.5144690138094148e-05,-4.874824139761813e-09,-1.465458428625925e-05,-7.031278702372776e-05,4.1429,4.2143
0.37109375,-7.819835407034403e-06,2.2459795220874355e-05,-1.1722860190737776e-05,-6.250673745632104e-05,4.1429,4.2143
0.375,-1.1232754338902879e-05,4.052242361486227e-05,1.4644834637979699e-05,-5.420167102159151e-05,4.1429,4.2143
0.37890625,-2.0999227313649186e-05,5.224040898146029e-05,2.9294544100099185e-05,-6.152652575265125e-05,4.1429,4.2143
0.3828125,-1.8067503218127712e-05,6.0055369564354915e-05,3.857091122301059e-05,-7.031278702372776e-05,4.1429,4.2143
0.38671875,4.852310276951357e-07,7.079314322728314e-05,4.9798790737773714e-05,-6.445824984817272e-05,4.1429,4.2143
0.390625,-2.4464930678263384e-06,0.00010595601034256503,7.665659141832609e-05,-5.51818827252613e-05,4.1429,4.2143
0.39453125,-1.9537820773632402e-05,0.0001220671263447013,8.251112859388112e-05,-5.713339511711298e-05,4.1429,4.2143
0.3984375,-6.8396237033646085e-06,0.00011230065336995496,8.983598332494085e-05,-5.859480165712977e-05,4.1429,4.2143
0.40234375,1.45653171587702e-06,0.00010253418039520866,0.00010448569278706034,-6.201663160448614e-05,4.1429,4.2143
0.40625,-9.771347798886083e-06,0.0001098590351262684,0.00010497579863889524,-5.957501336079957e-05,4.1429,4.2143
0.41015625,-2.832408204470893e-05,0.00012401863873655298,0.00011425216576180664,-4.980854038605325e-05,4.1429,4.2143
0.4140625,-4.590551560234988e-05,0.00012597015112840467,0.00011767399570916301,-6.0555225064469366e-05,4.1429,4.2143
0.41796875,-3.320731853208208e-05,0.00011816410156099791,9.911235044785229e-05,-7.373461697108415e-05,4.1429,4.2143
0.421875,-3.907899607843149e-06,0.00011083924682993819,8.593295854123749e-05,-6.152652575265125e-05,4.1429,4.2143
0.42578125,-3.907899607843149e-06,0.00011376205990997174,9.374791912413212e-05,-5.615318341344319e-05,4.1429,4.2143
0.4296875,-1.2212966042572674e-05,0.00011572248331731134,9.374791912413212e-05,-6.250673745632104e-05,4.1429,4.2143
0.43359375,-8.791136095216301e-06,0.00011425216576180664,9.130630088044554e-05,-6.494835570000762e-05,4.1429,4.2143
0.4375,-2.0509121461814303e-05,0.00011083924682993819,9.618953736781872e-05,-6.201663160448614e-05,4.1429,4.2143
0.44140625,-2.6372569652857252e-05,0.00010741741688258182,8.886468263675896e-05,-5.957501336079957e-05,4.1429,4.2143
0.4453125,-8.791136095216301e-06,0.00010839762858625161,9.374791912413212e-05,-6.445824984817272e-05,4.1429,4.2143
0.44921875,-1.465458428625925e-05,0.00011523237746547643,0.00010497579863889524,-6.298793229266803e-05,4.1429,4.2143
0.453125,-2.197943901731898e-05,0.0001220671263447013,9.227760156862743e-05,-6.250673745632104e-05,4.1429,4.2143
0.45703125,-1.074264848706798e-05,0.00011816410156099791,8.739436508125427e-05,-6.152652575265125e-05,4.1429,4.2143
0.4609375,1.45653171587702e-06,0.00011083924682993819,8.983598332494085e-05,-5.859480165712977e-05,4.1429,4.2143
0.46484375,-3.417793756008251e-06,0.00010155396869153887,8.788447093308917e-05,-6.68998680918593e-05,4.1429,4.2143
0.46875,-2.2469544869153876e-05,0.00010839762858625161,8.202993375753414e-05,-6.787116878004119e-05,4.1429,4.2143
0.47265625,-2.2469544869153876e-05,0.0001210869146410315,8.837457678492407e-05,-5.762350096894788e-05,4.1429,4.2143
0.4765625,-5.378217163347827e-06,0.00010204407454337377,0.00010253418039520866,-5.420167102159151e-05,4.1429,4.2143
0.48046875,-5.378217163347827e-06,9.130630088044554e-05,8.983598332494085e-05,-5.51818827252613e-05,4.1429,4.2143
0.484375,-2.6372569652857252e-05,9.423802497596702e-05,7.226346078278783e-05,-5.323037033340962e-05,4.1429,4.2143
0.48828125,-3.1745911992065304e-05,8.886468263675896e-05,7.958831551384756e-05,-5.2250158629739826e-05,4.1429,4.2143
0.4921875,-2.0999227313649186e-05,7.958831551384756e-05,7.714669727016099e-05,-5.274026448157472e-05,4.1429,4.2143
0.49609375,-1.074264848706798e-05,7.714669727016099e-05,7.567637971465628e-05,-4.3945092195010287e-05,4.1429,4.2143
0.5,-1.7096202529945828e-05,7.470507902647441e-05,8.055961620202944e-05,-4.34638973586633e-05,4.1429,4.2143
0.50390625,-2.3930951409170674e-05,7.031194839093612e-05,8.935478848859386e-05,-4.2973791506828405e-05,4.1429,4.2143
0.5078125,-1.074264848706798e-05,6.835152498359656e-05,7.958831551384756e-05,-4.492530389868008e-05,4.1429,4.2143
0.51171875,-1.3674372582589455e-05,6.982184253910123e-05,5.028889658960861e-05,-5.0298646237888145e-05,4.1429,4.2143
0.515625,-1.9047714921797505e-05,6.689011844357975e-05,4.833738419775693e-05,-5.0298646237888145e-05,4.1429,4.2143
0.51953125,-1.855760906996261e-05,6.590990673990996e-05,4.735717249408714e-05,-5.56719885770962e-05,4.1429,4.2143
0.5234375,-1.7586308381780724e-05,5.566223892881666e-05,2.7343031708247507e-05,-5.6643289265278085e-05,4.1429,4.2143
0.52734375,-2.0027926625467302e-05,4.101252946669717e-05,2.147958351720456e-05,-5.713339511711298e-05,4.1429,4.2143
0.53125,-3.466872507209888e-05,4.2473936006713954e-05,2.9294544100099185e-05,-5.9084907508964676e-05,4.1429,4.2143
0.53515625,-4.6876816290531774e-05,4.3944253562218644e-05,3.319756888380255e-05,-5.615318341344319e-05,4.1429,4.2143
0.5390625,-3.12558061402304e-05,4.5405660102235456e-05,2.4411307612726033e-05,-5.51818827252613e-05,4.1429,4.2143
0.54296875,-1.026145365072098e-05,3.514908127565422e-05,1.9037965273517954e-05,-6.006511921263447e-05,4.1429,4.2143
0.546875,-2.1489333165484083e-05,4.198383015487906e-05,3.026584478828107e-05,-5.323037033340962e-05,4.1429,4.2143
0.55078125,-2.7343870341039133e-05,5.028889658960861e-05,3.75906995193408e-05,-4.2973791506828405e-05,4.1429,4.2143
0.5546875,-1.4164478434424353e-05,2.7343031708247507e-05,2.5872714152742814e-05,-4.638671043869688e-05,4.1429,4.2143
0.55859375,-8.791136095216301e-06,1.2203216394293121e-05,3.898149959563597e-06,-5.0298646237888145e-05,4.1429,4.2143
0.5625,-6.349517851529711e-06,1.5134940489814595e-05,9.753368795300333e-07,-5.0298646237888145e-05,4.1429,4.2143
0.56640625,-1.7096202529945828e-05,4.388255811398494e-06,-6.349517851529711e-06,-5.0298646237888145e-05,4.1429,4.2143
0.5703125,-3.613904262760357e-05,3.4169551232166096e-06,-7.819835407034403e-06,-4.931843453421835e-05,4.1429,4.2143
0.57421875,-3.809055501945525e-05,8.300191610589762e-06,-2.936598919661236e-06,-5.762350096894788e-05,4.1429,4.2143
0.578125,-1.8067503218127712e-05,1.1223004690623326e-05,9.753368795300333e-07,-4.931843453421835e-05,4.1429,4.2143
0.58203125,-2.936598919661236e-06,2.147958351720456e-05,2.0499371813534762e-05,-3.12558061402304e-05,4.1429,4.2143
0.5859375,-1.465458428625925e-05,1.074180985427634e-05,1.1713110542458225e-05,-3.564893677576867e-05,4.1429,4.2143
0.58984375,-2.6372569652857252e-05,1.3183428097962916e-05,-9.850865278095569e-07,-5.56719885770962e-05,4.1429,4.2143
0.59375,-2.3440845557335777e-05,2.5872714152742814e-05,2.0499371813534762e-05,-5.8113606820782775e-05,4.1429,4.2143
0.59765625,-3.907076672312504e-05,-1.5625884974441134e-05,-4.949806759746593e-07,-4.1022279114976724e-05,4.1429,4.2143
0.6015625,-5.4691776873426404e-05,-4.004206741130693e-05,-2.3440845557335777e-05,-2.8814187896543826e-05,4.1429,4.2143
0.60546875,-5.078875208972304e-05,-2.0027926625467302e-05,-4.398005459678046e-06,-3.0275594436560607e-05,4.1429,4.2143
0.609375,-4.1993579803158605e-05,-1.3674372582589455e-05,1.4644834637979699e-05,-3.12558061402304e-05,4.1429,4.2143
0.61328125,-4.34638973586633e-05,-2.0509121461814303e-05,8.300191610589762e-06,-3.907076672312504e-05,4.1429,4.2143
0.6171875,-5.762350096894788e-05,-2.197943901731898e-05,-5.378217163347827e-06,-4.443519804684518e-05,4.1429,4.2143
0.62109375,-6.934148633554588e-05,-9.2812419470512e-06,1.269332224612802e-05,-3.369742438391698e-05,4.1429,4.2143
0.625,-5.4691776873426404e-05,-3.907899607843149e-06,2.3921201760891136e-05,-2.7833976192874033e-05,4.1429,4.2143
0.62890625,-3.0765700288395504e-05,5.8585733669031864e-06,2.3921201760891136e-05,-2.197943901731898e-05,4.1429,4.2143
0.6328125,-3.858066087129015e-05,1.952807112535285e-05,1.9037965273517954e-05,-1.7096202529945828e-05,4.1429,4.2143
0.63671875,-2.978548858472571e-05,1.3664622934309904e-05,1.610624117799648e-05,-8.301030243381405e-06,4.1429,4.2143
0.640625,-1.660609667811093e-05,8.300191610589762e-06,3.7109504682993814e-05,9.753368795300333e-07,4.1429,4.2143
0.64453125,-3.12558061402304e-05,-5.859411999694814e-06,2.3921201760891136e-05,-1.5625884974441134e-05,4.1429,4.2143
0.6484375,-4.151238496681162e-05,-2.0999227313649186e-05,-6.349517851529711e-06,-3.4187530235751874e-05,4.1429,4.2143
0.65234375,-4.590551560234988e-05,-2.2950739705500878e-05,-1.026145365072098e-05,-3.466872507209888e-05,4.1429,4.2143
0.65625,-4.834713384603647e-05,-2.3440845557335777e-05,-8.791136095216301e-06,-3.5158830923933776e-05,4.1429,4.2143
0.66015625,-4.053217326314183e-05,-2.3440845557335777e-05,-9.2812419470512e-06,-3.466872507209888e-05,4.1429,4.2143
0.6640625,-4.1993579803158605e-05,-1.855760906996261e-05,-4.8881113115129436e-06,-3.0275594436560607e-05,4.1429,4.2143
0.66796875,-4.6876816290531774e-05,-2.0509121461814303e-05,-7.329729555199506e-06,-3.12558061402304e-05,4.1429,4.2143
0.671875,-5.6643289265278085e-05,-2.7343870341039133e-05,-2.3930951409170674e-05,-3.7600449167620354e-05,4.1429,4.2143
0.67578125,-6.396814399633782e-05,-2.832408204470893e-05,-1.9537820773632402e-05,-3.320731853208208e-05,4.1429,4.2143
0.6796875,-3.711034331578546e-05,-3.12558061402304e-05,-1.4662813641565435e-06,-2.7343870341039133e-05,4.1429,4.2143
0.68359375,-1.5144690138094148e-05,-3.369742438391698e-05,-1.1722860190737776e-05,-2.9304293748378726e-05,4.1429,4.2143
0.6875,-1.5625884974441134e-05,-2.9304293748378726e-05,-1.5144690138094148e-05,-2.442105726100557e-05,4.1429,4.2143
0.69140625,-1.026145365072098e-05,-1.660609667811093e-05,2.4367434195468148e-06,-9.771347798886083e-06,4.1429,4.2143
0.6953125,-1.2212966042572674e-05,-2.0999227313649186e-05,-1.956387215991441e-06,-3.907899607843149e-06,4.1429,4.2143
0.69921875,-3.2717212680247185e-05,-2.490225209735256e-05,-2.4464930678263384e-06,-1.465458428625925e-05,4.1429,4.2143
0.703125,-4.004206741130693e-05,-2.490225209735256e-05,-2.936598919661236e-06,-2.5882463801022352e-05,4.1429,4.2143
0.70703125,-3.613904262760357e-05,-3.0765700288395504e-05,-1.465458428625925e-05,-2.9304293748378726e-05,4.1429,4.2143
0.7109375,-4.541540975051498e-05,-2.6372569652857252e-05,-4.8881113115129436e-06,-1.855760906996261e-05,4.1429,4.2143
0.71484375,-4.7857027994201574e-05,-2.832408204470893e-05,6.829874055085071e-06,-1.9537820773632402e-05,4.1429,4.2143
0.71875,-4.1022279114976724e-05,-3.711034331578546e-05,-1.5625884974441134e-05,-3.858066087129015e-05,4.1429,4.2143
0.72265625,-4.980854038605325e-05,-4.3945092195010287e-05,-2.9304293748378726e-05,-4.34638973586633e-05,4.1429,4.2143
0.7265625,-5.323037033340962e-05,-3.9551961559472035e-05,-3.12558061402304e-05,-3.4187530235751874e-05,4.1429,4.2143
0.73046875,-4.6876816290531774e-05,-3.711034331578546e-05,-3.1745911992065304e-05,-3.1745911992065304e-05,4.1429,4.2143
0.734375,-3.466872507209888e-05,-3.5158830923933776e-05,-1.9537820773632402e-05,-3.369742438391698e-05,4.1429,4.2143
0.73828125,-3.1745911992065304e-05,-2.978548858472571e-05,-1.074264848706798e-05,-3.711034331578546e-05,4.1429,4.2143
0.7421875,-3.0275594436560607e-05,-1.7586308381780724e-05,4.878361663233392e-06,-3.613904262760357e-05,4.1429,4.2143
0.74609375,-2.7833976192874033e-05,-1.855760906996261e-05,-2.4464930678263384e-06,-3.2717212680247185e-05,4.1429,4.2143
0.75,-2.978548858472571e-05,-3.809055501945525e-05,-2.2950739705500878e-05,-3.809055501945525e-05,4.1429,4.2143
0.75390625,-2.8814187896543826e-05,-1.9537820773632402e-05,-1.1232754338902879e-05,-3.6629148479438466e-05,4.1429,4.2143
0.7578125,-3.564893677576867e-05,1.45653171587702e-06,1.2203216394293121e-05,-4.053217326314183e-05,4.1429,4.2143
0.76171875,-3.907076672312504e-05,-3.417793756008251e-06,1.6596347029831376e-05,-4.3945092195010287e-05,4.1429,4.2143
0.765625,-4.1022279114976724e-05,-4.949806759746593e-07,9.761598150606545e-06,-4.053217326314183e-05,4.1429,4.2143
0.76953125,-4.443519804684518e-05,2.4367434195468148e-06,8.300191610589762e-06,-4.004206741130693e-05,4.1429,4.2143
0.7734375,-4.736692214236667e-05,4.388255811398494e-06,1.7086452881666276e-05,-4.1022279114976724e-05,4.1429,4.2143
0.77734375,-4.834713384603647e-05,1.3664622934309904e-05,2.147958351720456e-05,-4.3945092195010287e-05,4.1429,4.2143
0.78125,-4.443519804684518e-05,3.4169551232166096e-06,1.7576558733501173e-05,-4.151238496681162e-05,4.1429,4.2143
0.78515625,-4.34638973586633e-05,-6.8396237033646085e-06,1.3664622934309904e-05,-3.0275594436560607e-05,4.1429,4.2143
0.7890625,-4.2973791506828405e-05,-5.378217163347827e-06,4.388255811398494e-06,-2.6372569652857252e-05,4.1429,4.2143
0.79296875,-3.907076672312504e-05,2.926849271381712e-06,3.898149959563597e-06,-2.6372569652857252e-05,4.1429,4.2143
0.796875,-3.907076672312504e-05,-4.874824139761813e-09,-4.874824139761813e-09,-2.0509121461814303e-05,4.1429,4.2143
0.80078125,-3.7600449167620354e-05,-2.0509121461814303e-05,-1.2212966042572674e-05,-2.5392357949187455e-05,4.1429,4.2143
0.8046875,-3.320731853208208e-05,-1.9537820773632402e-05,-1.465458428625925e-05,-3.0275594436560607e-05,4.1429,4.2143
0.80859375,-2.9304293748378726e-05,-1.074264848706798e-05,-9.2812419470512e-06,-3.222710682841229e-05,4.1429,4.2143
0.8125,-3.4187530235751874e-05,-1.660609667811093e-05,-7.819835407034403e-06,-4.3945092195010287e-05,4.1429,4.2143
0.81640625,-4.834713384603647e-05,-1.611599082627603e-05,-1.8067503218127712e-05,-3.809055501945525e-05,4.1429,4.2143
0.8203125,-5.0298646237888145e-05,-2.3440845557335777e-05,-1.7586308381780724e-05,-3.466872507209888e-05,4.1429,4.2143
0.82421875,-3.6629148479438466e-05,-2.490225209735256e-05,-1.3674372582589455e-05,-3.6629148479438466e-05,4.1429,4.2143
0.828125,-2.5392357949187455e-05,-1.1722860190737776e-05,-3.417793756008251e-06,-2.0027926625467302e-05,4.1429,4.2143
0.83203125,-2.0999227313649186e-05,-1.3674372582589455e-05,-6.349517851529711e-06,-2.490225209735256e-05,4.1429,4.2143
0.8359375,-2.978548858472571e-05,-1.465458428625925e-05,-2.832408204470893e-05,-3.320731853208208e-05,4.1429,4.2143
0.83984375,-3.809055501945525e-05,-1.074264848706798e-05,-2.978548858472571e-05,-2.832408204470893e-05,4.1429,4.2143
0.84375,-4.053217326314183e-05,-1.465458428625925e-05,-2.0027926625467302e-05,-2.5882463801022352e-05,4.1429,4.2143
0.84765625,-3.809055501945525e-05,-1.7586308381780724e-05,-1.7096202529945828e-05,-2.3440845557335777e-05,4.1429,4.2143
0.8515625,-1.7586308381780724e-05,-3.417793756008251e-06,-1.1232754338902879e-05,-1.7586308381780724e-05,4.1429,4.2143
0.85546875,-8.301030243381405e-06,2.926849271381712e-06,-8.791136095216301e-06,-2.1489333165484083e-05,4.1429,4.2143
0.859375,-1.5625884974441134e-05,-1.1722860190737776e-05,-2.0027926625467302e-05,-2.9304293748378726e-05,4.1429,4.2143
0.86328125,-3.2717212680247185e-05,-2.0027926625467302e-05,-2.0027926625467302e-05,-2.490225209735256e-05,4.1429,4.2143
0.8671875,-4.980854038605325e-05,-2.1489333165484083e-05,-1.9537820773632402e-05,-2.6862675504692148e-05,4.1429,4.2143
0.87109375,-6.103641990081635e-05,-3.0765700288395504e-05,-2.8814187896543826e-05,-2.978548858472571e-05,4.1429,4.2143
0.875,-5.51818827252613e-05,-2.832408204470893e-05,-2.5392357949187455e-05,-2.0509121461814303e-05,4.1429,4.2143
0.87890625,-3.564893677576867e-05,-2.0509121461814303e-05,-1.855760906996261e-05,-1.1232754338902879e-05,4.1429,4.2143
0.8828125,-2.9304293748378726e-05,-3.9551961559472035e-05,-3.5158830923933776e-05,-2.5392357949187455e-05,4.1429,4.2143
0.88671875,-1.611599082627603e-05,-3.809055501945525e-05,-3.711034331578546e-05,-2.8814187896543826e-05,4.1429,4.2143
0.890625,-2.490225209735256e-05,-3.2717212680247185e-05,-3.369742438391698e-05,-2.3440845557335777e-05,4.1429,4.2143
0.89453125,-4.6876816290531774e-05,-4.8828328682383455e-05,-4.004206741130693e-05,-3.0275594436560607e-05,4.1429,4.2143
0.8984375,-4.053217326314183e-05,-4.1993579803158605e-05,-4.004206741130693e-05,-3.1745911992065304e-05,4.1429,4.2143
0.90234375,-3.711034331578546e-05,-3.2717212680247185e-05,-3.4187530235751874e-05,-3.12558061402304e-05,4.1429,4.2143
0.90625,-2.978548858472571e-05,-2.978548858472571e-05,-2.7343870341039133e-05,-2.832408204470893e-05,4.1429,4.2143
0.91015625,-2.3440845557335777e-05,-2.6862675504692148e-05,-2.9304293748378726e-05,-2.2950739705500878e-05,4.1429,4.2143
0.9140625,-3.369742438391698e-05,-3.12558061402304e-05,-2.978548858472571e-05,-2.5882463801022352e-05,4.1429,4.2143
0.91796875,-4.443519804684518e-05,-3.0765700288395504e-05,-2.7343870341039133e-05,-2.8814187896543826e-05,4.1429,4.2143
0.921875,-4.3945092195010287e-05,-3.6629148479438466e-05,-2.832408204470893e-05,-2.0999227313649186e-05,4.1429,4.2143
0.92578125,-2.7343870341039133e-05,-3.466872507209888e-05,-2.978548858472571e-05,-1.855760906996261e-05,4.1429,4.2143
0.9296875,-2.490225209735256e-05,-3.0275594436560607e-05,-3.564893677576867e-05,-2.0027926625467302e-05,4.1429,4.2143
0.93359375,-3.1745911992065304e-05,-4.1022279114976724e-05,-3.9551961559472035e-05,-2.2950739705500878e-05,4.1429,4.2143
0.9375,-2.1489333165484083e-05,-4.248368565499351e-05,-3.2717212680247185e-05,-3.222710682841229e-05,4.1429,4.2143
0.94140625,-2.1489333165484083e-05,-4.590551560234988e-05,-3.6629148479438466e-05,-3.9551961559472035e-05,4.1429,4.2143
0.9453125,-2.2950739705500878e-05,-5.274026448157472e-05,-4.931843453421835e-05,-3.5158830923933776e-05,4.1429,4.2143
0.94921875,-3.858066087129015e-05,-4.492530389868008e-05,-4.541540975051498e-05,-2.7833976192874033e-05,4.1429,4.2143
0.953125,-4.1993579803158605e-05,-4.2973791506828405e-05,-3.907076672312504e-05,-2.8814187896543826e-05,4.1429,4.2143
0.95703125,-3.466872507209888e-05,-4.8828328682383455e-05,-4.2973791506828405e-05,-3.0275594436560607e-05,4.1429,4.2143
0.9609375,-4.2973791506828405e-05,-3.0275594436560607e-05,-3.907076672312504e-05,-2.8814187896543826e-05,4.1429,4.2143
0.96484375,-5.0298646237888145e-05,-3.6629148479438466e-05,-4.053217326314183e-05,-2.490225209735256e-05,4.1429,4.2143
0.96875,-4.8828328682383455e-05,-4.541540975051498e-05,-4.1022279114976724e-05,-2.3930951409170674e-05,4.1429,4.2143
0.97265625,-3.369742438391698e-05,-3.7600449167620354e-05,-4.638671043869688e-05,-2.7833976192874033e-05,4.1429,4.2143
0.9765625,-1.660609667811093e-05,-4.1993579803158605e-05,-6.201663160448614e-05,-3.369742438391698e-05,4.1429,4.2143
0.98046875,-3.417793756008251e-06,-3.2717212680247185e-05,-5.615318341344319e-05,-4.1993579803158605e-05,4.1429,4.2143
0.984375,-1.1232754338902879e-05,-1.9047714921797505e-05,-2.442105726100557e-05,-3.858066087129015e-05,4.1429,4.2143
0.98828125,-2.7833976192874033e-05,-3.320731853208208e-05,-2.832408204470893e-05,-2.2469544869153876e-05,4.1429,4.2143
0.9921875,-3.2717212680247185e-05,-5.2250158629739826e-05,-5.51818827252613e-05,-7.819835407034403e-06,4.1429,4.2143
0.99609375,-2.6372569652857252e-05,-4.590551560234988e-05,-4.931843453421835e-05,-9.771347798886083e-06,4.1429,4.2143
1.0,-1.7096202529945828e-05,-4.004206741130693e-05,-3.564893677576867e-05,-2.3930951409170674e-05,4.1429,4.2143
1.00390625,-2.0027926625467302e-05,-3.858066087129015e-05,-3.711034331578546e-05,-2.490225209735256e-05,4.1429,4.2143
1.0078125,-2.832408204470893e-05,-2.7833976192874033e-05,-4.34638973586633e-05,-1.5625884974441134e-05,4.1429,4.2143
1.01171875,-5.126994692607003e-05,-2.490225209735256e-05,-3.12558061402304e-05,-1.1232754338902879e-05,4.1429,4.2143
1.015625,-5.56719885770962e-05,-3.320731853208208e-05,-1.270307189440757e-05,-4.8881113115129436e-06,4.1429,4.2143
1.01953125,-4.1993579803158605e-05,-2.978548858472571e-05,-1.2212966042572674e-05,-1.1232754338902879e-05,4.1429,4.2143
1.0234375,-5.56719885770962e-05,-4.053217326314183e-05,-3.466872507209888e-05,-2.6862675504692148e-05,4.1429,4.2143
1.02734375,-6.201663160448614e-05,-4.736692214236667e-05,-4.7857027994201574e-05,-3.222710682841229e-05,4.1429,4.2143
1.03125,-4.053217326314183e-05,-3.4187530235751874e-05,-3.369742438391698e-05,-3.5158830923933776e-05,4.1429,4.2143
1.03515625,-3.809055501945525e-05,-3.222710682841229e-05,-3.809055501945525e-05,-3.613904262760357e-05,4.1429,4.2143
1.0390625,-5.6643289265278085e-05,-4.6876816290531774e-05,-5.078875208972304e-05,-2.978548858472571e-05,4.1429,4.2143
1.04296875,-7.666634106660562e-05,-5.957501336079957e-05,-5.126994692607003e-05,-2.7343870341039133e-05,4.1429,4.2143
1.046875,-6.787116878004119e-05,-6.006511921263447e-05,-4.443519804684518e-05,-3.320731853208208e-05,4.1429,4.2143
1.05078125,-2.2950739705500878e-05,-4.931843453421835e-05,-4.6876816290531774e-05,-3.2717212680247185e-05,4.1429,4.2143
1.0546875,-1.7586308381780724e-05,-4.541540975051498e-05,-4.931843453421835e-05,-2.5392357949187455e-05,4.1429,4.2143
1.05859375,-4.004206741130693e-05,-5.51818827252613e-05,-3.6629148479438466e-05,-1.7586308381780724e-05,4.1429,4.2143
1.0625,-3.6629148479438466e-05,-5.078875208972304e-05,-3.5158830923933776e-05,-2.3930951409170674e-05,4.1429,4.2143
1.06640625,-3.222710682841229e-05,-4.004206741130693e-05,-3.2717212680247185e-05,-3.12558061402304e-05,4.1429,4.2143
1.0703125,-3.4187530235751874e-05,-3.320731853208208e-05,-2.6372569652857252e-05,-2.8814187896543826e-05,4.1429,4.2143
1.07421875,-3.9551961559472035e-05,-3.711034331578546e-05,-3.1745911992065304e-05,-3.5158830923933776e-05,4.1429,4.2143
1.078125,-5.176005277790493e-05,-4.1022279114976724e-05,-3.564893677576867e-05,-3.613904262760357e-05,4.1429,4.2143
1.08203125,-3.907076672312504e-05,-3.222710682841229e-05,-3.907076672312504e-05,-3.7600449167620354e-05,4.1429,4.2143
1.0859375,-2.0999227313649186e-05,-2.832408204470893e-05,-3.0275594436560607e-05,-3.5158830923933776e-05,4.1429,4.2143
1.08984375,-4.053217326314183e-05,-2.7343870341039133e-05,-2.2469544869153876e-05,-2.6372569652857252e-05,4.1429,4.2143
1.09375,-4.638671043869688e-05,-3.5158830923933776e-05,-3.858066087129015e-05,-3.466872507209888e-05,4.1429,4.2143
1.09765625,-2.7833976192874033e-05,-4.492530389868008e-05,-4.6876816290531774e-05,-3.466872507209888e-05,4.1429,4.2143
1.1015625,-1.7096202529945828e-05,-4.834713384603647e-05,-3.12558061402304e-05,-2.7833976192874033e-05,4.1429,4.2143
1.10546875,-2.5392357949187455e-05,-5.713339511711298e-05,-2.5882463801022352e-05,-3.809055501945525e-05,4.1429,4.2143
1.109375,-4.736692214236667e-05,-4.931843453421835e-05,-3.711034331578546e-05,-3.613904262760357e-05,4.1429,4.2143
1.11328125,-6.787116878004119e-05,-4.151238496681162e-05,-3.711034331578546e-05,-2.2950739705500878e-05,4.1429,4.2143
1.1171875,-8.301098409399558e-05,-4.7857027994201574e-05,-4.053217326314183e-05,-2.2950739705500878e-05,4.1429,4.2143
1.12109375,-6.542955053635461e-05,-5.078875208972304e-05,-4.6876816290531774e-05,-2.3440845557335777e-05,4.1429,4.2143
1.125,-2.3930951409170674e-05,-4.980854038605325e-05,-4.736692214236667e-05,-3.0765700288395504e-05,4.1429,4.2143
1.12890625,-1.026145365072098e-05,-4.1022279114976724e-05,-4.931843453421835e-05,-3.12558061402304e-05,4.1429,4.2143
1.1328125,-2.3440845557335777e-05,-3.466872507209888e-05,-4.2973791506828405e-05,-2.6862675504692148e-05,4.1429,4.2143
1.13671875,-2.3440845557335777e-05,-3.858066087129015e-05,-3.466872507209888e-05,-3.1745911992065304e-05,4.1429,4.2143
1.140625,-1.5144690138094148e-05,-4.1993579803158605e-05,-3.5158830923933776e-05,-2.7343870341039133e-05,4.1429,4.2143
1.14453125,-2.832408204470893e-05,-5.0298646237888145e-05,-4.1993579803158605e-05,-2.3930951409170674e-05,4.1429,4.2143
1.1484375,-4.541540975051498e-05,-4.1022279114976724e-05,-3.2717212680247185e-05,-3.0275594436560607e-05,4.1429,4.2143
1.15234375,-5.615318341344319e-05,-3.1745911992065304e-05,-2.6862675504692148e-05,-3.5158830923933776e-05,4.1429,4.2143
1.15625,-6.250673745632104e-05,-3.9551961559472035e-05,-3.9551961559472035e-05,-3.9551961559472035e-05,4.1429,4.2143
1.16015625,-7.91079593102922e-05,-3.2717212680247185e-05,-3.0765700288395504e-05,-2.832408204470893e-05,4.1429,4.2143
1.1640625,-9.521907531242845e-05,-2.0999227313649186e-05,-2.2950739705500878e-05,-2.1489333165484083e-05,4.1429,4.2143
1.16796875,-7.178310457923245e-05,-2.7833976192874033e-05,-2.442105726100557e-05,-3.12558061402304e-05,4.1429,4.2143
1.171875,-8.791136095216301e-06,-2.9304293748378726e-05,-2.2469544869153876e-05,-2.7343870341039133e-05,4.1429,4.2143
1.17578125,1.610624117799648e-05,-4.053217326314183e-05,-3.613904262760357e-05,-2.0999227313649186e-05,4.1429,4.2143
1.1796875,-6.349517851529711e-06,-7.95980651621271e-05,-5.4691776873426404e-05,-3.369742438391698e-05,4.1429,4.2143
1.18359375,-1.855760906996261e-05,-7.471482867475394e-05,-4.541540975051498e-05,-3.1745911992065304e-05,4.1429,4.2143
1.1875,-1.7096202529945828e-05,-5.2250158629739826e-05,-3.4187530235751874e-05,-2.442105726100557e-05,4.1429,4.2143
1.19140625,-2.7833976192874033e-05,-4.7857027994201574e-05,-5.176005277790493e-05,-3.907076672312504e-05,4.1429,4.2143
1.1953125,-5.859480165712977e-05,-5.420167102159151e-05,-6.494835570000762e-05,-4.7857027994201574e-05,4.1429,4.2143
1.19921875,-5.762350096894788e-05,-5.126994692607003e-05,-4.7857027994201574e-05,-3.907076672312504e-05,4.1429,4.2143
1.203125,-4.492530389868008e-05,-4.248368565499351e-05,-5.713339511711298e-05,-2.978548858472571e-05,4.1429,4.2143
1.20703125,-3.222710682841229e-05,-5.323037033340962e-05,-6.152652575265125e-05,-3.5158830923933776e-05,4.1429,4.2143
1.2109375,-3.0765700288395504e-05,-5.9084907508964676e-05,-4.8828328682383455e-05,-4.638671043869688e-05,4.1429,4.2143
1.21484375,-5.420167102159151e-05,-5.176005277790493e-05,-4.7857027994201574e-05,-4.590551560234988e-05,4.1429,4.2143
1.21875,-4.6876816290531774e-05,-3.6629148479438466e-05,-4.2973791506828405e-05,-3.564893677576867e-05,4.1429,4.2143
1.22265625,-1.3674372582589455e-05,-3.711034331578546e-05,-4.2973791506828405e-05,-3.858066087129015e-05,4.1429,4.2143
1.2265625,-1.855760906996261e-05,-4.3945092195010287e-05,-4.736692214236667e-05,-4.34638973586633e-05,4.1429,4.2143
1.23046875,-7.763764175478751e-05,-4.34638973586633e-05,-4.2973791506828405e-05,-3.564893677576867e-05,4.1429,4.2143
1.234375,-8.691400887769892e-05,-3.5158830923933776e-05,-4.492530389868008e-05,-3.0275594436560607e-05,4.1429,4.2143
1.23828125,-3.907076672312504e-05,-2.8814187896543826e-05,-4.2973791506828405e-05,-4.053217326314183e-05,4.1429,4.2143
1.2421875,-1.611599082627603e-05,-3.222710682841229e-05,-3.711034331578546e-05,-4.492530389868008e-05,4.1429,4.2143
1.24609375,-1.9047714921797505e-05,-4.541540975051498e-05,-4.443519804684518e-05,-3.809055501945525e-05,4.1429,4.2143
1.25,-2.9304293748378726e-05,-4.638671043869688e-05,-4.7857027994201574e-05,-3.613904262760357e-05,4.1429,4.2143
1.25390625,-3.7600449167620354e-05,-4.6876816290531774e-05,-5.9084907508964676e-05,-3.809055501945525e-05,4.1429,4.2143
1.2578125,-4.3945092195010287e-05,-5.6643289265278085e-05,-5.859480165712977e-05,-3.6629148479438466e-05,4.1429,4.2143
1.26171875,-4.1993579803158605e-05,-5.615318341344319e-05,-4.736692214236667e-05,-3.222710682841229e-05,4.1429,4.2143
1.265625,-4.1993579803158605e-05,-5.6643289265278085e-05,-4.2973791506828405e-05,-3.711034331578546e-05,4.1429,4.2143
1.26953125,-3.369742438391698e-05,-4.931843453421835e-05,-6.445824984817272e-05,-4.1022279114976724e-05,4.1429,4.2143
1.2734375,-4.34638973586633e-05,-3.0275594436560607e-05,-6.68998680918593e-05,-2.6862675504692148e-05,4.1429,4.2143
1.27734375,-5.2250158629739826e-05,-2.7833976192874033e-05,-3.4187530235751874e-05,-1.465458428625925e-05,4.1429,4.2143
1.28125,-4.053217326314183e-05,-2.490225209735256e-05,-3.4187530235751874e-05,-2.0509121461814303e-05,4.1429,4.2143
1.28515625,-2.5392357949187455e-05,-1.4164478434424353e-05,-4.248368565499351e-05,-3.0765700288395504e-05,4.1429,4.2143
1.2890625,-2.197943901731898e-05,-4.004206741130693e-05,-4.053217326314183e-05,-3.6629148479438466e-05,4.1429,4.2143
1.29296875,-4.1022279114976724e-05,-6.0555225064469366e-05,-4.8828328682383455e-05,-3.564893677576867e-05,4.1429,4.2143
1.296875,-4.541540975051498e-05,-7.471482867475394e-05,-5.2250158629739826e-05,-4.004206741130693e-05,4.1429,4.2143
1.30078125,-3.5158830923933776e-05,-8.252087824216068e-05,-3.2717212680247185e-05,-3.9551961559472035e-05,4.1429,4.2143
1.3046875,-2.442105726100557e-05,-5.56719885770962e-05,-3.613904262760357e-05,-3.711034331578546e-05,4.1429,4.2143
1.30859375,-2.3930951409170674e-05,-5.2250158629739826e-05,-5.713339511711298e-05,-4.492530389868008e-05,4.1429,4.2143
1.3125,-3.1745911992065304e-05,-5.126994692607003e-05,-5.6643289265278085e-05,-4.1993579803158605e-05,4.1429,4.2143
1.31640625,-4.248368565499351e-05,-4.2973791506828405e-05,-4.7857027994201574e-05,-3.320731853208208e-05,4.1429,4.2143
1.3203125,-5.0298646237888145e-05,-4.980854038605325e-05,-4.1022279114976724e-05,-3.222710682841229e-05,4.1429,4.2143
1.32421875,-4.931843453421835e-05,-5.176005277790493e-05,-3.711034331578546e-05,-3.4187530235751874e-05,4.1429,4.2143
1.328125,-4.736692214236667e-05,-4.6876816290531774e-05,-2.978548858472571e-05,-2.9304293748378726e-05,4.1429,4.2143
1.33203125,-6.250673745632104e-05,-3.0275594436560607e-05,-1.7586308381780724e-05,-2.490225209735256e-05,4.1429,4.2143
1.3359375,-8.447239063401235e-05,-2.6862675504692148e-05,-1.660609667811093e-05,-2.6862675504692148e-05,4.1429,4.2143
1.33984375,-4.980854038605325e-05,-2.5882463801022352e-05,-1.5625884974441134e-05,-2.2950739705500878e-05,4.1429,4.2143
1.34375,9.753368795300333e-07,-2.6862675504692148e-05,-2.6372569652857252e-05,-2.6862675504692148e-05,4.1429,4.2143
1.34765625,-1.1722860190737776e-05,-4.834713384603647e-05,-4.492530389868008e-05,-4.736692214236667e-05,4.1429,4.2143
1.3515625,-3.466872507209888e-05,-4.3945092195010287e-05,-4.1993579803158605e-05,-4.8828328682383455e-05,4.1429,4.2143
1.35546875,-5.176005277790493e-05,-4.3945092195010287e-05,-4.541540975051498e-05,-3.4187530235751874e-05,4.1429,4.2143
1.359375,-5.4691776873426404e-05,-4.931843453421835e-05,-4.443519804684518e-05,-2.7833976192874033e-05,4.1429,4.2143
1.36328125,-3.907076672312504e-05,-4.3945092195010287e-05,-3.711034331578546e-05,-2.978548858472571e-05,4.1429,4.2143
1.3671875,-3.711034331578546e-05,-4.443519804684518e-05,-3.4187530235751874e-05,-2.8814187896543826e-05,4.1429,4.2143
1.37109375,-4.6876816290531774e-05,-4.2973791506828405e-05,-3.613904262760357e-05,-2.6372569652857252e-05,4.1429,4.2143
1.375,-5.420167102159151e-05,-2.6372569652857252e-05,-3.222710682841229e-05,-3.222710682841229e-05,4.1429,4.2143
1.37890625,-2.5392357949187455e-05,-1.4164478434424353e-05,-2.0999227313649186e-05,-2.490225209735256e-05,4.1429,4.2143
1.3828125,1.074180985427634e-05,-3.907076672312504e-05,-2.2469544869153876e-05,-1.9537820773632402e-05,4.1429,4.2143
1.38671875,-2.442105726100557e-05,-5.6643289265278085e-05,-3.613904262760357e-05,-3.809055501945525e-05,4.1429,4.2143
1.390625,-5.6643289265278085e-05,-4.492530389868008e-05,-2.5882463801022352e-05,-4.6876816290531774e-05,4.1429,4.2143
1.39453125,-4.931843453421835e-05,-3.564893677576867e-05,-2.1489333165484083e-05,-4.2973791506828405e-05,4.1429,4.2143
1.3984375,-4.3945092195010287e-05,-2.8814187896543826e-05,-2.9304293748378726e-05,-3.0765700288395504e-05,4.1429,4.2143
1.40234375,-3.320731853208208e-05,-2.978548858472571e-05,-3.0765700288395504e-05,-1.9537820773632402e-05,4.1429,4.2143
1.40625,-2.490225209735256e-05,-2.2950739705500878e-05,-3.222710682841229e-05,-2.0999227313649186e-05,4.1429,4.2143
1.41015625,-3.613904262760357e-05,-2.0509121461814303e-05,-2.6862675504692148e-05,-2.3930951409170674e-05,4.1429,4.2143
1.4140625,-4.492530389868008e-05,-3.0275594436560607e-05,-3.4187530235751874e-05,-3.320731853208208e-05,4.1429,4.2143
1.41796875,-5.078875208972304e-05,-3.711034331578546e-05,-4.8828328682383455e-05,-4.151238496681162e-05,4.1429,4.2143
1.421875,-3.4187530235751874e-05,-2.8814187896543826e-05,-4.248368565499351e-05,-3.4187530235751874e-05,4.1429,4.2143
1.42578125,-3.0765700288395504e-05,-3.320731853208208e-05,-4.151238496681162e-05,-3.6629148479438466e-05,4.1429,4.2143
1.4296875,-2.9304293748378726e-05,-4.1022279114976724e-05,-3.564893677576867e-05,-3.809055501945525e-05,4.1429,4.2143
1.43359375,-1.3674372582589455e-05,-2.7343870341039133e-05,-2.6372569652857252e-05,-3.564893677576867e-05,4.1429,4.2143
1.4375,-3.466872507209888e-05,-2.0999227313649186e-05,-2.0027926625467302e-05,-4.053217326314183e-05,4.1429,4.2143
1.44140625,-4.443519804684518e-05,-3.1745911992065304e-05,-3.466872507209888e-05,-4.931843453421835e-05,4.1429,4.2143
1.4453125,-2.5392357949187455e-05,-3.564893677576867e-05,-4.8828328682383455e-05,-5.176005277790493e-05,4.1429,4.2143
1.44921875,-1.8067503218127712e-05,-2.9304293748378726e-05,-3.5158830923933776e-05,-3.9551961559472035e-05,4.1429,4.2143
1.453125,-2.832408204470893e-05,-3.5158830923933776e-05,-2.5882463801022352e-05,-2.6862675504692148e-05,4.1429,4.2143
1.45703125,-3.0275594436560607e-05,-3.12558061402304e-05,-3.466872507209888e-05,-3.12558061402304e-05,4.1429,4.2143
1.4609375,-3.7600449167620354e-05,-2.7343870341039133e-05,-3.369742438391698e-05,-2.7833976192874033e-05,4.1429,4.2143
1.46484375,-5.126994692607003e-05,-2.5882463801022352e-05,-3.907076672312504e-05,-2.8814187896543826e-05,4.1429,4.2143
1.46875,-2.832408204470893e-05,-2.0027926625467302e-05,-3.9551961559472035e-05,-3.6629148479438466e-05,4.1429,4.2143
1.47265625,-2.0027926625467302e-05,-2.197943901731898e-05,-3.2717212680247185e-05,-2.9304293748378726e-05,4.1429,4.2143
1.4765625,-2.3930951409170674e-05,-2.7833976192874033e-05,-3.2717212680247185e-05,-2.7343870341039133e-05,4.1429,4.2143
1.48046875,-3.2717212680247185e-05,-4.7857027994201574e-05,-2.9304293748378726e-05,-3.222710682841229e-05,4.1429,4.2143
1.484375,-4.980854038605325e-05,-4.980854038605325e-05,-2.978548858472571e-05,-3.5158830923933776e-05,4.1429,4.2143
1.48828125,-3.466872507209888e-05,-3.0275594436560607e-05,-3.12558061402304e-05,-2.6372569652857252e-05,4.1429,4.2143
1.4921875,-2.8814187896543826e-05,-3.809055501945525e-05,-3.907076672312504e-05,-3.0765700288395504e-05,4.1429,4.2143
1.49609375,-4.931843453421835e-05,-4.492530389868008e-05,-4.590551560234988e-05,-4.590551560234988e-05,4.1429,4.2143
1.5,-5.078875208972304e-05,-3.711034331578546e-05,-3.320731853208208e-05,-3.9551961559472035e-05,4.1429,4.2143
1.50390625,-3.9551961559472035e-05,-4.638671043869688e-05,-2.978548858472571e-05,-4.1993579803158605e-05,4.1429,4.2143
1.5078125,-4.248368565499351e-05,-4.590551560234988e-05,-4.980854038605325e-05,-5.4691776873426404e-05,4.1429,4.2143
1.51171875,-3.320731853208208e-05,-3.6629148479438466e-05,-5.762350096894788e-05,-4.541540975051498e-05,4.1429,4.2143
1.515625,-1.855760906996261e-05,-3.4187530235751874e-05,-5.615318341344319e-05,-3.12558061402304e-05,4.1429,4.2143
1.51953125,-2.2950739705500878e-05,-4.2973791506828405e-05,-5.2250158629739826e-05,-2.832408204470893e-05,4.1429,4.2143
1.5234375,-4.541540975051498e-05,-4.541540975051498e-05,-3.809055501945525e-05,-3.0765700288395504e-05,4.1429,4.2143
1.52734375,-5.126994692607003e-05,-2.0509121461814303e-05,-1.3674372582589455e-05,-2.7833976192874033e-05,4.1429,4.2143
1.53125,-2.6372569652857252e-05,-1.074264848706798e-05,-2.0509121461814303e-05,-3.0275594436560607e-05,4.1429,4.2143
1.53515625,-1.074264848706798e-05,-3.12558061402304e-05,-3.907076672312504e-05,-3.12558061402304e-05,4.1429,4.2143
1.5390625,-2.2950739705500878e-05,-4.931843453421835e-05,-2.832408204470893e-05,-2.7833976192874033e-05,4.1429,4.2143
1.54296875,-5.176005277790493e-05,-5.8113606820782775e-05,-1.660609667811093e-05,-3.320731853208208e-05,4.1429,4.2143
1.546875,-4.980854038605325e-05,-5.8113606820782775e-05,-2.9304293748378726e-05,-3.564893677576867e-05,4.1429,4.2143
1.55078125,-3.564893677576867e-05,-5.6643289265278085e-05,-4.638671043869688e-05,-2.7833976192874033e-05,4.1429,4.2143
1.5546875,-4.492530389868008e-05,-6.0555225064469366e-05,-5.078875208972304e-05,-2.7343870341039133e-05,4.1429,4.2143
1.55859375,-3.858066087129015e-05,-6.0555225064469366e-05,-4.492530389868008e-05,-3.7600449167620354e-05,4.1429,4.2143
1.5625,-3.9551961559472035e-05,-6.68998680918593e-05,-5.126994692607003e-05,-5.078875208972304e-05,4.1429,4.2143
1.56640625,-3.7600449167620354e-05,-5.51818827252613e-05,-4.931843453421835e-05,-4.931843453421835e-05,4.1429,4.2143
1.5703125,-2.5882463801022352e-05,-2.8814187896543826e-05,-2.0509121461814303e-05,-4.248368565499351e-05,4.1429,4.2143
1.57421875,-2.442105726100557e-05,-3.4187530235751874e-05,-1.1722860190737776e-05,-3.9551961559472035e-05,4.1429,4.2143
1.578125,-2.5392357949187455e-05,-4.834713384603647e-05,-2.2469544869153876e-05,-3.0765700288395504e-05,4.1429,4.2143
1.58203125,-3.0765700288395504e-05,-4.34638973586633e-05,-3.9551961559472035e-05,-2.5392357949187455e-05,4.1429,4.2143
1.5859375,-3.320731853208208e-05,-3.0765700288395504e-05,-3.9551961559472035e-05,-1.8067503218127712e-05,4.1429,4.2143
1.58984375,-3.4187530235751874e-05,-4.590551560234988e-05,-4.590551560234988e-05,-2.5392357949187455e-05,4.1429,4.2143
1.59375,-4.004206741130693e-05,-7.373461697108415e-05,-5.9084907508964676e-05,-3.4187530235751874e-05,4.1429,4.2143
1.59765625,-4.053217326314183e-05,-8.447239063401235e-05,-6.73899739436942e-05,-2.832408204470893e-05,4.1429,4.2143
1.6015625,-4.1022279114976724e-05,-9.521907531242845e-05,-8.10594717021439e-05,-3.0275594436560607e-05,4.1429,4.2143
1.60546875,-5.371156516975661e-05,-0.00011280050887006942,-9.082594467689019e-05,-2.8814187896543826e-05,4.1429,4.2143
1.609375,-4.6876816290531774e-05,-0.0001254897949248493,-0.0001025439300434882,-2.3930951409170674e-05,4.1429,4.2143
1.61328125,-2.5392357949187455e-05,-0.00012158677014114594,-0.00011231040301823452,-1.7586308381780724e-05,4.1429,4.2143
1.6171875,-2.2469544869153876e-05,-0.00012353828253299762,-0.00012158677014114594,-4.8881113115129436e-06,4.1429,4.2143
1.62109375,-2.978548858472571e-05,-0.00016747849990386812,-0.00015380009112993056,4.388255811398494e-06,4.1429,4.2143
1.625,-3.5158830923933776e-05,-0.00021386033551842523,-0.00019774921951628896,4.388255811398494e-06,4.1429,4.2143
1.62890625,-4.053217326314183e-05,-0.00023729630625162127,-0.0002299714515205615,-4.874824139761813e-09,4.1429,4.2143
1.6328125,-3.6629148479438466e-05,-0.000255857951512932,-0.00024999450332188907,1.45653171587702e-06,4.1429,4.2143
1.63671875,-1.465458428625925e-05,-0.00027392057990691994,-0.0002704987499595636,7.810085758754866e-06,4.1429,4.2143
1.640625,-8.791136095216301e-06,-0.0003032199988311589,-0.00029491493239642934,1.1713110542458225e-05,4.1429,4.2143
1.64453125,-2.442105726100557e-05,-0.00030712302361486226,-0.00030907453600671395,1.6596347029831376e-05,4.1429,4.2143
1.6484375,-4.1022279114976724e-05,-0.0003095646418585488,-0.0003124963659540703,7.810085758754866e-06,4.1429,4.2143
1.65234375,-3.466872507209888e-05,-0.0003149379841977569,-0.00031200626010223536,-1.4662813641565435e-06,4.1429,4.2143
1.65625,-2.490225209735256e-05,-0.00030663291776302735,-0.0003100547477103837,-5.378217163347827e-06,4.1429,4.2143
1.66015625,-3.222710682841229e-05,-0.00029784665649195086,-0.0003007783805874723,-1.4164478434424353e-05,4.1429,4.2143
1.6640625,-4.3945092195010287e-05,-0.00029686644478828104,-0.00028417715873350116,-1.8067503218127712e-05,4.1429,4.2143
1.66796875,-3.320731853208208e-05,-0.000273430474055085,-0.00026757593687953,-1.1232754338902879e-05,4.1429,4.2143
1.671875,-1.956387215991441e-06,-0.00023973792449530782,-0.00023876662380712592,-1.956387215991441e-06,4.1429,4.2143
1.67578125,-4.874824139761813e-09,-0.00022949025668421452,-0.00021972378370946818,-8.791136095216301e-06,4.1429,4.2143
1.6796875,-1.4164478434424353e-05,-0.00020458396839551383,-0.0001943273895689326,-1.660609667811093e-05,4.1429,4.2143
1.68359375,-2.7833976192874033e-05,-0.00017772616771496145,-0.00017675486702677958,-1.5625884974441134e-05,4.1429,4.2143
1.6875,-3.2717212680247185e-05,-0.00015135847288624398,-0.00013915929268329898,-1.4164478434424353e-05,4.1429,4.2143
1.69140625,-4.1993579803158605e-05,-0.00011963525774929425,-0.00010059241765163652,-1.611599082627603e-05,4.1429,4.2143
1.6953125,-5.615318341344319e-05,-9.326756292057677e-05,-0.0001035152307316701,-2.2469544869153876e-05,4.1429,4.2143
1.69921875,-5.9084907508964676e-05,-7.86178534584573e-05,-7.227321043106735e-05,-3.0765700288395504e-05,4.1429,4.2143
1.703125,-5.0298646237888145e-05,-6.542955053635461e-05,-4.053217326314183e-05,-3.12558061402304e-05,4.1429,4.2143
1.70703125,-3.466872507209888e-05,-4.541540975051498e-05,-4.1022279114976724e-05,-2.8814187896543826e-05,4.1429,4.2143
1.7109375,-2.490225209735256e-05,-1.855760906996261e-05,-2.197943901731898e-05,-2.5882463801022352e-05,4.1429,4.2143
1.71484375,-4.248368565499351e-05,-1.5144690138094148e-05,-2.2950739705500878e-05,-3.1745911992065304e-05,4.1429,4.2143
1.71875,-6.64097622400244e-05,-2.0999227313649186e-05,-1.026145365072098e-05,-4.34638973586633e-05,4.1429,4.2143
1.72265625,-6.787116878004119e-05,-9.771347798886083e-06,1.610624117799648e-05,-4.1022279114976724e-05,4.1429,4.2143
1.7265625,-4.931843453421835e-05,3.4169551232166096e-06,1.074180985427634e-05,-4.34638973586633e-05,4.1429,4.2143
1.73046875,-3.12558061402304e-05,2.5872714152742814e-05,3.026584478828107e-05,-4.004206741130693e-05,4.1429,4.2143
1.734375,-3.1745911992065304e-05,2.3921201760891136e-05,2.685292585641261e-05,-4.7857027994201574e-05,4.1429,4.2143
1.73828125,-4.3945092195010287e-05,1.3183428097962916e-05,1.7576558733501173e-05,-6.250673745632104e-05,4.1429,4.2143
1.7421875,-5.176005277790493e-05,2.8314332396429392e-05,2.7343031708247507e-05,-5.8113606820782775e-05,4.1429,4.2143
1.74609375,-4.638671043869688e-05,3.3687674735637444e-05,3.222626819562066e-05,-5.323037033340962e-05,4.1429,4.2143
1.75,-3.711034331578546e-05,3.514908127565422e-05,2.9294544100099185e-05,-5.176005277790493e-05,4.1429,4.2143
1.75390625,-3.858066087129015e-05,3.7109504682993814e-05,2.7343031708247507e-05,-5.4691776873426404e-05,4.1429,4.2143
1.7578125,-3.9551961559472035e-05,3.5639187127489125e-05,3.3687674735637444e-05,-5.4691776873426404e-05,4.1429,4.2143
1.76171875,-4.443519804684518e-05,3.9061017074845496e-05,4.735717249408714e-05,-5.176005277790493e-05,4.1429,4.2143
1.765625,-5.323037033340962e-05,4.491555425040056e-05,5.371072653696498e-05,-5.126994692607003e-05,4.1429,4.2143
1.76953125,-4.6876816290531774e-05,6.10266702525368e-05,5.1269108293278404e-05,-4.638671043869688e-05,4.1429,4.2143
1.7734375,-2.2950739705500878e-05,6.689011844357975e-05,5.5172133076981766e-05,-4.053217326314183e-05,4.1429,4.2143
1.77734375,-2.7833976192874033e-05,5.4191921373311966e-05,5.810385717250324e-05,-3.907076672312504e-05,4.1429,4.2143
1.78125,-4.248368565499351e-05,5.4191921373311966e-05,6.493860605172807e-05,-3.12558061402304e-05,4.1429,4.2143
1.78515625,-4.541540975051498e-05,6.0055369564354915e-05,6.933173668726633e-05,-2.7833976192874033e-05,4.1429,4.2143
1.7890625,-5.0298646237888145e-05,6.10266702525368e-05,6.444850019989317e-05,-3.5158830923933776e-05,4.1429,4.2143
1.79296875,-3.7600449167620354e-05,6.395839434805828e-05,6.10266702525368e-05,-3.907076672312504e-05,4.1429,4.2143
1.796875,-2.5392357949187455e-05,5.371072653696498e-05,6.249698780804149e-05,-4.151238496681162e-05,4.1429,4.2143
1.80078125,-2.9304293748378726e-05,4.5405660102235456e-05,6.054547541618981e-05,-4.980854038605325e-05,4.1429,4.2143
1.8046875,-3.9551961559472035e-05,4.491555425040056e-05,5.6633539616998544e-05,-5.126994692607003e-05,4.1429,4.2143
1.80859375,-3.9551961559472035e-05,5.371072653696498e-05,6.787033014724954e-05,-5.2250158629739826e-05,4.1429,4.2143
1.8125,-3.809055501945525e-05,5.8585052008850225e-05,7.177335493095293e-05,-5.274026448157472e-05,4.1429,4.2143
1.81640625,-2.6372569652857252e-05,4.9798790737773714e-05,5.273051483329519e-05,-4.492530389868008e-05,4.1429,4.2143
1.8203125,-1.5625884974441134e-05,4.003231776302738e-05,4.296404185854885e-05,-4.34638973586633e-05,4.1429,4.2143
1.82421875,-2.8814187896543826e-05,3.5639187127489125e-05,4.5405660102235456e-05,-5.9084907508964676e-05,4.1429,4.2143
1.828125,-3.12558061402304e-05,5.4191921373311966e-05,5.175030312962539e-05,-5.762350096894788e-05,4.1429,4.2143
1.83203125,-3.320731853208208e-05,5.761375132066834e-05,4.491555425040056e-05,-4.834713384603647e-05,4.1429,4.2143
1.8359375,-2.7343870341039133e-05,4.491555425040056e-05,4.052242361486227e-05,-5.078875208972304e-05,4.1429,4.2143
1.83984375,-1.4164478434424353e-05,4.052242361486227e-05,4.784727834592203e-05,-4.1993579803158605e-05,4.1429,4.2143
1.84375,-1.9047714921797505e-05,3.5639187127489125e-05,4.930868488593882e-05,-2.832408204470893e-05,4.1429,4.2143
1.84765625,-3.9551961559472035e-05,3.3687674735637444e-05,3.5639187127489125e-05,-3.320731853208208e-05,4.1429,4.2143
1.8515625,-5.078875208972304e-05,2.7824226544594495e-05,1.610624117799648e-05,-5.176005277790493e-05,4.1429,4.2143
1.85546875,-4.492530389868008e-05,3.173616234378576e-05,2.4411307612726033e-05,-5.0298646237888145e-05,4.1429,4.2143
1.859375,-4.248368565499351e-05,2.880443824826429e-05,2.5382608300907918e-05,-4.736692214236667e-05,4.1429,4.2143
1.86328125,-4.443519804684518e-05,1.7086452881666276e-05,2.0499371813534762e-05,-4.248368565499351e-05,4.1429,4.2143
1.8671875,-3.4187530235751874e-05,1.952807112535285e-05,2.2459795220874355e-05,-3.12558061402304e-05,4.1429,4.2143
1.87109375,-2.1489333165484083e-05,2.3921201760891136e-05,2.8314332396429392e-05,-2.8814187896543826e-05,4.1429,4.2143
1.875,-2.5392357949187455e-05,1.41547287861448e-05,2.0989477665369662e-05,-3.7600449167620354e-05,4.1429,4.2143
1.87890625,-2.7343870341039133e-05,-4.874824139761813e-09,8.78138644693675e-06,-4.931843453421835e-05,4.1429,4.2143
1.8828125,-2.442105726100557e-05,-1.4662813641565435e-06,1.3664622934309904e-05,-4.6876816290531774e-05,4.1429,4.2143
1.88671875,-2.1489333165484083e-05,1.9466375677119174e-06,1.7576558733501173e-05,-4.151238496681162e-05,4.1429,4.2143
1.890625,-2.9304293748378726e-05,1.0251704002441442e-05,1.5625046341649492e-05,-3.809055501945525e-05,4.1429,4.2143
1.89453125,-5.762350096894788e-05,1.0251704002441442e-05,1.0251704002441442e-05,-3.907076672312504e-05,4.1429,4.2143
1.8984375,-5.859480165712977e-05,6.829874055085071e-06,9.271492298771647e-06,-4.931843453421835e-05,4.1429,4.2143
1.90234375,-4.053217326314183e-05,-6.349517851529711e-06,9.271492298771647e-06,-5.615318341344319e-05,4.1429,4.2143
1.90625,-3.369742438391698e-05,-9.2812419470512e-06,-9.850865278095569e-07,-5.0298646237888145e-05,4.1429,4.2143
1.91015625,-2.0509121461814303e-05,4.878361663233392e-06,4.878361663233392e-06,-4.053217326314183e-05,4.1429,4.2143
1.9140625,-1.2212966042572674e-05,-1.4662813641565435e-06,6.3397682032501735e-06,-4.2973791506828405e-05,4.1429,4.2143
1.91796875,-2.2950739705500878e-05,-1.074264848706798e-05,-4.398005459678046e-06,-4.7857027994201574e-05,4.1429,4.2143
1.921875,-4.053217326314183e-05,-1.026145365072098e-05,-8.301030243381405e-06,-4.590551560234988e-05,4.1429,4.2143
1.92578125,-5.56719885770962e-05,-7.819835407034403e-06,-1.956387215991441e-06,-4.151238496681162e-05,4.1429,4.2143
1.9296875,-4.1022279114976724e-05,-1.4662813641565435e-06,4.388255811398494e-06,-3.9551961559472035e-05,4.1429,4.2143
1.93359375,-2.7343870341039133e-05,6.3397682032501735e-06,-4.949806759746593e-07,-3.907076672312504e-05,4.1429,4.2143
1.9375,-3.7600449167620354e-05,-2.936598919661236e-06,4.852310276951357e-07,-3.711034331578546e-05,4.1429,4.2143
1.94140625,-3.907076672312504e-05,-7.329729555199506e-06,2.926849271381712e-06,-3.4187530235751874e-05,4.1429,4.2143
1.9453125,-4.151238496681162e-05,-1.270307189440757e-05,4.852310276951357e-07,-3.6629148479438466e-05,4.1429,4.2143
1.94921875,-3.858066087129015e-05,-1.855760906996261e-05,-6.349517851529711e-06,-4.004206741130693e-05,4.1429,4.2143
1.953125,-2.0509121461814303e-05,-1.660609667811093e-05,-1.5625884974441134e-05,-3.711034331578546e-05,4.1429,4.2143
1.95703125,-2.0999227313649186e-05,-2.0027926625467302e-05,-9.2812419470512e-06,-3.222710682841229e-05,4.1429,4.2143
1.9609375,-3.0275594436560607e-05,-2.3930951409170674e-05,-1.4164478434424353e-05,-2.978548858472571e-05,4.1429,4.2143
1.96484375,-3.320731853208208e-05,-1.855760906996261e-05,-1.3674372582589455e-05,-3.6629148479438466e-05,4.1429,4.2143
1.96875,-3.613904262760357e-05,-1.5144690138094148e-05,-8.791136095216301e-06,-4.2973791506828405e-05,4.1429,4.2143
1.97265625,-3.0275594436560607e-05,-1.5625884974441134e-05,-2.0999227313649186e-05,-4.34638973586633e-05,4.1429,4.2143
1.9765625,-3.5158830923933776e-05,-2.6862675504692148e-05,-2.1489333165484083e-05,-4.248368565499351e-05,4.1429,4.2143
1.98046875,-5.176005277790493e-05,-2.978548858472571e-05,-1.855760906996261e-05,-3.858066087129015e-05,4.1429,4.2143
1.984375,-5.274026448157472e-05,-2.197943901731898e-05,-1.3674372582589455e-05,-4.1993579803158605e-05,4.1429,4.2143
1.98828125,-5.4691776873426404e-05,-2.832408204470893e-05,-1.855760906996261e-05,-4.7857027994201574e-05,4.1429,4.2143
1.9921875,-5.859480165712977e-05,-1.660609667811093e-05,-1.3184266730754558e-05,-3.7600449167620354e-05,4.1429,4.2143
1.99609375,-5.078875208972304e-05,-1.5144690138094148e-05,-1.7586308381780724e-05,-3.5158830923933776e-05,4.1429,4.2143
2.0,-3.2717212680247185e-05,-3.858066087129015e-05,-3.320731853208208e-05,-5.2250158629739826e-05,4.1429,4.2143
2.00390625,-2.832408204470893e-05,-4.8828328682383455e-05,-3.1745911992065304e-05,-5.323037033340962e-05,4.1429,4.2143
2.0078125,-3.7600449167620354e-05,-3.1745911992065304e-05,-3.320731853208208e-05,-4.980854038605325e-05,4.1429,4.2143
2.01171875,-3.320731853208208e-05,-2.2469544869153876e-05,-2.7833976192874033e-05,-4.8828328682383455e-05,4.1429,4.2143
2.015625,-2.442105726100557e-05,-2.2469544869153876e-05,-2.3440845557335777e-05,-2.978548858472571e-05,4.1429,4.2143
2.01953125,-4.004206741130693e-05,-2.2950739705500878e-05,-3.320731853208208e-05,-2.832408204470893e-05,4.1429,4.2143
2.0234375,-5.0298646237888145e-05,-4.492530389868008e-05,-4.638671043869688e-05,-3.6629148479438466e-05,4.1429,4.2143
2.02734375,-3.369742438391698e-05,-4.541540975051498e-05,-5.176005277790493e-05,-4.004206741130693e-05,4.1429,4.2143
2.03125,-2.832408204470893e-05,-2.6372569652857252e-05,-3.858066087129015e-05,-4.443519804684518e-05,4.1429,4.2143
2.03515625,-3.320731853208208e-05,-3.0275594436560607e-05,-3.4187530235751874e-05,-4.1022279114976724e-05,4.1429,4.2143
2.0390625,-3.320731853208208e-05,-4.7857027994201574e-05,-3.613904262760357e-05,-3.222710682841229e-05,4.1429,4.2143
2.04296875,-3.4187530235751874e-05,-3.466872507209888e-05,-2.0027926625467302e-05,-2.8814187896543826e-05,4.1429,4.2143
2.046875,-3.2717212680247185e-05,-1.9047714921797505e-05,-2.5392357949187455e-05,-3.1745911992065304e-05,4.1429,4.2143
2.05078125,-4.004206741130693e-05,-2.9304293748378726e-05,-3.0275594436560607e-05,-3.0275594436560607e-05,4.1429,4.2143
2.0546875,-5.274026448157472e-05,-2.6862675504692148e-05,-2.1489333165484083e-05,-3.0765700288395504e-05,4.1429,4.2143
2.05859375,-5.126994692607003e-05,-3.5158830923933776e-05,-2.5882463801022352e-05,-3.0275594436560607e-05,4.1429,4.2143
2.0625,-3.7600449167620354e-05,-4.541540975051498e-05,-2.7833976192874033e-05,-2.9304293748378726e-05,4.1429,4.2143
2.06640625,-3.9551961559472035e-05,-3.564893677576867e-05,-2.6372569652857252e-05,-3.564893677576867e-05,4.1429,4.2143
2.0703125,-4.834713384603647e-05,-3.0275594436560607e-05,-3.369742438391698e-05,-4.248368565499351e-05,4.1429,4.2143
2.07421875,-2.7833976192874033e-05,-3.222710682841229e-05,-4.151238496681162e-05,-4.638671043869688e-05,4.1429,4.2143
2.078125,-1.3184266730754558e-05,-3.4187530235751874e-05,-4.980854038605325e-05,-4.248368565499351e-05,4.1429,4.2143
2.08203125,-2.0509121461814303e-05,-3.809055501945525e-05,-5.323037033340962e-05,-4.053217326314183e-05,4.1429,4.2143
2.0859375,-4.1993579803158605e-05,-3.5158830923933776e-05,-3.9551961559472035e-05,-3.6629148479438466e-05,4.1429,4.2143
2.08984375,-5.0298646237888145e-05,-2.490225209735256e-05,-3.564893677576867e-05,-3.6629148479438466e-05,4.1429,4.2143
2.09375,-3.564893677576867e-05,-3.4187530235751874e-05,-3.907076672312504e-05,-4.590551560234988e-05,4.1429,4.2143
2.09765625,-3.2717212680247185e-05,-4.590551560234988e-05,-3.7600449167620354e-05,-4.590551560234988e-05,4.1429,4.2143
2.1015625,-3.7600449167620354e-05,-3.2717212680247185e-05,-4.004206741130693e-05,-3.4187530235751874e-05,4.1429,4.2143
2.10546875,-5.420167102159151e-05,-2.1489333165484083e-05,-3.613904262760357e-05,-2.832408204470893e-05,4.1429,4.2143
2.109375,-7.519602351110093e-05,-2.3930951409170674e-05,-3.4187530235751874e-05,-3.4187530235751874e-05,4.1429,4.2143
2.11328125,-3.907076672312504e-05,-2.0999227313649186e-05,-2.7343870341039133e-05,-3.12558061402304e-05,4.1429,4.2143
2.1171875,-3.12558061402304e-05,-3.1745911992065304e-05,-3.0765700288395504e-05,-2.9304293748378726e-05,4.1429,4.2143
2.12109375,-3.4187530235751874e-05,-4.248368565499351e-05,-4.151238496681162e-05,-3.6629148479438466e-05,4.1429,4.2143
2.125,-4.949806759746593e-07,-4.053217326314183e-05,-4.053217326314183e-05,-3.5158830923933776e-05,4.1429,4.2143
2.12890625,-1.3674372582589455e-05,-3.5158830923933776e-05,-4.443519804684518e-05,-3.907076672312504e-05,4.1429,4.2143
2.1328125,-2.6372569652857252e-05,-3.711034331578546e-05,-5.615318341344319e-05,-5.713339511711298e-05,4.1429,4.2143
2.13671875,-2.0509121461814303e-05,-5.8113606820782775e-05,-5.6643289265278085e-05,-5.713339511711298e-05,4.1429,4.2143
2.140625,-2.2950739705500878e-05,-6.445824984817272e-05,-4.248368565499351e-05,-3.809055501945525e-05,4.1429,4.2143
2.14453125,-3.369742438391698e-05,-5.420167102159151e-05,-3.711034331578546e-05,-3.5158830923933776e-05,4.1429,4.2143
2.1484375,-4.2973791506828405e-05,-4.1022279114976724e-05,-4.3945092195010287e-05,-3.7600449167620354e-05,4.1429,4.2143
2.15234375,-3.369742438391698e-05,-2.7833976192874033e-05,-3.564893677576867e-05,-2.6862675504692148e-05,4.1429,4.2143
2.15625,-3.0275594436560607e-05,-2.7343870341039133e-05,-3.320731853208208e-05,-2.832408204470893e-05,4.1429,4.2143
2.16015625,-2.8814187896543826e-05,-3.564893677576867e-05,-3.4187530235751874e-05,-4.3945092195010287e-05,4.1429,4.2143
2.1640625,-2.442105726100557e-05,-4.1993579803158605e-05,-1.855760906996261e-05,-4.34638973586633e-05,4.1429,4.2143
2.16796875,-2.1489333165484083e-05,-2.5882463801022352e-05,-1.660609667811093e-05,-3.9551961559472035e-05,4.1429,4.2143
2.171875,-2.6372569652857252e-05,-1.660609667811093e-05,-2.0999227313649186e-05,-4.053217326314183e-05,4.1429,4.2143
2.17578125,-5.126994692607003e-05,-3.1745911992065304e-05,-3.1745911992065304e-05,-3.564893677576867e-05,4.1429,4.2143
2.1796875,-6.0555225064469366e-05,-3.222710682841229e-05,-3.9551961559472035e-05,-3.7600449167620354e-05,4.1429,4.2143
2.18359375,-2.8814187896543826e-05,-2.442105726100557e-05,-2.490225209735256e-05,-3.0765700288395504e-05,4.1429,4.2143
2.1875,-4.8881113115129436e-06,-3.9551961559472035e-05,-1.8067503218127712e-05,-2.6372569652857252e-05,4.1429,4.2143
2.19140625,-7.329729555199506e-06,-4.151238496681162e-05,-3.1745911992065304e-05,-3.2717212680247185e-05,4.1429,4.2143
2.1953125,-2.0999227313649186e-05,-3.6629148479438466e-05,-3.711034331578546e-05,-2.9304293748378726e-05,4.1429,4.2143
2.19921875,-3.809055501945525e-05,-4.1993579803158605e-05,-2.832408204470893e-05,-2.6862675504692148e-05,4.1429,4.2143
2.203125,-4.492530389868008e-05,-3.1745911992065304e-05,-2.8814187896543826e-05,-3.0275594436560607e-05,4.1429,4.2143
2.20703125,-5.51818827252613e-05,-1.8067503218127712e-05,-3.0765700288395504e-05,-3.564893677576867e-05,4.1429,4.2143
2.2109375,-5.274026448157472e-05,-1.1232754338902879e-05,-2.197943901731898e-05,-2.7343870341039133e-05,4.1429,4.2143
2.21484375,-1.1722860190737776e-05,-1.465458428625925e-05,-2.0999227313649186e-05,-2.442105726100557e-05,4.1429,4.2143
2.21875,-7.329729555199506e-06,-3.369742438391698e-05,-3.2717212680247185e-05,-4.443519804684518e-05,4.1429,4.2143
2.22265625,-3.1745911992065304e-05,-5.126994692607003e-05,-3.9551961559472035e-05,-5.2250158629739826e-05,4.1429,4.2143
2.2265625,-2.978548858472571e-05,-6.006511921263447e-05,-4.1993579803158605e-05,-3.564893677576867e-05,4.1429,4.2143
2.23046875,-2.442105726100557e-05,-4.590551560234988e-05,-3.7600449167620354e-05,-2.832408204470893e-05,4.1429,4.2143
2.234375,-3.613904262760357e-05,-2.5882463801022352e-05,-3.5158830923933776e-05,-3.5158830923933776e-05,4.1429,4.2143
2.23828125,-3.1745911992065304e-05,-2.197943901731898e-05,-3.809055501945525e-05,-3.12558061402304e-05,4.1429,4.2143
2.2421875,-4.248368565499351e-05,-3.466872507209888e-05,-3.711034331578546e-05,-3.6629148479438466e-05,4.1429,4.2143
2.24609375,-6.885138048371098e-05,-3.711034331578546e-05,-2.197943901731898e-05,-3.222710682841229e-05,4.1429,4.2143
2.25,-6.298793229266803e-05,-1.660609667811093e-05,-1.1232754338902879e-05,-1.465458428625925e-05,4.1429,4.2143
2.25390625,-3.907076672312504e-05,-2.442105726100557e-05,-2.3440845557335777e-05,-2.3440845557335777e-05,4.1429,4.2143
2.2578125,-1.9537820773632402e-05,-5.176005277790493e-05,-2.442105726100557e-05,-4.3945092195010287e-05,4.1429,4.2143
2.26171875,-7.819835407034403e-06,-5.176005277790493e-05,-3.711034331578546e-05,-4.638671043869688e-05,4.1429,4.2143
2.265625,-1.4164478434424353e-05,-3.4187530235751874e-05,-4.248368565499351e-05,-3.12558061402304e-05,4.1429,4.2143
2.26953125,-5.078875208972304e-05,-2.832408204470893e-05,-3.369742438391698e-05,-2.1489333165484083e-05,4.1429,4.2143
2.2734375,-6.0555225064469366e-05,-4.004206741130693e-05,-3.858066087129015e-05,-2.0027926625467302e-05,4.1429,4.2143
2.27734375,-3.1745911992065304e-05,-3.2717212680247185e-05,-4.1022279114976724e-05,-2.9304293748378726e-05,4.1429,4.2143
2.28125,-3.907899607843149e-06,-2.0999227313649186e-05,-2.9304293748378726e-05,-2.978548858472571e-05,4.1429,4.2143
2.28515625,1.45653171587702e-06,-2.9304293748378726e-05,-3.466872507209888e-05,-2.978548858472571e-05,4.1429,4.2143
2.2890625,-2.0027926625467302e-05,-2.5882463801022352e-05,-4.053217326314183e-05,-3.809055501945525e-05,4.1429,4.2143
2.29296875,-3.0765700288395504e-05,-1.465458428625925e-05,-2.9304293748378726e-05,-3.12558061402304e-05,4.1429,4.2143
2.296875,-2.0999227313649186e-05,-2.2950739705500878e-05,-3.0765700288395504e-05,-2.7833976192874033e-05,4.1429,4.2143
2.30078125,-4.1022279114976724e-05,-4.053217326314183e-05,-3.564893677576867e-05,-2.978548858472571e-05,4.1429,4.2143
2.3046875,-5.420167102159151e-05,-5.126994692607003e-05,-4.980854038605325e-05,-3.7600449167620354e-05,4.1429,4.2143
2.30859375,-4.1993579803158605e-05,-4.980854038605325e-05,-4.931843453421835e-05,-3.809055501945525e-05,4.1429,4.2143
2.3125,-4.8828328682383455e-05,-4.053217326314183e-05,-4.1022279114976724e-05,-2.978548858472571e-05,4.1429,4.2143
2.31640625,-4.541540975051498e-05,-3.5158830923933776e-05,-4.053217326314183e-05,-2.9304293748378726e-05,4.1429,4.2143
2.3203125,-2.9304293748378726e-05,-4.053217326314183e-05,-2.832408204470893e-05,-2.8814187896543826e-05,4.1429,4.2143
2.32421875,-4.8828328682383455e-05,-5.126994692607003e-05,-4.053217326314183e-05,-4.1022279114976724e-05,4.1429,4.2143
2.328125,-5.859480165712977e-05,-4.6876816290531774e-05,-6.250673745632104e-05,-5.078875208972304e-05,4.1429,4.2143
2.33203125,-4.3945092195010287e-05,-4.1993579803158605e-05,-5.371156516975661e-05,-4.931843453421835e-05,4.1429,4.2143
2.3359375,-4.004206741130693e-05,-4.004206741130693e-05,-4.931843453421835e-05,-3.711034331578546e-05,4.1429,4.2143
2.33984375,-6.006511921263447e-05,-3.5158830923933776e-05,-4.6876816290531774e-05,-2.197943901731898e-05,4.1429,4.2143
2.34375,-5.8113606820782775e-05,-4.151238496681162e-05,-5.371156516975661e-05,-2.832408204470893e-05,4.1429,4.2143
2.34765625,-5.378217163347827e-06,-4.492530389868008e-05,-5.126994692607003e-05,-3.320731853208208e-05,4.1429,4.2143
2.3515625,1.2203216394293121e-05,-3.9551961559472035e-05,-3.369742438391698e-05,-3.564893677576867e-05,4.1429,4.2143
2.35546875,-1.026145365072098e-05,-3.809055501945525e-05,-4.931843453421835e-05,-4.443519804684518e-05,4.1429,4.2143
2.359375,-2.2950739705500878e-05,-2.978548858472571e-05,-5.274026448157472e-05,-3.809055501945525e-05,4.1429,4.2143
2.36328125,-3.564893677576867e-05,-2.197943901731898e-05,-3.6629148479438466e-05,-2.7833976192874033e-05,4.1429,4.2143
2.3671875,-3.711034331578546e-05,-2.7343870341039133e-05,-2.7343870341039133e-05,-3.0765700288395504e-05,4.1429,4.2143
2.37109375,-3.369742438391698e-05,-3.466872507209888e-05,-3.0765700288395504e-05,-3.222710682841229e-05,4.1429,4.2143
2.375,-4.2973791506828405e-05,-4.8828328682383455e-05,-4.834713384603647e-05,-3.0275594436560607e-05,4.1429,4.2143
2.37890625,-4.8828328682383455e-05,-4.931843453421835e-05,-4.834713384603647e-05,-3.369742438391698e-05,4.1429,4.2143
2.3828125,-3.6629148479438466e-05,-3.564893677576867e-05,-3.0765700288395504e-05,-3.0765700288395504e-05,4.1429,4.2143
2.38671875,-2.5882463801022352e-05,-2.7343870341039133e-05,-3.858066087129015e-05,-3.4187530235751874e-05,4.1429,4.2143
2.390625,-3.4187530235751874e-05,-3.12558061402304e-05,-3.7600449167620354e-05,-4.248368565499351e-05,4.1429,4.2143
2.39453125,-4.34638973586633e-05,-2.442105726100557e-05,-2.6862675504692148e-05,-3.4187530235751874e-05,4.1429,4.2143
2.3984375,-4.443519804684518e-05,-1.8067503218127712e-05,-3.0275594436560607e-05,-2.5882463801022352e-05,4.1429,4.2143
2.40234375,-4.3945092195010287e-05,-3.613904262760357e-05,-3.5158830923933776e-05,-2.7343870341039133e-05,4.1429,4.2143
2.40625,-3.369742438391698e-05,-3.809055501945525e-05,-4.248368565499351e-05,-3.564893677576867e-05,4.1429,4.2143
2.41015625,-1.8067503218127712e-05,-2.0999227313649186e-05,-4.541540975051498e-05,-3.809055501945525e-05,4.1429,4.2143
2.4140625,-2.0999227313649186e-05,-2.7343870341039133e-05,-4.443519804684518e-05,-3.0765700288395504e-05,4.1429,4.2143
2.41796875,-2.6372569652857252e-05,-3.809055501945525e-05,-5.176005277790493e-05,-3.613904262760357e-05,4.1429,4.2143
2.421875,-3.809055501945525e-05,-4.3945092195010287e-05,-5.420167102159151e-05,-4.3945092195010287e-05,4.1429,4.2143
2.42578125,-4.34638973586633e-05,-2.5392357949187455e-05,-2.8814187896543826e-05,-4.1022279114976724e-05,4.1429,4.2143
2.4296875,-3.907076672312504e-05,3.898149959563597e-06,-4.949806759746593e-07,-3.7600449167620354e-05,4.1429,4.2143
2.43359375,-2.490225209735256e-05,-1.026145365072098e-05,-1.8067503218127712e-05,-4.004206741130693e-05,4.1429,4.2143
2.4375,-1.8067503218127712e-05,-2.2950739705500878e-05,-4.151238496681162e-05,-4.151238496681162e-05,4.1429,4.2143
2.44140625,-1.3184266730754558e-05,-1.5625884974441134e-05,-2.832408204470893e-05,-3.12558061402304e-05,4.1429,4.2143
2.4453125,-7.819835407034403e-06,-3.907899607843149e-06,-4.398005459678046e-06,-2.2950739705500878e-05,4.1429,4.2143
2.44921875,-2.0999227313649186e-05,8.300191610589762e-06,-5.859411999694814e-06,-3.564893677576867e-05,4.1429,4.2143
2.453125,-3.2717212680247185e-05,3.4169551232166096e-06,-1.3184266730754558e-05,-5.615318341344319e-05,4.1429,4.2143
2.45703125,-3.4187530235751874e-05,1.5625046341649492e-05,7.810085758754866e-06,-5.51818827252613e-05,4.1429,4.2143
2.4609375,-2.7833976192874033e-05,3.417778058747234e-05,2.147958351720456e-05,-4.151238496681162e-05,4.1429,4.2143
2.46484375,-3.4187530235751874e-05,4.1502635318532066e-05,3.1246056491950866e-05,-3.6629148479438466e-05,4.1429,4.2143
2.46875,-4.541540975051498e-05,4.003231776302738e-05,3.1246056491950866e-05,-5.126994692607003e-05,4.1429,4.2143
2.47265625,-4.053217326314183e-05,3.466788643930724e-05,2.490141346456093e-05,-5.859480165712977e-05,4.1429,4.2143
2.4765625,-2.490225209735256e-05,4.052242361486227e-05,3.8080805371175696e-05,-4.3945092195010287e-05,4.1429,4.2143
2.48046875,-2.2469544869153876e-05,4.3944253562218644e-05,4.003231776302738e-05,-4.053217326314183e-05,4.1429,4.2143
2.484375,-3.12558061402304e-05,3.661939883115892e-05,3.514908127565422e-05,-4.541540975051498e-05,4.1429,4.2143
2.48828125,-3.2717212680247185e-05,3.857091122301059e-05,3.612929297932402e-05,-3.564893677576867e-05,4.1429,4.2143
2.4921875,-3.12558061402304e-05,3.8080805371175696e-05,2.0018176977187747e-05,-3.0275594436560607e-05,4.1429,4.2143
2.49609375,-4.151238496681162e-05,2.9294544100099185e-05,1.3664622934309904e-05,-3.564893677576867e-05,4.1429,4.2143
2.5,-4.2973791506828405e-05,2.3431095909056237e-05,5.8585733669031864e-06,-3.9551961559472035e-05,4.1429,4.2143
2.50390625,-2.490225209735256e-05,1.5134940489814595e-05,1.9466375677119174e-06,-3.5158830923933776e-05,4.1429,4.2143
2.5078125,-2.442105726100557e-05,8.300191610589762e-06,9.753368795300333e-07,-3.12558061402304e-05,4.1429,4.2143
2.51171875,-3.2717212680247185e-05,1.8057753569848158e-05,-8.791136095216301e-06,-3.4187530235751874e-05,4.1429,4.2143
2.515625,-3.0275594436560607e-05,1.8057753569848158e-05,-7.819835407034403e-06,-3.809055501945525e-05,4.1429,4.2143
2.51953125,-3.564893677576867e-05,7.810085758754866e-06,-5.859411999694814e-06,-3.369742438391698e-05,4.1429,4.2143
2.5234375,-4.053217326314183e-05,1.074180985427634e-05,-4.8881113115129436e-06,-3.0275594436560607e-05,4.1429,4.2143
2.52734375,-3.1745911992065304e-05,1.610624117799648e-05,-9.771347798886083e-06,-2.978548858472571e-05,4.1429,4.2143
2.53125,-2.2469544869153876e-05,1.4644834637979699e-05,-1.074264848706798e-05,-2.197943901731898e-05,4.1429,4.2143
2.53515625,-1.1232754338902879e-05,6.829874055085071e-06,-1.3184266730754558e-05,-2.3440845557335777e-05,4.1429,4.2143
2.5390625,-1.7096202529945828e-05,-3.417793756008251e-06,-2.7833976192874033e-05,-3.858066087129015e-05,4.1429,4.2143
2.54296875,-3.12558061402304e-05,-1.270307189440757e-05,-1.7586308381780724e-05,-3.907076672312504e-05,4.1429,4.2143
2.546875,-2.978548858472571e-05,-1.3184266730754558e-05,-6.8396237033646085e-06,-3.369742438391698e-05,4.1429,4.2143
2.55078125,-2.0509121461814303e-05,-8.301030243381405e-06,-2.2950739705500878e-05,-2.978548858472571e-05,4.1429,4.2143
2.5546875,-3.222710682841229e-05,-1.026145365072098e-05,-2.6372569652857252e-05,-3.0275594436560607e-05,4.1429,4.2143
2.55859375,-5.078875208972304e-05,-2.0509121461814303e-05,-2.442105726100557e-05,-2.6372569652857252e-05,4.1429,4.2143
2.5625,-4.151238496681162e-05,-2.832408204470893e-05,-1.7096202529945828e-05,-2.490225209735256e-05,4.1429,4.2143
2.56640625,-3.564893677576867e-05,-2.5882463801022352e-05,-1.9537820773632402e-05,-3.320731853208208e-05,4.1429,4.2143
2.5703125,-2.0999227313649186e-05,-1.9537820773632402e-05,-2.3440845557335777e-05,-3.711034331578546e-05,4.1429,4.2143
2.57421875,-1.956387215991441e-06,-1.5625884974441134e-05,-6.8396237033646085e-06,-2.7833976192874033e-05,4.1429,4.2143
2.578125,-1.5144690138094148e-05,-8.301030243381405e-06,-5.378217163347827e-06,-2.6372569652857252e-05,4.1429,4.2143
2.58203125,-3.369742438391698e-05,-1.7586308381780724e-05,-2.978548858472571e-05,-3.5158830923933776e-05,4.1429,4.2143
2.5859375,-2.5882463801022352e-05,-2.6372569652857252e-05,-2.832408204470893e-05,-3.5158830923933776e-05,4.1429,4.2143
2.58984375,-1.611599082627603e-05,-6.349517851529711e-06,-1.3674372582589455e-05,-3.4187530235751874e-05,4.1429,4.2143
2.59375,-2.0999227313649186e-05,-4.949806759746593e-07,-1.855760906996261e-05,-3.1745911992065304e-05,4.1429,4.2143
2.59765625,-2.8814187896543826e-05,-1.3674372582589455e-05,-2.3930951409170674e-05,-2.3440845557335777e-05,4.1429,4.2143
2.6015625,-4.8828328682383455e-05,-1.026145365072098e-05,-3.1745911992065304e-05,-2.832408204470893e-05,4.1429,4.2143
2.60546875,-4.541540975051498e-05,-2.0027926625467302e-05,-3.809055501945525e-05,-4.248368565499351e-05,4.1429,4.2143
2.609375,-2.6372569652857252e-05,-1.855760906996261e-05,-4.541540975051498e-05,-4.541540975051498e-05,4.1429,4.2143
2.61328125,-2.0027926625467302e-05,-4.874824139761813e-09,-5.078875208972304e-05,-3.369742438391698e-05,4.1429,4.2143
2.6171875,-1.7586308381780724e-05,-9.2812419470512e-06,-3.858066087129015e-05,-2.442105726100557e-05,4.1429,4.2143
2.62109375,-2.1489333165484083e-05,-1.660609667811093e-05,-1.5144690138094148e-05,-3.369742438391698e-05,4.1429,4.2143
2.625,-2.7833976192874033e-05,-2.2469544869153876e-05,-1.3184266730754558e-05,-3.2717212680247185e-05,4.1429,4.2143
2.62890625,-3.320731853208208e-05,-3.907076672312504e-05,-3.907076672312504e-05,-2.2469544869153876e-05,4.1429,4.2143
2.6328125,-3.858066087129015e-05,-3.6629148479438466e-05,-3.858066087129015e-05,-2.442105726100557e-05,4.1429,4.2143
2.63671875,-3.809055501945525e-05,-1.9047714921797505e-05,-1.465458428625925e-05,-1.611599082627603e-05,4.1429,4.2143
2.640625,-3.7600449167620354e-05,-2.936598919661236e-06,2.926849271381712e-06,-1.2212966042572674e-05,4.1429,4.2143
2.64453125,-4.590551560234988e-05,-5.378217163347827e-06,7.810085758754866e-06,-1.7586308381780724e-05,4.1429,4.2143
2.6484375,-4.3945092195010287e-05,-1.1722860190737776e-05,4.852310276951357e-07,-1.9047714921797505e-05,4.1429,4.2143
2.65234375,-4.1022279114976724e-05,-6.349517851529711e-06,4.878361663233392e-06,-1.9047714921797505e-05,4.1429,4.2143
2.65625,-4.492530389868008e-05,-9.771347798886083e-06,2.4367434195468148e-06,-2.0999227313649186e-05,4.1429,4.2143
2.66015625,-4.443519804684518e-05,-2.0027926625467302e-05,-1.270307189440757e-05,-1.9537820773632402e-05,4.1429,4.2143
2.6640625,-4.7857027994201574e-05,-9.2812419470512e-06,-1.5144690138094148e-05,-2.3930951409170674e-05,4.1429,4.2143
2.66796875,-5.2250158629739826e-05,-1.1232754338902879e-05,-2.0509121461814303e-05,-2.8814187896543826e-05,4.1429,4.2143
2.671875,-5.6643289265278085e-05,-3.613904262760357e-05,-2.7343870341039133e-05,-2.7343870341039133e-05,4.1429,4.2143
2.67578125,-5.6643289265278085e-05,-2.5882463801022352e-05,-2.5392357949187455e-05,-3.1745911992065304e-05,4.1429,4.2143
2.6796875,-4.053217326314183e-05,-1.8067503218127712e-05,-2.832408204470893e-05,-3.4187530235751874e-05,4.1429,4.2143
2.68359375,-2.6862675504692148e-05,-1.3674372582589455e-05,-2.9304293748378726e-05,-3.1745911992065304e-05,4.1429,4.2143
2.6875,-3.564893677576867e-05,-2.197943901731898e-05,-2.2469544869153876e-05,-2.8814187896543826e-05,4.1429,4.2143
2.69140625,-3.1745911992065304e-05,-2.9304293748378726e-05,-1.855760906996261e-05,-3.12558061402304e-05,4.1429,4.2143
2.6953125,-2.978548858472571e-05,-2.0999227313649186e-05,-2.490225209735256e-05,-3.222710682841229e-05,4.1429,4.2143
2.69921875,-4.004206741130693e-05,-2.7833976192874033e-05,-3.0765700288395504e-05,-2.7343870341039133e-05,4.1429,4.2143
2.703125,-3.466872507209888e-05,-4.004206741130693e-05,-3.320731853208208e-05,-2.8814187896543826e-05,4.1429,4.2143
2.70703125,-2.3930951409170674e-05,-1.9537820773632402e-05,-3.369742438391698e-05,-3.222710682841229e-05,4.1429,4.2143
2.7109375,-2.2469544869153876e-05,-1.3674372582589455e-05,-2.0027926625467302e-05,-2.978548858472571e-05,4.1429,4.2143
2.71484375,-2.832408204470893e-05,-2.2469544869153876e-05,-1.8067503218127712e-05,-3.2717212680247185e-05,4.1429,4.2143
2.71875,-3.2717212680247185e-05,-1.5144690138094148e-05,-2.832408204470893e-05,-2.9304293748378726e-05,4.1429,4.2143
2.72265625,-3.2717212680247185e-05,-5.859411999694814e-06,-2.442105726100557e-05,-1.7096202529945828e-05,4.1429,4.2143
2.7265625,-2.490225209735256e-05,-1.074264848706798e-05,-3.222710682841229e-05,-2.8814187896543826e-05,4.1429,4.2143
2.73046875,-2.0999227313649186e-05,-1.1722860190737776e-05,-4.7857027994201574e-05,-4.248368565499351e-05,4.1429,4.2143
2.734375,-4.1022279114976724e-05,-7.819835407034403e-06,-5.51818827252613e-05,-4.2973791506828405e-05,4.1429,4.2143
2.73828125,-4.590551560234988e-05,-3.417793756008251e-06,-4.638671043869688e-05,-4.053217326314183e-05,4.1429,4.2143
2.7421875,-3.7600449167620354e-05,-1.074264848706798e-05,-3.2717212680247185e-05,-3.2717212680247185e-05,4.1429,4.2143
2.74609375,-3.369742438391698e-05,-4.34638973586633e-05,-3.711034331578546e-05,-3.320731853208208e-05,4.1429,4.2143
2.75,-2.6862675504692148e-05,-6.103641990081635e-05,-3.5158830923933776e-05,-3.222710682841229e-05,4.1429,4.2143
2.75390625,-2.7833976192874033e-05,-5.615318341344319e-05,-3.466872507209888e-05,-2.8814187896543826e-05,4.1429,4.2143
2.7578125,-3.6629148479438466e-05,-5.371156516975661e-05,-3.9551961559472035e-05,-2.6372569652857252e-05,4.1429,4.2143
2.76171875,-4.151238496681162e-05,-4.834713384603647e-05,-4.7857027994201574e-05,-2.6372569652857252e-05,4.1429,4.2143
2.765625,-4.2973791506828405e-05,-4.980854038605325e-05,-3.9551961559472035e-05,-1.7096202529945828e-05,4.1429,4.2143
2.76953125,-4.1993579803158605e-05,-3.9551961559472035e-05,-2.197943901731898e-05,-1.074264848706798e-05,4.1429,4.2143
2.7734375,-4.248368565499351e-05,-2.490225209735256e-05,-2.2469544869153876e-05,-2.2469544869153876e-05,4.1429,4.2143
2.77734375,-4.443519804684518e-05,-2.5392357949187455e-05,-4.004206741130693e-05,-2.832408204470893e-05,4.1429,4.2143
2.78125,-3.2717212680247185e-05,-5.0298646237888145e-05,-4.6876816290531774e-05,-3.711034331578546e-05,4.1429,4.2143
2.78515625,-3.0765700288395504e-05,-5.56719885770962e-05,-4.1993579803158605e-05,-4.931843453421835e-05,4.1429,4.2143
2.7890625,-4.834713384603647e-05,-3.0275594436560607e-05,-4.004206741130693e-05,-4.151238496681162e-05,4.1429,4.2143
2.79296875,-6.494835570000762e-05,-4.1993579803158605e-05,-4.2973791506828405e-05,-2.7343870341039133e-05,4.1429,4.2143
2.796875,-4.736692214236667e-05,-5.371156516975661e-05,-3.858066087129015e-05,-2.0999227313649186e-05,4.1429,4.2143
2.80078125,-1.5144690138094148e-05,-3.7600449167620354e-05,-1.7586308381780724e-05,-1.1722860190737776e-05,4.1429,4.2143
2.8046875,-2.0027926625467302e-05,-3.0275594436560607e-05,-2.8814187896543826e-05,-1.1232754338902879e-05,4.1429,4.2143
2.80859375,-4.931843453421835e-05,-2.6862675504692148e-05,-4.3945092195010287e-05,-2.7343870341039133e-05,4.1429,4.2143
2.8125,-4.541540975051498e-05,-2.197943901731898e-05,-3.0275594436560607e-05,-3.907076672312504e-05,4.1429,4.2143
2.81640625,-2.0999227313649186e-05,-2.3930951409170674e-05,-2.7833976192874033e-05,-3.613904262760357e-05,4.1429,4.2143
2.8203125,-2.7833976192874033e-05,-4.1993579803158605e-05,-5.274026448157472e-05,-3.564893677576867e-05,4.1429,4.2143
2.82421875,-3.564893677576867e-05,-5.4691776873426404e-05,-5.51818827252613e-05,-3.858066087129015e-05,4.1429,4.2143
2.828125,-2.7833976192874033e-05,-4.736692214236667e-05,-5.126994692607003e-05,-3.809055501945525e-05,4.1429,4.2143
2.83203125,-2.5392357949187455e-05,-4.2973791506828405e-05,-5.126994692607003e-05,-3.222710682841229e-05,4.1429,4.2143
2.8359375,-2.3930951409170674e-05,-4.590551560234988e-05,-4.053217326314183e-05,-2.7343870341039133e-05,4.1429,4.2143
2.83984375,-3.222710682841229e-05,-3.466872507209888e-05,-3.7600449167620354e-05,-3.4187530235751874e-05,4.1429,4.2143
2.84375,-3.12558061402304e-05,-2.3930951409170674e-05,-2.0999227313649186e-05,-3.711034331578546e-05,4.1429,4.2143
2.84765625,-3.12558061402304e-05,-2.2950739705500878e-05,-9.771347798886083e-06,-3.7600449167620354e-05,4.1429,4.2143
2.8515625,-4.1993579803158605e-05,-2.6862675504692148e-05,-1.2212966042572674e-05,-3.1745911992065304e-05,4.1429,4.2143
2.85546875,-3.711034331578546e-05,-2.9304293748378726e-05,-1.074264848706798e-05,-2.3930951409170674e-05,4.1429,4.2143
2.859375,-3.0275594436560607e-05,-3.613904262760357e-05,-1.7096202529945828e-05,-3.466872507209888e-05,4.1429,4.2143
2.86328125,-3.0765700288395504e-05,-3.222710682841229e-05,-2.9304293748378726e-05,-4.590551560234988e-05,4.1429,4.2143
2.8671875,-2.6372569652857252e-05,-2.0027926625467302e-05,-2.7833976192874033e-05,-3.564893677576867e-05,4.1429,4.2143
2.87109375,-2.832408204470893e-05,-2.0509121461814303e-05,-2.490225209735256e-05,-2.7343870341039133e-05,4.1429,4.2143
2.875,-3.9551961559472035e-05,-3.222710682841229e-05,-3.5158830923933776e-05,-2.9304293748378726e-05,4.1429,4.2143
2.87890625,-5.176005277790493e-05,-3.809055501945525e-05,-2.7343870341039133e-05,-3.1745911992065304e-05,4.1429,4.2143
2.8828125,-6.64097622400244e-05,-4.053217326314183e-05,-1.5144690138094148e-05,-2.7343870341039133e-05,4.1429,4.2143
2.88671875,-6.836127463187608e-05,-3.369742438391698e-05,-2.3930951409170674e-05,-2.3930951409170674e-05,4.1429,4.2143
2.890625,-4.443519804684518e-05,-2.490225209735256e-05,-2.978548858472571e-05,-2.978548858472571e-05,4.1429,4.2143
2.89453125,-1.9537820773632402e-05,-2.832408204470893e-05,-3.0275594436560607e-05,-3.907076672312504e-05,4.1429,4.2143
2.8984375,-1.9537820773632402e-05,-2.832408204470893e-05,-2.7343870341039133e-05,-3.858066087129015e-05,4.1429,4.2143
2.90234375,-1.855760906996261e-05,-2.8814187896543826e-05,-2.7833976192874033e-05,-3.2717212680247185e-05,4.1429,4.2143
2.90625,-1.4164478434424353e-05,-2.978548858472571e-05,-3.0275594436560607e-05,-2.832408204470893e-05,4.1429,4.2143
2.91015625,-1.2212966042572674e-05,-3.222710682841229e-05,-3.5158830923933776e-05,-3.0275594436560607e-05,4.1429,4.2143
2.9140625,-1.660609667811093e-05,-3.564893677576867e-05,-4.492530389868008e-05,-3.907076672312504e-05,4.1429,4.2143
2.91796875,-3.12558061402304e-05,-3.858066087129015e-05,-4.1993579803158605e-05,-3.6629148479438466e-05,4.1429,4.2143
2.921875,-5.56719885770962e-05,-4.248368565499351e-05,-3.858066087129015e-05,-3.5158830923933776e-05,4.1429,4.2143
2.92578125,-6.152652575265125e-05,-4.053217326314183e-05,-3.613904262760357e-05,-4.004206741130693e-05,4.1429,4.2143
2.9296875,-4.004206741130693e-05,-3.4187530235751874e-05,-3.907076672312504e-05,-3.564893677576867e-05,4.1429,4.2143
2.93359375,-2.9304293748378726e-05,-3.222710682841229e-05,-3.369742438391698e-05,-3.2717212680247185e-05,4.1429,4.2143
2.9375,-2.3930951409170674e-05,-3.711034331578546e-05,-2.1489333165484083e-05,-3.12558061402304e-05,4.1429,4.2143
2.94140625,-2.2469544869153876e-05,-4.834713384603647e-05,-4.1022279114976724e-05,-3.711034331578546e-05,4.1429,4.2143
2.9453125,-2.442105726100557e-05,-4.736692214236667e-05,-4.151238496681162e-05,-4.053217326314183e-05,4.1429,4.2143
2.94921875,-3.320731853208208e-05,-2.7833976192874033e-05,-2.490225209735256e-05,-3.1745911992065304e-05,4.1429,4.2143
2.953125,-3.711034331578546e-05,-2.6372569652857252e-05,-2.490225209735256e-05,-2.6862675504692148e-05,4.1429,4.2143
2.95703125,-4.053217326314183e-05,-3.1745911992065304e-05,-2.3440845557335777e-05,-2.7833976192874033e-05,4.1429,4.2143
2.9609375,-3.0275594436560607e-05,-1.956387215991441e-06,2.4367434195468148e-06,-2.7833976192874033e-05,4.1429,4.2143
2.96484375,-1.8067503218127712e-05,-2.832408204470893e-05,-2.7833976192874033e-05,-2.3930951409170674e-05,4.1429,4.2143
2.96875,-3.2717212680247185e-05,-9.277745706874187e-05,-9.179724536507208e-05,-3.320731853208208e-05,4.1429,4.2143
2.97265625,-4.34638973586633e-05,-9.912210009613183e-05,-9.717058770428015e-05,-4.151238496681162e-05,4.1429,4.2143
2.9765625,-6.64097622400244e-05,-0.00011816494019378956,-0.00011035889062638284,-3.4187530235751874e-05,4.1429,4.2143
2.98046875,-7.129299872739756e-05,-0.00014013059337148086,-0.00013427605619592583,-3.2717212680247185e-05,4.1429,4.2143
2.984375,-6.006511921263447e-05,-0.00014794555395437553,-0.00014160091092698556,-3.7600449167620354e-05,4.1429,4.2143
2.98828125,-5.2250158629739826e-05,-0.0001606437510246433,-0.0001591734334691386,-4.248368565499351e-05,4.1429,4.2143
2.9921875,-3.222710682841229e-05,-0.00016747849990386812,-0.0001728429312275883,-4.492530389868008e-05,4.1429,4.2143
2.99609375,-2.3930951409170674e-05,-0.00017480335463492788,-0.00018456091659418627,-5.371156516975661e-05,4.1429,4.2143
3.0,-2.197943901731898e-05,-0.0001601536451728084,-0.00017577465532310978,-5.126994692607003e-05,4.1429,4.2143
3.00390625,-3.0765700288395504e-05,-0.00015478030283360035,-0.00016795969474021511,-4.004206741130693e-05,4.1429,4.2143
3.0078125,-4.34638973586633e-05,-0.00016259526341649497,-0.00016943001229571984,-4.590551560234988e-05,4.1429,4.2143
3.01171875,-3.466872507209888e-05,-0.0001371988692759594,-0.0001494069604943923,-4.931843453421835e-05,4.1429,4.2143
3.015625,-3.222710682841229e-05,-0.000115242127113756,-0.00013086313726405738,-5.371156516975661e-05,4.1429,4.2143
3.01953125,-5.126994692607003e-05,-0.00012109666428931104,-0.0001279314131685359,-5.078875208972304e-05,4.1429,4.2143
3.0234375,-6.201663160448614e-05,-0.00011768374535744257,-0.00011133019131456473,-3.858066087129015e-05,4.1429,4.2143
3.02734375,-5.859480165712977e-05,-0.0001030340358953231,-9.668048185244525e-05,-3.613904262760357e-05,4.1429,4.2143
3.03125,-5.859480165712977e-05,-9.864090525978484e-05,-9.375766877241167e-05,-3.809055501945525e-05,4.1429,4.2143
3.03515625,-5.274026448157472e-05,-9.423886360875866e-05,-9.228735121690698e-05,-4.248368565499351e-05,4.1429,4.2143
3.0390625,-4.492530389868008e-05,-7.471482867475394e-05,-8.10594717021439e-05,-4.541540975051498e-05,4.1429,4.2143
3.04296875,-3.809055501945525e-05,-5.6643289265278085e-05,-5.9084907508964676e-05,-4.34638973586633e-05,4.1429,4.2143
3.046875,-2.832408204470893e-05,-7.129299872739756e-05,-6.396814399633782e-05,-4.443519804684518e-05,4.1429,4.2143
3.05078125,-3.466872507209888e-05,-8.154957755397879e-05,-7.422472282291905e-05,-4.443519804684518e-05,4.1429,4.2143
3.0546875,-5.6643289265278085e-05,-7.812774760662241e-05,-7.373461697108415e-05,-3.809055501945525e-05,4.1429,4.2143
3.05859375,-5.56719885770962e-05,-7.471482867475394e-05,-6.298793229266803e-05,-2.3930951409170674e-05,4.1429,4.2143
3.0625,-4.590551560234988e-05,-7.275440526741436e-05,-6.494835570000762e-05,-2.7833976192874033e-05,4.1429,4.2143
3.06640625,-3.0765700288395504e-05,-6.0555225064469366e-05,-7.129299872739756e-05,-4.590551560234988e-05,4.1429,4.2143
3.0703125,-2.2469544869153876e-05,-4.1993579803158605e-05,-4.8828328682383455e-05,-3.5158830923933776e-05,4.1429,4.2143
3.07421875,-3.466872507209888e-05,-5.176005277790493e-05,-5.2250158629739826e-05,-3.12558061402304e-05,4.1429,4.2143
3.078125,-3.809055501945525e-05,-6.396814399633782e-05,-6.68998680918593e-05,-4.736692214236667e-05,4.1429,4.2143
3.08203125,-4.1993579803158605e-05,-6.298793229266803e-05,-6.006511921263447e-05,-4.151238496681162e-05,4.1429,4.2143
3.0859375,-4.1022279114976724e-05,-6.885138048371098e-05,-6.396814399633782e-05,-2.442105726100557e-05,4.1429,4.2143
3.08984375,-3.7600449167620354e-05,-6.68998680918593e-05,-5.56719885770962e-05,-1.5144690138094148e-05,4.1429,4.2143
3.09375,-3.711034331578546e-05,-5.9084907508964676e-05,-5.126994692607003e-05,-2.197943901731898e-05,4.1429,4.2143
3.09765625,-4.2973791506828405e-05,-6.103641990081635e-05,-5.8113606820782775e-05,-3.0275594436560607e-05,4.1429,4.2143
3.1015625,-3.7600449167620354e-05,-6.396814399633782e-05,-5.274026448157472e-05,-2.1489333165484083e-05,4.1429,4.2143
3.10546875,-2.5392357949187455e-05,-5.51818827252613e-05,-5.176005277790493e-05,-2.490225209735256e-05,4.1429,4.2143
3.109375,-3.222710682841229e-05,-5.176005277790493e-05,-5.6643289265278085e-05,-3.5158830923933776e-05,4.1429,4.2143
3.11328125,-4.1022279114976724e-05,-5.9084907508964676e-05,-5.762350096894788e-05,-3.809055501945525e-05,4.1429,4.2143
3.1171875,-3.369742438391698e-05,-5.615318341344319e-05,-5.2250158629739826e-05,-3.2717212680247185e-05,4.1429,4.2143
3.12109375,-3.320731853208208e-05,-6.396814399633782e-05,-6.445824984817272e-05,-2.2469544869153876e-05,4.1429,4.2143
3.125,-3.858066087129015e-05,-7.519602351110093e-05,-8.00792599984741e-05,-2.0509121461814303e-05,4.1429,4.2143
3.12890625,-4.053217326314183e-05,-6.494835570000762e-05,-7.617623521477073e-05,-2.2950739705500878e-05,4.1429,4.2143
3.1328125,-4.151238496681162e-05,-6.68998680918593e-05,-7.373461697108415e-05,-2.5882463801022352e-05,4.1429,4.2143
3.13671875,-3.858066087129015e-05,-7.95980651621271e-05,-8.887443228503852e-05,-2.2950739705500878e-05,4.1429,4.2143
3.140625,-3.858066087129015e-05,-9.864090525978484e-05,-0.00011084008546272983,-1.5144690138094148e-05,4.1429,4.2143
3.14453125,-3.7600449167620354e-05,-0.00011572332195010297,-0.00012207687599298083,-9.771347798886083e-06,4.1429,4.2143
3.1484375,-4.1993579803158605e-05,-0.00011621342780193788,-0.0001249996890730144,-1.026145365072098e-05,4.1429,4.2143
3.15234375,-5.9084907508964676e-05,-0.00012256698184481574,-0.00013329584449225604,-1.855760906996261e-05,4.1429,4.2143
3.15625,-4.7857027994201574e-05,-0.00014647523639887083,-0.0001606437510246433,-2.0027926625467302e-05,4.1429,4.2143
3.16015625,-2.7343870341039133e-05,-0.00019335608888075074,-0.0002075156924910353,-1.026145365072098e-05,4.1429,4.2143
3.1640625,-3.7600449167620354e-05,-0.00023778641210345613,-0.00024901429161821925,-4.8881113115129436e-06,4.1429,4.2143
3.16796875,-3.2717212680247185e-05,-0.0002451112668345159,-0.0002661056193240253,5.8585733669031864e-06,4.1429,4.2143
3.171875,-2.6372569652857252e-05,-0.0002480429909300374,-0.0002690373434195468,8.78138644693675e-06,4.1429,4.2143
3.17578125,-2.7833976192874033e-05,-0.0002670858310276951,-0.0002807553287861448,4.388255811398494e-06,4.1429,4.2143
3.1796875,-2.9304293748378726e-05,-0.00029930806303196764,-0.0002988268681956206,7.810085758754866e-06,4.1429,4.2143
3.18359375,-3.711034331578546e-05,-0.0003124963659540703,-0.00030468140537117565,7.810085758754866e-06,4.1429,4.2143
3.1875,-4.980854038605325e-05,-0.00029735655064011595,-0.00030858443015487904,7.810085758754866e-06,4.1429,4.2143
3.19140625,-4.053217326314183e-05,-0.0002900316959090562,-0.00030761312946669717,9.271492298771647e-06,4.1429,4.2143
3.1953125,-2.5392357949187455e-05,-0.00029101190761272595,-0.00030419129951934074,1.5134940489814595e-05,4.1429,4.2143
3.19921875,-3.222710682841229e-05,-0.00029150201346456086,-0.000296385249951934,2.926849271381712e-06,4.1429,4.2143
3.203125,-2.978548858472571e-05,-0.00028368705288166625,-0.0002778236046906233,-5.378217163347827e-06,4.1429,4.2143
3.20703125,-2.2950739705500878e-05,-0.00025633914634927895,-0.00025829956975661854,-2.4464930678263384e-06,4.1429,4.2143
3.2109375,-2.197943901731898e-05,-0.00023339328146791788,-0.00023632500556343934,-1.5625884974441134e-05,4.1429,4.2143
3.21484375,-3.222710682841229e-05,-0.00021777227131761651,-0.00022167529610131988,-1.2212966042572674e-05,4.1429,4.2143
3.21875,-2.7343870341039133e-05,-0.0001928659830289158,-0.00017919648527046615,-1.2212966042572674e-05,4.1429,4.2143
3.22265625,-2.2950739705500878e-05,-0.00016356656410467687,-0.0001367176744396124,-1.5625884974441134e-05,4.1429,4.2143
3.2265625,-3.12558061402304e-05,-0.00014062069922331577,-0.00015331889629358357,-1.7096202529945828e-05,4.1429,4.2143
3.23046875,-1.660609667811093e-05,-0.00011572332195010297,-0.00012891162487220568,-2.5882463801022352e-05,4.1429,4.2143
3.234375,-1.3674372582589455e-05,-8.496249648584724e-05,-8.0569365850309e-05,-2.3440845557335777e-05,4.1429,4.2143
3.23828125,-2.7833976192874033e-05,-7.666634106660562e-05,-8.0569365850309e-05,-1.8067503218127712e-05,4.1429,4.2143
3.2421875,-3.222710682841229e-05,-6.250673745632104e-05,-5.859480165712977e-05,-2.0027926625467302e-05,4.1429,4.2143
3.24609375,-4.1993579803158605e-05,-4.443519804684518e-05,-2.442105726100557e-05,-2.6372569652857252e-05,4.1429,4.2143
3.25,-5.078875208972304e-05,-2.6862675504692148e-05,-3.907899607843149e-06,-2.5392357949187455e-05,4.1429,4.2143
3.25390625,-5.078875208972304e-05,-8.301030243381405e-06,-8.301030243381405e-06,-2.490225209735256e-05,4.1429,4.2143
3.2578125,-5.126994692607003e-05,-1.956387215991441e-06,-1.074264848706798e-05,-2.5882463801022352e-05,4.1429,4.2143
3.26171875,-6.298793229266803e-05,3.4169551232166096e-06,6.3397682032501735e-06,-2.5882463801022352e-05,4.1429,4.2143
3.265625,-6.201663160448614e-05,1.4644834637979699e-05,2.3431095909056237e-05,-2.832408204470893e-05,4.1429,4.2143
3.26953125,-4.1993579803158605e-05,1.9037965273517954e-05,2.2459795220874355e-05,-3.2717212680247185e-05,4.1429,4.2143
3.2734375,-2.7343870341039133e-05,2.9784649951934085e-05,1.5134940489814595e-05,-4.053217326314183e-05,4.1429,4.2143
3.27734375,-2.7833976192874033e-05,4.296404185854885e-05,2.2459795220874355e-05,-4.7857027994201574e-05,4.1429,4.2143
3.28125,-4.004206741130693e-05,3.9061017074845496e-05,3.075595064011597e-05,-4.492530389868008e-05,4.1429,4.2143
3.28515625,-5.274026448157472e-05,3.270746303196765e-05,2.294099005722134e-05,-4.638671043869688e-05,4.1429,4.2143
3.2890625,-5.176005277790493e-05,3.026584478828107e-05,3.8080805371175696e-05,-4.736692214236667e-05,4.1429,4.2143
3.29296875,-4.1022279114976724e-05,3.514908127565422e-05,3.661939883115892e-05,-4.2973791506828405e-05,4.1429,4.2143
3.296875,-3.4187530235751874e-05,4.296404185854885e-05,3.173616234378576e-05,-4.1993579803158605e-05,4.1429,4.2143
3.30078125,-4.541540975051498e-05,4.2473936006713954e-05,4.345414771038375e-05,-3.564893677576867e-05,4.1429,4.2143
3.3046875,-5.713339511711298e-05,2.9784649951934085e-05,3.9061017074845496e-05,-4.151238496681162e-05,4.1429,4.2143
3.30859375,-5.126994692607003e-05,5.1269108293278404e-05,5.1269108293278404e-05,-4.736692214236667e-05,4.1429,4.2143
3.3125,-3.7600449167620354e-05,6.542871190356297e-05,4.3944253562218644e-05,-3.907076672312504e-05,4.1429,4.2143
3.31640625,-3.2717212680247185e-05,4.3944253562218644e-05,4.003231776302738e-05,-3.858066087129015e-05,4.1429,4.2143
3.3203125,-3.9551961559472035e-05,3.466788643930724e-05,3.857091122301059e-05,-4.834713384603647e-05,4.1429,4.2143
3.32421875,-4.151238496681162e-05,3.9061017074845496e-05,2.147958351720456e-05,-6.006511921263447e-05,4.1429,4.2143
3.328125,-3.711034331578546e-05,4.442544839856566e-05,3.661939883115892e-05,-5.615318341344319e-05,4.1429,4.2143
3.33203125,-3.4187530235751874e-05,4.101252946669717e-05,4.345414771038375e-05,-4.6876816290531774e-05,4.1429,4.2143
3.3359375,-2.7343870341039133e-05,4.5405660102235456e-05,6.738022429541465e-05,-4.638671043869688e-05,4.1429,4.2143
3.33984375,-3.222710682841229e-05,2.685292585641261e-05,6.640001259174485e-05,-4.3945092195010287e-05,4.1429,4.2143
3.34375,-4.053217326314183e-05,1.610624117799648e-05,5.468202722514686e-05,-4.1022279114976724e-05,4.1429,4.2143
3.34765625,-4.1993579803158605e-05,3.661939883115892e-05,4.589576595407035e-05,-3.9551961559472035e-05,4.1429,4.2143
3.3515625,-4.736692214236667e-05,3.514908127565422e-05,4.345414771038375e-05,-4.590551560234988e-05,4.1429,4.2143
3.35546875,-4.248368565499351e-05,2.1969689369039455e-05,5.028889658960861e-05,-5.56719885770962e-05,4.1429,4.2143
3.359375,-2.3930951409170674e-05,2.490141346456093e-05,5.566223892881666e-05,-4.3945092195010287e-05,4.1429,4.2143
3.36328125,-3.0275594436560607e-05,3.75906995193408e-05,4.735717249408714e-05,-3.7600449167620354e-05,4.1429,4.2143
3.3671875,-4.443519804684518e-05,3.8080805371175696e-05,3.466788643930724e-05,-4.736692214236667e-05,4.1429,4.2143
3.37109375,-4.6876816290531774e-05,4.101252946669717e-05,3.857091122301059e-05,-4.8828328682383455e-05,4.1429,4.2143
3.375,-4.6876816290531774e-05,4.2473936006713954e-05,4.8827490049591826e-05,-4.34638973586633e-05,4.1429,4.2143
3.37890625,-4.638671043869688e-05,2.1969689369039455e-05,3.5639187127489125e-05,-4.834713384603647e-05,4.1429,4.2143
3.3828125,-4.248368565499351e-05,1.5625046341649492e-05,2.0499371813534762e-05,-5.0298646237888145e-05,4.1429,4.2143
3.38671875,-2.8814187896543826e-05,1.5134940489814595e-05,2.2459795220874355e-05,-4.443519804684518e-05,4.1429,4.2143
3.390625,-2.6372569652857252e-05,2.0018176977187747e-05,2.8314332396429392e-05,-4.638671043869688e-05,4.1429,4.2143
3.39453125,-3.5158830923933776e-05,2.636282000457771e-05,2.685292585641261e-05,-4.8828328682383455e-05,4.1429,4.2143
3.3984375,-3.222710682841229e-05,1.269332224612802e-05,1.6596347029831376e-05,-5.0298646237888145e-05,4.1429,4.2143
3.40234375,-2.7833976192874033e-05,9.271492298771647e-06,1.7086452881666276e-05,-4.980854038605325e-05,4.1429,4.2143
3.40625,-3.858066087129015e-05,4.852310276951357e-07,6.3397682032501735e-06,-5.0298646237888145e-05,4.1429,4.2143
3.41015625,-4.004206741130693e-05,4.878361663233392e-06,-6.8396237033646085e-06,-4.736692214236667e-05,4.1429,4.2143
3.4140625,-2.978548858472571e-05,2.0018176977187747e-05,1.2203216394293121e-05,-4.443519804684518e-05,4.1429,4.2143
3.41796875,-3.369742438391698e-05,1.7576558733501173e-05,1.5625046341649492e-05,-4.931843453421835e-05,4.1429,4.2143
3.421875,-4.004206741130693e-05,5.8585733669031864e-06,1.45653171587702e-06,-4.2973791506828405e-05,4.1429,4.2143
3.42578125,-3.5158830923933776e-05,2.926849271381712e-06,1.45653171587702e-06,-3.12558061402304e-05,4.1429,4.2143
3.4296875,-3.369742438391698e-05,5.368467515068289e-06,1.5625046341649492e-05,-3.564893677576867e-05,4.1429,4.2143
3.43359375,-3.711034331578546e-05,2.4367434195468148e-06,1.952807112535285e-05,-4.248368565499351e-05,4.1429,4.2143
3.4375,-3.858066087129015e-05,2.4367434195468148e-06,-1.956387215991441e-06,-5.126994692607003e-05,4.1429,4.2143
3.44140625,-3.907076672312504e-05,4.852310276951357e-07,1.45653171587702e-06,-4.7857027994201574e-05,4.1429,4.2143
3.4453125,-3.907076672312504e-05,-3.907899607843149e-06,5.368467515068289e-06,-4.6876816290531774e-05,4.1429,4.2143
3.44921875,-3.222710682841229e-05,-6.8396237033646085e-06,-1.465458428625925e-05,-6.103641990081635e-05,4.1429,4.2143
3.453125,-4.541540975051498e-05,-1.1232754338902879e-05,-2.197943901731898e-05,-5.713339511711298e-05,4.1429,4.2143
3.45703125,-5.323037033340962e-05,-1.026145365072098e-05,-1.5144690138094148e-05,-4.053217326314183e-05,4.1429,4.2143
3.4609375,-4.1993579803158605e-05,-1.465458428625925e-05,-1.270307189440757e-05,-3.2717212680247185e-05,4.1429,4.2143
3.46484375,-3.5158830923933776e-05,-2.197943901731898e-05,-1.855760906996261e-05,-4.590551560234988e-05,4.1429,4.2143
3.46875,-2.3930951409170674e-05,-1.1232754338902879e-05,-2.2950739705500878e-05,-5.126994692607003e-05,4.1429,4.2143
3.47265625,-2.9304293748378726e-05,-5.859411999694814e-06,-2.1489333165484083e-05,-5.615318341344319e-05,4.1429,4.2143
3.4765625,-4.492530389868008e-05,-2.1489333165484083e-05,-2.5392357949187455e-05,-5.51818827252613e-05,4.1429,4.2143
3.48046875,-2.832408204470893e-05,-1.5144690138094148e-05,-1.4164478434424353e-05,-3.858066087129015e-05,4.1429,4.2143
3.484375,-2.2469544869153876e-05,-7.329729555199506e-06,-1.5625884974441134e-05,-3.222710682841229e-05,4.1429,4.2143
3.48828125,-3.9551961559472035e-05,-1.270307189440757e-05,-2.7343870341039133e-05,-4.541540975051498e-05,4.1429,4.2143
3.4921875,-3.858066087129015e-05,-7.819835407034403e-06,-1.3184266730754558e-05,-5.0298646237888145e-05,4.1429,4.2143
3.49609375,-3.222710682841229e-05,-7.329729555199506e-06,-1.270307189440757e-05,-3.5158830923933776e-05,4.1429,4.2143
3.5,-3.12558061402304e-05,-1.2212966042572674e-05,-1.8067503218127712e-05,-3.222710682841229e-05,4.1429,4.2143
3.50390625,-2.7343870341039133e-05,-1.1722860190737776e-05,-8.791136095216301e-06,-4.492530389868008e-05,4.1429,4.2143
3.5078125,-3.613904262760357e-05,-1.074264848706798e-05,-9.771347798886083e-06,-4.1993579803158605e-05,4.1429,4.2143
3.51171875,-3.6629148479438466e-05,9.753368795300333e-07,-1.026145365072098e-05,-3.0275594436560607e-05,4.1429,4.2143
3.515625,-3.0275594436560607e-05,-4.398005459678046e-06,-1.7096202529945828e-05,-3.5158830923933776e-05,4.1429,4.2143
3.51953125,-3.9551961559472035e-05,-2.490225209735256e-05,-2.5392357949187455e-05,-4.2973791506828405e-05,4.1429,4.2143
3.5234375,-4.1022279114976724e-05,-2.2469544869153876e-05,-1.855760906996261e-05,-3.5158830923933776e-05,4.1429,4.2143
3.52734375,-3.6629148479438466e-05,-1.3184266730754558e-05,-1.660609667811093e-05,-3.9551961559472035e-05,4.1429,4.2143
3.53125,-4.053217326314183e-05,-1.270307189440757e-05,-1.9047714921797505e-05,-5.2250158629739826e-05,4.1429,4.2143
3.53515625,-3.7600449167620354e-05,-2.978548858472571e-05,-2.9304293748378726e-05,-4.541540975051498e-05,4.1429,4.2143
3.5390625,-6.349517851529711e-06,-1.660609667811093e-05,-1.660609667811093e-05,-2.490225209735256e-05,4.1429,4.2143
3.54296875,-9.771347798886083e-06,-6.349517851529711e-06,-1.074264848706798e-05,-2.3930951409170674e-05,4.1429,4.2143
3.546875,-4.053217326314183e-05,-1.7586308381780724e-05,-1.3184266730754558e-05,-3.809055501945525e-05,4.1429,4.2143
3.55078125,-4.834713384603647e-05,-1.3184266730754558e-05,3.4169551232166096e-06,-4.1022279114976724e-05,4.1429,4.2143
3.5546875,-4.7857027994201574e-05,-9.771347798886083e-06,-1.1232754338902879e-05,-4.053217326314183e-05,4.1429,4.2143
3.55859375,-4.004206741130693e-05,-1.855760906996261e-05,-3.564893677576867e-05,-3.858066087129015e-05,4.1429,4.2143
3.5625,-3.5158830923933776e-05,-3.0765700288395504e-05,-3.320731853208208e-05,-4.492530389868008e-05,4.1429,4.2143
3.56640625,-2.8814187896543826e-05,-2.442105726100557e-05,-1.855760906996261e-05,-4.053217326314183e-05,4.1429,4.2143
3.5703125,-2.2469544869153876e-05,-1.1232754338902879e-05,-7.329729555199506e-06,-3.466872507209888e-05,4.1429,4.2143
3.57421875,-1.5625884974441134e-05,-2.4464930678263384e-06,-1.5625884974441134e-05,-2.8814187896543826e-05,4.1429,4.2143
3.578125,-2.197943901731898e-05,-1.465458428625925e-05,-3.222710682841229e-05,-3.320731853208208e-05,4.1429,4.2143
3.58203125,-2.978548858472571e-05,-1.611599082627603e-05,-3.0765700288395504e-05,-3.369742438391698e-05,4.1429,4.2143
3.5859375,-2.5392357949187455e-05,-2.0027926625467302e-05,-2.5882463801022352e-05,-2.7833976192874033e-05,4.1429,4.2143
3.58984375,-1.5625884974441134e-05,-2.0509121461814303e-05,-2.5392357949187455e-05,-1.7096202529945828e-05,4.1429,4.2143
3.59375,-9.771347798886083e-06,-1.660609667811093e-05,-1.855760906996261e-05,-8.791136095216301e-06,4.1429,4.2143
3.59765625,-8.301030243381405e-06,-4.1022279114976724e-05,-2.3930951409170674e-05,-2.0027926625467302e-05,4.1429,4.2143
3.6015625,-8.791136095216301e-06,-4.443519804684518e-05,-3.711034331578546e-05,-3.369742438391698e-05,4.1429,4.2143
3.60546875,-1.611599082627603e-05,-3.564893677576867e-05,-3.2717212680247185e-05,-5.078875208972304e-05,4.1429,4.2143
3.609375,-1.3184266730754558e-05,-3.369742438391698e-05,-2.8814187896543826e-05,-5.2250158629739826e-05,4.1429,4.2143
3.61328125,-8.791136095216301e-06,-2.2469544869153876e-05,-3.711034331578546e-05,-4.6876816290531774e-05,4.1429,4.2143
3.6171875,-1.7096202529945828e-05,-2.0509121461814303e-05,-3.7600449167620354e-05,-3.907076672312504e-05,4.1429,4.2143
3.62109375,-1.9047714921797505e-05,-2.5882463801022352e-05,-3.320731853208208e-05,-3.9551961559472035e-05,4.1429,4.2143
3.625,-2.3930951409170674e-05,-2.2950739705500878e-05,-3.320731853208208e-05,-4.736692214236667e-05,4.1429,4.2143
3.62890625,-3.907076672312504e-05,-2.5882463801022352e-05,-3.369742438391698e-05,-4.736692214236667e-05,4.1429,4.2143
3.6328125,-2.2950739705500878e-05,-2.3930951409170674e-05,-2.490225209735256e-05,-4.004206741130693e-05,4.1429,4.2143
3.63671875,-1.611599082627603e-05,-2.6372569652857252e-05,-2.7833976192874033e-05,-3.0765700288395504e-05,4.1429,4.2143
3.640625,-2.6862675504692148e-05,-3.564893677576867e-05,-2.9304293748378726e-05,-2.832408204470893e-05,4.1429,4.2143
3.64453125,-1.9047714921797505e-05,-3.320731853208208e-05,-2.978548858472571e-05,-3.2717212680247185e-05,4.1429,4.2143
3.6484375,-1.8067503218127712e-05,-2.5882463801022352e-05,-3.320731853208208e-05,-3.6629148479438466e-05,4.1429,4.2143
3.65234375,-2.6372569652857252e-05,-2.6862675504692148e-05,-3.0765700288395504e-05,-3.2717212680247185e-05,4.1429,4.2143
3.65625,-3.7600449167620354e-05,-2.6862675504692148e-05,-3.369742438391698e-05,-3.6629148479438466e-05,4.1429,4.2143
3.66015625,-2.8814187896543826e-05,-3.222710682841229e-05,-3.564893677576867e-05,-3.613904262760357e-05,4.1429,4.2143
3.6640625,-1.7586308381780724e-05,-3.613904262760357e-05,-2.6372569652857252e-05,-2.832408204470893e-05,4.1429,4.2143
3.66796875,-1.9047714921797505e-05,-2.197943901731898e-05,-1.9047714921797505e-05,-2.2950739705500878e-05,4.1429,4.2143
3.671875,-6.8396237033646085e-06,-1.9537820773632402e-05,-2.490225209735256e-05,-1.7586308381780724e-05,4.1429,4.2143
3.67578125,-2.936598919661236e-06,-1.5625884974441134e-05,-2.197943901731898e-05,-2.3930951409170674e-05,4.1429,4.2143
3.6796875,-1.4662813641565435e-06,-9.771347798886083e-06,-1.465458428625925e-05,-2.5392357949187455e-05,4.1429,4.2143
3.68359375,-1.956387215991441e-06,-2.1489333165484083e-05,-1.8067503218127712e-05,-2.197943901731898e-05,4.1429,4.2143
3.6875,-7.819835407034403e-06,-2.832408204470893e-05,-2.1489333165484083e-05,-2.5392357949187455e-05,4.1429,4.2143
3.69140625,-1.2212966042572674e-05,-3.320731853208208e-05,-2.7343870341039133e-05,-3.1745911992065304e-05,4.1429,4.2143
3.6953125,-2.442105726100557e-05,-4.443519804684518e-05,-2.1489333165484083e-05,-3.222710682841229e-05,4.1429,4.2143
3.69921875,-2.490225209735256e-05,-3.320731853208208e-05,-2.6372569652857252e-05,-2.1489333165484083e-05,4.1429,4.2143
3.703125,-1.7096202529945828e-05,-3.0765700288395504e-05,-4.541540975051498e-05,-2.1489333165484083e-05,4.1429,4.2143
3.70703125,-2.2469544869153876e-05,-4.8828328682383455e-05,-4.443519804684518e-05,-3.2717212680247185e-05,4.1429,4.2143
3.7109375,-2.442105726100557e-05,-4.492530389868008e-05,-3.0765700288395504e-05,-2.6862675504692148e-05,4.1429,4.2143
3.71484375,-1.855760906996261e-05,-4.541540975051498e-05,-2.5882463801022352e-05,-2.1489333165484083e-05,4.1429,4.2143
3.71875,-2.1489333165484083e-05,-4.151238496681162e-05,-2.5882463801022352e-05,-2.0027926625467302e-05,4.1429,4.2143
3.72265625,-3.0765700288395504e-05,-3.466872507209888e-05,-2.8814187896543826e-05,-1.270307189440757e-05,4.1429,4.2143
3.7265625,-3.7600449167620354e-05,-3.613904262760357e-05,-3.711034331578546e-05,-2.6862675504692148e-05,4.1429,4.2143
3.73046875,-3.564893677576867e-05,-4.1022279114976724e-05,-2.0027926625467302e-05,-3.4187530235751874e-05,4.1429,4.2143
3.734375,-4.151238496681162e-05,-4.1993579803158605e-05,-2.5882463801022352e-05,-2.6862675504692148e-05,4.1429,4.2143
3.73828125,-5.2250158629739826e-05,-3.4187530235751874e-05,-4.590551560234988e-05,-3.466872507209888e-05,4.1429,4.2143
3.7421875,-4.8828328682383455e-05,-3.466872507209888e-05,-1.855760906996261e-05,-3.907076672312504e-05,4.1429,4.2143
3.74609375,-4.151238496681162e-05,-4.443519804684518e-05,-2.3930951409170674e-05,-3.9551961559472035e-05,4.1429,4.2143
3.75,-4.1022279114976724e-05,-4.590551560234988e-05,-4.736692214236667e-05,-3.9551961559472035e-05,4.1429,4.2143
3.75390625,-4.931843453421835e-05,-4.34638973586633e-05,-3.369742438391698e-05,-3.4187530235751874e-05,4.1429,4.2143
3.7578125,-4.248368565499351e-05,-4.1022279114976724e-05,-3.12558061402304e-05,-3.12558061402304e-05,4.1429,4.2143
3.76171875,-3.564893677576867e-05,-4.541540975051498e-05,-6.103641990081635e-05,-4.053217326314183e-05,4.1429,4.2143
3.765625,-4.980854038605325e-05,-4.980854038605325e-05,-5.6643289265278085e-05,-5.176005277790493e-05,4.1429,4.2143
3.76953125,-5.176005277790493e-05,-4.34638973586633e-05,-3.6629148479438466e-05,-4.980854038605325e-05,4.1429,4.2143
3.7734375,-3.809055501945525e-05,-3.12558061402304e-05,-3.7600449167620354e-05,-4.248368565499351e-05,4.1429,4.2143
3.77734375,-3.12558061402304e-05,-2.5882463801022352e-05,-2.5392357949187455e-05,-3.222710682841229e-05,4.1429,4.2143
3.78125,-4.834713384603647e-05,-3.711034331578546e-05,-3.2717212680247185e-05,-2.7833976192874033e-05,4.1429,4.2143
3.78515625,-5.4691776873426404e-05,-4.248368565499351e-05,-5.176005277790493e-05,-2.6372569652857252e-05,4.1429,4.2143
3.7890625,-4.541540975051498e-05,-4.151238496681162e-05,-5.078875208972304e-05,-3.0765700288395504e-05,4.1429,4.2143
3.79296875,-4.736692214236667e-05,-3.2717212680247185e-05,-4.541540975051498e-05,-3.7600449167620354e-05,4.1429,4.2143
3.796875,-5.323037033340962e-05,-3.5158830923933776e-05,-3.858066087129015e-05,-3.858066087129015e-05,4.1429,4.2143
3.80078125,-5.2250158629739826e-05,-4.980854038605325e-05,-3.4187530235751874e-05,-4.053217326314183e-05,4.1429,4.2143
3.8046875,-4.151238496681162e-05,-4.34638973586633e-05,-2.7833976192874033e-05,-4.151238496681162e-05,4.1429,4.2143
3.80859375,-3.9551961559472035e-05,-4.004206741130693e-05,-3.7600449167620354e-05,-4.004206741130693e-05,4.1429,4.2143
3.8125,-4.834713384603647e-05,-4.492530389868008e-05,-4.151238496681162e-05,-4.053217326314183e-05,4.1429,4.2143
3.81640625,-4.3945092195010287e-05,-3.858066087129015e-05,-3.466872507209888e-05,-4.004206741130693e-05,4.1429,4.2143
3.8203125,-3.6629148479438466e-05,-4.3945092195010287e-05,-2.8814187896543826e-05,-4.736692214236667e-05,4.1429,4.2143
3.82421875,-5.420167102159151e-05,-5.2250158629739826e-05,-3.466872507209888e-05,-5.4691776873426404e-05,4.1429,4.2143
3.828125,-5.56719885770962e-05,-4.443519804684518e-05,-3.466872507209888e-05,-3.613904262760357e-05,4.1429,4.2143
3.83203125,-4.1022279114976724e-05,-4.151238496681162e-05,-3.4187530235751874e-05,-2.5882463801022352e-05,4.1429,4.2143
3.8359375,-5.274026448157472e-05,-4.638671043869688e-05,-2.197943901731898e-05,-2.832408204470893e-05,4.1429,4.2143
3.83984375,-4.3945092195010287e-05,-2.490225209735256e-05,1.1223004690623326e-05,-2.0509121461814303e-05,4.1429,4.2143
3.84375,-2.2950739705500878e-05,-1.5144690138094148e-05,-1.3674372582589455e-05,-3.858066087129015e-05,4.1429,4.2143
3.84765625,-2.978548858472571e-05,-3.809055501945525e-05,-4.638671043869688e-05,-5.56719885770962e-05,4.1429,4.2143
3.8515625,-3.12558061402304e-05,-6.396814399633782e-05,-4.638671043869688e-05,-5.176005277790493e-05,4.1429,4.2143
3.85546875,-2.978548858472571e-05,-4.2973791506828405e-05,-3.2717212680247185e-05,-6.445824984817272e-05,4.1429,4.2143
3.859375,-1.270307189440757e-05,-4.949806759746593e-07,-3.12558061402304e-05,-7.422472282291905e-05,4.1429,4.2143
3.86328125,9.753368795300333e-07,-9.2812419470512e-06,-3.466872507209888e-05,-6.983159218738077e-05,4.1429,4.2143
3.8671875,4.388255811398494e-06,-7.819835407034403e-06,-1.3184266730754558e-05,-7.178310457923245e-05,4.1429,4.2143
3.87109375,-7.819835407034403e-06,3.4169551232166096e-06,-5.859411999694814e-06,-6.68998680918593e-05,4.1429,4.2143
3.875,-1.026145365072098e-05,6.3397682032501735e-06,-6.8396237033646085e-06,-6.885138048371098e-05,4.1429,4.2143
3.87890625,2.4367434195468148e-06,1.3664622934309904e-05,-1.026145365072098e-05,-7.763764175478751e-05,4.1429,4.2143
3.8828125,-9.850865278095569e-07,1.1713110542458225e-05,-1.1232754338902879e-05,-9.03358388250553e-05,4.1429,4.2143
3.88671875,6.829874055085071e-06,2.3921201760891136e-05,-1.026145365072098e-05,-9.326756292057677e-05,4.1429,4.2143
3.890625,1.5134940489814595e-05,4.638587180590525e-05,-4.398005459678046e-06,-8.00792599984741e-05,4.1429,4.2143
3.89453125,1.2203216394293121e-05,4.735717249408714e-05,-1.1232754338902879e-05,-8.838432643320363e-05,4.1429,4.2143
3.8984375,9.761598150606545e-06,3.514908127565422e-05,-2.3930951409170674e-05,-0.0001035152307316701,4.1429,4.2143
3.90234375,1.0251704002441442e-05,2.5872714152742814e-05,-2.7343870341039133e-05,-0.00010449544243533989,4.1429,4.2143
3.90625,1.6596347029831376e-05,3.270746303196765e-05,-1.5625884974441134e-05,-9.766069355611504e-05,4.1429,4.2143
3.91015625,1.3664622934309904e-05,5.077900244144351e-05,3.4169551232166096e-06,-9.423886360875866e-05,4.1429,4.2143
3.9140625,7.319979906919968e-06,3.7109504682993814e-05,-4.8881113115129436e-06,-9.179724536507208e-05,4.1429,4.2143
3.91796875,1.7086452881666276e-05,3.661939883115892e-05,-4.8881113115129436e-06,-8.252087824216068e-05,4.1429,4.2143
3.921875,2.926849271381712e-06,3.3687674735637444e-05,-4.874824139761813e-09,-7.373461697108415e-05,4.1429,4.2143
3.92578125,-9.771347798886083e-06,8.300191610589762e-06,-1.465458428625925e-05,-7.91079593102922e-05,4.1429,4.2143
3.9296875,-1.4662813641565435e-06,7.810085758754866e-06,-1.074264848706798e-05,-8.10594717021439e-05,4.1429,4.2143
3.93359375,3.4169551232166096e-06,2.294099005722134e-05,-9.850865278095569e-07,-6.347803814450293e-05,4.1429,4.2143
3.9375,1.1713110542458225e-05,2.5382608300907918e-05,3.4169551232166096e-06,-6.103641990081635e-05,4.1429,4.2143
3.94140625,9.271492298771647e-06,1.4644834637979699e-05,-1.956387215991441e-06,-6.836127463187608e-05,4.1429,4.2143
3.9453125,2.4367434195468148e-06,7.319979906919968e-06,-4.398005459678046e-06,-5.371156516975661e-05,4.1429,4.2143
3.94921875,3.898149959563597e-06,1.45653171587702e-06,-6.349517851529711e-06,-4.8828328682383455e-05,4.1429,4.2143
3.953125,4.852310276951357e-07,8.78138644693675e-06,-1.855760906996261e-05,-5.56719885770962e-05,4.1429,4.2143
3.95703125,-1.074264848706798e-05,1.610624117799648e-05,-2.2950739705500878e-05,-4.492530389868008e-05,4.1429,4.2143
3.9609375,-1.4164478434424353e-05,6.829874055085071e-06,-1.611599082627603e-05,-3.907076672312504e-05,4.1429,4.2143
3.96484375,-1.855760906996261e-05,-5.378217163347827e-06,-1.465458428625925e-05,-4.8828328682383455e-05,4.1429,4.2143
3.96875,-1.9047714921797505e-05,2.926849271381712e-06,-2.1489333165484083e-05,-5.9084907508964676e-05,4.1429,4.2143
3.97265625,-1.2212966042572674e-05,4.878361663233392e-06,-9.2812419470512e-06,-5.859480165712977e-05,4.1429,4.2143
3.9765625,-3.417793756008251e-06,-9.850865278095569e-07,-1.270307189440757e-05,-5.176005277790493e-05,4.1429,4.2143
3.98046875,2.926849271381712e-06,-1.4662813641565435e-06,-2.832408204470893e-05,-4.3945092195010287e-05,4.1429,4.2143
3.984375,-2.4464930678263384e-06,-1.1232754338902879e-05,-3.320731853208208e-05,-4.443519804684518e-05,4.1429,4.2143
3.98828125,-1.855760906996261e-05,-2.442105726100557e-05,-4.004206741130693e-05,-4.638671043869688e-05,4.1429,4.2143
3.9921875,-1.1722860190737776e-05,-1.8067503218127712e-05,-2.7343870341039133e-05,-4.34638973586633e-05,4.1429,4.2143
