timestamp,TP9,AF7,AF8,TP10,Valence,Arousal
0.0,0.0005766591325734339,-0.0002934480927016098,-0.0003203078979171435,4.897041232928956e-06,4.1429,4.2143
0.00390625,0.0005639510491065842,-0.00019725298409094375,-0.000265124316270695,-3.3987956542305824e-06,4.1429,4.2143
0.0078125,0.0005766591325734339,-0.00018895714720378422,-0.00028076034216830694,-8.299032639047851e-06,4.1429,4.2143
0.01171875,0.0005424794712809948,-0.00020798877300373845,-0.0002773240763988708,-7.81104223392083e-06,4.1429,4.2143
0.015625,0.0005541912410040435,-0.00022606475092698557,-0.00029540005432211795,-1.0250994259555966e-05,4.1429,4.2143
0.01953125,0.00048583191841916525,-0.00017822135829098954,-0.00027537211477836267,-6.3470710185397365e-06,4.1429,4.2143
0.0234375,0.00048436794720378414,-0.00014696963942931255,-0.00018358925274738686,-1.3178936690318152e-05,4.1429,4.2143
0.02734375,0.0005756831517631799,-0.0001703931788754101,-0.00018358925274738686,-1.757085033646143e-05,4.1429,4.2143
0.03125,0.0005317233494346532,-0.00010642576993667506,-0.00018749317598840313,-1.0738984664683016e-05,4.1429,4.2143
0.03515625,0.00047509612950637057,-7.519438400854505e-05,-0.00014306571618829633,-2.3914725603112854e-05,4.1429,4.2143
0.0390625,0.0004531162283421072,-8.105026887006943e-05,-0.00014206940244449533,-3.465051451590753e-05,4.1429,4.2143
0.04296875,0.0004838799567986571,-6.0534338921187156e-05,-0.00012840567110093844,-4.345467474174106e-05,4.1429,4.2143
0.046875,0.0004799760335576409,-7.665835522392614e-05,-8.885811535210194e-05,-4.8822569198138405e-05,4.1429,4.2143
0.05078125,0.00043113632717784383,-5.565443486991685e-05,-6.73662045929656e-05,-5.370247324940871e-05,4.1429,4.2143
0.0546875,0.00038963680980849924,-6.785419499809262e-05,-5.126252122377357e-05,-6.297429094682232e-05,4.1429,4.2143
0.05859375,0.0003774370496803234,-8.056227846494241e-05,-8.300223049057757e-05,-5.858237730067904e-05,4.1429,4.2143
0.0625,0.00037109317441367206,3.0292875233081543e-05,-6.687821418783857e-05,-5.858237730067904e-05,4.1429,4.2143
0.06640625,0.00028660983552605476,8.4968133540856e-05,-1.1714965474937059e-05,-6.1022329326314204e-05,4.1429,4.2143
0.0703125,0.0002607260111207751,7.911224867933163e-05,-1.757085033646143e-05,-6.199831013656825e-05,4.1429,4.2143
0.07421875,0.000274898065803006,8.984803759212632e-05,-2.7818648844129115e-05,-6.834218540321968e-05,4.1429,4.2143
0.078125,0.0001987105638025482,6.593650774090179e-05,-9.588436285954173e-07,-6.346228135194934e-05,4.1429,4.2143
0.08203125,0.00022947429225909813,7.374435422293429e-05,2.8340913612573415e-05,-6.73662045929656e-05,4.1429,4.2143
0.0859375,0.00023240223468986033,8.448014313572898e-05,-1.1714965474937059e-05,-7.273409904936295e-05,4.1429,4.2143
0.08984375,0.00019383065975127792,0.00011621985240253298,1.7137181658654297e-08,-7.175811823910888e-05,4.1429,4.2143
0.09375,0.00016306693129472795,7.423234462806132e-05,8.800964473945215e-06,-7.568237441367207e-05,4.1429,4.2143
0.09765625,0.00011280391956664375,5.566837629968717e-05,-3.025860086976425e-05,-6.24863005416953e-05,4.1429,4.2143
0.1015625,0.00017919094759746696,0.0001435676480231937,3.419679847409779e-05,-5.907036770580606e-05,4.1429,4.2143
0.10546875,5.176445305867092e-05,0.0001406397055924315,4.6884549007400604e-05,-6.346228135194934e-05,4.1429,4.2143
0.109375,-9.715395223926145e-05,0.00015184315197680625,-2.4890706413366927e-05,-6.297429094682232e-05,4.1429,4.2143
0.11328125,-7.763433603418021e-05,0.00014259166721293962,-2.245075438773176e-05,-6.639022378271152e-05,4.1429,4.2143
0.1171875,4.409050827801934e-06,0.00013868774397192337,1.66088109559777e-05,-6.151031973144123e-05,4.1429,4.2143
0.12109375,0.0001377117631616693,0.0001313678878950179,5.8596318730449354e-05,-4.8334578793011384e-05,4.1429,4.2143
0.125,0.00016062697926909282,0.00013917573437705042,0.00010548406348973827,-4.150271312123294e-05,4.1429,4.2143
0.12890625,0.0001513551615716792,0.00018211889002822914,0.0001313678878950179,-3.123458168001832e-05,4.1429,4.2143
0.1328125,0.00011329190997177078,0.0001826068804333562,0.0001362477919462882,-4.150271312123294e-05,4.1429,4.2143
0.13671875,0.0001245156892896925,0.00021385859929503315,0.00013819975356679635,-4.052673231097887e-05,4.1429,4.2143
0.140625,0.00015769903683833064,0.0002148345801052872,0.00016160296007934686,-1.8546831146715503e-05,4.1429,4.2143
0.14453125,0.0001289076029358358,0.00017919094759746696,0.00013380783992065305,-2.6842668033875042e-05,4.1429,4.2143
0.1484375,7.179239260242616e-05,0.00014307965761806664,0.00012353970847943843,-2.9282620059510205e-05,4.1429,4.2143
0.15234375,3.0292875233081543e-05,0.0001421036768078126,0.00011963578523842218,-2.4890706413366927e-05,4.1429,4.2143
0.15625,2.7832590273899424e-05,0.0001826068804333562,0.00012353970847943843,-2.8794629654383157e-05,4.1429,4.2143
0.16015625,-1.5130898310826296e-05,0.00015086717116655218,0.00011914779483329516,-2.0010802362096597e-05,4.1429,4.2143
0.1640625,-2.4402716008239875e-05,0.00011329190997177078,0.00012646765091020064,-1.708285993133441e-05,4.1429,4.2143
0.16796875,-1.610687912108034e-05,0.00014112769599755853,0.0001494031999511711,-1.2202955880064108e-05,4.1429,4.2143
0.171875,-3.7578456946669717e-05,0.00013722377275654228,0.00013722377275654228,-2.4228148439765105e-06,4.1429,4.2143
0.17578125,-1.0738984664683016e-05,0.0001689431490897993,0.00016404291210498202,-3.3987956542305824e-06,4.1429,4.2143
0.1796875,-5.350757274738697e-06,0.0001362477919462882,0.000179678938002594,1.7137181658654297e-08,4.1429,4.2143
0.18359375,1.9048762981612868e-05,0.00010792401551537344,0.0001230517180743114,-3.3987956542305824e-06,4.1429,4.2143
0.1875,-7.3230518287937795e-06,8.106421029983975e-05,7.325636381780725e-05,-1.4642907905699246e-05,4.1429,4.2143
0.19140625,-6.687821418783857e-05,4.395660657663842e-05,8.301617192034788e-05,-1.1226975069810037e-05,4.1429,4.2143
0.1953125,-3.025860086976425e-05,7.960023908445866e-05,0.00012744363172045468,7.824983663691142e-06,4.1429,4.2143
0.19921875,-2.586668722362097e-05,6.691248855115584e-05,0.00010694803470511936,1.124091649958035e-05,4.1429,4.2143
0.203125,-3.269855289539942e-05,8.057621989471272e-05,9.718822660257875e-05,6.849002853437071e-06,4.1429,4.2143
0.20703125,-9.373801940337225e-05,0.00012500367969481952,0.000133319849515526,5.385031638055977e-06,4.1429,4.2143
0.2109375,-0.0001230377766445411,6.054828035095748e-05,9.57039224536507e-05,7.824983663691142e-06,4.1429,4.2143
0.21484375,-5.02865404135195e-05,3.0292875233081543e-05,7.520832543831538e-05,5.873022043183028e-06,4.1429,4.2143
0.21875,-5.370247324940871e-05,4.05406737407492e-05,7.618430624856943e-05,-3.886786059357604e-06,4.1429,4.2143
0.22265625,-7.568237441367207e-05,4.542057779201951e-05,0.00011182793875638969,3.921060422674884e-06,4.1429,4.2143
0.2265625,-0.00010203385629053178,5.518038589456013e-05,0.000133319849515526,1.563283014572363e-05,4.1429,4.2143
0.23046875,-0.00011962184380865187,4.737253941252764e-05,0.00010499607308461125,9.776945284199257e-06,4.1429,4.2143
0.234375,-0.00013621351758297094,7.569631584344241e-05,8.936004718699927e-05,4.897041232928956e-06,4.1429,4.2143
0.23828125,-0.0001459936586190585,2.5880628653391296e-05,9.326397042801554e-05,1.969098802166769e-06,4.1429,4.2143
0.2421875,-0.0001327975847470817,-4.374776464484654e-06,0.00013234386870527196,3.921060422674884e-06,4.1429,4.2143
0.24609375,-0.00013474954636758985,5.3228424274052014e-05,0.00014891520954604407,1.124091649958035e-05,4.1429,4.2143
0.25,-0.00015575346672159912,8.594411435111007e-05,0.0001455196096437018,8.312974068818165e-06,4.1429,4.2143
0.25390625,-0.00016600126522926678,9.718822660257875e-05,0.00011963578523842218,7.824983663691142e-06,4.1429,4.2143
0.2578125,-0.00015428949550621803,9.375196083314257e-05,8.35041623254749e-05,4.897041232928956e-06,4.1429,4.2143
0.26171875,-0.0001518495434805829,5.908430913557639e-05,9.228798961776147e-05,7.824983663691142e-06,4.1429,4.2143
0.265625,-0.00017624906373693447,6.593650774090179e-05,8.448014313572898e-05,-1.4468340337224674e-06,4.1429,4.2143
0.26953125,-0.00013865346960860607,4.542057779201951e-05,6.691248855115584e-05,-1.0250994259555966e-05,4.1429,4.2143
0.2734375,-0.00013035763272144658,7.824983663691142e-06,0.00010646004429999234,1.4811083970397476e-06,4.1429,4.2143
0.27734375,-0.0001703931788754101,7.374435422293429e-05,0.000101092149843595,3.921060422674884e-06,4.1429,4.2143
0.28125,-0.00020603681138323032,0.00011621985240253298,9.96281786282139e-05,-1.4468340337224674e-06,4.1429,4.2143
0.28515625,-0.0002236247989013504,0.00011426789078202484,9.521593204852366e-05,-6.835061423666758e-06,4.1429,4.2143
0.2890625,-0.0001909091088242924,2.1000724602120983e-05,5.566837629968717e-05,-1.4154917500572223e-05,4.1429,4.2143
0.29296875,-0.00023533656862439914,-1.708285993133441e-05,0.00010011616903334093,-6.835061423666758e-06,4.1429,4.2143
0.296875,-0.00025878044100404357,2.9316894422827474e-05,0.00012793162212558173,-8.787023044174873e-06,4.1429,4.2143
0.30078125,-0.00032079588832227047,3.078086563820857e-05,0.00013722377275654228,-1.3178936690318152e-05,4.1429,4.2143
0.3046875,-0.0003559515304249637,3.517277928435186e-05,0.0001537951135973144,-8.299032639047851e-06,4.1429,4.2143
0.30859375,-0.0003032079008041504,2.539263824826426e-05,0.0001230517180743114,-1.3178936690318152e-05,4.1429,4.2143
0.3125,-0.0003408034949324788,-1.4154917500572223e-05,0.00015086717116655218,-1.1714965474937059e-05,4.1429,4.2143
0.31640625,-0.0003632713865018692,-3.3987956542305824e-06,0.00012549167009994654,-1.1226975069810037e-05,4.1429,4.2143
0.3203125,-0.00039013119171740285,1.953675338673989e-05,8.252818151522084e-05,-1.2202955880064108e-05,4.1429,4.2143
0.32421875,-0.0004057468846814679,1.2704887714961443e-05,0.00011817181402304109,-1.9034821551842555e-05,4.1429,4.2143
0.328125,-0.00041501870237888147,3.90767025253681e-05,0.00010548406348973827,-1.5130898310826296e-05,4.1429,4.2143
0.33203125,-0.0004301667378713664,7.618430624856943e-05,0.000133319849515526,-3.3987956542305824e-06,4.1429,4.2143
0.3359375,-0.00044285448840466926,5.810832832532233e-05,0.0001879747748897535,-1.934824438849489e-06,4.1429,4.2143
0.33984375,-0.00042577482422522314,4.2980625766384347e-05,0.00017479903395132366,1.7137181658654297e-08,4.1429,4.2143
0.34375,-0.00038817923009689477,6.361012448310049e-06,0.000163554921699855,4.897041232928956e-06,4.1429,4.2143
0.34765625,-0.0004037949230609598,1.8072782171358795e-05,0.0001528191327870603,4.897041232928956e-06,4.1429,4.2143
0.3515625,-0.00037156722338902874,5.274043386892498e-05,0.00012500367969481952,-5.350757274738697e-06,4.1429,4.2143
0.35546875,-0.0003173799554863813,4.1028664145876235e-05,0.00014793922873579,-1.2202955880064108e-05,4.1429,4.2143
0.359375,-0.00033641158128633553,8.301617192034788e-05,0.00010206813065384907,-1.0738984664683016e-05,4.1429,4.2143
0.36328125,-0.00028612823662470434,7.179239260242616e-05,5.127646265354389e-05,-1.4468340337224674e-06,4.1429,4.2143
0.3671875,-0.00022118484687571525,5.8596318730449354e-05,0.00012549167009994654,6.849002853437071e-06,4.1429,4.2143
0.37109375,-0.00021435298120393685,0.0001103639675410086,0.00013819975356679635,9.931179919126975e-07,4.1429,4.2143
0.375,-0.00022557676052185853,9.914018822308687e-05,0.00011524387159227891,-6.3470710185397365e-06,4.1429,4.2143
0.37890625,-0.00019139709922941938,7.374435422293429e-05,0.0001215877468589303,1.4811083970397476e-06,4.1429,4.2143
0.3828125,-0.000153313514695964,0.00010304411146410312,0.00010402009227435718,3.4330700175478624e-06,4.1429,4.2143
0.38671875,-0.00015428949550621803,0.00011182793875638969,0.00016013898886396577,-3.886786059357604e-06,4.1429,4.2143
0.390625,-0.0001357255271778439,8.887205678187225e-05,0.00018651080367437241,3.4330700175478624e-06,4.1429,4.2143
0.39453125,-0.00018358925274738686,3.12688560433356e-05,5.908430913557639e-05,1.969098802166769e-06,4.1429,4.2143
0.3984375,-0.00016648925563439383,1.075292609445333e-05,4.2980625766384347e-05,-9.588436285954173e-07,4.1429,4.2143
0.40234375,-7.617036481879912e-05,2.1976705412375052e-05,7.618430624856943e-05,1.5144839740596608e-05,4.1429,4.2143
0.40625,-8.251424008545052e-05,9.288954879072236e-06,6.9352440576791e-05,1.3192878120088494e-05,4.1429,4.2143
0.41015625,-8.593017292133976e-05,1.4656849335469587e-05,5.0300481843289826e-05,1.969098802166769e-06,4.1429,4.2143
0.4140625,-9.76419426443885e-05,2.1976705412375052e-05,-7.3230518287937795e-06,-2.910805249103561e-06,4.1429,4.2143
0.41796875,-9.568998102388036e-05,7.824983663691142e-06,-9.763003854428944e-06,9.931179919126975e-07,4.1429,4.2143
0.421875,-6.443826216220341e-05,4.83485202227817e-05,3.273282725871669e-05,1.2704887714961443e-05,4.1429,4.2143
0.42578125,-6.346228135194934e-05,9.277598002288852e-05,2.9316894422827474e-05,1.3680868525215515e-05,4.1429,4.2143
0.4296875,-5.419046365453576e-05,8.545612394598304e-05,5.469239548943311e-05,1.3680868525215515e-05,4.1429,4.2143
0.43359375,-4.8822569198138405e-05,1.3680868525215515e-05,4.932450103303576e-05,5.873022043183028e-06,4.1429,4.2143
0.4375,-2.4402716008239875e-05,3.810072171511405e-05,3.6148760094605915e-05,3.4330700175478624e-06,4.1429,4.2143
0.44140625,-4.101472271610592e-05,0.00010255612105897609,2.945079612420841e-06,1.2216897309834422e-05,4.1429,4.2143
0.4453125,-2.3914725603112854e-05,7.179239260242616e-05,1.4656849335469587e-05,7.824983663691142e-06,4.1429,4.2143
0.44921875,1.2216897309834422e-05,8.448014313572898e-05,7.960023908445866e-05,7.336993258564121e-06,4.1429,4.2143
0.453125,-4.150271312123294e-05,9.033602799725334e-05,6.642449814602882e-05,8.312974068818165e-06,4.1429,4.2143
0.45703125,1.7137181658654297e-08,8.155220070496679e-05,4.05406737407492e-05,1.17289069047074e-05,4.1429,4.2143
0.4609375,5.420440508430607e-05,6.642449814602882e-05,4.05406737407492e-05,1.3680868525215515e-05,4.1429,4.2143
0.46484375,4.83485202227817e-05,5.0300481843289826e-05,5.6644357109941236e-05,1.5144839740596608e-05,4.1429,4.2143
0.46875,3.175684644846264e-05,6.30085653101396e-05,7.374435422293429e-05,2.295268622262911e-05,4.1429,4.2143
0.47265625,1.612082055085068e-05,6.886445017166397e-05,7.179239260242616e-05,1.8072782171358795e-05,4.1429,4.2143
0.4765625,4.542057779201951e-05,7.813626786907757e-05,5.762033792019529e-05,1.66088109559777e-05,4.1429,4.2143
0.48046875,3.761273130998701e-05,8.545612394598304e-05,4.542057779201951e-05,1.0264935689326307e-05,4.1429,4.2143
0.484375,4.542057779201951e-05,0.00010158014024872203,5.078847224841685e-05,5.873022043183028e-06,4.1429,4.2143
0.48828125,2.1976705412375052e-05,7.618430624856943e-05,5.908430913557639e-05,1.3680868525215515e-05,4.1429,4.2143
0.4921875,1.2704887714961443e-05,6.054828035095748e-05,3.078086563820857e-05,1.612082055085068e-05,4.1429,4.2143
0.49609375,8.64321047562371e-05,6.30085653101396e-05,8.800964473945215e-06,1.0264935689326307e-05,4.1429,4.2143
0.5,9.670023619745171e-05,2.4416657438010205e-05,1.4168858930342537e-05,6.361012448310049e-06,4.1429,4.2143
0.50390625,9.277598002288852e-05,2.0024743791866924e-05,2.1000724602120983e-05,1.612082055085068e-05,4.1429,4.2143
0.5078125,9.131200880750743e-05,6.201225156633858e-05,2.539263824826426e-05,1.4168858930342537e-05,4.1429,4.2143
0.51171875,9.228798961776147e-05,7.667229665369647e-05,3.761273130998701e-05,9.776945284199257e-06,4.1429,4.2143
0.515625,7.618430624856943e-05,7.813626786907757e-05,4.4444596981765444e-05,1.7096801361104723e-05,4.1429,4.2143
0.51953125,7.716028705882352e-05,7.276837341268022e-05,5.078847224841685e-05,8.800964473945215e-06,4.1429,4.2143
0.5234375,9.96281786282139e-05,1.5144839740596608e-05,4.409050827801934e-06,9.776945284199257e-06,4.1429,4.2143
0.52734375,8.155220070496679e-05,-1.1226975069810037e-05,1.969098802166769e-06,2.3440676627756146e-05,4.1429,4.2143
0.53125,6.642449814602882e-05,5.469239548943311e-05,1.7096801361104723e-05,1.953675338673989e-05,4.1429,4.2143
0.53515625,6.837645976653693e-05,6.054828035095748e-05,4.346861617151138e-05,1.124091649958035e-05,4.1429,4.2143
0.5390625,7.179239260242616e-05,4.05406737407492e-05,6.849002853437071e-06,6.361012448310049e-06,4.1429,4.2143
0.54296875,8.64321047562371e-05,6.984043098191802e-05,-7.81104223392083e-06,1.8072782171358795e-05,4.1429,4.2143
0.546875,6.642449814602882e-05,5.3716414679179035e-05,4.200464495613029e-05,3.12688560433356e-05,4.1429,4.2143
0.55078125,9.179999921263445e-05,5.3716414679179035e-05,1.9048762981612868e-05,2.685660946364537e-05,4.1429,4.2143
0.5546875,0.00010743602511024641,2.2464695817502073e-05,-5.838747679865747e-06,1.8560772576485816e-05,4.1429,4.2143
0.55859375,8.545612394598304e-05,-3.3987956542305824e-06,1.969098802166769e-06,1.66088109559777e-05,4.1429,4.2143
0.5625,7.618430624856943e-05,2.3440676627756146e-05,2.0024743791866924e-05,2.1488715007248018e-05,4.1429,4.2143
0.56640625,8.887205678187225e-05,5.566837629968717e-05,1.8072782171358795e-05,1.8072782171358795e-05,4.1429,4.2143
0.5703125,9.718822660257875e-05,4.200464495613029e-05,2.945079612420841e-06,1.0264935689326307e-05,4.1429,4.2143
0.57421875,7.130440219729913e-05,5.873022043183028e-06,3.4330700175478624e-06,1.66088109559777e-05,4.1429,4.2143
0.578125,7.667229665369647e-05,-5.838747679865747e-06,2.539263824826426e-05,2.5880628653391296e-05,4.1429,4.2143
0.58203125,2.539263824826426e-05,-1.9034821551842555e-05,4.493258738689248e-05,1.7096801361104723e-05,4.1429,4.2143
0.5859375,4.005268333562216e-05,-1.4468340337224674e-06,3.4684788879224825e-05,1.5144839740596608e-05,4.1429,4.2143
0.58984375,0.00012402769888456545,8.312974068818165e-06,-2.910805249103561e-06,1.8560772576485816e-05,4.1429,4.2143
0.59375,0.00010353210186923016,-1.1226975069810037e-05,-5.02865404135195e-05,1.7096801361104723e-05,4.1429,4.2143
0.59765625,6.740047895628288e-05,2.1000724602120983e-05,-4.979855000839248e-05,2.295268622262911e-05,4.1429,4.2143
0.6015625,9.472794164339663e-05,4.005268333562216e-05,8.312974068818165e-06,1.8560772576485816e-05,4.1429,4.2143
0.60546875,0.00011426789078202484,2.9316894422827474e-05,2.734459986877239e-05,1.3680868525215515e-05,4.1429,4.2143
0.609375,9.082401840238036e-05,1.075292609445333e-05,3.0292875233081543e-05,1.9048762981612868e-05,4.1429,4.2143
0.61328125,7.667229665369647e-05,2.490464784313724e-05,1.9048762981612868e-05,2.0024743791866924e-05,4.1429,4.2143
0.6171875,8.106421029983975e-05,2.2464695817502073e-05,-1.8546831146715503e-05,1.3192878120088494e-05,4.1429,4.2143
0.62109375,9.082401840238036e-05,-6.151031973144123e-05,-3.2210562490272396e-05,1.8560772576485816e-05,4.1429,4.2143
0.625,0.00010353210186923016,-2.2938744792858785e-05,-1.2690946285191131e-05,2.295268622262911e-05,4.1429,4.2143
0.62890625,7.08164117921721e-05,6.0060289945830445e-05,-9.588436285954173e-07,1.66088109559777e-05,4.1429,4.2143
0.6328125,5.078847224841685e-05,3.566076968947888e-05,1.9048762981612868e-05,2.051273419699396e-05,4.1429,4.2143
0.63671875,8.00882294895857e-05,3.517277928435186e-05,5.0300481843289826e-05,2.8340913612573415e-05,4.1429,4.2143
0.640625,4.395660657663842e-05,4.005268333562216e-05,2.9316894422827474e-05,2.3928667032883167e-05,4.1429,4.2143
0.64453125,4.05406737407492e-05,1.5144839740596608e-05,2.1976705412375052e-05,2.051273419699396e-05,4.1429,4.2143
0.6484375,9.277598002288852e-05,3.921060422674884e-06,3.956469293049514e-05,2.3928667032883167e-05,4.1429,4.2143
0.65234375,7.813626786907757e-05,3.956469293049514e-05,2.295268622262911e-05,2.685660946364537e-05,4.1429,4.2143
0.65625,2.980488482795451e-05,1.4656849335469587e-05,-5.350757274738697e-06,2.490464784313724e-05,4.1429,4.2143
0.66015625,2.980488482795451e-05,-3.025860086976425e-05,2.490464784313724e-05,2.734459986877239e-05,4.1429,4.2143
0.6640625,6.9352440576791e-05,3.90767025253681e-05,7.336993258564121e-06,1.7584791766231774e-05,4.1429,4.2143
0.66796875,7.960023908445866e-05,7.179239260242616e-05,-1.708285993133441e-05,1.2704887714961443e-05,4.1429,4.2143
0.671875,6.837645976653693e-05,2.539263824826426e-05,8.800964473945215e-06,2.051273419699396e-05,4.1429,4.2143
0.67578125,1.969098802166769e-06,-3.886786059357604e-06,2.1488715007248018e-05,1.9048762981612868e-05,4.1429,4.2143
0.6796875,5.05127586785676e-07,6.361012448310049e-06,4.395660657663842e-05,2.1488715007248018e-05,4.1429,4.2143
0.68359375,6.544851733577475e-05,7.336993258564121e-06,4.6884549007400604e-05,2.295268622262911e-05,4.1429,4.2143
0.6875,6.740047895628288e-05,5.385031638055977e-06,2.295268622262911e-05,2.539263824826426e-05,4.1429,4.2143
0.69140625,6.788846936140991e-05,2.3440676627756146e-05,3.224483685358966e-05,3.175684644846264e-05,4.1429,4.2143
0.6953125,5.762033792019529e-05,1.0264935689326307e-05,-6.835061423666758e-06,1.953675338673989e-05,4.1429,4.2143
0.69921875,7.179239260242616e-05,1.4656849335469587e-05,-3.2210562490272396e-05,1.7584791766231774e-05,4.1429,4.2143
0.703125,6.496052693064773e-05,3.663675049973295e-05,5.2252443463797944e-05,2.9316894422827474e-05,4.1429,4.2143
0.70703125,5.469239548943311e-05,3.90767025253681e-05,4.005268333562216e-05,2.7832590273899424e-05,4.1429,4.2143
0.7109375,2.8340913612573415e-05,4.932450103303576e-05,1.9048762981612868e-05,2.3928667032883167e-05,4.1429,4.2143
0.71484375,2.051273419699396e-05,6.886445017166397e-05,4.932450103303576e-05,2.539263824826426e-05,4.1429,4.2143
0.71875,7.22803830075532e-05,4.83485202227817e-05,1.612082055085068e-05,2.1000724602120983e-05,4.1429,4.2143
0.72265625,4.395660657663842e-05,2.734459986877239e-05,2.3440676627756146e-05,2.2464695817502073e-05,4.1429,4.2143
0.7265625,3.712474090485998e-05,6.30085653101396e-05,4.737253941252764e-05,2.734459986877239e-05,4.1429,4.2143
0.73046875,5.762033792019529e-05,2.490464784313724e-05,3.517277928435186e-05,2.685660946364537e-05,4.1429,4.2143
0.734375,6.361012448310049e-06,-1.5130898310826296e-05,1.953675338673989e-05,2.539263824826426e-05,4.1429,4.2143
0.73828125,5.3716414679179035e-05,2.1488715007248018e-05,3.4330700175478624e-06,2.4416657438010205e-05,4.1429,4.2143
0.7421875,0.00012793162212558173,3.810072171511405e-05,2.539263824826426e-05,1.953675338673989e-05,4.1429,4.2143
0.74609375,6.0060289945830445e-05,4.005268333562216e-05,6.30085653101396e-05,2.7832590273899424e-05,4.1429,4.2143
0.75,-6.835061423666758e-06,6.349655571526664e-05,5.762033792019529e-05,3.517277928435186e-05,4.1429,4.2143
0.75390625,2.734459986877239e-05,5.469239548943311e-05,3.4684788879224825e-05,2.1488715007248018e-05,4.1429,4.2143
0.7578125,6.0060289945830445e-05,-1.2202955880064108e-05,4.4444596981765444e-05,2.1000724602120983e-05,4.1429,4.2143
0.76171875,5.2252443463797944e-05,-2.3426735197985833e-05,1.612082055085068e-05,2.3440676627756146e-05,4.1429,4.2143
0.765625,5.3716414679179035e-05,6.152426116121154e-05,2.5880628653391296e-05,2.7832590273899424e-05,4.1429,4.2143
0.76953125,2.0024743791866924e-05,6.054828035095748e-05,2.5880628653391296e-05,4.200464495613029e-05,4.1429,4.2143
0.7734375,1.2216897309834422e-05,2.7832590273899424e-05,3.4330700175478624e-06,3.322081766384373e-05,4.1429,4.2143
0.77734375,6.44725365255207e-05,2.457089207293791e-06,9.288954879072236e-06,2.9316894422827474e-05,4.1429,4.2143
0.78125,8.252818151522084e-05,-2.098678317235067e-05,-3.886786059357604e-06,3.663675049973295e-05,4.1429,4.2143
0.78515625,7.325636381780725e-05,-4.6382617172503246e-05,-2.5378696818493948e-05,1.8560772576485816e-05,4.1429,4.2143
0.7890625,5.762033792019529e-05,-6.0046348516060135e-05,-5.02865404135195e-05,4.897041232928956e-06,4.1429,4.2143
0.79296875,7.520832543831538e-05,-8.446620170595866e-05,-7.568237441367207e-05,1.7096801361104723e-05,4.1429,4.2143
0.796875,9.179999921263445e-05,-9.910591385976959e-05,-0.0001005698850751507,3.224483685358966e-05,4.1429,4.2143
0.80078125,9.082401840238036e-05,-0.00012059782461890591,-0.00013865346960860607,2.295268622262911e-05,4.1429,4.2143
0.8046875,0.00010255612105897609,-0.0001787093486961166,-0.00014501767780880447,3.566076968947888e-05,4.1429,4.2143
0.80859375,0.00010060415943846796,-0.0002089647538139925,-0.00015672944753185322,5.3228424274052014e-05,4.1429,4.2143
0.8125,9.670023619745171e-05,-0.0002597564218142977,-0.00021288900998855576,3.6148760094605915e-05,4.1429,4.2143
0.81640625,8.204019111009381e-05,-0.00026366034505531395,-0.0002568284793835355,3.273282725871669e-05,4.1429,4.2143
0.8203125,0.00012353970847943843,-0.0002866162270298314,-0.00028173632297856104,3.90767025253681e-05,4.1429,4.2143
0.82421875,0.00015769903683833064,-0.0002856402462195773,-0.00027537211477836267,4.639655860227357e-05,4.1429,4.2143
0.828125,8.00882294895857e-05,-0.00022996867416800182,-0.0002734201531578546,6.103627075608452e-05,4.1429,4.2143
0.83203125,0.00013722377275654228,-0.00024999661371175703,-0.000264636325865568,6.30085653101396e-05,4.1429,4.2143
0.8359375,0.00016013898886396577,-0.0002626843642450599,-0.00028320029419394216,5.8596318730449354e-05,4.1429,4.2143
0.83984375,0.00012061176604867625,-0.00022704073173723962,-0.0003154279938658732,5.61563667048142e-05,4.1429,4.2143
0.84375,0.00013966372478217744,-0.00022801671254749369,-0.00029003215986572056,6.054828035095748e-05,4.1429,4.2143
0.84765625,9.57039224536507e-05,-0.00022606475092698557,-0.0002411924534859235,7.276837341268022e-05,4.1429,4.2143
0.8515625,9.670023619745171e-05,-0.00019676499368581675,-0.00020408484976272223,7.08164117921721e-05,4.1429,4.2143
0.85546875,9.914018822308687e-05,-0.0002206968564705882,-0.00021142503877317464,7.423234462806132e-05,4.1429,4.2143
0.859375,0.00010548406348973827,-0.00019969293611657893,-0.00020115690733196002,7.716028705882352e-05,4.1429,4.2143
0.86328125,8.887205678187225e-05,-0.00012840567110093844,-0.00013767748879835203,5.3228424274052014e-05,4.1429,4.2143
0.8671875,7.520832543831538e-05,-0.00016209734198825053,-0.0001586814091523613,4.639655860227357e-05,4.1429,4.2143
0.87109375,0.00010841200592050046,-0.00011571792056763563,-0.00015380150510109104,5.61563667048142e-05,4.1429,4.2143
0.875,8.399215273060195e-05,-9.76419426443885e-05,-8.641816332646678e-05,5.0300481843289826e-05,4.1429,4.2143
0.87890625,9.423995123826961e-05,-9.812993304951552e-05,-8.153825927519648e-05,4.4444596981765444e-05,4.1429,4.2143
0.8828125,7.716028705882352e-05,-1.5130898310826296e-05,-5.809438689555199e-05,4.2980625766384347e-05,4.1429,4.2143
0.88671875,6.201225156633858e-05,-4.708532234683957e-07,-2.7330658439002063e-05,2.3440676627756146e-05,4.1429,4.2143
0.890625,9.277598002288852e-05,-2.4402716008239875e-05,-4.052673231097887e-05,1.2216897309834422e-05,4.1429,4.2143
0.89453125,6.398454612039366e-05,4.1516654551003256e-05,-1.2202955880064108e-05,2.5880628653391296e-05,4.1429,4.2143
0.8984375,6.984043098191802e-05,5.274043386892498e-05,1.2704887714961443e-05,1.8560772576485816e-05,4.1429,4.2143
0.90234375,7.179239260242616e-05,2.490464784313724e-05,3.078086563820857e-05,1.5144839740596608e-05,4.1429,4.2143
0.90625,5.908430913557639e-05,4.395660657663842e-05,4.639655860227357e-05,1.124091649958035e-05,4.1429,4.2143
0.91015625,1.4811083970397476e-06,5.6644357109941236e-05,5.61563667048142e-05,6.361012448310049e-06,4.1429,4.2143
0.9140625,5.078847224841685e-05,5.420440508430607e-05,6.30085653101396e-05,3.4330700175478624e-06,4.1429,4.2143
0.91796875,9.228798961776147e-05,5.274043386892498e-05,2.7832590273899424e-05,-2.910805249103561e-06,4.1429,4.2143
0.921875,-1.3666927095445202e-05,9.326397042801554e-05,7.032842138704507e-05,7.824983663691142e-06,4.1429,4.2143
0.92578125,3.663675049973295e-05,8.936004718699927e-05,0.00012012377564354921,6.849002853437071e-06,4.1429,4.2143
0.9296875,7.22803830075532e-05,0.00010255612105897609,7.667229665369647e-05,-2.910805249103561e-06,4.1429,4.2143
0.93359375,-9.588436285954173e-07,0.00010206813065384907,6.837645976653693e-05,-4.708532234683957e-07,4.1429,4.2143
0.9375,-1.3178936690318152e-05,8.936004718699927e-05,0.00010206813065384907,3.4330700175478624e-06,4.1429,4.2143
0.94140625,-9.275013449301922e-06,9.670023619745171e-05,8.399215273060195e-05,-9.588436285954173e-07,4.1429,4.2143
0.9453125,1.0264935689326307e-05,0.00010304411146410312,6.788846936140991e-05,-2.4228148439765105e-06,4.1429,4.2143
0.94921875,3.858871212024107e-05,4.83485202227817e-05,8.594411435111007e-05,-3.886786059357604e-06,4.1429,4.2143
0.953125,4.200464495613029e-05,5.078847224841685e-05,7.764827746395054e-05,-1.0250994259555966e-05,4.1429,4.2143
0.95703125,-3.07465912748913e-05,5.8596318730449354e-05,9.767621700770578e-05,-7.81104223392083e-06,4.1429,4.2143
0.9609375,-1.2202955880064108e-05,0.00010646004429999234,0.00010889999632562751,-4.862766869611676e-06,4.1429,4.2143
0.96484375,3.956469293049514e-05,0.0001318558783001449,0.0001103639675410086,-4.708532234683957e-07,4.1429,4.2143
0.96875,-6.3470710185397365e-06,0.00014161568640268555,0.00013819975356679635,2.457089207293791e-06,4.1429,4.2143
0.97265625,6.0060289945830445e-05,0.0001474715712642099,0.00014112769599755853,2.945079612420841e-06,4.1429,4.2143
0.9765625,7.276837341268022e-05,8.106421029983975e-05,0.00011865980442816812,-6.835061423666758e-06,4.1429,4.2143
0.98046875,2.3928667032883167e-05,7.374435422293429e-05,0.000101092149843595,-7.3230518287937795e-06,4.1429,4.2143
0.984375,3.322081766384373e-05,0.0001303715741512169,0.00011475588118715187,-1.934824438849489e-06,4.1429,4.2143
0.98828125,5.518038589456013e-05,0.00010938798673075453,0.00012353970847943843,-8.787023044174873e-06,4.1429,4.2143
0.9921875,-1.4468340337224674e-06,0.00016062697926909282,0.00013234386870527196,8.800964473945215e-06,4.1429,4.2143
0.99609375,2.1000724602120983e-05,0.00013966372478217744,9.81642074128328e-05,1.2216897309834422e-05,4.1429,4.2143
1.0,8.301617192034788e-05,-3.318654330052644e-05,4.6884549007400604e-05,-9.588436285954173e-07,4.1429,4.2143
1.00390625,1.17289069047074e-05,9.718822660257875e-05,0.00010353210186923016,1.8072782171358795e-05,4.1429,4.2143
1.0078125,2.295268622262911e-05,0.00022752233063859001,0.00018016692840772103,2.3928667032883167e-05,4.1429,4.2143
1.01171875,7.960023908445866e-05,0.00013722377275654228,0.000163554921699855,1.5144839740596608e-05,4.1429,4.2143
1.015625,3.4330700175478624e-06,0.00010743602511024641,0.00013429583032578007,1.17289069047074e-05,4.1429,4.2143
1.01953125,4.542057779201951e-05,0.00019236668853589683,0.00014161568640268555,2.0024743791866924e-05,4.1429,4.2143
1.0234375,0.00014259166721293962,0.00011621985240253298,0.00013527181113603414,9.288954879072236e-06,4.1429,4.2143
1.02734375,6.0060289945830445e-05,7.130440219729913e-05,0.00014454362883344773,1.3680868525215515e-05,4.1429,4.2143
1.03125,2.945079612420841e-06,0.00015233114238193327,0.00011475588118715187,2.295268622262911e-05,4.1429,4.2143
1.03515625,1.4168858930342537e-05,7.423234462806132e-05,9.033602799725334e-05,2.2464695817502073e-05,4.1429,4.2143
1.0390625,8.35041623254749e-05,-2.977061046463723e-05,0.00011573186199740594,2.0024743791866924e-05,4.1429,4.2143
1.04296875,5.420440508430607e-05,0.00011231592916151671,0.0001537951135973144,2.7832590273899424e-05,4.1429,4.2143
1.046875,4.2980625766384347e-05,0.00018358286124361023,0.00016013898886396577,2.980488482795451e-05,4.1429,4.2143
1.05078125,2.457089207293791e-06,7.667229665369647e-05,0.00011670784280766,2.1000724602120983e-05,4.1429,4.2143
1.0546875,-2.4890706413366927e-05,7.813626786907757e-05,9.619191285877772e-05,1.563283014572363e-05,4.1429,4.2143
1.05859375,5.420440508430607e-05,0.00014842721914091702,0.0001215877468589303,1.8560772576485816e-05,4.1429,4.2143
1.0625,9.375196083314257e-05,9.776945284199257e-06,9.228798961776147e-05,1.4168858930342537e-05,4.1429,4.2143
1.06640625,0.00012939559334096282,1.4656849335469587e-05,9.767621700770578e-05,1.5144839740596608e-05,4.1429,4.2143
1.0703125,3.858871212024107e-05,0.00013234386870527196,0.00016257894088960093,2.3440676627756146e-05,4.1429,4.2143
1.07421875,-1.3666927095445202e-05,0.00011280391956664375,0.0001498911903562981,2.539263824826426e-05,4.1429,4.2143
1.078125,6.496052693064773e-05,7.22803830075532e-05,9.228798961776147e-05,1.953675338673989e-05,4.1429,4.2143
1.08203125,2.490464784313724e-05,6.30085653101396e-05,6.252057490501256e-05,2.2464695817502073e-05,4.1429,4.2143
1.0859375,-5.0774530818646524e-05,0.00020263481997711142,0.00010792401551537344,3.810072171511405e-05,4.1429,4.2143
1.08984375,4.897041232928956e-06,0.0001669911874692912,0.0001103639675410086,2.3928667032883167e-05,4.1429,4.2143
1.09375,-3.3987956542305824e-06,2.1976705412375052e-05,9.865219781795984e-05,2.685660946364537e-05,4.1429,4.2143
1.09765625,-9.032208656748303e-05,9.033602799725334e-05,0.00010987597713588155,3.419679847409779e-05,4.1429,4.2143
1.1015625,-3.416252411078051e-05,0.00014454362883344773,9.228798961776147e-05,2.980488482795451e-05,4.1429,4.2143
1.10546875,0.00014307965761806664,0.00011963578523842218,5.2252443463797944e-05,1.075292609445333e-05,4.1429,4.2143
1.109375,-9.588436285954173e-07,0.00012207573726405734,7.569631584344241e-05,1.7584791766231774e-05,4.1429,4.2143
1.11328125,-7.22461086442359e-05,0.00010889999632562751,0.00010499607308461125,3.663675049973295e-05,4.1429,4.2143
1.1171875,1.7584791766231774e-05,-3.465051451590753e-05,9.81642074128328e-05,2.685660946364537e-05,4.1429,4.2143
1.12109375,1.7584791766231774e-05,6.496052693064773e-05,0.00012353970847943843,3.12688560433356e-05,4.1429,4.2143
1.125,-1.659486952620739e-05,0.00012207573726405734,0.00011621985240253298,4.395660657663842e-05,4.1429,4.2143
1.12890625,3.921060422674884e-06,0.0001318558783001449,0.00011133994835126266,2.9316894422827474e-05,4.1429,4.2143
1.1328125,6.544851733577475e-05,0.00017284707233081555,0.00011182793875638969,1.17289069047074e-05,4.1429,4.2143
1.13671875,3.566076968947888e-05,4.395660657663842e-05,6.252057490501256e-05,1.2216897309834422e-05,4.1429,4.2143
1.140625,1.66088109559777e-05,5.2252443463797944e-05,5.61563667048142e-05,2.3928667032883167e-05,4.1429,4.2143
1.14453125,-4.7846588387884336e-05,9.767621700770578e-05,5.078847224841685e-05,1.9048762981612868e-05,4.1429,4.2143
1.1484375,-2.910805249103561e-06,0.00017284707233081555,4.1516654551003256e-05,7.336993258564121e-06,4.1429,4.2143
1.15234375,8.35041623254749e-05,0.00020458678159761956,9.033602799725334e-05,-1.4468340337224674e-06,4.1429,4.2143
1.15625,3.956469293049514e-05,0.00015037918076142516,9.718822660257875e-05,-7.3230518287937795e-06,4.1429,4.2143
1.16015625,6.30085653101396e-05,0.00014600760004882882,9.718822660257875e-05,-3.886786059357604e-06,4.1429,4.2143
1.1640625,7.472033503318834e-05,0.0001528191327870603,0.00011133994835126266,9.931179919126975e-07,4.1429,4.2143
1.16796875,3.90767025253681e-05,0.00017089511071030744,0.00010792401551537344,5.05127586785676e-07,4.1429,4.2143
1.171875,5.078847224841685e-05,0.00013722377275654228,7.960023908445866e-05,-1.2202955880064108e-05,4.1429,4.2143
1.17578125,7.960023908445866e-05,0.00017333506273594257,8.545612394598304e-05,-5.838747679865747e-06,4.1429,4.2143
1.1796875,8.594411435111007e-05,0.00019236668853589683,0.00012109975645380327,1.124091649958035e-05,4.1429,4.2143
1.18359375,7.374435422293429e-05,0.00013234386870527196,0.0001259796605050736,1.124091649958035e-05,4.1429,4.2143
1.1875,5.420440508430607e-05,0.00012988358374608984,0.00010694803470511936,6.361012448310049e-06,4.1429,4.2143
1.19140625,2.6368619058518334e-05,0.0001318558783001449,8.594411435111007e-05,-5.838747679865747e-06,4.1429,4.2143
1.1953125,8.789607597161818e-05,0.0001215877468589303,6.054828035095748e-05,-5.838747679865747e-06,4.1429,4.2143
1.19921875,0.00012988358374608984,0.00014015171518730446,5.3716414679179035e-05,4.897041232928956e-06,4.1429,4.2143
1.203125,6.740047895628288e-05,0.00014891520954604407,8.252818151522084e-05,5.873022043183028e-06,4.1429,4.2143
1.20703125,0.00010011616903334093,0.0001474715712642099,0.00010792401551537344,4.897041232928956e-06,4.1429,4.2143
1.2109375,8.399215273060195e-05,0.0001498911903562981,0.00011719583321278703,9.776945284199257e-06,4.1429,4.2143
1.21484375,5.274043386892498e-05,9.033602799725334e-05,7.569631584344241e-05,1.2704887714961443e-05,4.1429,4.2143
1.21875,4.395660657663842e-05,9.179999921263445e-05,8.301617192034788e-05,2.1976705412375052e-05,4.1429,4.2143
1.22265625,1.8560772576485816e-05,0.00014649559045395587,0.00011182793875638969,2.3440676627756146e-05,4.1429,4.2143
1.2265625,6.9352440576791e-05,0.00014891520954604407,9.865219781795984e-05,1.124091649958035e-05,4.1429,4.2143
1.23046875,5.176445305867092e-05,0.00014307965761806664,9.57039224536507e-05,1.2216897309834422e-05,4.1429,4.2143
1.234375,5.127646265354389e-05,0.00010353210186923016,8.106421029983975e-05,9.776945284199257e-06,4.1429,4.2143
1.23828125,1.953675338673989e-05,0.00010450808267948421,6.984043098191802e-05,1.4656849335469587e-05,4.1429,4.2143
1.2421875,3.810072171511405e-05,0.0001289076029358358,6.252057490501256e-05,1.953675338673989e-05,4.1429,4.2143
1.24609375,0.00011280391956664375,0.0001289076029358358,7.764827746395054e-05,2.3440676627756146e-05,4.1429,4.2143
1.25,8.448014313572898e-05,0.0001357598015411612,8.984803759212632e-05,2.1976705412375052e-05,4.1429,4.2143
1.25390625,5.9572299540703424e-05,0.00013283185911039898,6.152426116121154e-05,2.2464695817502073e-05,4.1429,4.2143
1.2578125,2.6368619058518334e-05,0.00014454362883344773,8.057621989471272e-05,2.8340913612573415e-05,4.1429,4.2143
1.26171875,4.8836510627908735e-05,0.00010841200592050046,8.35041623254749e-05,1.8072782171358795e-05,4.1429,4.2143
1.265625,8.00882294895857e-05,8.204019111009381e-05,4.005268333562216e-05,2.051273419699396e-05,4.1429,4.2143
1.26953125,6.44725365255207e-05,9.326397042801554e-05,6.349655571526664e-05,3.370880806897077e-05,4.1429,4.2143
1.2734375,5.762033792019529e-05,9.96281786282139e-05,8.64321047562371e-05,3.517277928435186e-05,4.1429,4.2143
1.27734375,5.8596318730449354e-05,0.00012207573726405734,5.810832832532233e-05,2.882890401770045e-05,4.1429,4.2143
1.28125,7.618430624856943e-05,0.00011426789078202484,5.713234751506826e-05,2.4416657438010205e-05,4.1429,4.2143
1.28515625,4.2980625766384347e-05,0.00010841200592050046,7.716028705882352e-05,3.224483685358966e-05,4.1429,4.2143
1.2890625,3.956469293049514e-05,0.00010450808267948421,5.566837629968717e-05,3.078086563820857e-05,4.1429,4.2143
1.29296875,7.716028705882352e-05,7.472033503318834e-05,3.273282725871669e-05,2.734459986877239e-05,4.1429,4.2143
1.296875,2.685660946364537e-05,9.033602799725334e-05,3.810072171511405e-05,2.7832590273899424e-05,4.1429,4.2143
1.30078125,6.398454612039366e-05,0.00010646004429999234,4.493258738689248e-05,2.5880628653391296e-05,4.1429,4.2143
1.3046875,0.00012353970847943843,8.252818151522084e-05,2.9316894422827474e-05,2.539263824826426e-05,4.1429,4.2143
1.30859375,9.326397042801554e-05,3.90767025253681e-05,1.66088109559777e-05,2.295268622262911e-05,4.1429,4.2143
1.3125,6.642449814602882e-05,7.22803830075532e-05,4.8836510627908735e-05,2.5880628653391296e-05,4.1429,4.2143
1.31640625,6.349655571526664e-05,7.569631584344241e-05,5.6644357109941236e-05,2.6368619058518334e-05,4.1429,4.2143
1.3203125,9.228798961776147e-05,7.130440219729913e-05,3.4684788879224825e-05,1.8560772576485816e-05,4.1429,4.2143
1.32421875,7.764827746395054e-05,0.00011719583321278703,8.312974068818165e-06,1.563283014572363e-05,4.1429,4.2143
1.328125,6.252057490501256e-05,8.545612394598304e-05,3.273282725871669e-05,2.2464695817502073e-05,4.1429,4.2143
1.33203125,2.490464784313724e-05,3.12688560433356e-05,5.518038589456013e-05,2.490464784313724e-05,4.1429,4.2143
1.3359375,3.273282725871669e-05,7.336993258564121e-06,4.6884549007400604e-05,2.882890401770045e-05,4.1429,4.2143
1.33984375,0.00010206813065384907,2.2464695817502073e-05,3.6148760094605915e-05,3.419679847409779e-05,4.1429,4.2143
1.34375,8.740808556649116e-05,2.734459986877239e-05,5.385031638055977e-06,3.810072171511405e-05,4.1429,4.2143
1.34765625,7.716028705882352e-05,5.713234751506826e-05,2.5880628653391296e-05,3.224483685358966e-05,4.1429,4.2143
1.3515625,7.764827746395054e-05,4.005268333562216e-05,3.712474090485998e-05,1.953675338673989e-05,4.1429,4.2143
1.35546875,7.374435422293429e-05,4.05406737407492e-05,2.3440676627756146e-05,2.7832590273899424e-05,4.1429,4.2143
1.359375,9.277598002288852e-05,7.813626786907757e-05,4.897041232928956e-06,2.9316894422827474e-05,4.1429,4.2143
1.36328125,0.000101092149843595,8.204019111009381e-05,1.075292609445333e-05,1.9048762981612868e-05,4.1429,4.2143
1.3671875,8.64321047562371e-05,6.349655571526664e-05,3.6148760094605915e-05,2.882890401770045e-05,4.1429,4.2143
1.37109375,8.936004718699927e-05,2.3928667032883167e-05,2.295268622262911e-05,2.8340913612573415e-05,4.1429,4.2143
1.375,0.00010158014024872203,3.273282725871669e-05,9.931179919126975e-07,2.539263824826426e-05,4.1429,4.2143
1.37890625,5.469239548943311e-05,4.05406737407492e-05,1.563283014572363e-05,2.734459986877239e-05,4.1429,4.2143
1.3828125,5.6644357109941236e-05,3.663675049973295e-05,8.312974068818165e-06,2.4416657438010205e-05,4.1429,4.2143
1.38671875,9.619191285877772e-05,4.7860529817654666e-05,2.2464695817502073e-05,2.9316894422827474e-05,4.1429,4.2143
1.390625,4.932450103303576e-05,5.469239548943311e-05,5.0300481843289826e-05,3.12688560433356e-05,4.1429,4.2143
1.39453125,8.204019111009381e-05,4.981249143816279e-05,1.8072782171358795e-05,2.1976705412375052e-05,4.1429,4.2143
1.3984375,0.00015233114238193327,3.6148760094605915e-05,3.4330700175478624e-06,1.7096801361104723e-05,4.1429,4.2143
1.40234375,0.00014112769599755853,6.691248855115584e-05,1.7096801361104723e-05,2.539263824826426e-05,4.1429,4.2143
1.40625,0.0001289076029358358,5.566837629968717e-05,-9.588436285954173e-07,2.539263824826426e-05,4.1429,4.2143
1.41015625,0.0001259796605050736,2.980488482795451e-05,-2.4890706413366927e-05,1.953675338673989e-05,4.1429,4.2143
1.4140625,0.00013283185911039898,5.176445305867092e-05,7.824983663691142e-06,2.4416657438010205e-05,4.1429,4.2143
1.41796875,0.00010255612105897609,4.346861617151138e-05,1.7584791766231774e-05,2.685660946364537e-05,4.1429,4.2143
1.421875,0.000101092149843595,2.882890401770045e-05,2.1488715007248018e-05,2.490464784313724e-05,4.1429,4.2143
1.42578125,7.032842138704507e-05,5.2252443463797944e-05,4.4444596981765444e-05,1.8072782171358795e-05,4.1429,4.2143
1.4296875,6.201225156633858e-05,2.685660946364537e-05,4.05406737407492e-05,1.563283014572363e-05,4.1429,4.2143
1.43359375,0.00014112769599755853,-4.199070352635996e-05,2.457089207293791e-06,1.953675338673989e-05,4.1429,4.2143
1.4375,0.00016111496967421984,-4.8822569198138405e-05,-1.659486952620739e-05,1.7584791766231774e-05,4.1429,4.2143
1.44140625,0.00016160296007934686,1.4656849335469587e-05,5.385031638055977e-06,1.7584791766231774e-05,4.1429,4.2143
1.4453125,0.00015477109440756846,5.469239548943311e-05,3.175684644846264e-05,2.7832590273899424e-05,4.1429,4.2143
1.44921875,0.00016991912990005337,3.12688560433356e-05,6.349655571526664e-05,2.882890401770045e-05,4.1429,4.2143
1.453125,0.0001620909504844739,3.858871212024107e-05,5.566837629968717e-05,2.2464695817502073e-05,4.1429,4.2143
1.45703125,0.00014842721914091702,3.12688560433356e-05,3.370880806897077e-05,2.0024743791866924e-05,4.1429,4.2143
1.4609375,0.0001537951135973144,-2.7818648844129115e-05,2.3440676627756146e-05,1.8560772576485816e-05,4.1429,4.2143
1.46484375,0.00016601520665903712,4.1516654551003256e-05,2.2464695817502073e-05,1.2216897309834422e-05,4.1429,4.2143
1.46875,0.00016503922584878308,0.00010548406348973827,5.566837629968717e-05,2.9316894422827474e-05,4.1429,4.2143
1.47265625,0.00013283185911039898,3.175684644846264e-05,7.336993258564121e-06,3.273282725871669e-05,4.1429,4.2143
1.4765625,0.00013819975356679635,1.4811083970397476e-06,-2.196276398260474e-05,2.685660946364537e-05,4.1429,4.2143
1.48046875,0.00016160296007934686,5.385031638055977e-06,-1.0738984664683016e-05,3.566076968947888e-05,4.1429,4.2143
1.484375,0.0001103639675410086,-2.196276398260474e-05,-3.886786059357604e-06,4.493258738689248e-05,4.1429,4.2143
1.48828125,0.0001103639675410086,-4.5894626767376224e-05,-1.3178936690318152e-05,5.6644357109941236e-05,4.1429,4.2143
1.4921875,0.0001537951135973144,-6.687821418783857e-05,-4.345467474174106e-05,5.078847224841685e-05,4.1429,4.2143
1.49609375,0.0001469835808590829,-2.4402716008239875e-05,-4.3942665146868106e-05,4.639655860227357e-05,4.1429,4.2143
1.5,0.00011621985240253298,1.3192878120088494e-05,-3.904242816205081e-05,4.395660657663842e-05,4.1429,4.2143
1.50390625,0.00011231592916151671,-1.5130898310826296e-05,-3.416252411078051e-05,4.493258738689248e-05,4.1429,4.2143
1.5078125,0.0001455196096437018,-1.659486952620739e-05,-1.2690946285191131e-05,4.737253941252764e-05,4.1429,4.2143
1.51171875,0.00012793162212558173,-3.172257208514534e-05,-2.196276398260474e-05,4.005268333562216e-05,4.1429,4.2143
1.515625,0.00010792401551537344,-1.9522811956969576e-05,-1.2690946285191131e-05,3.6148760094605915e-05,4.1429,4.2143
1.51953125,6.152426116121154e-05,-1.0738984664683016e-05,1.66088109559777e-05,3.810072171511405e-05,4.1429,4.2143
1.5234375,5.127646265354389e-05,-4.296668433661404e-05,2.685660946364537e-05,3.712474090485998e-05,4.1429,4.2143
1.52734375,0.00010841200592050046,-5.272649243915467e-05,2.051273419699396e-05,3.419679847409779e-05,4.1429,4.2143
1.53125,0.00012207573726405734,-3.123458168001832e-05,9.776945284199257e-06,3.517277928435186e-05,4.1429,4.2143
1.53515625,0.00010255612105897609,1.7137181658654297e-08,1.075292609445333e-05,3.90767025253681e-05,4.1429,4.2143
1.5390625,6.642449814602882e-05,7.336993258564121e-06,-2.4228148439765105e-06,3.4684788879224825e-05,4.1429,4.2143
1.54296875,7.179239260242616e-05,-3.886786059357604e-06,-1.2202955880064108e-05,3.12688560433356e-05,4.1429,4.2143
1.546875,8.448014313572898e-05,1.7096801361104723e-05,-3.3987956542305824e-06,3.322081766384373e-05,4.1429,4.2143
1.55078125,8.838406637674523e-05,2.1976705412375052e-05,3.566076968947888e-05,3.419679847409779e-05,4.1429,4.2143
1.5546875,7.22803830075532e-05,3.6148760094605915e-05,7.824983663691142e-06,3.517277928435186e-05,4.1429,4.2143
1.55859375,6.642449814602882e-05,7.86242582742046e-05,-2.147477357747769e-05,2.685660946364537e-05,4.1429,4.2143
1.5625,8.838406637674523e-05,5.3228424274052014e-05,2.980488482795451e-05,3.175684644846264e-05,4.1429,4.2143
1.56640625,5.0300481843289826e-05,1.7096801361104723e-05,2.882890401770045e-05,3.273282725871669e-05,4.1429,4.2143
1.5703125,5.6644357109941236e-05,1.7096801361104723e-05,1.4656849335469587e-05,2.3440676627756146e-05,4.1429,4.2143
1.57421875,9.228798961776147e-05,1.4168858930342537e-05,4.4444596981765444e-05,2.1488715007248018e-05,4.1429,4.2143
1.578125,2.8340913612573415e-05,1.7137181658654297e-08,5.0300481843289826e-05,3.370880806897077e-05,4.1429,4.2143
1.58203125,6.44725365255207e-05,-2.4228148439765105e-06,1.3192878120088494e-05,3.956469293049514e-05,4.1429,4.2143
1.5859375,0.00012500367969481952,1.3192878120088494e-05,2.945079612420841e-06,2.685660946364537e-05,4.1429,4.2143
1.58984375,0.00010499607308461125,4.897041232928956e-06,1.9048762981612868e-05,2.539263824826426e-05,4.1429,4.2143
1.59375,4.2980625766384347e-05,5.873022043183028e-06,1.7584791766231774e-05,3.0292875233081543e-05,4.1429,4.2143
1.59765625,2.051273419699396e-05,1.2216897309834422e-05,1.124091649958035e-05,2.8340913612573415e-05,4.1429,4.2143
1.6015625,4.590856819714655e-05,3.6148760094605915e-05,2.882890401770045e-05,3.322081766384373e-05,4.1429,4.2143
1.60546875,1.612082055085068e-05,4.1516654551003256e-05,-1.4468340337224674e-06,3.566076968947888e-05,4.1429,4.2143
1.609375,3.078086563820857e-05,4.590856819714655e-05,-2.098678317235067e-05,3.566076968947888e-05,4.1429,4.2143
1.61328125,-9.588436285954173e-07,5.518038589456013e-05,1.9048762981612868e-05,3.370880806897077e-05,4.1429,4.2143
1.6171875,-1.757085033646143e-05,3.4684788879224825e-05,3.0292875233081543e-05,2.8340913612573415e-05,4.1429,4.2143
1.62109375,8.887205678187225e-05,2.5880628653391296e-05,3.663675049973295e-05,3.12688560433356e-05,4.1429,4.2143
1.625,0.00012256372766918436,3.4684788879224825e-05,5.61563667048142e-05,2.882890401770045e-05,4.1429,4.2143
1.62890625,9.472794164339663e-05,3.921060422674884e-06,4.1028664145876235e-05,2.685660946364537e-05,4.1429,4.2143
1.6328125,6.740047895628288e-05,-1.1714965474937059e-05,-9.275013449301922e-06,2.5880628653391296e-05,4.1429,4.2143
1.63671875,8.936004718699927e-05,1.2704887714961443e-05,-2.5378696818493948e-05,2.734459986877239e-05,4.1429,4.2143
1.640625,9.082401840238036e-05,1.8072782171358795e-05,1.563283014572363e-05,3.517277928435186e-05,4.1429,4.2143
1.64453125,4.981249143816279e-05,5.810832832532233e-05,4.83485202227817e-05,2.882890401770045e-05,4.1429,4.2143
1.6484375,2.3928667032883167e-05,7.960023908445866e-05,5.469239548943311e-05,2.3440676627756146e-05,4.1429,4.2143
1.65234375,-1.8546831146715503e-05,1.7137181658654297e-08,4.83485202227817e-05,3.370880806897077e-05,4.1429,4.2143
1.65625,-3.8066447351796765e-05,-3.269855289539942e-05,1.5144839740596608e-05,3.517277928435186e-05,4.1429,4.2143
1.66015625,-6.980615661860077e-05,1.2704887714961443e-05,4.2492635361257325e-05,3.322081766384373e-05,4.1429,4.2143
1.6640625,-4.491864595712215e-05,4.639655860227357e-05,8.301617192034788e-05,3.419679847409779e-05,4.1429,4.2143
1.66796875,-5.809438689555199e-05,4.1516654551003256e-05,4.981249143816279e-05,3.6148760094605915e-05,4.1429,4.2143
1.671875,-0.00019578901287556265,2.4416657438010205e-05,1.8560772576485816e-05,3.078086563820857e-05,4.1429,4.2143
1.67578125,-0.0001777333678858625,-2.910805249103561e-06,8.312974068818165e-06,1.953675338673989e-05,4.1429,4.2143
1.6796875,-0.0001123019877317464,-3.123458168001832e-05,1.4811083970397476e-06,1.7096801361104723e-05,4.1429,4.2143
1.68359375,-0.0001245017478599222,-2.4228148439765105e-06,1.612082055085068e-05,2.1488715007248018e-05,4.1429,4.2143
1.6875,-0.00010740175074692914,1.7096801361104723e-05,1.953675338673989e-05,2.490464784313724e-05,4.1429,4.2143
1.69140625,-6.785419499809262e-05,-6.835061423666758e-06,1.075292609445333e-05,2.1000724602120983e-05,4.1429,4.2143
1.6953125,2.539263824826426e-05,1.563283014572363e-05,-6.835061423666758e-06,1.9048762981612868e-05,4.1429,4.2143
1.69921875,5.2252443463797944e-05,3.370880806897077e-05,-1.0250994259555966e-05,2.295268622262911e-05,4.1429,4.2143
1.703125,7.336993258564121e-06,2.539263824826426e-05,1.8072782171358795e-05,2.882890401770045e-05,4.1429,4.2143
1.70703125,-8.349022089570459e-05,1.3192878120088494e-05,1.8072782171358795e-05,2.5880628653391296e-05,4.1429,4.2143
1.7109375,-0.0001245017478599222,-4.374776464484654e-06,-2.4890706413366927e-05,1.953675338673989e-05,4.1429,4.2143
1.71484375,-8.007428805981539e-05,-1.1714965474937059e-05,-3.3987956542305824e-06,1.953675338673989e-05,4.1429,4.2143
1.71875,-7.714634562905319e-05,-6.835061423666758e-06,4.2492635361257325e-05,2.3440676627756146e-05,4.1429,4.2143
1.72265625,-5.614242527504387e-05,3.566076968947888e-05,2.9316894422827474e-05,2.7832590273899424e-05,4.1429,4.2143
1.7265625,-8.300223049057757e-05,3.224483685358966e-05,-2.910805249103561e-06,2.7832590273899424e-05,4.1429,4.2143
1.73046875,-0.00012010983421377892,-4.708532234683957e-07,-1.3178936690318152e-05,2.1976705412375052e-05,4.1429,4.2143
1.734375,-9.76419426443885e-05,-5.838747679865747e-06,-1.4468340337224674e-06,3.078086563820857e-05,4.1429,4.2143
1.73828125,-8.153825927519648e-05,-2.2938744792858785e-05,-1.659486952620739e-05,3.6148760094605915e-05,4.1429,4.2143
1.7421875,-9.715395223926145e-05,-6.687821418783857e-05,-4.199070352635996e-05,1.66088109559777e-05,4.1429,4.2143
1.74609375,-8.934610575722896e-05,-4.9310559603265427e-05,-5.907036770580606e-05,1.7584791766231774e-05,4.1429,4.2143
1.75,-6.0534338921187156e-05,-2.9282620059510205e-05,-0.00010888605489585716,2.051273419699396e-05,4.1429,4.2143
1.75390625,-6.24863005416953e-05,-0.00011474193975738154,-0.00013328557515220876,1.3680868525215515e-05,4.1429,4.2143
1.7578125,-4.443065555199513e-05,-0.00013084562312657357,-0.00011035002611123827,2.3440676627756146e-05,4.1429,4.2143
1.76171875,-8.787023044174873e-06,-0.00010447380831616694,-0.00011327796854200045,2.1488715007248018e-05,4.1429,4.2143
1.765625,-4.6870607577630294e-05,-0.0001357255271778439,-0.00012498973826504918,2.1000724602120983e-05,4.1429,4.2143
1.76953125,-1.9522811956969576e-05,-0.00016648925563439383,-0.00014843361064469364,3.4684788879224825e-05,4.1429,4.2143
1.7734375,3.712474090485998e-05,-0.00020554882097810332,-0.00019237308003967348,3.712474090485998e-05,4.1429,4.2143
1.77734375,4.590856819714655e-05,-0.0002216728372808423,-0.00021484097160906384,3.4684788879224825e-05,4.1429,4.2143
1.78125,4.6884549007400604e-05,-0.00021630494282444493,-0.0002343605878141451,4.493258738689248e-05,4.1429,4.2143
1.78515625,4.737253941252764e-05,-0.00021923288525520712,-0.00024804465209124894,4.981249143816279e-05,4.1429,4.2143
1.7890625,6.642449814602882e-05,-0.0002099407346242466,-0.00021142503877317464,4.8836510627908735e-05,4.1429,4.2143
1.79296875,4.737253941252764e-05,-0.00020506083057297627,-0.00020603681138323032,6.0060289945830445e-05,4.1429,4.2143
1.796875,4.981249143816279e-05,-0.00019676499368581675,-0.00017576107333180742,6.054828035095748e-05,4.1429,4.2143
1.80078125,1.3680868525215515e-05,-0.0001581934187472343,-0.00013914146001373312,5.908430913557639e-05,4.1429,4.2143
1.8046875,1.17289069047074e-05,-0.00014206940244449533,-0.00014011744082398716,5.713234751506826e-05,4.1429,4.2143
1.80859375,5.61563667048142e-05,-0.0001357255271778439,-0.0001123019877317464,5.713234751506826e-05,4.1429,4.2143
1.8125,3.6148760094605915e-05,-9.910591385976959e-05,-9.812993304951552e-05,4.8836510627908735e-05,4.1429,4.2143
1.81640625,1.563283014572363e-05,-4.2478693931487016e-05,-9.178605778286412e-05,3.956469293049514e-05,4.1429,4.2143
1.8203125,1.969098802166769e-06,-3.8554437756923786e-05,-5.809438689555199e-05,3.566076968947888e-05,4.1429,4.2143
1.82421875,3.956469293049514e-05,-3.6602476136415674e-05,-1.757085033646143e-05,3.0292875233081543e-05,4.1429,4.2143
1.828125,8.35041623254749e-05,2.457089207293791e-06,8.800964473945215e-06,3.517277928435186e-05,4.1429,4.2143
1.83203125,0.00010938798673075453,-3.3987956542305824e-06,7.824983663691142e-06,3.566076968947888e-05,4.1429,4.2143
1.8359375,0.00013087989748989087,1.4811083970397476e-06,1.3192878120088494e-05,2.2464695817502073e-05,4.1429,4.2143
1.83984375,0.00011573186199740594,1.612082055085068e-05,6.054828035095748e-05,2.1976705412375052e-05,4.1429,4.2143
1.84375,0.00012793162212558173,3.419679847409779e-05,6.740047895628288e-05,2.6368619058518334e-05,4.1429,4.2143
1.84765625,0.00011670784280766,3.322081766384373e-05,6.252057490501256e-05,2.051273419699396e-05,4.1429,4.2143
1.8515625,9.131200880750743e-05,6.496052693064773e-05,6.593650774090179e-05,2.0024743791866924e-05,4.1429,4.2143
1.85546875,8.4968133540856e-05,0.00010255612105897609,6.398454612039366e-05,1.8560772576485816e-05,4.1429,4.2143
1.859375,-2.0010802362096597e-05,7.86242582742046e-05,7.667229665369647e-05,1.4168858930342537e-05,4.1429,4.2143
1.86328125,-5.2238502034027614e-05,2.9316894422827474e-05,8.4968133540856e-05,1.7096801361104723e-05,4.1429,4.2143
1.8671875,-3.56264953261616e-05,6.642449814602882e-05,9.033602799725334e-05,2.0024743791866924e-05,4.1429,4.2143
1.87109375,-6.88301758083467e-05,0.00011621985240253298,0.00010158014024872203,1.7584791766231774e-05,4.1429,4.2143
1.875,-0.00010203385629053178,0.00011329190997177078,9.131200880750743e-05,1.7584791766231774e-05,4.1429,4.2143
1.87890625,-9.471400021362632e-05,0.00010841200592050046,7.764827746395054e-05,2.1488715007248018e-05,4.1429,4.2143
1.8828125,-5.419046365453576e-05,9.718822660257875e-05,0.0001103639675410086,2.0024743791866924e-05,4.1429,4.2143
1.88671875,-4.6870607577630294e-05,9.521593204852366e-05,0.00011621985240253298,1.8072782171358795e-05,4.1429,4.2143
1.890625,-4.001840897230488e-05,7.032842138704507e-05,0.00010011616903334093,1.7584791766231774e-05,4.1429,4.2143
1.89453125,-6.541424297245748e-05,2.3440676627756146e-05,0.00010597205389486532,1.8560772576485816e-05,4.1429,4.2143
1.8984375,-2.7330658439002063e-05,7.423234462806132e-05,9.96281786282139e-05,1.7096801361104723e-05,4.1429,4.2143
1.90234375,1.0264935689326307e-05,0.00011914779483329516,8.740808556649116e-05,1.563283014572363e-05,4.1429,4.2143
1.90625,-2.6842668033875042e-05,0.0001137799003768978,8.64321047562371e-05,2.4416657438010205e-05,4.1429,4.2143
1.91015625,-1.8058840741588482e-05,0.00011573186199740594,9.914018822308687e-05,2.685660946364537e-05,4.1429,4.2143
1.9140625,-2.4228148439765105e-06,0.00012061176604867625,0.0001103639675410086,2.3440676627756146e-05,4.1429,4.2143
1.91796875,7.520832543831538e-05,0.00011280391956664375,0.00010646004429999234,1.953675338673989e-05,4.1429,4.2143
1.921875,0.00010158014024872203,6.252057490501256e-05,7.716028705882352e-05,2.4416657438010205e-05,4.1429,4.2143
1.92578125,6.201225156633858e-05,5.469239548943311e-05,0.00010889999632562751,2.490464784313724e-05,4.1429,4.2143
1.9296875,5.9572299540703424e-05,0.00010597205389486532,0.0001313678878950179,1.3680868525215515e-05,4.1429,4.2143
1.93359375,0.00012061176604867625,0.00010450808267948421,0.00010060415943846796,1.7584791766231774e-05,4.1429,4.2143
1.9375,0.00021288261848477906,7.472033503318834e-05,8.887205678187225e-05,2.6368619058518334e-05,4.1429,4.2143
1.94140625,0.000101092149843595,6.054828035095748e-05,9.326397042801554e-05,2.3928667032883167e-05,4.1429,4.2143
1.9453125,2.2464695817502073e-05,9.179999921263445e-05,0.00011768382361791407,2.6368619058518334e-05,4.1429,4.2143
1.94921875,9.423995123826961e-05,0.00010646004429999234,0.00011182793875638969,3.517277928435186e-05,4.1429,4.2143
1.953125,6.984043098191802e-05,8.00882294895857e-05,6.544851733577475e-05,2.490464784313724e-05,4.1429,4.2143
1.95703125,0.00013722377275654228,7.569631584344241e-05,5.127646265354389e-05,1.5144839740596608e-05,4.1429,4.2143
1.9609375,0.00029051375876707093,7.667229665369647e-05,7.520832543831538e-05,1.66088109559777e-05,4.1429,4.2143
1.96484375,0.0003466733212237735,8.4968133540856e-05,9.228798961776147e-05,2.1976705412375052e-05,4.1429,4.2143
1.96875,0.0003134696407415884,8.984803759212632e-05,8.204019111009381e-05,3.175684644846264e-05,4.1429,4.2143
1.97265625,0.00027343409458762487,6.740047895628288e-05,8.155220070496679e-05,2.9316894422827474e-05,4.1429,4.2143
1.9765625,0.0002631659631464103,6.886445017166397e-05,6.9352440576791e-05,1.8072782171358795e-05,4.1429,4.2143
1.98046875,0.00016650319706416417,6.152426116121154e-05,3.6148760094605915e-05,1.17289069047074e-05,4.1429,4.2143
1.984375,0.00011085195794613562,6.886445017166397e-05,7.618430624856943e-05,1.8560772576485816e-05,4.1429,4.2143
1.98828125,5.908430913557639e-05,6.837645976653693e-05,7.960023908445866e-05,1.4656849335469587e-05,4.1429,4.2143
1.9921875,5.385031638055977e-06,6.252057490501256e-05,6.496052693064773e-05,1.8072782171358795e-05,4.1429,4.2143
1.99609375,4.590856819714655e-05,5.908430913557639e-05,6.642449814602882e-05,2.9316894422827474e-05,4.1429,4.2143
2.0,2.1000724602120983e-05,5.2252443463797944e-05,4.395660657663842e-05,2.7832590273899424e-05,4.1429,4.2143
2.00390625,-6.835061423666758e-06,5.05127586785676e-07,8.00882294895857e-05,2.980488482795451e-05,4.1429,4.2143
2.0078125,-2.6842668033875042e-05,-5.350757274738697e-06,7.86242582742046e-05,3.322081766384373e-05,4.1429,4.2143
2.01171875,-2.147477357747769e-05,6.544851733577475e-05,5.078847224841685e-05,2.6368619058518334e-05,4.1429,4.2143
2.015625,-7.81104223392083e-06,6.691248855115584e-05,4.2980625766384347e-05,1.7096801361104723e-05,4.1429,4.2143
2.01953125,1.3680868525215515e-05,6.984043098191802e-05,6.642449814602882e-05,2.1488715007248018e-05,4.1429,4.2143
2.0234375,5.176445305867092e-05,6.252057490501256e-05,7.911224867933163e-05,2.4416657438010205e-05,4.1429,4.2143
2.02734375,7.276837341268022e-05,4.395660657663842e-05,6.886445017166397e-05,2.685660946364537e-05,4.1429,4.2143
2.03125,0.00011182793875638969,2.9316894422827474e-05,3.858871212024107e-05,2.7832590273899424e-05,4.1429,4.2143
2.03515625,0.0001259796605050736,2.5880628653391296e-05,1.8072782171358795e-05,2.2464695817502073e-05,4.1429,4.2143
2.0390625,0.000163554921699855,3.322081766384373e-05,2.685660946364537e-05,1.4168858930342537e-05,4.1429,4.2143
2.04296875,0.00020605075281300065,1.124091649958035e-05,2.8340913612573415e-05,1.5144839740596608e-05,4.1429,4.2143
2.046875,0.0001860228132692454,5.0300481843289826e-05,8.204019111009381e-05,2.5880628653391296e-05,4.1429,4.2143
2.05078125,0.0002543821358541237,6.886445017166397e-05,6.593650774090179e-05,2.685660946364537e-05,4.1429,4.2143
2.0546875,0.0003163975831723506,1.7584791766231774e-05,2.4416657438010205e-05,2.2464695817502073e-05,4.1429,4.2143
2.05859375,0.0003217654776287479,3.517277928435186e-05,3.858871212024107e-05,1.66088109559777e-05,4.1429,4.2143
2.0625,0.00033054930492103446,2.9316894422827474e-05,1.2216897309834422e-05,2.0024743791866924e-05,4.1429,4.2143
2.06640625,0.0003369135131212329,2.490464784313724e-05,4.200464495613029e-05,1.9048762981612868e-05,4.1429,4.2143
2.0703125,0.0003837809249469749,1.66088109559777e-05,2.1976705412375052e-05,8.312974068818165e-06,4.1429,4.2143
2.07421875,0.0004028125507469291,-1.4642907905699246e-05,-1.1714965474937059e-05,5.873022043183028e-06,4.1429,4.2143
2.078125,0.00041161671097276255,1.3192878120088494e-05,2.9316894422827474e-05,1.124091649958035e-05,4.1429,4.2143
2.08203125,0.00039793264669565876,3.4684788879224825e-05,3.078086563820857e-05,8.800964473945215e-06,4.1429,4.2143
2.0859375,0.0003950047042648965,4.2980625766384347e-05,2.1488715007248018e-05,8.312974068818165e-06,4.1429,4.2143
2.08984375,0.0004233284806958113,5.176445305867092e-05,4.6884549007400604e-05,1.2704887714961443e-05,4.1429,4.2143
2.09375,0.0004106407301625085,2.6368619058518334e-05,4.4444596981765444e-05,1.612082055085068e-05,4.1429,4.2143
2.09765625,0.0004369922120393682,7.336993258564121e-06,3.90767025253681e-05,1.953675338673989e-05,4.1429,4.2143
2.1015625,0.0004306483367727168,9.288954879072236e-06,5.078847224841685e-05,1.17289069047074e-05,4.1429,4.2143
2.10546875,0.00041259269178301665,3.175684644846264e-05,3.6148760094605915e-05,8.312974068818165e-06,4.1429,4.2143
2.109375,0.00045214024753185316,5.0300481843289826e-05,2.539263824826426e-05,1.2216897309834422e-05,4.1429,4.2143
2.11328125,0.0004570201515831235,6.30085653101396e-05,3.224483685358966e-05,2.0024743791866924e-05,4.1429,4.2143
2.1171875,0.0004848559376089112,5.127646265354389e-05,3.078086563820857e-05,2.1976705412375052e-05,4.1429,4.2143
2.12109375,0.0005097637812039368,2.6368619058518334e-05,2.4416657438010205e-05,2.539263824826426e-05,4.1429,4.2143
2.125,0.0005331873206500343,3.858871212024107e-05,2.295268622262911e-05,2.980488482795451e-05,4.1429,4.2143
2.12890625,0.0005097637812039368,3.4684788879224825e-05,4.005268333562216e-05,2.6368619058518334e-05,4.1429,4.2143
2.1328125,0.0004946157457114518,9.288954879072236e-06,5.8596318730449354e-05,2.734459986877239e-05,4.1429,4.2143
2.13671875,0.0005117157428244449,-1.4154917500572223e-05,4.200464495613029e-05,2.5880628653391296e-05,4.1429,4.2143
2.140625,0.0004594601036087586,8.312974068818165e-06,2.0024743791866924e-05,2.3928667032883167e-05,4.1429,4.2143
2.14453125,0.00048583191841916525,4.7860529817654666e-05,2.5880628653391296e-05,2.2464695817502073e-05,4.1429,4.2143
2.1484375,0.0005185476084962233,5.518038589456013e-05,5.274043386892498e-05,2.6368619058518334e-05,4.1429,4.2143
2.15234375,0.0004379681928496223,4.639655860227357e-05,3.370880806897077e-05,3.12688560433356e-05,4.1429,4.2143
2.15625,0.00040086058912642094,4.8836510627908735e-05,1.7096801361104723e-05,2.734459986877239e-05,4.1429,4.2143
2.16015625,0.00042528044231631947,3.419679847409779e-05,1.124091649958035e-05,2.3440676627756146e-05,4.1429,4.2143
2.1640625,0.00043308828879835197,1.953675338673989e-05,1.9048762981612868e-05,2.3928667032883167e-05,4.1429,4.2143
2.16796875,0.0004218645094804302,3.273282725871669e-05,5.713234751506826e-05,2.5880628653391296e-05,4.1429,4.2143
2.171875,0.0003974446562905317,4.1516654551003256e-05,3.6148760094605915e-05,2.295268622262911e-05,4.1429,4.2143
2.17578125,0.00034374537879301134,1.8560772576485816e-05,1.124091649958035e-05,2.1976705412375052e-05,4.1429,4.2143
2.1796875,0.0003329892569466697,2.0024743791866924e-05,1.4656849335469587e-05,2.490464784313724e-05,4.1429,4.2143
2.18359375,0.00038573288656748296,2.4416657438010205e-05,5.469239548943311e-05,3.12688560433356e-05,4.1429,4.2143
2.1875,0.0003720691552239261,1.8560772576485816e-05,3.517277928435186e-05,2.685660946364537e-05,4.1429,4.2143
2.19140625,0.00034569734041351943,1.075292609445333e-05,1.075292609445333e-05,2.2464695817502073e-05,4.1429,4.2143
2.1953125,0.000323229448844129,1.3680868525215515e-05,3.712474090485998e-05,2.2464695817502073e-05,4.1429,4.2143
2.19921875,0.0003271333720851453,2.051273419699396e-05,3.419679847409779e-05,2.685660946364537e-05,4.1429,4.2143
2.203125,0.0003486252828442816,1.0264935689326307e-05,3.175684644846264e-05,3.273282725871669e-05,4.1429,4.2143
2.20703125,0.0003300613145159075,2.685660946364537e-05,4.590856819714655e-05,2.3440676627756146e-05,4.1429,4.2143
2.2109375,0.0002934417011978331,2.882890401770045e-05,4.493258738689248e-05,2.5880628653391296e-05,4.1429,4.2143
2.21484375,0.00029197772998245205,4.493258738689248e-05,2.5880628653391296e-05,3.419679847409779e-05,4.1429,4.2143
2.21875,0.0003139576311467155,5.810832832532233e-05,2.1488715007248018e-05,2.882890401770045e-05,4.1429,4.2143
2.22265625,0.0003149336119569695,8.800964473945215e-06,7.824983663691142e-06,2.1976705412375052e-05,4.1429,4.2143
2.2265625,0.0003139576311467155,5.385031638055977e-06,6.849002853437071e-06,2.1488715007248018e-05,4.1429,4.2143
2.23046875,0.00033984145555199507,4.2980625766384347e-05,3.4684788879224825e-05,2.3440676627756146e-05,4.1429,4.2143
2.234375,0.0002836818930952926,2.4416657438010205e-05,7.336993258564121e-06,1.3192878120088494e-05,4.1429,4.2143
2.23828125,0.00029490567241321423,-3.3987956542305824e-06,-9.763003854428944e-06,9.776945284199257e-06,4.1429,4.2143
2.2421875,0.00036033705256733033,8.312974068818165e-06,-9.763003854428944e-06,1.17289069047074e-05,4.1429,4.2143
2.24609375,0.00034569734041351943,-8.299032639047851e-06,-4.6870607577630294e-05,3.921060422674884e-06,4.1429,4.2143
2.25,0.0003300613145159075,-3.465051451590753e-05,-4.001840897230488e-05,-4.374776464484654e-06,4.1429,4.2143
2.25390625,0.00032664538168001824,-2.6842668033875042e-05,-4.443065555199513e-05,-4.862766869611676e-06,4.1429,4.2143
2.2578125,0.00033984145555199507,-3.886786059357604e-06,-7.665835522392614e-05,-1.1714965474937059e-05,4.1429,4.2143
2.26171875,0.00033837748433661395,-3.123458168001832e-05,-7.419807026474404e-05,-1.659486952620739e-05,4.1429,4.2143
2.265625,0.00035350518689555193,2.945079612420841e-06,-4.296668433661404e-05,-7.3230518287937795e-06,4.1429,4.2143
2.26953125,0.0003027338518287937,2.1000724602120983e-05,-3.7090466541542695e-05,-3.3987956542305824e-06,4.1429,4.2143
2.2734375,0.00028758581633630875,-9.275013449301922e-06,-5.2238502034027614e-05,-2.4228148439765105e-06,4.1429,4.2143
2.27734375,0.000370605184008545,-5.350757274738697e-06,-1.9522811956969576e-05,-5.838747679865747e-06,4.1429,4.2143
2.28125,0.00037402111684443424,-4.374776464484654e-06,-3.3674533705653487e-05,-8.299032639047851e-06,4.1429,4.2143
2.28515625,0.0003276213624902723,-2.147477357747769e-05,-3.07465912748913e-05,-9.763003854428944e-06,4.1429,4.2143
2.2890625,0.00025828605909513996,-1.8058840741588482e-05,-1.934824438849489e-06,-6.835061423666758e-06,4.1429,4.2143
2.29296875,0.00022313041699244674,3.761273130998701e-05,2.457089207293791e-06,2.457089207293791e-06,4.1429,4.2143
2.296875,0.0002162985513206683,6.44725365255207e-05,1.17289069047074e-05,7.336993258564121e-06,4.1429,4.2143
2.30078125,0.0001879747748897535,6.886445017166397e-05,1.2704887714961443e-05,8.800964473945215e-06,4.1429,4.2143
2.3046875,0.00015672305602807657,6.837645976653693e-05,-1.2690946285191131e-05,7.824983663691142e-06,4.1429,4.2143
2.30859375,0.00011817181402304109,4.83485202227817e-05,8.312974068818165e-06,6.361012448310049e-06,4.1429,4.2143
2.3125,8.789607597161818e-05,4.6884549007400604e-05,2.4416657438010205e-05,8.800964473945215e-06,4.1429,4.2143
2.31640625,4.8836510627908735e-05,3.322081766384373e-05,9.776945284199257e-06,6.361012448310049e-06,4.1429,4.2143
2.3203125,3.4684788879224825e-05,1.3680868525215515e-05,9.776945284199257e-06,9.931179919126975e-07,4.1429,4.2143
2.32421875,6.740047895628288e-05,4.1516654551003256e-05,3.078086563820857e-05,1.075292609445333e-05,4.1429,4.2143
2.328125,1.4656849335469587e-05,4.493258738689248e-05,3.419679847409779e-05,1.5144839740596608e-05,4.1429,4.2143
2.33203125,7.336993258564121e-06,5.61563667048142e-05,2.1000724602120983e-05,1.7096801361104723e-05,4.1429,4.2143
2.3359375,4.7860529817654666e-05,7.032842138704507e-05,9.931179919126975e-07,1.8560772576485816e-05,4.1429,4.2143
2.33984375,3.370880806897077e-05,7.813626786907757e-05,1.075292609445333e-05,1.17289069047074e-05,4.1429,4.2143
2.34375,3.4330700175478624e-06,5.176445305867092e-05,3.322081766384373e-05,1.4168858930342537e-05,4.1429,4.2143
2.34765625,-3.025860086976425e-05,3.224483685358966e-05,2.9316894422827474e-05,1.953675338673989e-05,4.1429,4.2143
2.3515625,-1.4154917500572223e-05,3.858871212024107e-05,3.517277928435186e-05,2.1976705412375052e-05,4.1429,4.2143
2.35546875,-2.8794629654383157e-05,4.542057779201951e-05,5.2252443463797944e-05,1.5144839740596608e-05,4.1429,4.2143
2.359375,-5.809438689555199e-05,7.618430624856943e-05,5.6644357109941236e-05,1.17289069047074e-05,4.1429,4.2143
2.36328125,-0.00010642576993667506,7.86242582742046e-05,7.716028705882352e-05,1.7096801361104723e-05,4.1429,4.2143
2.3671875,-0.00011864586299839783,5.8596318730449354e-05,4.05406737407492e-05,1.953675338673989e-05,4.1429,4.2143
2.37109375,-5.565443486991685e-05,4.7860529817654666e-05,5.873022043183028e-06,1.66088109559777e-05,4.1429,4.2143
2.375,-6.834218540321968e-05,4.639655860227357e-05,5.274043386892498e-05,1.4168858930342537e-05,4.1429,4.2143
2.37890625,-7.763433603418021e-05,5.176445305867092e-05,4.346861617151138e-05,2.1488715007248018e-05,4.1429,4.2143
2.3828125,-7.763433603418021e-05,3.810072171511405e-05,1.953675338673989e-05,2.7832590273899424e-05,4.1429,4.2143
2.38671875,-7.86103168444343e-05,3.858871212024107e-05,2.685660946364537e-05,2.295268622262911e-05,4.1429,4.2143
2.390625,-5.467845405966278e-05,7.130440219729913e-05,4.6884549007400604e-05,2.734459986877239e-05,4.1429,4.2143
2.39453125,-6.88301758083467e-05,8.252818151522084e-05,4.83485202227817e-05,2.8340913612573415e-05,4.1429,4.2143
2.3984375,-8.300223049057757e-05,9.033602799725334e-05,4.493258738689248e-05,1.953675338673989e-05,4.1429,4.2143
2.40234375,-7.127012783398186e-05,9.96281786282139e-05,3.419679847409779e-05,1.8072782171358795e-05,4.1429,4.2143
2.40625,-5.51664444647898e-05,2.685660946364537e-05,3.810072171511405e-05,2.1000724602120983e-05,4.1429,4.2143
2.41015625,-8.349022089570459e-05,7.336993258564121e-06,6.0060289945830445e-05,2.539263824826426e-05,4.1429,4.2143
2.4140625,-6.73662045929656e-05,4.590856819714655e-05,4.346861617151138e-05,2.3440676627756146e-05,4.1429,4.2143
2.41796875,-4.052673231097887e-05,2.1488715007248018e-05,2.2464695817502073e-05,2.1000724602120983e-05,4.1429,4.2143
2.421875,-5.2238502034027614e-05,1.3192878120088494e-05,2.3928667032883167e-05,2.2464695817502073e-05,4.1429,4.2143
2.42578125,-2.2938744792858785e-05,4.8836510627908735e-05,3.663675049973295e-05,2.295268622262911e-05,4.1429,4.2143
2.4296875,-1.5130898310826296e-05,4.7860529817654666e-05,4.1028664145876235e-05,2.0024743791866924e-05,4.1429,4.2143
2.43359375,-2.5378696818493948e-05,2.1976705412375052e-05,5.078847224841685e-05,1.8560772576485816e-05,4.1429,4.2143
2.4375,-5.175051162890059e-05,3.224483685358966e-05,3.370880806897077e-05,1.66088109559777e-05,4.1429,4.2143
2.44140625,-7.078213742885481e-05,4.590856819714655e-05,2.882890401770045e-05,1.953675338673989e-05,4.1429,4.2143
2.4453125,2.457089207293791e-06,3.370880806897077e-05,3.4684788879224825e-05,2.4416657438010205e-05,4.1429,4.2143
2.44921875,2.7832590273899424e-05,4.8836510627908735e-05,5.61563667048142e-05,2.4416657438010205e-05,4.1429,4.2143
2.453125,2.490464784313724e-05,7.716028705882352e-05,8.00882294895857e-05,2.1488715007248018e-05,4.1429,4.2143
2.45703125,-1.9034821551842555e-05,8.594411435111007e-05,5.6644357109941236e-05,1.7584791766231774e-05,4.1429,4.2143
2.4609375,-2.2938744792858785e-05,6.642449814602882e-05,2.734459986877239e-05,2.1976705412375052e-05,4.1429,4.2143
2.46484375,7.179239260242616e-05,5.420440508430607e-05,2.882890401770045e-05,2.539263824826426e-05,4.1429,4.2143
2.46875,8.35041623254749e-05,5.61563667048142e-05,4.8836510627908735e-05,2.1000724602120983e-05,4.1429,4.2143
2.47265625,5.3228424274052014e-05,4.590856819714655e-05,3.6148760094605915e-05,1.953675338673989e-05,4.1429,4.2143
2.4765625,4.346861617151138e-05,6.0060289945830445e-05,4.05406737407492e-05,1.66088109559777e-05,4.1429,4.2143
2.48046875,5.9572299540703424e-05,4.346861617151138e-05,5.762033792019529e-05,2.2464695817502073e-05,4.1429,4.2143
2.484375,7.86242582742046e-05,4.2980625766384347e-05,5.518038589456013e-05,3.370880806897077e-05,4.1429,4.2143
2.48828125,6.593650774090179e-05,6.152426116121154e-05,5.2252443463797944e-05,3.175684644846264e-05,4.1429,4.2143
2.4921875,5.9572299540703424e-05,5.713234751506826e-05,6.788846936140991e-05,3.224483685358966e-05,4.1429,4.2143
2.49609375,5.274043386892498e-05,5.420440508430607e-05,6.152426116121154e-05,2.490464784313724e-05,4.1429,4.2143
2.5,4.83485202227817e-05,3.4684788879224825e-05,5.176445305867092e-05,1.8072782171358795e-05,4.1429,4.2143
2.50390625,6.398454612039366e-05,3.90767025253681e-05,5.762033792019529e-05,2.3928667032883167e-05,4.1429,4.2143
2.5078125,8.057621989471272e-05,5.274043386892498e-05,4.8836510627908735e-05,2.5880628653391296e-05,4.1429,4.2143
2.51171875,7.08164117921721e-05,3.566076968947888e-05,2.685660946364537e-05,2.6368619058518334e-05,4.1429,4.2143
2.515625,7.520832543831538e-05,2.539263824826426e-05,2.685660946364537e-05,2.9316894422827474e-05,4.1429,4.2143
2.51953125,0.00010402009227435718,4.981249143816279e-05,3.370880806897077e-05,2.490464784313724e-05,4.1429,4.2143
2.5234375,9.277598002288852e-05,5.127646265354389e-05,4.2980625766384347e-05,2.051273419699396e-05,4.1429,4.2143
2.52734375,0.00010694803470511936,5.3228424274052014e-05,5.61563667048142e-05,2.4416657438010205e-05,4.1429,4.2143
2.53125,0.00010353210186923016,6.349655571526664e-05,6.398454612039366e-05,2.882890401770045e-05,4.1429,4.2143
2.53515625,8.057621989471272e-05,5.3228424274052014e-05,4.981249143816279e-05,2.7832590273899424e-05,4.1429,4.2143
2.5390625,0.00012109975645380327,4.1028664145876235e-05,2.980488482795451e-05,2.539263824826426e-05,4.1429,4.2143
2.54296875,0.0001289076029358358,3.370880806897077e-05,3.663675049973295e-05,2.980488482795451e-05,4.1429,4.2143
2.546875,0.00012256372766918436,4.005268333562216e-05,2.051273419699396e-05,2.685660946364537e-05,4.1429,4.2143
2.55078125,6.691248855115584e-05,6.152426116121154e-05,3.224483685358966e-05,2.3440676627756146e-05,4.1429,4.2143
2.5546875,3.566076968947888e-05,6.201225156633858e-05,4.05406737407492e-05,1.7584791766231774e-05,4.1429,4.2143
2.55859375,0.0001103639675410086,6.9352440576791e-05,4.2492635361257325e-05,1.4168858930342537e-05,4.1429,4.2143
2.5625,0.0001494031999511711,4.542057779201951e-05,4.932450103303576e-05,2.539263824826426e-05,4.1429,4.2143
2.56640625,0.0001377117631616693,1.563283014572363e-05,5.810832832532233e-05,3.0292875233081543e-05,4.1429,4.2143
2.5703125,0.00010060415943846796,-9.588436285954173e-07,6.201225156633858e-05,3.0292875233081543e-05,4.1429,4.2143
2.57421875,9.718822660257875e-05,1.2216897309834422e-05,4.590856819714655e-05,2.9316894422827474e-05,4.1429,4.2143
2.578125,0.0001303715741512169,4.346861617151138e-05,3.273282725871669e-05,2.490464784313724e-05,4.1429,4.2143
2.58203125,0.00012793162212558173,4.6884549007400604e-05,4.346861617151138e-05,2.1976705412375052e-05,4.1429,4.2143
2.5859375,0.0001215877468589303,5.176445305867092e-05,2.3440676627756146e-05,2.7832590273899424e-05,4.1429,4.2143
2.58984375,0.00010743602511024641,1.563283014572363e-05,-1.0250994259555966e-05,2.734459986877239e-05,4.1429,4.2143
2.59375,0.00011085195794613562,1.5144839740596608e-05,4.05406737407492e-05,2.295268622262911e-05,4.1429,4.2143
2.59765625,9.033602799725334e-05,3.566076968947888e-05,7.716028705882352e-05,2.295268622262911e-05,4.1429,4.2143
2.6015625,0.00010158014024872203,2.3440676627756146e-05,2.882890401770045e-05,2.734459986877239e-05,4.1429,4.2143
2.60546875,0.0001303715741512169,8.800964473945215e-06,5.05127586785676e-07,2.6368619058518334e-05,4.1429,4.2143
2.609375,8.106421029983975e-05,9.776945284199257e-06,1.563283014572363e-05,1.563283014572363e-05,4.1429,4.2143
2.61328125,8.057621989471272e-05,-5.838747679865747e-06,7.824983663691142e-06,1.8072782171358795e-05,4.1429,4.2143
2.6171875,0.00012353970847943843,6.361012448310049e-06,2.9316894422827474e-05,3.224483685358966e-05,4.1429,4.2143
2.62109375,0.000133319849515526,4.542057779201951e-05,4.6884549007400604e-05,3.12688560433356e-05,4.1429,4.2143
2.625,0.0001230517180743114,6.496052693064773e-05,2.1488715007248018e-05,2.6368619058518334e-05,4.1429,4.2143
2.62890625,0.00010353210186923016,8.838406637674523e-05,2.2464695817502073e-05,2.490464784313724e-05,4.1429,4.2143
2.6328125,0.00010694803470511936,5.713234751506826e-05,2.539263824826426e-05,2.539263824826426e-05,4.1429,4.2143
2.63671875,0.00011963578523842218,2.295268622262911e-05,8.312974068818165e-06,2.5880628653391296e-05,4.1429,4.2143
2.640625,0.0001215877468589303,3.0292875233081543e-05,1.2216897309834422e-05,2.685660946364537e-05,4.1429,4.2143
2.64453125,8.301617192034788e-05,1.2216897309834422e-05,2.5880628653391296e-05,2.1000724602120983e-05,4.1429,4.2143
2.6484375,7.130440219729913e-05,-2.3914725603112854e-05,3.4684788879224825e-05,2.4416657438010205e-05,4.1429,4.2143
2.65234375,0.00011914779483329516,6.361012448310049e-06,3.6148760094605915e-05,3.370880806897077e-05,4.1429,4.2143
2.65625,0.00014649559045395587,3.6148760094605915e-05,2.1488715007248018e-05,3.273282725871669e-05,4.1429,4.2143
2.66015625,0.0001455196096437018,2.3928667032883167e-05,5.385031638055977e-06,2.980488482795451e-05,4.1429,4.2143
2.6640625,0.00012256372766918436,2.490464784313724e-05,3.810072171511405e-05,2.734459986877239e-05,4.1429,4.2143
2.66796875,0.00013429583032578007,3.566076968947888e-05,3.566076968947888e-05,3.224483685358966e-05,4.1429,4.2143
2.671875,0.0001230517180743114,2.2464695817502073e-05,9.776945284199257e-06,3.370880806897077e-05,4.1429,4.2143
2.67578125,0.00010987597713588155,2.3440676627756146e-05,3.6148760094605915e-05,2.7832590273899424e-05,4.1429,4.2143
2.6796875,0.0001230517180743114,3.663675049973295e-05,3.12688560433356e-05,2.539263824826426e-05,4.1429,4.2143
2.68359375,0.00011280391956664375,2.6368619058518334e-05,2.539263824826426e-05,1.9048762981612868e-05,4.1429,4.2143
2.6875,0.00010987597713588155,5.810832832532233e-05,4.639655860227357e-05,1.8560772576485816e-05,4.1429,4.2143
2.69140625,0.00011133994835126266,7.032842138704507e-05,3.224483685358966e-05,2.490464784313724e-05,4.1429,4.2143
2.6953125,0.00011817181402304109,9.776945284199257e-06,1.17289069047074e-05,2.8340913612573415e-05,4.1429,4.2143
2.69921875,0.000133319849515526,7.824983663691142e-06,-5.838747679865747e-06,2.4416657438010205e-05,4.1429,4.2143
2.703125,9.277598002288852e-05,1.612082055085068e-05,-1.708285993133441e-05,1.8560772576485816e-05,4.1429,4.2143
2.70703125,0.00010743602511024641,1.66088109559777e-05,2.3928667032883167e-05,1.66088109559777e-05,4.1429,4.2143
2.7109375,0.0001669911874692912,5.176445305867092e-05,4.542057779201951e-05,2.2464695817502073e-05,4.1429,4.2143
2.71484375,0.0001498911903562981,6.054828035095748e-05,1.7584791766231774e-05,2.539263824826426e-05,4.1429,4.2143
2.71875,0.00011426789078202484,2.882890401770045e-05,3.712474090485998e-05,2.734459986877239e-05,4.1429,4.2143
2.72265625,0.00011426789078202484,3.175684644846264e-05,2.490464784313724e-05,2.5880628653391296e-05,4.1429,4.2143
2.7265625,0.00013966372478217744,3.322081766384373e-05,-1.3666927095445202e-05,2.295268622262911e-05,4.1429,4.2143
2.73046875,0.00012988358374608984,1.8072782171358795e-05,4.981249143816279e-05,3.0292875233081543e-05,4.1429,4.2143
2.734375,0.00013527181113603414,4.981249143816279e-05,6.984043098191802e-05,3.12688560433356e-05,4.1429,4.2143
2.73828125,0.00010158014024872203,5.3716414679179035e-05,5.518038589456013e-05,3.0292875233081543e-05,4.1429,4.2143
2.7421875,8.936004718699927e-05,3.810072171511405e-05,6.691248855115584e-05,2.980488482795451e-05,4.1429,4.2143
2.74609375,0.00015965099845883875,1.9048762981612868e-05,3.712474090485998e-05,2.882890401770045e-05,4.1429,4.2143
2.75,0.00015233114238193327,9.776945284199257e-06,1.7584791766231774e-05,3.12688560433356e-05,4.1429,4.2143
2.75390625,0.0001318558783001449,2.3440676627756146e-05,2.490464784313724e-05,2.882890401770045e-05,4.1429,4.2143
2.7578125,0.00012402769888456545,1.9048762981612868e-05,2.490464784313724e-05,2.4416657438010205e-05,4.1429,4.2143
2.76171875,0.0001440556384283207,2.7832590273899424e-05,3.712474090485998e-05,2.734459986877239e-05,4.1429,4.2143
2.765625,0.0001669911874692912,4.590856819714655e-05,5.518038589456013e-05,3.517277928435186e-05,4.1429,4.2143
2.76953125,0.00015769903683833064,4.542057779201951e-05,5.8596318730449354e-05,3.078086563820857e-05,4.1429,4.2143
2.7734375,0.00014307965761806664,5.078847224841685e-05,6.349655571526664e-05,2.8340913612573415e-05,4.1429,4.2143
2.77734375,0.00014307965761806664,4.6884549007400604e-05,4.005268333562216e-05,3.078086563820857e-05,4.1429,4.2143
2.78125,0.00016404291210498202,4.639655860227357e-05,2.1000724602120983e-05,2.490464784313724e-05,4.1429,4.2143
2.78515625,0.00016453090251010904,4.1028664145876235e-05,4.200464495613029e-05,2.685660946364537e-05,4.1429,4.2143
2.7890625,0.0001689431490897993,3.712474090485998e-05,4.2492635361257325e-05,3.273282725871669e-05,4.1429,4.2143
2.79296875,0.00018504683245899132,2.490464784313724e-05,5.127646265354389e-05,3.370880806897077e-05,4.1429,4.2143
2.796875,0.00017919094759746696,2.9316894422827474e-05,5.469239548943311e-05,3.224483685358966e-05,4.1429,4.2143
2.80078125,0.00019578262137178603,4.8836510627908735e-05,4.639655860227357e-05,3.0292875233081543e-05,4.1429,4.2143
2.8046875,0.0001845588420538643,4.05406737407492e-05,4.7860529817654666e-05,3.224483685358966e-05,4.1429,4.2143
2.80859375,0.00018065491881284805,4.493258738689248e-05,3.810072171511405e-05,3.322081766384373e-05,4.1429,4.2143
2.8125,0.00016991912990005337,3.761273130998701e-05,2.3928667032883167e-05,2.9316894422827474e-05,4.1429,4.2143
2.81640625,0.00012695564131532766,2.051273419699396e-05,2.5880628653391296e-05,3.078086563820857e-05,4.1429,4.2143
2.8203125,0.00019724659258716712,1.7584791766231774e-05,6.9352440576791e-05,4.2980625766384347e-05,4.1429,4.2143
2.82421875,0.0002416943853208209,2.051273419699396e-05,5.9572299540703424e-05,4.05406737407492e-05,4.1429,4.2143
2.828125,0.0002490142413977264,2.882890401770045e-05,2.490464784313724e-05,3.4684788879224825e-05,4.1429,4.2143
2.83203125,0.0002563340974746318,3.273282725871669e-05,2.734459986877239e-05,3.566076968947888e-05,4.1429,4.2143
2.8359375,0.0002978336148439764,3.663675049973295e-05,3.322081766384373e-05,3.0292875233081543e-05,4.1429,4.2143
2.83984375,0.00042381647110093835,3.419679847409779e-05,4.05406737407492e-05,2.882890401770045e-05,4.1429,4.2143
2.84375,0.0004706838829266803,3.956469293049514e-05,3.6148760094605915e-05,3.419679847409779e-05,4.1429,4.2143
2.84765625,0.0004829039759884031,1.612082055085068e-05,3.761273130998701e-05,2.9316894422827474e-05,4.1429,4.2143
2.8515625,0.0005014476113832302,-4.862766869611676e-06,2.734459986877239e-05,2.685660946364537e-05,4.1429,4.2143
2.85546875,0.0005322113398397802,2.882890401770045e-05,2.051273419699396e-05,3.12688560433356e-05,4.1429,4.2143
2.859375,0.0005678549723476005,3.90767025253681e-05,2.5880628653391296e-05,3.175684644846264e-05,4.1429,4.2143
2.86328125,0.0005517512889784084,3.663675049973295e-05,2.9316894422827474e-05,2.882890401770045e-05,4.1429,4.2143
2.8671875,0.0005248914837628747,4.8836510627908735e-05,4.83485202227817e-05,3.0292875233081543e-05,4.1429,4.2143
2.87109375,0.0005009596209781033,3.517277928435186e-05,5.0300481843289826e-05,3.273282725871669e-05,4.1429,4.2143
2.875,0.0004350402504188601,3.90767025253681e-05,4.1028664145876235e-05,3.175684644846264e-05,4.1429,4.2143
2.87890625,0.0003354292089723048,3.370880806897077e-05,3.0292875233081543e-05,2.734459986877239e-05,4.1429,4.2143
2.8828125,0.0003256694008697642,1.17289069047074e-05,2.5880628653391296e-05,2.490464784313724e-05,4.1429,4.2143
2.88671875,0.0003452093500083924,1.953675338673989e-05,3.663675049973295e-05,2.8340913612573415e-05,4.1429,4.2143
2.890625,0.00030468581344930186,6.44725365255207e-05,5.6644357109941236e-05,2.490464784313724e-05,4.1429,4.2143
2.89453125,0.0003452093500083924,8.789607597161818e-05,6.544851733577475e-05,4.737253941252764e-05,4.1429,4.2143
2.8984375,0.00039402872345464254,3.90767025253681e-05,5.908430913557639e-05,6.252057490501256e-05,4.1429,4.2143
2.90234375,0.0003769490592751964,3.921060422674884e-06,6.849002853437071e-06,3.712474090485998e-05,4.1429,4.2143
2.90625,0.00035789710054169523,-2.147477357747769e-05,-2.3914725603112854e-05,4.932450103303576e-05,4.1429,4.2143
2.91015625,0.0003608250429724574,-5.2238502034027614e-05,-2.635467762874802e-05,7.130440219729913e-05,4.1429,4.2143
2.9140625,0.0003793890113008316,-8.007428805981539e-05,-7.273409904936295e-05,5.274043386892498e-05,4.1429,4.2143
2.91796875,0.00036619293742885475,-0.00010105787548027772,-9.276203859311817e-05,6.252057490501256e-05,4.1429,4.2143
2.921875,0.0003754850880598153,-0.00010740175074692914,-0.00010593777953154803,7.276837341268022e-05,4.1429,4.2143
2.92578125,0.00034325738838788427,-0.0001357255271778439,-0.00011522993016250858,7.86242582742046e-05,4.1429,4.2143
2.9296875,0.0003246934200595101,-0.0001962770032806897,-0.00012938165191119248,9.96281786282139e-05,4.1429,4.2143
2.93359375,0.0003779250400854505,-0.0001962770032806897,-0.00013670150798809793,0.00010060415943846796,4.1429,4.2143
2.9375,0.0003686328894544899,-0.0001909091088242924,-0.000153313514695964,0.00010987597713588155,4.1429,4.2143
2.94140625,0.0003569211197314412,-0.00018749317598840313,-0.00014011744082398716,0.00011963578523842218,4.1429,4.2143
2.9453125,0.00033642552271610586,-0.00016209734198825053,-9.129806737773708e-05,0.00011133994835126266,4.1429,4.2143
2.94921875,0.00032371743924925606,-0.0001708811692805371,-8.641816332646678e-05,0.00011670784280766,4.1429,4.2143
2.953125,0.0003466733212237735,-0.00015282552429083694,-8.788213454184787e-05,0.00011329190997177078,4.1429,4.2143
2.95703125,0.0003515532252750438,-0.00011425394935225454,-8.251424008545052e-05,0.00010011616903334093,4.1429,4.2143
2.9609375,0.00035496915811093305,-9.666596183413443e-05,-6.492625256733043e-05,0.000101092149843595,4.1429,4.2143
2.96484375,0.00036180102378271145,-7.763433603418021e-05,-4.491864595712215e-05,9.57039224536507e-05,4.1429,4.2143
2.96875,0.00037304513603418014,-5.809438689555199e-05,-2.6842668033875042e-05,8.448014313572898e-05,4.1429,4.2143
2.97265625,0.00036277700459296555,-3.123458168001832e-05,-1.4642907905699246e-05,7.86242582742046e-05,4.1429,4.2143
2.9765625,0.00037304513603418014,-4.2478693931487016e-05,1.7137181658654297e-08,7.667229665369647e-05,4.1429,4.2143
2.98046875,0.0003950047042648965,-3.8554437756923786e-05,7.824983663691142e-06,7.032842138704507e-05,4.1429,4.2143
2.984375,0.0003496012636545357,-3.172257208514534e-05,2.1976705412375052e-05,6.740047895628288e-05,4.1429,4.2143
2.98828125,0.00036570494702372773,-5.51664444647898e-05,3.761273130998701e-05,6.691248855115584e-05,4.1429,4.2143
2.9921875,0.00039793264669565876,-3.904242816205081e-05,4.346861617151138e-05,6.252057490501256e-05,4.1429,4.2143
2.99609375,0.0003784130304905775,-9.763003854428944e-06,3.810072171511405e-05,6.201225156633858e-05,4.1429,4.2143
3.0,0.0003725571456290531,2.6368619058518334e-05,3.517277928435186e-05,6.398454612039366e-05,4.1429,4.2143
3.00390625,0.0003828049441367208,3.517277928435186e-05,6.152426116121154e-05,6.152426116121154e-05,4.1429,4.2143
3.0078125,0.00039402872345464254,2.980488482795451e-05,0.00010450808267948421,6.152426116121154e-05,4.1429,4.2143
3.01171875,0.0003525292060852979,3.566076968947888e-05,9.131200880750743e-05,5.810832832532233e-05,4.1429,4.2143
3.015625,0.0003491132732494087,4.493258738689248e-05,4.200464495613029e-05,5.566837629968717e-05,4.1429,4.2143
3.01953125,0.00031151767912108026,4.493258738689248e-05,4.6884549007400604e-05,5.274043386892498e-05,4.1429,4.2143
3.0234375,0.0002807539506645304,5.274043386892498e-05,7.374435422293429e-05,5.2252443463797944e-05,4.1429,4.2143
3.02734375,0.00032371743924925606,5.0300481843289826e-05,8.252818151522084e-05,5.0300481843289826e-05,4.1429,4.2143
3.03125,0.00031883753519798574,5.8596318730449354e-05,8.789607597161818e-05,4.6884549007400604e-05,4.1429,4.2143
3.03515625,0.00033347724735179664,8.936004718699927e-05,0.00010792401551537344,4.1516654551003256e-05,4.1429,4.2143
3.0390625,0.00035789710054169523,7.911224867933163e-05,9.767621700770578e-05,4.639655860227357e-05,4.1429,4.2143
3.04296875,0.0003881728385931182,7.276837341268022e-05,0.00010792401551537344,5.078847224841685e-05,4.1429,4.2143
3.046875,0.0004233284806958113,8.789607597161818e-05,8.692009516136413e-05,4.493258738689248e-05,4.1429,4.2143
3.05078125,0.00041161671097276255,7.276837341268022e-05,3.810072171511405e-05,4.590856819714655e-05,4.1429,4.2143
3.0546875,0.0003808529825162127,7.960023908445866e-05,8.4968133540856e-05,4.1028664145876235e-05,4.1429,4.2143
3.05859375,0.0003779250400854505,0.00010402009227435718,9.914018822308687e-05,4.1516654551003256e-05,4.1429,4.2143
3.0625,0.000401348579531548,0.00011231592916151671,8.692009516136413e-05,4.005268333562216e-05,4.1429,4.2143
3.06640625,0.00036424097580834667,8.64321047562371e-05,9.131200880750743e-05,3.712474090485998e-05,4.1429,4.2143
3.0703125,0.00031688557357747765,8.545612394598304e-05,6.788846936140991e-05,4.200464495613029e-05,4.1429,4.2143
3.07421875,0.00034569734041351943,9.767621700770578e-05,6.9352440576791e-05,4.1516654551003256e-05,4.1429,4.2143
3.078125,0.0002861218451209277,7.569631584344241e-05,8.838406637674523e-05,4.2492635361257325e-05,4.1429,4.2143
3.08203125,0.0002870978259311818,5.3716414679179035e-05,0.00010646004429999234,4.493258738689248e-05,4.1429,4.2143
3.0859375,0.0003295733241107804,6.103627075608452e-05,9.472794164339663e-05,4.1516654551003256e-05,4.1429,4.2143
3.08984375,0.00027343409458762487,7.08164117921721e-05,6.0060289945830445e-05,4.395660657663842e-05,4.1429,4.2143
3.09375,0.00020019486795147626,7.813626786907757e-05,6.886445017166397e-05,4.1028664145876235e-05,4.1429,4.2143
3.09765625,0.00016943113949492635,7.911224867933163e-05,7.22803830075532e-05,3.663675049973295e-05,4.1429,4.2143
3.1015625,0.00022654634982833595,7.813626786907757e-05,7.520832543831538e-05,4.005268333562216e-05,4.1429,4.2143
3.10546875,0.00022654634982833595,7.960023908445866e-05,7.325636381780725e-05,4.2492635361257325e-05,4.1429,4.2143
3.109375,0.00019970687754634921,4.395660657663842e-05,6.103627075608452e-05,4.200464495613029e-05,4.1429,4.2143
3.11328125,0.00013868774397192337,3.0292875233081543e-05,6.398454612039366e-05,4.2492635361257325e-05,4.1429,4.2143
3.1171875,0.00012256372766918436,2.882890401770045e-05,3.419679847409779e-05,4.005268333562216e-05,4.1429,4.2143
3.12109375,0.00019041472691538866,2.490464784313724e-05,2.8340913612573415e-05,3.273282725871669e-05,4.1429,4.2143
3.125,0.00017333506273594257,2.539263824826426e-05,4.346861617151138e-05,3.6148760094605915e-05,4.1429,4.2143
3.12890625,0.00011719583321278703,5.908430913557639e-05,4.395660657663842e-05,4.395660657663842e-05,4.1429,4.2143
3.1328125,4.005268333562216e-05,7.764827746395054e-05,6.544851733577475e-05,4.395660657663842e-05,4.1429,4.2143
3.13671875,-7.3230518287937795e-06,4.493258738689248e-05,6.0060289945830445e-05,4.05406737407492e-05,4.1429,4.2143
3.140625,-1.757085033646143e-05,2.9316894422827474e-05,6.054828035095748e-05,4.005268333562216e-05,4.1429,4.2143
3.14453125,-4.101472271610592e-05,2.685660946364537e-05,6.984043098191802e-05,3.761273130998701e-05,4.1429,4.2143
3.1484375,-6.88301758083467e-05,2.7832590273899424e-05,3.810072171511405e-05,3.810072171511405e-05,4.1429,4.2143
3.15234375,-8.056227846494241e-05,1.9048762981612868e-05,1.4656849335469587e-05,3.6148760094605915e-05,4.1429,4.2143
3.15625,-4.7846588387884336e-05,2.051273419699396e-05,2.3440676627756146e-05,5.078847224841685e-05,4.1429,4.2143
3.16015625,-2.8794629654383157e-05,2.4416657438010205e-05,2.9316894422827474e-05,5.078847224841685e-05,4.1429,4.2143
3.1640625,7.824983663691142e-06,2.980488482795451e-05,4.981249143816279e-05,4.346861617151138e-05,4.1429,4.2143
3.16796875,6.544851733577475e-05,1.17289069047074e-05,3.419679847409779e-05,5.3228424274052014e-05,4.1429,4.2143
3.171875,3.224483685358966e-05,-6.835061423666758e-06,1.953675338673989e-05,4.346861617151138e-05,4.1429,4.2143
3.17578125,5.469239548943311e-05,5.873022043183028e-06,1.4811083970397476e-06,4.4444596981765444e-05,4.1429,4.2143
3.1796875,0.00013429583032578007,-4.052673231097887e-05,-3.904242816205081e-05,4.346861617151138e-05,4.1429,4.2143
3.18359375,0.00013429583032578007,-7.812232643930723e-05,-5.66304156801709e-05,4.1516654551003256e-05,4.1429,4.2143
3.1875,0.0001318558783001449,-8.54421825162127e-05,-9.129806737773708e-05,4.395660657663842e-05,4.1429,4.2143
3.19140625,9.96281786282139e-05,-0.00013474954636758985,-0.00014011744082398716,5.713234751506826e-05,4.1429,4.2143
3.1953125,0.000101092149843595,-0.0001962770032806897,-0.00016356131320363162,6.103627075608452e-05,4.1429,4.2143
3.19921875,0.00014600760004882882,-0.0001948130320653086,-0.00019871695530632484,6.103627075608452e-05,4.1429,4.2143
3.203125,0.00016845515868467228,-0.0001894451376089113,-0.00020798877300373845,6.691248855115584e-05,4.1429,4.2143
3.20703125,0.00011914779483329516,-0.00021337700039368273,-0.00021288900998855576,7.08164117921721e-05,4.1429,4.2143
3.2109375,0.00012256372766918436,-0.00022996867416800182,-0.0002568284793835355,7.618430624856943e-05,4.1429,4.2143
3.21484375,0.00021190663767452501,-0.0002509725945220111,-0.0002695162299168383,7.86242582742046e-05,4.1429,4.2143
3.21875,0.00022752233063859001,-0.0002597564218142977,-0.00027293216275272756,7.911224867933163e-05,4.1429,4.2143
3.22265625,0.000227034340233463,-0.00026366034505531395,-0.000265124316270695,8.4968133540856e-05,4.1429,4.2143
3.2265625,0.00020458678159761956,-0.0002602444122194247,-0.0002553645081681544,8.789607597161818e-05,4.1429,4.2143
3.23046875,0.0001845588420538643,-0.0002504846041168841,-0.00027000422032196533,9.082401840238036e-05,4.1429,4.2143
3.234375,0.00017431104354619664,-0.00023875250146028837,-0.0002558524985732814,8.936004718699927e-05,4.1429,4.2143
3.23828125,0.00015672305602807657,-0.00018456523355764095,-0.00019920494571145188,8.057621989471272e-05,4.1429,4.2143
3.2421875,0.00012841961253070875,-0.00014158141203936828,-0.00014648164902418556,8.00882294895857e-05,4.1429,4.2143
3.24609375,9.96281786282139e-05,-0.00012059782461890591,-0.00012157380542916001,6.30085653101396e-05,4.1429,4.2143
3.25,8.252818151522084e-05,-0.00010937404530098421,-9.959390426489661e-05,6.349655571526664e-05,4.1429,4.2143
3.25390625,4.542057779201951e-05,-9.422600980849927e-05,-6.395027175707639e-05,6.788846936140991e-05,4.1429,4.2143
3.2578125,5.2252443463797944e-05,-4.491864595712215e-05,-3.953041856717786e-05,5.078847224841685e-05,4.1429,4.2143
3.26171875,0.00010255612105897609,-2.0010802362096597e-05,-2.4402716008239875e-05,4.737253941252764e-05,4.1429,4.2143
3.265625,7.374435422293429e-05,-4.708532234683957e-07,2.945079612420841e-06,4.395660657663842e-05,4.1429,4.2143
3.26953125,0.00010158014024872203,2.5880628653391296e-05,4.897041232928956e-06,4.2980625766384347e-05,4.1429,4.2143
3.2734375,0.0001572110464332036,1.17289069047074e-05,1.17289069047074e-05,3.810072171511405e-05,4.1429,4.2143
3.27734375,0.00016257894088960093,3.078086563820857e-05,4.7860529817654666e-05,2.7832590273899424e-05,4.1429,4.2143
3.28125,0.00014307965761806664,9.375196083314257e-05,8.4968133540856e-05,3.0292875233081543e-05,4.1429,4.2143
3.28515625,9.670023619745171e-05,0.0001245156892896925,0.00010548406348973827,3.712474090485998e-05,4.1429,4.2143
3.2890625,0.00010353210186923016,0.00011231592916151671,0.00010889999632562751,3.4684788879224825e-05,4.1429,4.2143
3.29296875,0.00011621985240253298,9.326397042801554e-05,0.00010694803470511936,2.9316894422827474e-05,4.1429,4.2143
3.296875,0.0001245156892896925,0.00011182793875638969,0.00010694803470511936,2.3440676627756146e-05,4.1429,4.2143
3.30078125,6.593650774090179e-05,0.0001362477919462882,0.00011329190997177078,1.7584791766231774e-05,4.1429,4.2143
3.3046875,2.3928667032883167e-05,0.00012256372766918436,0.00010060415943846796,1.563283014572363e-05,4.1429,4.2143
3.30859375,5.3716414679179035e-05,9.718822660257875e-05,8.692009516136413e-05,1.9048762981612868e-05,4.1429,4.2143
3.3125,3.370880806897077e-05,0.00010402009227435718,0.00010889999632562751,2.685660946364537e-05,4.1429,4.2143
3.31640625,9.288954879072236e-06,0.00013868774397192337,0.0001259796605050736,2.685660946364537e-05,4.1429,4.2143
3.3203125,-3.3674533705653487e-05,0.00014161568640268555,0.00013966372478217744,2.7832590273899424e-05,4.1429,4.2143
3.32421875,-5.467845405966278e-05,9.767621700770578e-05,0.00013234386870527196,3.224483685358966e-05,4.1429,4.2143
3.328125,-5.711840608529795e-05,9.521593204852366e-05,0.0001303715741512169,3.12688560433356e-05,4.1429,4.2143
3.33203125,-7.22461086442359e-05,0.00011329190997177078,0.0001498911903562981,3.322081766384373e-05,4.1429,4.2143
3.3359375,-0.00010447380831616694,0.0001245156892896925,0.0001469835808590829,3.712474090485998e-05,4.1429,4.2143
3.33984375,-0.0001342615559624628,0.0001406397055924315,0.00014259166721293962,2.882890401770045e-05,4.1429,4.2143
3.34375,-0.00010544978912642099,0.00011573186199740594,0.0001215877468589303,2.3440676627756146e-05,4.1429,4.2143
3.34765625,-9.276203859311817e-05,9.81642074128328e-05,9.375196083314257e-05,2.2464695817502073e-05,4.1429,4.2143
3.3515625,-2.9282620059510205e-05,0.00010743602511024641,0.00010060415943846796,2.1000724602120983e-05,4.1429,4.2143
3.35546875,5.3716414679179035e-05,0.00012012377564354921,0.00010792401551537344,2.980488482795451e-05,4.1429,4.2143
3.359375,2.9316894422827474e-05,0.00011670784280766,0.00011914779483329516,2.980488482795451e-05,4.1429,4.2143
3.36328125,3.4684788879224825e-05,0.00010694803470511936,0.0001347838207309071,2.882890401770045e-05,4.1429,4.2143
3.3671875,9.131200880750743e-05,9.81642074128328e-05,0.00012988358374608984,3.12688560433356e-05,4.1429,4.2143
3.37109375,0.00011573186199740594,4.932450103303576e-05,0.00011768382361791407,3.12688560433356e-05,4.1429,4.2143
3.375,0.00010353210186923016,6.544851733577475e-05,0.00010353210186923016,3.0292875233081543e-05,4.1429,4.2143
3.37890625,0.00011085195794613562,0.0001103639675410086,0.00010304411146410312,2.8340913612573415e-05,4.1429,4.2143
3.3828125,0.00013283185911039898,0.00010792401551537344,0.00011231592916151671,3.078086563820857e-05,4.1429,4.2143
3.38671875,0.00012012377564354921,9.767621700770578e-05,0.00010353210186923016,2.734459986877239e-05,4.1429,4.2143
3.390625,0.0001542831040024414,0.00012500367969481952,0.00010060415943846796,1.17289069047074e-05,4.1429,4.2143
3.39453125,0.00017138310111543446,0.0001357598015411612,0.00010841200592050046,2.051273419699396e-05,4.1429,4.2143
3.3984375,0.000211418647269398,9.326397042801554e-05,8.35041623254749e-05,4.005268333562216e-05,4.1429,4.2143
3.40234375,0.0003290853337056534,7.911224867933163e-05,7.276837341268022e-05,4.1028664145876235e-05,4.1429,4.2143
3.40625,0.00036716891823910885,7.472033503318834e-05,8.545612394598304e-05,4.1028664145876235e-05,4.1429,4.2143
3.41015625,0.0003515532252750438,7.667229665369647e-05,8.984803759212632e-05,5.3716414679179035e-05,4.1429,4.2143
3.4140625,0.00034374537879301134,8.984803759212632e-05,7.960023908445866e-05,5.713234751506826e-05,4.1429,4.2143
3.41796875,0.00034130542676737613,8.740808556649116e-05,8.740808556649116e-05,5.713234751506826e-05,4.1429,4.2143
3.421875,0.00032225346803387494,6.593650774090179e-05,0.00010011616903334093,7.911224867933163e-05,4.1429,4.2143
3.42578125,0.0003320132761364156,5.566837629968717e-05,8.057621989471272e-05,8.301617192034788e-05,4.1429,4.2143
3.4296875,0.0003442333691981383,7.813626786907757e-05,8.057621989471272e-05,7.86242582742046e-05,4.1429,4.2143
3.43359375,0.0002988095956542305,5.469239548943311e-05,9.228798961776147e-05,8.399215273060195e-05,4.1429,4.2143
3.4375,0.0003022458614236667,4.005268333562216e-05,9.179999921263445e-05,8.448014313572898e-05,4.1429,4.2143
3.44140625,0.0003012495476798657,6.103627075608452e-05,8.936004718699927e-05,8.64321047562371e-05,4.1429,4.2143
3.4453125,0.00029100174917219806,4.8836510627908735e-05,9.670023619745171e-05,8.252818151522084e-05,4.1429,4.2143
3.44921875,0.0002953936628183413,4.1516654551003256e-05,9.718822660257875e-05,8.057621989471272e-05,4.1429,4.2143
3.453125,0.00023779046207980463,6.691248855115584e-05,9.033602799725334e-05,8.740808556649116e-05,4.1429,4.2143
3.45703125,0.00023240223468986033,7.032842138704507e-05,9.914018822308687e-05,7.960023908445866e-05,4.1429,4.2143
3.4609375,0.0002631659631464103,7.472033503318834e-05,0.00010450808267948421,6.886445017166397e-05,4.1429,4.2143
3.46484375,0.0002495022318028534,7.960023908445866e-05,0.00010304411146410312,7.179239260242616e-05,4.1429,4.2143
3.46875,0.00024608629896696416,6.152426116121154e-05,0.00010402009227435718,7.618430624856943e-05,4.1429,4.2143
3.47265625,0.0002299622826642252,4.737253941252764e-05,0.00010548406348973827,7.520832543831538e-05,4.1429,4.2143
3.4765625,0.0002387664428900587,6.544851733577475e-05,9.767621700770578e-05,7.130440219729913e-05,4.1429,4.2143
3.48046875,0.0002255703690180819,8.301617192034788e-05,8.740808556649116e-05,6.691248855115584e-05,4.1429,4.2143
3.484375,0.00022117845537193863,5.810832832532233e-05,8.594411435111007e-05,6.103627075608452e-05,4.1429,4.2143
3.48828125,0.0001826068804333562,4.542057779201951e-05,8.301617192034788e-05,5.518038589456013e-05,4.1429,4.2143
3.4921875,0.00017479903395132366,5.3228424274052014e-05,5.518038589456013e-05,6.054828035095748e-05,4.1429,4.2143
3.49609375,0.0002314262538796063,5.420440508430607e-05,6.152426116121154e-05,6.740047895628288e-05,4.1429,4.2143
3.5,0.0002241063978027008,5.176445305867092e-05,8.4968133540856e-05,6.496052693064773e-05,4.1429,4.2143
3.50390625,0.00017723898597695882,6.30085653101396e-05,8.936004718699927e-05,5.908430913557639e-05,4.1429,4.2143
3.5078125,0.0001357598015411612,5.908430913557639e-05,9.57039224536507e-05,6.0060289945830445e-05,4.1429,4.2143
3.51171875,0.0001259796605050736,4.639655860227357e-05,9.228798961776147e-05,5.8596318730449354e-05,4.1429,4.2143
3.515625,0.00013380783992065305,5.176445305867092e-05,7.716028705882352e-05,5.3228424274052014e-05,4.1429,4.2143
3.51953125,0.00014649559045395587,6.30085653101396e-05,7.374435422293429e-05,4.932450103303576e-05,4.1429,4.2143
3.5234375,0.00016503922584878308,6.691248855115584e-05,6.496052693064773e-05,4.542057779201951e-05,4.1429,4.2143
3.52734375,0.00017479903395132366,4.493258738689248e-05,7.325636381780725e-05,4.639655860227357e-05,4.1429,4.2143
3.53125,0.00016503922584878308,4.83485202227817e-05,8.448014313572898e-05,4.981249143816279e-05,4.1429,4.2143
3.53515625,0.00013868774397192337,6.837645976653693e-05,7.960023908445866e-05,5.078847224841685e-05,4.1429,4.2143
3.5390625,0.0001528191327870603,5.762033792019529e-05,7.667229665369647e-05,4.981249143816279e-05,4.1429,4.2143
3.54296875,0.0002021468295719844,4.2980625766384347e-05,7.179239260242616e-05,4.6884549007400604e-05,4.1429,4.2143
3.546875,0.00016503922584878308,4.737253941252764e-05,7.472033503318834e-05,5.127646265354389e-05,4.1429,4.2143
3.55078125,0.00016650319706416417,4.7860529817654666e-05,5.6644357109941236e-05,4.83485202227817e-05,4.1429,4.2143
3.5546875,0.00024364634694132902,2.4416657438010205e-05,3.273282725871669e-05,4.737253941252764e-05,4.1429,4.2143
3.55859375,0.00023974242370031275,4.6884549007400604e-05,6.349655571526664e-05,4.6884549007400604e-05,4.1429,4.2143
3.5625,0.0002099546760540169,6.0060289945830445e-05,8.35041623254749e-05,3.663675049973295e-05,4.1429,4.2143
3.56640625,0.00019431865015640494,5.762033792019529e-05,5.9572299540703424e-05,3.4684788879224825e-05,4.1429,4.2143
3.5703125,0.00021239462807965206,7.130440219729913e-05,7.325636381780725e-05,3.712474090485998e-05,4.1429,4.2143
3.57421875,0.00021190663767452501,5.2252443463797944e-05,7.960023908445866e-05,3.6148760094605915e-05,4.1429,4.2143
3.578125,0.00020946668564888985,7.179239260242616e-05,7.569631584344241e-05,3.175684644846264e-05,4.1429,4.2143
3.58203125,0.00017479903395132366,8.887205678187225e-05,8.594411435111007e-05,4.05406737407492e-05,4.1429,4.2143
3.5859375,0.00015916300805371173,4.7860529817654666e-05,6.054828035095748e-05,4.346861617151138e-05,4.1429,4.2143
3.58984375,0.00021239462807965206,1.8560772576485816e-05,3.370880806897077e-05,4.346861617151138e-05,4.1429,4.2143
3.59375,0.0001987105638025482,2.3928667032883167e-05,3.078086563820857e-05,5.2252443463797944e-05,4.1429,4.2143
3.59765625,0.0001826068804333562,3.273282725871669e-05,4.346861617151138e-05,5.61563667048142e-05,4.1429,4.2143
3.6015625,0.0001845588420538643,2.2464695817502073e-05,4.05406737407492e-05,6.201225156633858e-05,4.1429,4.2143
3.60546875,0.00018211889002822914,2.051273419699396e-05,4.2492635361257325e-05,6.740047895628288e-05,4.1429,4.2143
3.609375,0.0001811429092179751,2.0024743791866924e-05,5.713234751506826e-05,7.179239260242616e-05,4.1429,4.2143
3.61328125,0.00016453090251010904,3.175684644846264e-05,6.642449814602882e-05,6.984043098191802e-05,4.1429,4.2143
3.6171875,0.00014649559045395587,4.83485202227817e-05,5.078847224841685e-05,6.740047895628288e-05,4.1429,4.2143
3.62109375,0.0001474715712642099,5.713234751506826e-05,5.078847224841685e-05,6.984043098191802e-05,4.1429,4.2143
3.625,0.00016013898886396577,5.9572299540703424e-05,6.252057490501256e-05,6.30085653101396e-05,4.1429,4.2143
3.62890625,0.00012841961253070875,3.6148760094605915e-05,5.762033792019529e-05,6.054828035095748e-05,4.1429,4.2143
3.6328125,9.375196083314257e-05,4.7860529817654666e-05,6.788846936140991e-05,6.886445017166397e-05,4.1429,4.2143
3.63671875,9.423995123826961e-05,6.054828035095748e-05,7.813626786907757e-05,6.691248855115584e-05,4.1429,4.2143
3.640625,4.200464495613029e-05,3.90767025253681e-05,6.593650774090179e-05,6.398454612039366e-05,4.1429,4.2143
3.64453125,3.712474090485998e-05,3.810072171511405e-05,5.6644357109941236e-05,6.349655571526664e-05,4.1429,4.2143
3.6484375,5.762033792019529e-05,2.6368619058518334e-05,5.762033792019529e-05,6.103627075608452e-05,4.1429,4.2143
3.65234375,-2.4228148439765105e-06,3.273282725871669e-05,4.590856819714655e-05,5.713234751506826e-05,4.1429,4.2143
3.65625,-1.561888871595332e-05,4.542057779201951e-05,7.179239260242616e-05,5.762033792019529e-05,4.1429,4.2143
3.66015625,2.5880628653391296e-05,4.590856819714655e-05,7.911224867933163e-05,5.566837629968717e-05,4.1429,4.2143
3.6640625,7.667229665369647e-05,4.932450103303576e-05,5.9572299540703424e-05,5.420440508430607e-05,4.1429,4.2143
3.66796875,8.594411435111007e-05,4.05406737407492e-05,6.496052693064773e-05,4.932450103303576e-05,4.1429,4.2143
3.671875,8.692009516136413e-05,3.761273130998701e-05,5.713234751506826e-05,4.493258738689248e-05,4.1429,4.2143
3.67578125,5.61563667048142e-05,4.8836510627908735e-05,3.6148760094605915e-05,4.981249143816279e-05,4.1429,4.2143
3.6796875,5.810832832532233e-05,6.496052693064773e-05,5.2252443463797944e-05,4.932450103303576e-05,4.1429,4.2143
3.68359375,0.0001318558783001449,6.0060289945830445e-05,5.9572299540703424e-05,5.176445305867092e-05,4.1429,4.2143
3.6875,0.00012353970847943843,5.127646265354389e-05,7.179239260242616e-05,5.0300481843289826e-05,4.1429,4.2143
3.69140625,0.00010255612105897609,5.908430913557639e-05,8.838406637674523e-05,4.200464495613029e-05,4.1429,4.2143
3.6953125,7.276837341268022e-05,3.419679847409779e-05,5.078847224841685e-05,3.90767025253681e-05,4.1429,4.2143
3.69921875,7.520832543831538e-05,3.224483685358966e-05,5.566837629968717e-05,4.346861617151138e-05,4.1429,4.2143
3.703125,5.61563667048142e-05,6.252057490501256e-05,8.057621989471272e-05,4.8836510627908735e-05,4.1429,4.2143
3.70703125,8.800964473945215e-06,5.3228424274052014e-05,5.762033792019529e-05,4.6884549007400604e-05,4.1429,4.2143
3.7109375,-1.934824438849489e-06,4.346861617151138e-05,4.200464495613029e-05,4.542057779201951e-05,4.1429,4.2143
3.71484375,5.05127586785676e-07,3.0292875233081543e-05,3.810072171511405e-05,4.200464495613029e-05,4.1429,4.2143
3.71875,2.3928667032883167e-05,3.858871212024107e-05,3.12688560433356e-05,3.663675049973295e-05,4.1429,4.2143
3.72265625,1.2704887714961443e-05,5.810832832532233e-05,5.176445305867092e-05,3.90767025253681e-05,4.1429,4.2143
3.7265625,5.274043386892498e-05,5.078847224841685e-05,5.0300481843289826e-05,3.858871212024107e-05,4.1429,4.2143
3.73046875,0.00012012377564354921,4.346861617151138e-05,3.712474090485998e-05,3.663675049973295e-05,4.1429,4.2143
3.734375,6.201225156633858e-05,5.420440508430607e-05,3.517277928435186e-05,4.346861617151138e-05,4.1429,4.2143
3.73828125,9.277598002288852e-05,7.520832543831538e-05,4.200464495613029e-05,4.395660657663842e-05,4.1429,4.2143
3.7421875,0.0001845588420538643,4.493258738689248e-05,5.518038589456013e-05,4.005268333562216e-05,4.1429,4.2143
3.74609375,0.00016111496967421984,3.419679847409779e-05,5.518038589456013e-05,3.956469293049514e-05,4.1429,4.2143
3.75,0.00011914779483329516,5.61563667048142e-05,5.2252443463797944e-05,4.1516654551003256e-05,4.1429,4.2143
3.75390625,0.00010255612105897609,3.90767025253681e-05,4.346861617151138e-05,4.005268333562216e-05,4.1429,4.2143
3.7578125,0.00012500367969481952,3.322081766384373e-05,5.176445305867092e-05,4.200464495613029e-05,4.1429,4.2143
3.76171875,0.00010255612105897609,2.882890401770045e-05,2.6368619058518334e-05,4.4444596981765444e-05,4.1429,4.2143
3.765625,6.349655571526664e-05,2.295268622262911e-05,-1.3178936690318152e-05,3.712474090485998e-05,4.1429,4.2143
3.76953125,-3.07465912748913e-05,1.66088109559777e-05,-6.3470710185397365e-06,2.8340913612573415e-05,4.1429,4.2143
3.7734375,-6.785419499809262e-05,1.7584791766231774e-05,1.124091649958035e-05,2.882890401770045e-05,4.1429,4.2143
3.77734375,-1.4468340337224674e-06,3.761273130998701e-05,3.0292875233081543e-05,3.566076968947888e-05,4.1429,4.2143
3.78125,-1.659486952620739e-05,4.1028664145876235e-05,4.4444596981765444e-05,3.810072171511405e-05,4.1429,4.2143
3.78515625,-3.513850492103458e-05,8.312974068818165e-06,5.274043386892498e-05,3.956469293049514e-05,4.1429,4.2143
3.7890625,-9.178605778286412e-05,3.322081766384373e-05,6.837645976653693e-05,4.395660657663842e-05,4.1429,4.2143
3.79296875,-0.00014306571618829633,6.691248855115584e-05,5.566837629968717e-05,3.956469293049514e-05,4.1429,4.2143
3.796875,-0.00012596571907530328,4.590856819714655e-05,3.810072171511405e-05,3.0292875233081543e-05,4.1429,4.2143
3.80078125,-0.00012694169988555732,6.44725365255207e-05,6.0060289945830445e-05,3.078086563820857e-05,4.1429,4.2143
3.8046875,-0.0001489216010498207,8.740808556649116e-05,7.374435422293429e-05,3.517277928435186e-05,4.1429,4.2143
3.80859375,-0.0001723451404959182,5.566837629968717e-05,4.737253941252764e-05,3.90767025253681e-05,4.1429,4.2143
3.8125,-0.00016307332279850458,2.7832590273899424e-05,4.1516654551003256e-05,4.1516654551003256e-05,4.1429,4.2143
3.81640625,-0.00018505322396276795,1.953675338673989e-05,4.542057779201951e-05,4.05406737407492e-05,4.1429,4.2143
3.8203125,-0.00019334906084992752,7.824983663691142e-06,1.7584791766231774e-05,3.712474090485998e-05,4.1429,4.2143
3.82421875,-0.00017624906373693447,5.873022043183028e-06,2.2464695817502073e-05,3.566076968947888e-05,4.1429,4.2143
3.828125,-0.0002509725945220111,1.3192878120088494e-05,3.566076968947888e-05,4.005268333562216e-05,4.1429,4.2143
3.83203125,-0.00023143264538338291,2.685660946364537e-05,2.3440676627756146e-05,4.4444596981765444e-05,4.1429,4.2143
3.8359375,-0.00014355370659342338,4.542057779201951e-05,2.882890401770045e-05,4.1516654551003256e-05,4.1429,4.2143
3.83984375,-0.00014206940244449533,3.6148760094605915e-05,2.5880628653391296e-05,3.4684788879224825e-05,4.1429,4.2143
3.84375,-0.00016990518847028306,2.882890401770045e-05,2.980488482795451e-05,3.663675049973295e-05,4.1429,4.2143
3.84765625,-0.00017624906373693447,9.288954879072236e-06,4.200464495613029e-05,3.566076968947888e-05,4.1429,4.2143
3.8515625,-0.0001274296902906844,2.7832590273899424e-05,6.886445017166397e-05,3.810072171511405e-05,4.1429,4.2143
3.85546875,-0.00012547772867017623,6.544851733577475e-05,4.1516654551003256e-05,4.639655860227357e-05,4.1429,4.2143
3.859375,-0.0001137659589471275,4.4444596981765444e-05,1.7584791766231774e-05,3.6148760094605915e-05,4.1429,4.2143
3.86328125,-0.00013133361353170062,2.1488715007248018e-05,4.1516654551003256e-05,3.175684644846264e-05,4.1429,4.2143
3.8671875,-0.0001581934187472343,1.7096801361104723e-05,2.4416657438010205e-05,3.90767025253681e-05,4.1429,4.2143
3.87109375,-0.00010691376034180209,1.9048762981612868e-05,1.17289069047074e-05,3.517277928435186e-05,4.1429,4.2143
3.875,-0.00010937404530098421,3.273282725871669e-05,2.4416657438010205e-05,3.761273130998701e-05,4.1429,4.2143
3.87890625,-0.00016502528441901271,4.83485202227817e-05,1.3680868525215515e-05,3.566076968947888e-05,4.1429,4.2143
3.8828125,-0.0002202088660654612,2.1976705412375052e-05,1.7584791766231774e-05,2.7832590273899424e-05,4.1429,4.2143
3.88671875,-0.00023924049186541542,2.0024743791866924e-05,4.4444596981765444e-05,3.078086563820857e-05,4.1429,4.2143
3.890625,-0.00021776891403982603,4.639655860227357e-05,5.274043386892498e-05,3.517277928435186e-05,4.1429,4.2143
3.89453125,-0.00019920494571145188,6.398454612039366e-05,5.176445305867092e-05,3.712474090485998e-05,4.1429,4.2143
3.8984375,-0.00019920494571145188,7.22803830075532e-05,5.420440508430607e-05,3.322081766384373e-05,4.1429,4.2143
3.90234375,-0.00020554882097810332,4.542057779201951e-05,5.420440508430607e-05,3.322081766384373e-05,4.1429,4.2143
3.90625,-0.00019432504166018156,4.395660657663842e-05,4.542057779201951e-05,3.4684788879224825e-05,4.1429,4.2143
3.91015625,-0.00021337700039368273,5.908430913557639e-05,5.078847224841685e-05,2.980488482795451e-05,4.1429,4.2143
3.9140625,-0.00023680053983978023,6.201225156633858e-05,5.810832832532233e-05,3.0292875233081543e-05,4.1429,4.2143
3.91796875,-0.0002089647538139925,5.518038589456013e-05,3.90767025253681e-05,3.175684644846264e-05,4.1429,4.2143
3.921875,-0.00021728092363469903,4.639655860227357e-05,2.7832590273899424e-05,2.6368619058518334e-05,4.1429,4.2143
3.92578125,-0.0001777333678858625,3.956469293049514e-05,3.12688560433356e-05,2.3440676627756146e-05,4.1429,4.2143
3.9296875,-0.00010300983710078585,4.005268333562216e-05,4.200464495613029e-05,3.224483685358966e-05,4.1429,4.2143
3.93359375,-8.446620170595866e-05,4.2980625766384347e-05,2.6368619058518334e-05,3.273282725871669e-05,4.1429,4.2143
3.9375,-4.9310559603265427e-05,4.981249143816279e-05,1.612082055085068e-05,2.8340913612573415e-05,4.1429,4.2143
3.94140625,3.921060422674884e-06,5.908430913557639e-05,3.224483685358966e-05,2.9316894422827474e-05,4.1429,4.2143
3.9453125,8.692009516136413e-05,6.642449814602882e-05,4.4444596981765444e-05,2.882890401770045e-05,4.1429,4.2143
3.94921875,9.179999921263445e-05,5.566837629968717e-05,4.932450103303576e-05,3.6148760094605915e-05,4.1429,4.2143
3.953125,4.409050827801934e-06,3.419679847409779e-05,3.322081766384373e-05,3.90767025253681e-05,4.1429,4.2143
3.95703125,4.409050827801934e-06,2.7832590273899424e-05,2.980488482795451e-05,3.370880806897077e-05,4.1429,4.2143
3.9609375,0.00011524387159227891,1.8072782171358795e-05,4.932450103303576e-05,3.4684788879224825e-05,4.1429,4.2143
3.96484375,0.0002788019890440222,1.4168858930342537e-05,3.419679847409779e-05,3.858871212024107e-05,4.1429,4.2143
3.96875,0.00034325738838788427,1.17289069047074e-05,2.051273419699396e-05,3.858871212024107e-05,4.1429,4.2143
3.97265625,0.00033642552271610586,2.685660946364537e-05,2.4416657438010205e-05,3.90767025253681e-05,4.1429,4.2143
3.9765625,0.0003686328894544899,4.737253941252764e-05,1.9048762981612868e-05,3.761273130998701e-05,4.1429,4.2143
3.98046875,0.0005185476084962233,6.054828035095748e-05,2.295268622262911e-05,3.224483685358966e-05,4.1429,4.2143
3.984375,0.0006508743400198366,4.2980625766384347e-05,6.361012448310049e-06,2.882890401770045e-05,4.1429,4.2143
3.98828125,0.0006699059658197909,2.9316894422827474e-05,2.6368619058518334e-05,3.566076968947888e-05,4.1429,4.2143
3.9921875,0.0006669780233890287,2.8340913612573415e-05,4.200464495613029e-05,4.737253941252764e-05,4.1429,4.2143
3.99609375,0.0006782221356404973,2.8340913612573415e-05,2.7832590273899424e-05,5.2252443463797944e-05,4.1429,4.2143
4.0,0.0006586821865018691,4.346861617151138e-05,5.3228424274052014e-05,4.590856819714655e-05,4.1429,4.2143
4.00390625,0.000641582189388876,6.252057490501256e-05,7.520832543831538e-05,3.858871212024107e-05,4.1429,4.2143
4.0078125,0.000671369937035172,4.590856819714655e-05,3.858871212024107e-05,3.761273130998701e-05,4.1429,4.2143
4.01171875,0.0006508743400198366,1.4168858930342537e-05,3.921060422674884e-06,3.90767025253681e-05,4.1429,4.2143
4.015625,0.0005717588955886167,2.539263824826426e-05,-1.934824438849489e-06,3.273282725871669e-05,4.1429,4.2143
4.01953125,0.0005488233465476462,4.200464495613029e-05,4.897041232928956e-06,2.295268622262911e-05,4.1429,4.2143
4.0234375,0.0005078118195834286,6.44725365255207e-05,2.4416657438010205e-05,2.734459986877239e-05,4.1429,4.2143
4.02734375,0.0003564331293263141,6.642449814602882e-05,4.4444596981765444e-05,4.2492635361257325e-05,4.1429,4.2143
4.03125,0.00022020247456168456,4.8836510627908735e-05,6.9352440576791e-05,4.83485202227817e-05,4.1429,4.2143
4.03515625,0.00016845515868467228,3.370880806897077e-05,5.274043386892498e-05,4.590856819714655e-05,4.1429,4.2143
4.0390625,0.00016160296007934686,2.1488715007248018e-05,3.12688560433356e-05,4.4444596981765444e-05,4.1429,4.2143
4.04296875,0.00013380783992065305,-6.835061423666758e-06,3.322081766384373e-05,3.6148760094605915e-05,4.1429,4.2143
4.046875,0.00011768382361791407,1.969098802166769e-06,2.945079612420841e-06,4.05406737407492e-05,4.1429,4.2143
4.05078125,3.370880806897077e-05,2.6368619058518334e-05,2.685660946364537e-05,4.7860529817654666e-05,4.1429,4.2143
4.0546875,-4.150271312123294e-05,2.882890401770045e-05,5.713234751506826e-05,4.05406737407492e-05,4.1429,4.2143
4.05859375,1.4168858930342537e-05,6.152426116121154e-05,5.3716414679179035e-05,3.858871212024107e-05,4.1429,4.2143
4.0625,6.837645976653693e-05,5.420440508430607e-05,2.4416657438010205e-05,3.175684644846264e-05,4.1429,4.2143
4.06640625,-2.7330658439002063e-05,5.61563667048142e-05,2.4416657438010205e-05,4.2980625766384347e-05,4.1429,4.2143
4.0703125,-8.83701249469749e-05,3.273282725871669e-05,3.90767025253681e-05,5.0300481843289826e-05,4.1429,4.2143
4.07421875,-4.101472271610592e-05,-9.763003854428944e-06,3.175684644846264e-05,4.542057779201951e-05,4.1429,4.2143
4.078125,-7.175811823910888e-05,4.932450103303576e-05,3.224483685358966e-05,3.761273130998701e-05,4.1429,4.2143
4.08203125,-8.397821130083161e-05,9.472794164339663e-05,5.61563667048142e-05,3.761273130998701e-05,4.1429,4.2143
4.0859375,-3.318654330052644e-05,6.544851733577475e-05,5.469239548943311e-05,5.518038589456013e-05,4.1429,4.2143
4.08984375,-3.56264953261616e-05,4.200464495613029e-05,5.078847224841685e-05,5.176445305867092e-05,4.1429,4.2143
4.09375,-3.416252411078051e-05,4.8836510627908735e-05,6.103627075608452e-05,3.810072171511405e-05,4.1429,4.2143
4.09765625,-4.7846588387884336e-05,5.810832832532233e-05,3.370880806897077e-05,3.956469293049514e-05,4.1429,4.2143
4.1015625,-4.491864595712215e-05,4.737253941252764e-05,2.8340913612573415e-05,3.90767025253681e-05,4.1429,4.2143
4.10546875,-3.07465912748913e-05,2.490464784313724e-05,4.981249143816279e-05,3.810072171511405e-05,4.1429,4.2143
