timestamp,TP9,AF7,AF8,TP10,Valence,Arousal
0.0,4.831345846189061e-05,2.488132318150608e-05,-0.0009682384728816663,2.7322170606546137e-05,7.0667,4.7333
0.00390625,2.3904984211490058e-05,4.391993309681851e-05,-0.0009682384728816663,2.2440475756466028e-05,7.0667,4.7333
0.0078125,3.3668373911650276e-05,3.171569597161824e-05,-0.0009682384728816663,1.4141594511329842e-05,7.0667,4.7333
0.01171875,2.3416814726482047e-05,3.0251187516594204e-05,-0.0009682384728816663,2.7810340091554148e-05,7.0667,4.7333
0.015625,-1.609440296635384e-05,4.34317636118105e-05,-0.0009682384728816663,6.330882751201665e-06,7.0667,4.7333
0.01953125,2.7322170606546137e-05,3.318020442664227e-05,-0.0009682384728816663,-1.4141725026321795e-05,7.0667,4.7333
0.0234375,7.03115958800641e-05,1.6582441936369896e-05,-0.0009682384728816663,3.401865841153599e-06,7.0667,4.7333
0.02734375,4.245542464179448e-05,1.365342502632183e-05,-0.0009682384728816663,1.755878090638592e-05,7.0667,4.7333
0.03125,2.9274848546578178e-05,3.3668373911650276e-05,-0.0009682384728816663,2.7810340091554148e-05,7.0667,4.7333
0.03515625,2.976301803158619e-05,5.758867867704282e-05,-0.0009682384728816663,2.9274848546578178e-05,7.0667,4.7333
0.0390625,5.2218814341954696e-05,3.659739082169834e-05,-0.0009682384728816663,3.7085560306706354e-05,7.0667,4.7333
0.04296875,3.3668373911650276e-05,2.7810340091554148e-05,-0.0009682384728816663,4.831345846189061e-05,7.0667,4.7333
0.046875,7.795391206225697e-06,3.562105185168232e-05,-0.0009682384728816663,4.245542464179448e-05,7.0667,4.7333
0.05078125,2.9274848546578178e-05,3.806189927672238e-05,-0.0009682384728816663,2.1464136786450005e-05,7.0667,4.7333
0.0546875,4.294359412680248e-05,5.514783125200276e-05,-0.0009682384728816663,4.7284893110553325e-07,7.0667,4.7333
0.05859375,6.10058650720989e-05,4.880162794689862e-05,-0.0009682384728816663,-3.890165841153565e-06,7.0667,4.7333
0.0625,5.612417022201878e-05,5.465966176699475e-05,-0.0009682384728816663,-5.354674296177598e-06,7.0667,4.7333
0.06640625,2.3416814726482047e-05,5.5636000737010774e-05,-0.0009682384728816663,7.795391206225697e-06,7.0667,4.7333
0.0703125,6.330882751201665e-06,4.9289797431906635e-05,-0.0009682384728816663,3.8550068761730395e-05,7.0667,4.7333
0.07421875,3.220386545662624e-05,5.368332279697873e-05,-0.0009682384728816663,4.050274670176243e-05,7.0667,4.7333
0.078125,3.0739357001602215e-05,2.3904984211490058e-05,-0.0009682384728816663,2.9274848546578178e-05,7.0667,4.7333
0.08203125,3.3668373911650276e-05,1.8535119876401938e-05,-0.0009682384728816663,6.330882751201665e-06,7.0667,4.7333
0.0859375,5.954135661707486e-05,1.951145884641796e-05,-0.0009682384728816663,-7.795521721217652e-06,7.0667,4.7333
0.08984375,4.7825288976882595e-05,1.4629763996337851e-05,-0.0009682384728816663,3.0739357001602215e-05,7.0667,4.7333
0.09375,4.050274670176243e-05,2.439315369649807e-05,-0.0009682384728816663,4.636078052185856e-05,7.0667,4.7333
0.09765625,4.831345846189061e-05,3.806189927672238e-05,-0.0009682384728816663,1.951145884641796e-05,7.0667,4.7333
0.1015625,4.831345846189061e-05,2.1952306271458016e-05,-0.0009682384728816663,1.7070611421377907e-05,7.0667,4.7333
0.10546875,2.5857662151522106e-05,2.829850957656216e-05,-0.0009682384728816663,1.9999628331425975e-05,7.0667,4.7333
0.109375,4.7284893110553325e-07,5.075430588693066e-05,-0.0009682384728816663,2.829850957656216e-05,7.0667,4.7333
0.11328125,1.951145884641796e-05,1.7070611421377907e-05,-0.0009682384728816663,2.0487797816433986e-05,7.0667,4.7333
0.1171875,2.6345831636530114e-05,1.755878090638592e-05,-0.0009682384728816663,1.7070611421377907e-05,7.0667,4.7333
0.12109375,3.0251187516594204e-05,1.0236238631265752e-05,-0.0009682384728816663,3.269203494163426e-05,7.0667,4.7333
0.125,-5.842843781185608e-06,9.748069146257742e-06,-0.0009682384728816663,4.294359412680248e-05,7.0667,4.7333
0.12890625,-6.819182751201631e-06,3.0739357001602215e-05,-0.0009682384728816663,3.171569597161824e-05,7.0667,4.7333
0.1328125,1.7070611421377907e-05,3.7085560306706354e-05,-0.0009682384728816663,4.378204811169621e-06,7.0667,4.7333
0.13671875,1.951145884641796e-05,4.34317636118105e-05,-0.0009682384728816663,1.4629763996337851e-05,7.0667,4.7333
0.140625,2.5857662151522106e-05,4.391993309681851e-05,-0.0009682384728816663,2.7810340091554148e-05,7.0667,4.7333
0.14453125,2.2440475756466028e-05,4.294359412680248e-05,-0.0009682384728816663,2.439315369649807e-05,7.0667,4.7333
0.1484375,2.829850957656216e-05,5.417149228198674e-05,-0.0009682384728816663,2.1464136786450005e-05,7.0667,4.7333
0.15234375,4.34317636118105e-05,4.5872611036850557e-05,-0.0009682384728816663,2.0975967301441994e-05,7.0667,4.7333
0.15625,2.6345831636530114e-05,3.220386545662624e-05,-0.0009682384728816663,2.1952306271458016e-05,7.0667,4.7333
0.16015625,-1.5320553902477717e-08,3.0251187516594204e-05,-0.0009682384728816663,5.842713266193654e-06,7.0667,4.7333
0.1640625,2.9274848546578178e-05,2.7322170606546137e-05,-0.0009721438287617303,8.283560691233709e-06,7.0667,4.7333
0.16796875,3.952640773174641e-05,2.0487797816433986e-05,-0.0009379719648111696,2.5369492666514095e-05,7.0667,4.7333
0.171875,3.5132882366674316e-05,8.77173017624172e-06,-0.0009955759640421149,3.0251187516594204e-05,7.0667,4.7333
0.17578125,2.488132318150608e-05,2.5369492666514095e-05,-0.0007602477616754406,2.439315369649807e-05,7.0667,4.7333
0.1796875,2.6345831636530114e-05,2.829850957656216e-05,0.00025877552768596934,1.8535119876401938e-05,7.0667,4.7333
0.18359375,3.806189927672238e-05,3.0251187516594204e-05,0.0009662856644266422,3.5132882366674316e-05,7.0667,4.7333
0.1875,2.878667906157017e-05,3.1227526486610226e-05,0.0009867887827969787,4.294359412680248e-05,7.0667,4.7333
0.19140625,2.9274848546578178e-05,1.5117933481345863e-05,0.0009858124438269628,4.440810258182652e-05,7.0667,4.7333
0.1953125,2.7810340091554148e-05,1.6582441936369896e-05,-0.0009970404724971389,4.050274670176243e-05,7.0667,4.7333
0.19921875,4.378204811169621e-06,3.1227526486610226e-05,0.0009995117,4.1479085671778456e-05,7.0667,4.7333
0.203125,7.307221721217687e-06,1.7070611421377907e-05,0.0009995117,4.684895000686658e-05,7.0667,4.7333
0.20703125,2.5857662151522106e-05,-4.72979446097488e-07,0.0009995117,4.7337119491874584e-05,7.0667,4.7333
0.2109375,1.2188916571297797e-05,9.748069146257742e-06,0.0009995117,3.3668373911650276e-05,7.0667,4.7333
0.21484375,1.365342502632183e-05,1.5606102966353874e-05,0.0009995117,2.0975967301441994e-05,7.0667,4.7333
0.21875,2.3416814726482047e-05,2.3416814726482047e-05,0.0009995117,2.1952306271458016e-05,7.0667,4.7333
0.22265625,2.829850957656216e-05,3.4156543396658294e-05,0.0009995117,1.951145884641796e-05,7.0667,4.7333
0.2265625,3.269203494163426e-05,3.318020442664227e-05,0.0009995117,2.6345831636530114e-05,7.0667,4.7333
0.23046875,4.440810258182652e-05,1.2677086056305808e-05,0.0009995117,3.0251187516594204e-05,7.0667,4.7333
0.234375,4.0990916186770444e-05,2.6345831636530114e-05,0.0009995117,3.952640773174641e-05,7.0667,4.7333
0.23828125,1.9999628331425975e-05,4.294359412680248e-05,-0.000999481319922179,4.5872611036850557e-05,7.0667,4.7333
0.2421875,5.842713266193654e-06,2.7322170606546137e-05,0.0009941113250720988,3.220386545662624e-05,7.0667,4.7333
0.24609375,2.4255268711375773e-06,2.0487797816433986e-05,-0.0009931351166170747,1.9999628331425975e-05,7.0667,4.7333
0.25,1.6582441936369896e-05,3.806189927672238e-05,0.0009716555287617303,3.269203494163426e-05,7.0667,4.7333
0.25390625,2.9274848546578178e-05,3.90382382467384e-05,0.0008354257318516823,3.269203494163426e-05,7.0667,4.7333
0.2578125,4.294359412680248e-05,3.46447128816663e-05,0.0008329848844266423,1.902328936140995e-05,7.0667,4.7333
0.26171875,3.7085560306706354e-05,5.612417022201878e-05,0.0002841603409063859,3.659739082169834e-05,7.0667,4.7333
0.265625,4.5872611036850557e-05,4.001457721675442e-05,0.00026414539202105746,4.9289797431906635e-05,7.0667,4.7333
0.26953125,5.66123397070268e-05,4.378204811169621e-06,-0.00010204274292057677,4.4896272066834534e-05,7.0667,4.7333
0.2734375,2.6345831636530114e-05,1.6094272451361885e-05,-0.001,3.318020442664227e-05,7.0667,4.7333
0.27734375,1.0236238631265752e-05,2.7810340091554148e-05,-0.0009506643714213777,2.0487797816433986e-05,7.0667,4.7333
0.28125,1.937357386129566e-06,2.439315369649807e-05,-0.00019040141970702676,1.6582441936369896e-05,7.0667,4.7333
0.28515625,7.795391206225697e-06,2.2440475756466028e-05,0.0007470670550652323,2.2440475756466028e-05,7.0667,4.7333
0.2890625,2.5369492666514095e-05,6.819052236209676e-06,0.0009828834269169147,3.7573729791714366e-05,7.0667,4.7333
0.29296875,9.748069146257742e-06,1.6094272451361885e-05,0.0009867887827969787,5.124247537193867e-05,7.0667,4.7333
0.296875,3.90382382467384e-05,1.902328936140995e-05,0.000995575833527123,3.659739082169834e-05,7.0667,4.7333
0.30078125,5.368332279697873e-05,2.292864524147404e-05,-0.0009989931504371709,1.6582441936369896e-05,7.0667,4.7333
0.3046875,4.001457721675442e-05,2.0975967301441994e-05,0.0009995117,2.292864524147404e-05,7.0667,4.7333
0.30859375,5.026613640192266e-05,1.8046950391393927e-05,0.0009995117,4.4896272066834534e-05,7.0667,4.7333
0.3125,2.878667906157017e-05,3.46447128816663e-05,0.0009995117,5.612417022201878e-05,7.0667,4.7333
0.31640625,3.952640773174641e-05,2.829850957656216e-05,0.0009995117,4.34317636118105e-05,7.0667,4.7333
0.3203125,4.880162794689862e-05,2.1464136786450005e-05,0.0009995117,3.7085560306706354e-05,7.0667,4.7333
0.32421875,9.259899661249731e-06,2.2440475756466028e-05,0.0009995117,5.465966176699475e-05,7.0667,4.7333
0.328125,2.878667906157017e-05,5.354543781185643e-06,0.0009995117,4.684895000686658e-05,7.0667,4.7333
0.33203125,2.488132318150608e-05,2.3416814726482047e-05,0.0009995117,5.124247537193867e-05,7.0667,4.7333
0.3359375,6.330882751201665e-06,4.001457721675442e-05,0.0009995117,4.636078052185856e-05,7.0667,4.7333
0.33984375,5.354543781185643e-06,3.90382382467384e-05,0.0009995117,3.0251187516594204e-05,7.0667,4.7333
0.34375,1.755878090638592e-05,4.245542464179448e-05,0.0009995117,2.829850957656216e-05,7.0667,4.7333
0.34765625,4.0990916186770444e-05,1.9999628331425975e-05,0.0009995117,1.6582441936369896e-05,7.0667,4.7333
0.3515625,4.7825288976882595e-05,5.354543781185643e-06,0.0009995117,3.0251187516594204e-05,7.0667,4.7333
0.35546875,3.0739357001602215e-05,2.7322170606546137e-05,0.0009995117,3.318020442664227e-05,7.0667,4.7333
0.359375,4.1479085671778456e-05,2.6345831636530114e-05,0.0009995117,2.5369492666514095e-05,7.0667,4.7333
0.36328125,4.684895000686658e-05,4.866374296177632e-06,0.0009995117,3.171569597161824e-05,7.0667,4.7333
0.3671875,2.488132318150608e-05,8.77173017624172e-06,0.0009995117,3.269203494163426e-05,7.0667,4.7333
0.37109375,1.5606102966353874e-05,1.902328936140995e-05,0.0009995117,5.124247537193867e-05,7.0667,4.7333
0.375,2.0975967301441994e-05,2.5857662151522106e-05,0.0009995117,4.7825288976882595e-05,7.0667,4.7333
0.37890625,1.755878090638592e-05,1.902328936140995e-05,0.0009995117,3.46447128816663e-05,7.0667,4.7333
0.3828125,3.0739357001602215e-05,7.795391206225697e-06,0.0009995117,4.1479085671778456e-05,7.0667,4.7333
0.38671875,2.829850957656216e-05,1.7070611421377907e-05,0.0009995117,4.880162794689862e-05,7.0667,4.7333
0.390625,2.3904984211490058e-05,1.0724408116273763e-05,0.0009995117,4.7337119491874584e-05,7.0667,4.7333
0.39453125,4.538444155184254e-05,1.7070611421377907e-05,0.0009995117,3.5132882366674316e-05,7.0667,4.7333
0.3984375,5.270698382696271e-05,2.1952306271458016e-05,0.0009995117,3.952640773174641e-05,7.0667,4.7333
0.40234375,5.842713266193654e-06,1.1700747086289786e-05,0.0009995117,2.7322170606546137e-05,7.0667,4.7333
0.40625,3.0739357001602215e-05,9.748069146257742e-06,0.0009995117,1.6094272451361885e-05,7.0667,4.7333
0.41015625,6.247037352712293e-05,1.1212577601281776e-05,0.0009995117,2.488132318150608e-05,7.0667,4.7333
0.4140625,2.9274848546578178e-05,2.6834001121538125e-05,0.0009995117,2.292864524147404e-05,7.0667,4.7333
0.41796875,3.46447128816663e-05,3.220386545662624e-05,0.0009995117,3.171569597161824e-05,7.0667,4.7333
0.421875,3.659739082169834e-05,2.6834001121538125e-05,0.0009995117,3.952640773174641e-05,7.0667,4.7333
0.42578125,4.196725515678646e-05,2.0487797816433986e-05,0.0009995117,2.7322170606546137e-05,7.0667,4.7333
0.4296875,4.831345846189061e-05,1.365342502632183e-05,0.0009995117,2.0975967301441994e-05,7.0667,4.7333
0.43359375,2.829850957656216e-05,3.220386545662624e-05,0.0009995117,3.3668373911650276e-05,7.0667,4.7333
0.4375,3.952640773174641e-05,3.7085560306706354e-05,0.0009995117,3.46447128816663e-05,7.0667,4.7333
0.44140625,3.4156543396658294e-05,1.902328936140995e-05,0.0009995117,3.1227526486610226e-05,7.0667,4.7333
0.4453125,7.307221721217687e-06,1.9999628331425975e-05,0.0009995117,2.976301803158619e-05,7.0667,4.7333
0.44921875,3.7573729791714366e-05,2.1464136786450005e-05,0.0009995117,1.902328936140995e-05,7.0667,4.7333
0.453125,4.245542464179448e-05,2.6834001121538125e-05,0.0009995117,2.5857662151522106e-05,7.0667,4.7333
0.45703125,3.90382382467384e-05,3.4156543396658294e-05,0.0009995117,3.7085560306706354e-05,7.0667,4.7333
0.4609375,4.34317636118105e-05,3.610922133669034e-05,0.0009995117,3.318020442664227e-05,7.0667,4.7333
0.46484375,5.270698382696271e-05,2.0487797816433986e-05,0.0009995117,2.488132318150608e-05,7.0667,4.7333
0.46875,4.391993309681851e-05,3.269203494163426e-05,0.0009995117,3.269203494163426e-05,7.0667,4.7333
0.47265625,2.7810340091554148e-05,4.4896272066834534e-05,0.0009995117,4.391993309681851e-05,7.0667,4.7333
0.4765625,3.806189927672238e-05,2.7322170606546137e-05,0.0009995117,4.538444155184254e-05,7.0667,4.7333
0.48046875,3.0739357001602215e-05,2.0975967301441994e-05,0.0009995117,4.391993309681851e-05,7.0667,4.7333
0.484375,1.1700747086289786e-05,1.9999628331425975e-05,0.0009995117,4.001457721675442e-05,7.0667,4.7333
0.48828125,1.7070611421377907e-05,9.748069146257742e-06,0.0009995117,3.3668373911650276e-05,7.0667,4.7333
0.4921875,4.4896272066834534e-05,8.283560691233709e-06,0.0009995117,2.6834001121538125e-05,7.0667,4.7333
0.49609375,4.831345846189061e-05,1.3165255541313818e-05,0.0009995117,1.5606102966353874e-05,7.0667,4.7333
0.5,3.46447128816663e-05,2.0975967301441994e-05,0.0009995117,1.8535119876401938e-05,7.0667,4.7333
0.50390625,3.659739082169834e-05,2.1464136786450005e-05,0.0009995117,3.1227526486610226e-05,7.0667,4.7333
0.5078125,4.34317636118105e-05,2.7810340091554148e-05,0.0009995117,4.001457721675442e-05,7.0667,4.7333
0.51171875,4.196725515678646e-05,2.5369492666514095e-05,0.0009995117,4.001457721675442e-05,7.0667,4.7333
0.515625,4.538444155184254e-05,3.610922133669034e-05,0.0009995117,3.610922133669034e-05,7.0667,4.7333
0.51953125,6.539939043717099e-05,3.46447128816663e-05,0.0009995117,3.7573729791714366e-05,7.0667,4.7333
0.5234375,4.294359412680248e-05,2.6345831636530114e-05,0.0009995117,3.659739082169834e-05,7.0667,4.7333
0.52734375,5.842713266193654e-06,3.220386545662624e-05,0.0009995117,2.5369492666514095e-05,7.0667,4.7333
0.53125,-4.72979446097488e-07,2.439315369649807e-05,0.0009995117,3.220386545662624e-05,7.0667,4.7333
0.53515625,4.378204811169621e-06,3.952640773174641e-05,0.0009995117,3.659739082169834e-05,7.0667,4.7333
0.5390625,5.075430588693066e-05,2.1464136786450005e-05,0.0009995117,2.976301803158619e-05,7.0667,4.7333
0.54296875,8.105132455024035e-05,7.795391206225697e-06,0.0009995117,2.0975967301441994e-05,7.0667,4.7333
0.546875,6.0029526102082876e-05,6.330882751201665e-06,0.0009995117,3.0251187516594204e-05,7.0667,4.7333
0.55078125,7.226427382009615e-05,6.819052236209676e-06,0.0009995117,4.001457721675442e-05,7.0667,4.7333
0.5546875,7.42169517601282e-05,2.5857662151522106e-05,0.0009995117,4.831345846189061e-05,7.0667,4.7333
0.55859375,2.6345831636530114e-05,3.0251187516594204e-05,0.0009995117,4.831345846189061e-05,7.0667,4.7333
0.5625,1.8046950391393927e-05,2.292864524147404e-05,0.0009995117,2.976301803158619e-05,7.0667,4.7333
0.56640625,3.318020442664227e-05,1.0724408116273763e-05,0.0009995117,3.0251187516594204e-05,7.0667,4.7333
0.5703125,3.952640773174641e-05,9.610184161135442e-07,0.0009995117,3.4156543396658294e-05,7.0667,4.7333
0.57421875,4.1479085671778456e-05,2.913696356145588e-06,-0.000996552303012131,2.488132318150608e-05,7.0667,4.7333
0.578125,4.1479085671778456e-05,9.748069146257742e-06,0.0009804425794918746,2.3416814726482047e-05,7.0667,4.7333
0.58203125,3.659739082169834e-05,9.610184161135442e-07,0.000998504850437171,3.90382382467384e-05,7.0667,4.7333
0.5859375,3.562105185168232e-05,-1.121270811627373e-05,0.0009340664784161135,4.5872611036850557e-05,7.0667,4.7333
0.58984375,4.34317636118105e-05,-1.7070741936369862e-05,0.00013035644253604946,4.440810258182652e-05,7.0667,4.7333
0.59375,5.270698382696271e-05,-3.890165841153565e-06,-0.0008320086759716182,4.1479085671778456e-05,7.0667,4.7333
0.59765625,4.245542464179448e-05,-1.560623348134583e-05,-0.0006684413879011215,3.952640773174641e-05,7.0667,4.7333
0.6015625,6.738257897001604e-05,-4.2943724641794444e-05,-0.0006591661676859693,2.7322170606546137e-05,7.0667,4.7333
0.60546875,6.539939043717099e-05,-7.22644043350881e-05,-0.001,2.7322170606546137e-05,7.0667,4.7333
0.609375,4.5872611036850557e-05,-9.764921755550467e-05,-0.0009570105747264819,3.7085560306706354e-05,7.0667,4.7333
0.61328125,5.905318713206685e-05,-8.98385057953765e-05,-0.0009462708460563058,2.488132318150608e-05,7.0667,4.7333
0.6171875,4.5872611036850557e-05,-8.886216682536047e-05,-0.000998016811467155,2.829850957656216e-05,7.0667,4.7333
0.62109375,4.538444155184254e-05,-0.00012693938665598532,-0.0007187228448569465,5.2218814341954696e-05,7.0667,4.7333
0.625,5.124247537193867e-05,-0.00016257575906157014,-0.00011522331901579306,6.491122095216298e-05,7.0667,4.7333
0.62890625,6.982342639505609e-05,-0.00017136280979171433,4.9289797431906635e-05,5.5636000737010774e-05,7.0667,4.7333
0.6328125,6.344671249713895e-05,-0.00017233914876173037,-2.195243678644997e-05,5.8076848162050824e-05,7.0667,4.7333
0.63671875,2.488132318150608e-05,-0.00016941013185168226,0.00010594796828564891,6.884708742504007e-05,7.0667,4.7333
0.640625,3.90382382467384e-05,-0.00017673267412680245,0.0006611187151110094,6.393488198214696e-05,7.0667,4.7333
0.64453125,2.3416814726482047e-05,-0.00019430677558709083,-0.0009731201677317463,6.884708742504007e-05,7.0667,4.7333
0.6484375,2.5857662151522106e-05,-0.000201171658970016,0.0009833715964019227,6.835891794003205e-05,7.0667,4.7333
0.65234375,5.465966176699475e-05,-0.00020410067588006408,0.000998993019922179,7.226427382009615e-05,7.0667,4.7333
0.65625,4.684895000686658e-05,-0.0002197220994003204,0.0009828834269169147,7.128793485008013e-05,7.0667,4.7333
0.66015625,3.46447128816663e-05,-0.00021923392991531242,0.000992646816617075,7.90986466102083e-05,7.0667,4.7333
0.6640625,4.440810258182652e-05,-0.00022118660785534443,0.0009438298681162737,9.325556167544062e-05,7.0667,4.7333
0.66796875,2.2440475756466028e-05,-0.00022850915013046462,0.0001274274256260014,9.667274807049669e-05,7.0667,4.7333
0.671875,1.2677086056305808e-05,-0.00020214799794003203,-0.0008276151506065461,8.935020579537654e-05,7.0667,4.7333
0.67578125,1.6094272451361885e-05,-0.00017770901309681846,-0.0009784900320668345,7.42169517601282e-05,7.0667,4.7333
0.6796875,2.439315369649807e-05,-0.00018503155537193865,-0.0009443181681162737,7.226427382009615e-05,7.0667,4.7333
0.68359375,3.1227526486610226e-05,-0.00017819718258182648,-0.0009716556592767224,8.398034146028841e-05,7.0667,4.7333
0.6875,2.6345831636530114e-05,-0.00016355209803158615,-0.0009682384728816663,7.812230764019227e-05,7.0667,4.7333
0.69140625,-1.5320553902477717e-08,-0.0001523241998764019,-0.0009682384728816663,8.446851094529643e-05,7.0667,4.7333
0.6953125,-1.4629894511329806e-05,-0.00013767911532616155,-0.0009682384728816663,9.227922270542459e-05,7.0667,4.7333
0.69921875,5.842713266193654e-06,-0.00012156952232089721,-0.0009682384728816663,7.90986466102083e-05,7.0667,4.7333
0.703125,3.7573729791714366e-05,-0.00011082979365072097,-0.0009682384728816663,7.128793485008013e-05,7.0667,4.7333
0.70703125,2.1464136786450005e-05,-8.593314991531242e-05,-0.0009682384728816663,6.393488198214696e-05,7.0667,4.7333
0.7109375,9.610184161135442e-07,-5.8076978677042786e-05,-0.0009682384728816663,6.491122095216298e-05,7.0667,4.7333
0.71484375,5.842713266193654e-06,-4.7825419491874556e-05,-0.0009692148118516823,7.665779918516825e-05,7.0667,4.7333
0.71875,3.890035326161609e-06,-4.880175846189058e-05,-0.0009682384728816663,6.5887559922179e-05,7.0667,4.7333
0.72265625,1.937357386129566e-06,-2.146426730144196e-05,-0.0009462708460563058,4.7337119491874584e-05,7.0667,4.7333
0.7265625,-1.5320553902477717e-08,4.7284893110553325e-07,-0.0009687266423666742,5.270698382696271e-05,7.0667,4.7333
0.73046875,9.610184161135442e-07,6.330882751201665e-06,-0.0007402328127901121,4.831345846189061e-05,7.0667,4.7333
0.734375,-1.951158936140992e-05,4.245542464179448e-05,0.0003197967133119707,4.294359412680248e-05,7.0667,4.7333
0.73828125,-1.755891142137787e-05,5.66123397070268e-05,-0.000957986913696498,4.5872611036850557e-05,7.0667,4.7333
0.7421875,-1.121270811627373e-05,6.491122095216298e-05,0.0009740963761867705,3.4156543396658294e-05,7.0667,4.7333
0.74609375,8.283560691233709e-06,8.642118888532846e-05,0.000989717799707027,1.2188916571297797e-05,7.0667,4.7333
0.75,2.3904984211490058e-05,0.00010545979880064089,-0.0009960641335271228,7.307221721217687e-06,7.0667,4.7333
0.75390625,-6.3310132661936195e-06,0.00013084461202105745,0.0009638448170016022,1.5606102966353874e-05,7.0667,4.7333
0.7578125,-1.44931841611351e-06,0.00014060800172121767,-0.0009330902699610894,2.292864524147404e-05,7.0667,4.7333
0.76171875,-9.61148931105499e-07,0.00015476491678645,0.0006279231901304647,2.2440475756466028e-05,7.0667,4.7333
0.765625,-1.951158936140992e-05,0.0001669691539116503,-0.0002621928445960174,1.365342502632183e-05,7.0667,4.7333
0.76953125,-1.7070741936369862e-05,0.00017087450979171435,0.0003686441724055848,1.0236238631265752e-05,7.0667,4.7333
0.7734375,-1.658257245136185e-05,0.0001904012891920348,-0.0009711674897917143,1.1212577601281776e-05,7.0667,4.7333
0.77734375,7.795391206225697e-06,0.00020068335897001601,0.0007143291889768826,3.890035326161609e-06,7.0667,4.7333
0.78125,6.330882751201665e-06,0.00020117152845502406,0.0008139462745113299,-2.425657386129532e-06,7.0667,4.7333
0.78515625,1.8046950391393927e-05,0.00020361237588006412,0.0009697028508216983,8.77173017624172e-06,7.0667,4.7333
0.7890625,3.171569597161824e-05,0.00019577115352712292,-0.0009448063376012816,9.259899661249731e-06,7.0667,4.7333
0.79296875,-9.61148931105499e-07,0.00019381847558709087,0.0007856324443808652,8.77173017624172e-06,7.0667,4.7333
0.796875,-8.771860691233675e-06,0.0002163047824902724,0.00047167844433508815,1.4141594511329842e-05,7.0667,4.7333
0.80078125,-6.819182751201631e-06,0.0002119112571252003,0.0008608105450720988,6.330882751201665e-06,7.0667,4.7333
0.8046875,-1.072453863126572e-05,0.0001855195943419547,-0.0009667739644266422,1.4491879011215552e-06,7.0667,4.7333
0.80859375,-8.771860691233675e-06,0.0001777088825818265,0.0009838597658869306,1.4629763996337851e-05,7.0667,4.7333
0.8125,5.842713266193654e-06,0.00017136267927672237,0.000994599494557107,1.365342502632183e-05,7.0667,4.7333
0.81640625,1.8046950391393927e-05,0.00017331535721675442,0.0009667738339116502,-9.61148931105499e-07,7.0667,4.7333
0.8203125,3.890035326161609e-06,0.00017331535721675442,-0.0009726319982467384,-1.44931841611351e-06,7.0667,4.7333
0.82421875,-1.8535250391393893e-05,0.0001635519675165942,0.0002919710526665141,7.795391206225697e-06,7.0667,4.7333
0.828125,-1.560623348134583e-05,0.00014939505245136189,-0.0008515354553719386,7.795391206225697e-06,7.0667,4.7333
0.83203125,6.819052236209676e-06,0.00014256067966124974,-0.0009887415912520027,1.8046950391393927e-05,7.0667,4.7333
0.8359375,3.90382382467384e-05,0.00014011983223620968,-0.0009340666089311055,3.0251187516594204e-05,7.0667,4.7333
0.83984375,2.439315369649807e-05,0.00014841871348134585,-0.0009755610151567864,6.330882751201665e-06,7.0667,4.7333
0.84375,1.6094272451361885e-05,0.00014695420502632182,-0.0009682384728816663,-4.866504811169587e-06,7.0667,4.7333
0.84765625,2.1464136786450005e-05,0.00011864037489585719,-0.0009682384728816663,1.1700747086289786e-05,7.0667,4.7333
0.8515625,-1.2677216571297761e-05,0.00011815220541084917,-0.0009682384728816663,2.6345831636530114e-05,7.0667,4.7333
0.85546875,3.890035326161609e-06,0.00013279728996108952,-0.0009682384728816663,2.3416814726482047e-05,7.0667,4.7333
0.859375,4.0990916186770444e-05,0.0001230339002609293,-0.0009682384728816663,1.0724408116273763e-05,7.0667,4.7333
0.86328125,4.440810258182652e-05,0.00010594796828564891,-0.0009682384728816663,1.2677086056305808e-05,7.0667,4.7333
0.8671875,3.4156543396658294e-05,0.00012547474768596933,-0.0009682384728816663,1.6582441936369896e-05,7.0667,4.7333
0.87109375,7.795391206225697e-06,0.00013474996790112154,-0.0009682384728816663,1.4141594511329842e-05,7.0667,4.7333
0.875,7.307221721217687e-06,0.00013767898481116962,-0.0009682384728816663,-1.658257245136185e-05,7.0667,4.7333
0.87890625,4.294359412680248e-05,0.00013426179841611355,-0.0009682384728816663,-3.562118236667428e-05,7.0667,4.7333
0.8828125,2.976301803158619e-05,0.00012645108665598537,-0.0009682384728816663,1.3165255541313818e-05,7.0667,4.7333
0.88671875,2.6345831636530114e-05,0.00010985332416571298,-0.0009682384728816663,5.368332279697873e-05,7.0667,4.7333
0.890625,3.318020442664227e-05,0.00010545979880064089,-0.0009682384728816663,5.319515331197072e-05,7.0667,4.7333
0.89453125,1.365342502632183e-05,0.00011717586644083316,-0.0009682384728816663,3.3668373911650276e-05,7.0667,4.7333
0.8984375,2.3904984211490058e-05,0.00011571135798580912,-0.0009682384728816663,1.8046950391393927e-05,7.0667,4.7333
0.90234375,4.5872611036850557e-05,0.00011961671386587322,-0.0009682384728816663,2.0975967301441994e-05,7.0667,4.7333
0.90625,1.365342502632183e-05,0.00011180600210574503,-0.0009682384728816663,2.1464136786450005e-05,7.0667,4.7333
0.91015625,-9.260030176241686e-06,0.00010594796828564891,-0.0009682384728816663,2.6834001121538125e-05,7.0667,4.7333
0.9140625,3.890035326161609e-06,0.00010887698519569697,-0.0009682384728816663,2.488132318150608e-05,7.0667,4.7333
0.91796875,3.4156543396658294e-05,8.83738668253605e-05,-0.0009711674897917143,1.9999628331425975e-05,7.0667,4.7333
0.921875,4.831345846189061e-05,6.982342639505609e-05,-0.0009565224052414741,1.951145884641796e-05,7.0667,4.7333
0.92578125,2.1464136786450005e-05,6.835891794003205e-05,-0.0009438299986312658,1.0236238631265752e-05,7.0667,4.7333
0.9296875,3.269203494163426e-05,6.835891794003205e-05,-0.001,2.4255268711375773e-06,7.0667,4.7333
0.93359375,3.0739357001602215e-05,8.056315506523234e-05,-0.00011815233592584114,2.292864524147404e-05,7.0667,4.7333
0.9375,1.4629763996337851e-05,8.593301940032045e-05,-3.562118236667428e-05,4.977796691691464e-05,7.0667,4.7333
0.94140625,2.878667906157017e-05,8.642118888532846e-05,-0.00033593694742504,3.0739357001602215e-05,7.0667,4.7333
0.9453125,2.488132318150608e-05,7.763413815518427e-05,0.0009345546479011215,2.292864524147404e-05,7.0667,4.7333
0.94921875,1.8046950391393927e-05,7.42169517601282e-05,-0.0009472471850263219,3.5132882366674316e-05,7.0667,4.7333
0.953125,3.46447128816663e-05,7.568146021515222e-05,0.0009501760714213779,2.829850957656216e-05,7.0667,4.7333
0.95703125,3.5132882366674316e-05,8.593301940032045e-05,-0.0009897179302220188,3.5132882366674316e-05,7.0667,4.7333
0.9609375,3.0739357001602215e-05,6.491122095216298e-05,0.0009995117,4.440810258182652e-05,7.0667,4.7333
0.96484375,1.9999628331425975e-05,5.1730644856946685e-05,0.0009995117,3.952640773174641e-05,7.0667,4.7333
0.96875,1.2188916571297797e-05,6.247037352712293e-05,0.0009995117,3.318020442664227e-05,7.0667,4.7333
0.97265625,3.318020442664227e-05,6.393488198214696e-05,-0.0009970404724971389,3.3668373911650276e-05,7.0667,4.7333
0.9765625,4.880162794689862e-05,7.372878227512018e-05,0.0009872769522819866,-4.3783353261615755e-06,7.0667,4.7333
0.98046875,3.269203494163426e-05,7.03115958800641e-05,0.0009711673592767224,-2.4393284211490024e-05,7.0667,4.7333
0.984375,1.8535119876401938e-05,6.393488198214696e-05,-0.0009618922695765621,3.1227526486610226e-05,7.0667,4.7333
0.98828125,8.283560691233709e-06,6.0029526102082876e-05,0.00011815220541084917,5.758867867704282e-05,7.0667,4.7333
0.9921875,2.0487797816433986e-05,5.66123397070268e-05,-0.000960427761121538,2.7810340091554148e-05,7.0667,4.7333
0.99609375,3.90382382467384e-05,6.393488198214696e-05,-0.000960915930606546,1.2677086056305808e-05,7.0667,4.7333
1.0,3.8550068761730395e-05,6.051769558709088e-05,-0.0009443181681162737,2.7322170606546137e-05,7.0667,4.7333
1.00390625,3.4156543396658294e-05,4.684895000686658e-05,-0.0009740965067017624,4.294359412680248e-05,7.0667,4.7333
1.0078125,3.659739082169834e-05,4.391993309681851e-05,-0.0009682384728816663,4.7825288976882595e-05,7.0667,4.7333
1.01171875,1.1212577601281776e-05,7.51932907301442e-05,-0.0009682384728816663,4.34317636118105e-05,7.0667,4.7333
1.015625,1.365342502632183e-05,7.568146021515222e-05,-0.0009682384728816663,3.3668373911650276e-05,7.0667,4.7333
1.01953125,2.0975967301441994e-05,5.612417022201878e-05,-0.0009682384728816663,3.0739357001602215e-05,7.0667,4.7333
1.0234375,1.1212577601281776e-05,4.196725515678646e-05,-0.0009682384728816663,3.659739082169834e-05,7.0667,4.7333
1.02734375,1.6094272451361885e-05,2.292864524147404e-05,-0.0009682384728816663,1.1700747086289786e-05,7.0667,4.7333
1.03125,4.001457721675442e-05,1.8046950391393927e-05,-0.0009682384728816663,-1.2677216571297761e-05,7.0667,4.7333
1.03515625,5.368332279697873e-05,2.6345831636530114e-05,-0.0009687266423666742,1.2188916571297797e-05,7.0667,4.7333
1.0390625,1.755878090638592e-05,3.220386545662624e-05,-0.0009687266423666742,4.245542464179448e-05,7.0667,4.7333
1.04296875,2.0975967301441994e-05,1.755878090638592e-05,-0.0009062409482856488,3.806189927672238e-05,7.0667,4.7333
1.046875,3.90382382467384e-05,1.4629763996337851e-05,-0.001,3.0251187516594204e-05,7.0667,4.7333
1.05078125,2.976301803158619e-05,2.0975967301441994e-05,-0.00019772396198214693,3.220386545662624e-05,7.0667,4.7333
1.0546875,2.7322170606546137e-05,3.7085560306706354e-05,-0.0009384601342961775,2.5369492666514095e-05,7.0667,4.7333
1.05859375,3.806189927672238e-05,4.440810258182652e-05,0.0009858124438269628,2.3904984211490058e-05,7.0667,4.7333
1.0625,3.7085560306706354e-05,3.5132882366674316e-05,0.0009711673592767224,3.318020442664227e-05,7.0667,4.7333
1.06640625,1.4141594511329842e-05,3.0739357001602215e-05,-0.0009936232861020827,5.026613640192266e-05,7.0667,4.7333
1.0703125,1.4141594511329842e-05,3.171569597161824e-05,0.0009995117,4.684895000686658e-05,7.0667,4.7333
1.07421875,4.0990916186770444e-05,4.245542464179448e-05,0.0009995117,3.4156543396658294e-05,7.0667,4.7333
1.078125,2.976301803158619e-05,5.856501764705884e-05,0.0009995117,2.829850957656216e-05,7.0667,4.7333
1.08203125,1.951145884641796e-05,4.0990916186770444e-05,0.0009995117,2.7810340091554148e-05,7.0667,4.7333
1.0859375,2.488132318150608e-05,3.0251187516594204e-05,0.0009995117,2.5369492666514095e-05,7.0667,4.7333
1.08984375,3.46447128816663e-05,5.5636000737010774e-05,0.0009995117,1.5606102966353874e-05,7.0667,4.7333
1.09375,3.952640773174641e-05,4.9289797431906635e-05,0.0009995117,2.7322170606546137e-05,7.0667,4.7333
1.09765625,3.8550068761730395e-05,4.196725515678646e-05,0.0009995117,4.001457721675442e-05,7.0667,4.7333
1.1015625,4.196725515678646e-05,4.9289797431906635e-05,0.0009995117,3.8550068761730395e-05,7.0667,4.7333
1.10546875,3.3668373911650276e-05,3.8550068761730395e-05,0.0009995117,4.050274670176243e-05,7.0667,4.7333
1.109375,3.562105185168232e-05,3.4156543396658294e-05,0.0009995117,3.4156543396658294e-05,7.0667,4.7333
1.11328125,2.878667906157017e-05,3.3668373911650276e-05,0.0009995117,3.0739357001602215e-05,7.0667,4.7333
1.1171875,4.378204811169621e-06,4.391993309681851e-05,0.0009995117,3.90382382467384e-05,7.0667,4.7333
1.12109375,1.6582441936369896e-05,5.124247537193867e-05,0.0009995117,4.34317636118105e-05,7.0667,4.7333
1.125,3.610922133669034e-05,4.245542464179448e-05,0.0009995117,3.5132882366674316e-05,7.0667,4.7333
1.12890625,3.3668373911650276e-05,4.1479085671778456e-05,0.0009995117,2.7322170606546137e-05,7.0667,4.7333
1.1328125,3.610922133669034e-05,5.612417022201878e-05,0.0009995117,2.976301803158619e-05,7.0667,4.7333
1.13671875,4.4896272066834534e-05,5.5636000737010774e-05,0.0009995117,3.318020442664227e-05,7.0667,4.7333
1.140625,4.636078052185856e-05,4.4896272066834534e-05,0.0009995117,3.90382382467384e-05,7.0667,4.7333
1.14453125,4.636078052185856e-05,3.7085560306706354e-05,0.0009995117,2.9274848546578178e-05,7.0667,4.7333
1.1484375,4.0990916186770444e-05,3.0739357001602215e-05,0.000997528511467155,2.1464136786450005e-05,7.0667,4.7333
1.15234375,2.0487797816433986e-05,4.294359412680248e-05,0.0009794662405218585,3.0251187516594204e-05,7.0667,4.7333
1.15625,2.1464136786450005e-05,5.465966176699475e-05,-0.0009399246427512016,2.2440475756466028e-05,7.0667,4.7333
1.16015625,4.0990916186770444e-05,3.952640773174641e-05,0.0006537961728358893,2.2440475756466028e-05,7.0667,4.7333
1.1640625,3.806189927672238e-05,2.2440475756466028e-05,0.00031882037434195466,3.562105185168232e-05,7.0667,4.7333
1.16796875,3.0251187516594204e-05,2.7322170606546137e-05,0.0007426735297001602,4.001457721675442e-05,7.0667,4.7333
1.171875,2.7810340091554148e-05,2.292864524147404e-05,-0.0009853244048569467,3.269203494163426e-05,7.0667,4.7333
1.17578125,3.318020442664227e-05,2.1952306271458016e-05,0.0009941113250720988,3.1227526486610226e-05,7.0667,4.7333
1.1796875,3.90382382467384e-05,3.220386545662624e-05,0.0009921586471320668,3.8550068761730395e-05,7.0667,4.7333
1.18359375,3.5132882366674316e-05,3.562105185168232e-05,-0.0009989931504371709,4.391993309681851e-05,7.0667,4.7333
1.1875,3.8550068761730395e-05,3.7573729791714366e-05,0.0009995117,3.562105185168232e-05,7.0667,4.7333
1.19140625,4.245542464179448e-05,3.220386545662624e-05,0.0009995117,3.0251187516594204e-05,7.0667,4.7333
1.1953125,3.659739082169834e-05,4.294359412680248e-05,0.0009995117,3.4156543396658294e-05,7.0667,4.7333
1.19921875,2.3904984211490058e-05,4.880162794689862e-05,0.0009995117,2.7322170606546137e-05,7.0667,4.7333
1.203125,2.5857662151522106e-05,4.4896272066834534e-05,0.0009995117,2.488132318150608e-05,7.0667,4.7333
1.20703125,3.8550068761730395e-05,4.0990916186770444e-05,0.0009995117,3.0251187516594204e-05,7.0667,4.7333
1.2109375,3.562105185168232e-05,2.829850957656216e-05,0.0009995117,2.488132318150608e-05,7.0667,4.7333
1.21484375,2.0487797816433986e-05,2.7810340091554148e-05,0.0009995117,3.269203494163426e-05,7.0667,4.7333
1.21875,1.9999628331425975e-05,4.050274670176243e-05,0.0009995117,4.538444155184254e-05,7.0667,4.7333
1.22265625,3.8550068761730395e-05,3.4156543396658294e-05,0.0009995117,2.976301803158619e-05,7.0667,4.7333
1.2265625,5.124247537193867e-05,2.5857662151522106e-05,0.0009995117,1.9999628331425975e-05,7.0667,4.7333
1.23046875,4.7337119491874584e-05,3.1227526486610226e-05,0.0009995117,3.0251187516594204e-05,7.0667,4.7333
1.234375,5.417149228198674e-05,3.659739082169834e-05,0.0009995117,2.3416814726482047e-05,7.0667,4.7333
1.23828125,5.368332279697873e-05,4.538444155184254e-05,0.0009995117,1.2677086056305808e-05,7.0667,4.7333
1.2421875,3.220386545662624e-05,4.245542464179448e-05,0.0009995117,1.9999628331425975e-05,7.0667,4.7333
1.24609375,6.330882751201665e-06,4.294359412680248e-05,0.0009995117,3.8550068761730395e-05,7.0667,4.7333
1.25,1.8535119876401938e-05,4.4896272066834534e-05,0.0009995117,4.880162794689862e-05,7.0667,4.7333
1.25390625,5.124247537193867e-05,3.3668373911650276e-05,0.0009995117,4.34317636118105e-05,7.0667,4.7333
1.2578125,5.905318713206685e-05,3.7085560306706354e-05,0.0009995117,3.7085560306706354e-05,7.0667,4.7333
1.26171875,5.71005091920348e-05,2.2440475756466028e-05,0.0009995117,2.488132318150608e-05,7.0667,4.7333
1.265625,4.196725515678646e-05,1.0724408116273763e-05,0.0009995117,1.7070611421377907e-05,7.0667,4.7333
1.26953125,1.4629763996337851e-05,2.0487797816433986e-05,0.0009995117,2.5369492666514095e-05,7.0667,4.7333
1.2734375,2.5857662151522106e-05,2.6834001121538125e-05,0.0009995117,2.3416814726482047e-05,7.0667,4.7333
1.27734375,4.977796691691464e-05,4.7825288976882595e-05,0.0009995117,1.8046950391393927e-05,7.0667,4.7333
1.28125,5.075430588693066e-05,5.1730644856946685e-05,0.0009995117,2.7810340091554148e-05,7.0667,4.7333
1.28515625,4.9289797431906635e-05,3.220386545662624e-05,0.0009995117,4.245542464179448e-05,7.0667,4.7333
1.2890625,4.391993309681851e-05,4.4896272066834534e-05,0.0009995117,4.245542464179448e-05,7.0667,4.7333
1.29296875,3.659739082169834e-05,5.368332279697873e-05,0.0009995117,2.488132318150608e-05,7.0667,4.7333
1.296875,3.659739082169834e-05,4.245542464179448e-05,0.0009995117,1.4629763996337851e-05,7.0667,4.7333
1.30078125,3.220386545662624e-05,4.1479085671778456e-05,0.0009995117,2.9274848546578178e-05,7.0667,4.7333
1.3046875,2.439315369649807e-05,2.829850957656216e-05,0.0009995117,4.4896272066834534e-05,7.0667,4.7333
1.30859375,2.6345831636530114e-05,1.5117933481345863e-05,0.0009995117,4.196725515678646e-05,7.0667,4.7333
1.3125,3.269203494163426e-05,2.976301803158619e-05,0.0009995117,3.8550068761730395e-05,7.0667,4.7333
1.31640625,4.294359412680248e-05,3.4156543396658294e-05,0.0009995117,3.5132882366674316e-05,7.0667,4.7333
1.3203125,4.7337119491874584e-05,2.0975967301441994e-05,0.0009995117,3.3668373911650276e-05,7.0667,4.7333
1.32421875,3.0739357001602215e-05,1.2677086056305808e-05,0.0009995117,3.90382382467384e-05,7.0667,4.7333
1.328125,3.4156543396658294e-05,1.1700747086289786e-05,0.0009995117,3.269203494163426e-05,7.0667,4.7333
1.33203125,4.7825288976882595e-05,2.3904984211490058e-05,0.0009995117,1.5117933481345863e-05,7.0667,4.7333
1.3359375,4.880162794689862e-05,3.7085560306706354e-05,0.0009995117,1.7070611421377907e-05,7.0667,4.7333
1.33984375,5.2218814341954696e-05,2.878667906157017e-05,0.0009995117,3.3668373911650276e-05,7.0667,4.7333
1.34375,4.636078052185856e-05,1.6094272451361885e-05,0.0009995117,3.7573729791714366e-05,7.0667,4.7333
1.34765625,3.7573729791714366e-05,2.9274848546578178e-05,0.0009995117,4.0990916186770444e-05,7.0667,4.7333
1.3515625,3.269203494163426e-05,4.294359412680248e-05,0.0009995117,3.7085560306706354e-05,7.0667,4.7333
1.35546875,3.3668373911650276e-05,4.1479085671778456e-05,0.0009995117,3.171569597161824e-05,7.0667,4.7333
1.359375,5.124247537193867e-05,4.440810258182652e-05,0.0009995117,3.171569597161824e-05,7.0667,4.7333
1.36328125,6.344671249713895e-05,4.050274670176243e-05,0.0009995117,1.2188916571297797e-05,7.0667,4.7333
1.3671875,5.8076848162050824e-05,4.391993309681851e-05,0.0009995117,4.378204811169621e-06,7.0667,4.7333
1.37109375,4.977796691691464e-05,5.514783125200276e-05,0.0009995117,1.2677086056305808e-05,7.0667,4.7333
1.375,4.831345846189061e-05,5.368332279697873e-05,0.0009995117,2.0975967301441994e-05,7.0667,4.7333
1.37890625,3.952640773174641e-05,3.8550068761730395e-05,0.0009995117,3.0739357001602215e-05,7.0667,4.7333
1.3828125,4.294359412680248e-05,3.5132882366674316e-05,0.0009995117,2.6345831636530114e-05,7.0667,4.7333
1.38671875,5.2218814341954696e-05,4.294359412680248e-05,0.0009995117,3.269203494163426e-05,7.0667,4.7333
1.390625,6.295854301213094e-05,4.34317636118105e-05,0.0009995117,3.5132882366674316e-05,7.0667,4.7333
1.39453125,5.905318713206685e-05,3.610922133669034e-05,0.0009995117,2.7810340091554148e-05,7.0667,4.7333
1.3984375,4.977796691691464e-05,4.294359412680248e-05,0.0009995117,2.976301803158619e-05,7.0667,4.7333
1.40234375,5.2218814341954696e-05,5.026613640192266e-05,0.0009995117,2.6345831636530114e-05,7.0667,4.7333
1.40625,5.075430588693066e-05,3.0251187516594204e-05,0.0009995117,2.3904984211490058e-05,7.0667,4.7333
1.41015625,3.220386545662624e-05,2.3416814726482047e-05,0.0009995117,2.6834001121538125e-05,7.0667,4.7333
1.4140625,2.5857662151522106e-05,2.7810340091554148e-05,0.0009995117,1.2188916571297797e-05,7.0667,4.7333
1.41796875,4.538444155184254e-05,3.5132882366674316e-05,0.0009995117,-1.560623348134583e-05,7.0667,4.7333
1.421875,5.8076848162050824e-05,3.220386545662624e-05,0.0009995117,4.7284893110553325e-07,7.0667,4.7333
1.42578125,6.0029526102082876e-05,9.748069146257742e-06,0.0009995117,3.90382382467384e-05,7.0667,4.7333
1.4296875,5.368332279697873e-05,1.4141594511329842e-05,0.0009995117,4.831345846189061e-05,7.0667,4.7333
1.43359375,4.7337119491874584e-05,2.5857662151522106e-05,0.0009995117,4.7825288976882595e-05,7.0667,4.7333
1.4375,4.34317636118105e-05,4.050274670176243e-05,0.0009995117,4.0990916186770444e-05,7.0667,4.7333
1.44140625,4.0990916186770444e-05,5.075430588693066e-05,0.0009995117,2.878667906157017e-05,7.0667,4.7333
1.4453125,4.977796691691464e-05,5.5636000737010774e-05,0.0009995117,2.5857662151522106e-05,7.0667,4.7333
1.44921875,4.9289797431906635e-05,4.538444155184254e-05,0.0009995117,2.439315369649807e-05,7.0667,4.7333
1.453125,5.124247537193867e-05,3.220386545662624e-05,0.0009995117,2.439315369649807e-05,7.0667,4.7333
1.45703125,5.465966176699475e-05,4.391993309681851e-05,0.0009995117,2.0487797816433986e-05,7.0667,4.7333
1.4609375,4.5872611036850557e-05,4.977796691691464e-05,0.0009995117,3.171569597161824e-05,7.0667,4.7333
1.46484375,3.952640773174641e-05,1.0724408116273763e-05,0.0009995117,4.0990916186770444e-05,7.0667,4.7333
1.46875,3.0251187516594204e-05,-9.61148931105499e-07,0.0009995117,4.245542464179448e-05,7.0667,4.7333
1.47265625,1.0724408116273763e-05,3.0739357001602215e-05,0.0009995117,4.636078052185856e-05,7.0667,4.7333
1.4765625,3.890035326161609e-06,3.610922133669034e-05,0.0009995117,4.294359412680248e-05,7.0667,4.7333
1.48046875,1.902328936140995e-05,3.171569597161824e-05,0.0009995117,4.391993309681851e-05,7.0667,4.7333
1.484375,2.5857662151522106e-05,3.610922133669034e-05,0.0009995117,4.34317636118105e-05,7.0667,4.7333
1.48828125,1.5606102966353874e-05,3.7573729791714366e-05,0.0009995117,3.46447128816663e-05,7.0667,4.7333
1.4921875,3.890035326161609e-06,5.612417022201878e-05,0.0009995117,1.6094272451361885e-05,7.0667,4.7333
1.49609375,-6.819182751201631e-06,7.128793485008013e-05,0.0009995117,2.0487797816433986e-05,7.0667,4.7333
1.5,6.819052236209676e-06,6.982342639505609e-05,0.0009995117,4.9289797431906635e-05,7.0667,4.7333
1.50390625,2.488132318150608e-05,6.5887559922179e-05,0.0009995117,5.758867867704282e-05,7.0667,4.7333
1.5078125,2.5857662151522106e-05,7.372878227512018e-05,0.0009995117,5.270698382696271e-05,7.0667,4.7333
1.51171875,2.292864524147404e-05,6.738257897001604e-05,0.0009995117,5.1730644856946685e-05,7.0667,4.7333
1.515625,2.829850957656216e-05,3.7085560306706354e-05,0.0009995117,5.1730644856946685e-05,7.0667,4.7333
1.51953125,2.5857662151522106e-05,2.1464136786450005e-05,0.0009995117,5.270698382696271e-05,7.0667,4.7333
1.5234375,1.902328936140995e-05,3.806189927672238e-05,0.0009995117,4.7825288976882595e-05,7.0667,4.7333
1.52734375,3.0251187516594204e-05,5.905318713206685e-05,0.0009995117,3.7085560306706354e-05,7.0667,4.7333
1.53125,2.7322170606546137e-05,8.056315506523234e-05,0.0009995117,3.3668373911650276e-05,7.0667,4.7333
1.53515625,1.8046950391393927e-05,9.374373116044863e-05,0.0009995117,2.3904984211490058e-05,7.0667,4.7333
1.5390625,2.488132318150608e-05,5.075430588693066e-05,0.0009995117,1.755878090638592e-05,7.0667,4.7333
1.54296875,3.269203494163426e-05,9.748069146257742e-06,0.0009995117,4.0990916186770444e-05,7.0667,4.7333
1.546875,3.171569597161824e-05,2.0975967301441994e-05,0.0009995117,5.319515331197072e-05,7.0667,4.7333
1.55078125,2.439315369649807e-05,3.0739357001602215e-05,0.0009995117,4.196725515678646e-05,7.0667,4.7333
1.5546875,2.5857662151522106e-05,4.831345846189061e-05,0.0009995117,2.9274848546578178e-05,7.0667,4.7333
1.55859375,2.9274848546578178e-05,4.4896272066834534e-05,0.0009995117,1.4141594511329842e-05,7.0667,4.7333
1.5625,3.3668373911650276e-05,2.5369492666514095e-05,0.0009995117,2.7810340091554148e-05,7.0667,4.7333
1.56640625,3.610922133669034e-05,4.34317636118105e-05,0.0009995117,4.34317636118105e-05,7.0667,4.7333
1.5703125,4.050274670176243e-05,6.247037352712293e-05,0.0009995117,4.196725515678646e-05,7.0667,4.7333
1.57421875,3.562105185168232e-05,7.568146021515222e-05,0.0009995117,4.880162794689862e-05,7.0667,4.7333
1.578125,3.46447128816663e-05,5.856501764705884e-05,0.0009995117,4.7825288976882595e-05,7.0667,4.7333
1.58203125,3.806189927672238e-05,1.8535119876401938e-05,0.0009995117,3.3668373911650276e-05,7.0667,4.7333
1.5859375,3.7085560306706354e-05,3.318020442664227e-05,0.0009995117,2.1464136786450005e-05,7.0667,4.7333
1.58984375,4.34317636118105e-05,8.153949403524835e-05,0.0009995117,2.878667906157017e-05,7.0667,4.7333
1.59375,4.5872611036850557e-05,0.00010545979880064089,0.0009995117,4.0990916186770444e-05,7.0667,4.7333
1.59765625,4.4896272066834534e-05,9.276739219043261e-05,0.0009995117,4.5872611036850557e-05,7.0667,4.7333
1.6015625,3.8550068761730395e-05,4.9289797431906635e-05,0.0009995117,4.050274670176243e-05,7.0667,4.7333
1.60546875,3.171569597161824e-05,3.7573729791714366e-05,0.0009995117,2.5369492666514095e-05,7.0667,4.7333
1.609375,4.1479085671778456e-05,4.977796691691464e-05,0.0009995117,1.2188916571297797e-05,7.0667,4.7333
1.61328125,4.977796691691464e-05,5.124247537193867e-05,0.0009995117,2.488132318150608e-05,7.0667,4.7333
1.6171875,4.5872611036850557e-05,4.34317636118105e-05,0.0009995117,4.294359412680248e-05,7.0667,4.7333
1.62109375,4.538444155184254e-05,3.3668373911650276e-05,0.0009995117,4.001457721675442e-05,7.0667,4.7333
1.625,3.220386545662624e-05,5.124247537193867e-05,0.0009995117,3.4156543396658294e-05,7.0667,4.7333
1.62890625,2.7322170606546137e-05,4.391993309681851e-05,0.0009995117,2.7810340091554148e-05,7.0667,4.7333
1.6328125,4.5872611036850557e-05,2.9274848546578178e-05,0.0009995117,2.5857662151522106e-05,7.0667,4.7333
1.63671875,5.368332279697873e-05,4.684895000686658e-05,0.0009995117,3.0739357001602215e-05,7.0667,4.7333
1.640625,4.245542464179448e-05,6.149403455710691e-05,0.0009995117,2.829850957656216e-05,7.0667,4.7333
1.64453125,3.806189927672238e-05,6.442305146715498e-05,0.0009995117,1.365342502632183e-05,7.0667,4.7333
1.6484375,4.636078052185856e-05,5.612417022201878e-05,0.0009995117,1.7070611421377907e-05,7.0667,4.7333
1.65234375,4.9289797431906635e-05,6.442305146715498e-05,0.0009995117,2.9274848546578178e-05,7.0667,4.7333
1.65625,5.2218814341954696e-05,6.0029526102082876e-05,0.0009995117,2.5857662151522106e-05,7.0667,4.7333
1.66015625,5.8076848162050824e-05,3.7085560306706354e-05,0.0009995117,1.4141594511329842e-05,7.0667,4.7333
1.6640625,5.758867867704282e-05,4.4896272066834534e-05,0.0009995117,9.748069146257742e-06,7.0667,4.7333
1.66796875,5.465966176699475e-05,4.636078052185856e-05,0.0009995117,1.4629763996337851e-05,7.0667,4.7333
1.671875,5.856501764705884e-05,6.295854301213094e-05,0.0009995117,1.6582441936369896e-05,7.0667,4.7333
1.67578125,5.66123397070268e-05,7.812230764019227e-05,0.0009995117,1.6094272451361885e-05,7.0667,4.7333
1.6796875,5.124247537193867e-05,5.758867867704282e-05,0.0009995117,2.9274848546578178e-05,7.0667,4.7333
1.68359375,4.7337119491874584e-05,4.1479085671778456e-05,0.0009995117,3.5132882366674316e-05,7.0667,4.7333
1.6875,4.245542464179448e-05,4.538444155184254e-05,0.0009995117,2.7810340091554148e-05,7.0667,4.7333
1.69140625,3.7085560306706354e-05,4.294359412680248e-05,0.0009995117,2.3904984211490058e-05,7.0667,4.7333
1.6953125,3.90382382467384e-05,4.294359412680248e-05,0.0009995117,2.878667906157017e-05,7.0667,4.7333
1.69921875,5.026613640192266e-05,5.612417022201878e-05,0.0009995117,3.0251187516594204e-05,7.0667,4.7333
1.703125,6.539939043717099e-05,5.270698382696271e-05,0.0009995117,2.7322170606546137e-05,7.0667,4.7333
1.70703125,6.640624000000002e-05,4.4896272066834534e-05,0.0009995117,2.5857662151522106e-05,7.0667,4.7333
1.7109375,6.198220404211491e-05,3.46447128816663e-05,0.0009995117,3.890035326161609e-06,7.0667,4.7333
1.71484375,6.295854301213094e-05,3.1227526486610226e-05,0.0009995117,-2.9138268711375426e-06,7.0667,4.7333
1.71875,6.10058650720989e-05,4.440810258182652e-05,0.0009995117,1.6094272451361885e-05,7.0667,4.7333
1.72265625,4.831345846189061e-05,5.2218814341954696e-05,0.0009995117,2.7322170606546137e-05,7.0667,4.7333
1.7265625,4.4896272066834534e-05,5.2218814341954696e-05,0.0009995117,3.0739357001602215e-05,7.0667,4.7333
1.73046875,4.7825288976882595e-05,6.491122095216298e-05,0.0009995117,3.3668373911650276e-05,7.0667,4.7333
1.734375,4.34317636118105e-05,5.124247537193867e-05,0.0009995117,3.46447128816663e-05,7.0667,4.7333
1.73828125,5.465966176699475e-05,2.1464136786450005e-05,0.0009995117,2.0975967301441994e-05,7.0667,4.7333
1.7421875,6.491122095216298e-05,1.2677086056305808e-05,0.0009995117,9.259899661249731e-06,7.0667,4.7333
1.74609375,6.344671249713895e-05,1.0724408116273763e-05,0.0009995117,1.4491879011215552e-06,7.0667,4.7333
1.75,6.10058650720989e-05,-3.890165841153565e-06,0.0009995117,8.77173017624172e-06,7.0667,4.7333
1.75390625,5.954135661707486e-05,-4.72979446097488e-07,0.0009995117,2.488132318150608e-05,7.0667,4.7333
1.7578125,6.393488198214696e-05,1.0236238631265752e-05,0.0009995117,1.8046950391393927e-05,7.0667,4.7333
1.76171875,8.007498558022432e-05,-1.3165386056305774e-05,0.0009995117,1.4491879011215552e-06,7.0667,4.7333
1.765625,8.935020579537654e-05,-3.708569082169831e-05,0.0009995117,9.610184161135442e-07,7.0667,4.7333
1.76953125,8.593301940032045e-05,-5.4171622796978696e-05,0.0009995117,9.259899661249731e-06,7.0667,4.7333
1.7734375,8.78856973403525e-05,-4.1479216186770404e-05,0.0009995117,5.842713266193654e-06,7.0667,4.7333
1.77734375,9.325556167544062e-05,-6.3310132661936195e-06,0.0009995117,2.4255268711375773e-06,7.0667,4.7333
1.78125,8.398034146028841e-05,4.378204811169621e-06,0.0009995117,1.0724408116273763e-05,7.0667,4.7333
1.78515625,7.958681609521631e-05,-1.609440296635384e-05,0.0009995117,1.7070611421377907e-05,7.0667,4.7333
1.7890625,8.105132455024035e-05,-3.1715826486610186e-05,0.0009995117,-1.5320553902477717e-08,7.0667,4.7333
1.79296875,7.177610433508813e-05,-2.3416945241474e-05,0.0009995117,-2.4393284211490024e-05,7.0667,4.7333
1.796875,6.393488198214696e-05,-2.488145369649804e-05,0.0009995117,-2.9138268711375426e-06,7.0667,4.7333
1.80078125,6.295854301213094e-05,-2.4393284211490024e-05,0.0009995117,2.829850957656216e-05,7.0667,4.7333
1.8046875,6.689440948500802e-05,-2.0487928331425938e-05,0.0009995117,2.9274848546578178e-05,7.0667,4.7333
1.80859375,5.8076848162050824e-05,-2.2928775756465994e-05,0.0009995117,2.7322170606546137e-05,7.0667,4.7333
1.8125,3.318020442664227e-05,-7.795521721217652e-06,0.0009995117,2.7322170606546137e-05,7.0667,4.7333
1.81640625,4.1479085671778456e-05,1.8535119876401938e-05,0.0009995117,1.4141594511329842e-05,7.0667,4.7333
1.8203125,6.295854301213094e-05,5.842713266193654e-06,0.0009995117,1.2677086056305808e-05,7.0667,4.7333
1.82421875,5.8076848162050824e-05,-2.5857792666514058e-05,0.0009995117,2.6345831636530114e-05,7.0667,4.7333
1.828125,5.368332279697873e-05,-4.196738567177842e-05,0.0009995117,3.220386545662624e-05,7.0667,4.7333
1.83203125,6.0029526102082876e-05,-3.9038368761730354e-05,0.0009995117,3.1227526486610226e-05,7.0667,4.7333
1.8359375,6.149403455710691e-05,-1.3165386056305774e-05,0.0009995117,2.5369492666514095e-05,7.0667,4.7333
1.83984375,5.8076848162050824e-05,9.748069146257742e-06,0.0009995117,1.951145884641796e-05,7.0667,4.7333
1.84375,5.514783125200276e-05,3.890035326161609e-06,0.0009995117,1.7070611421377907e-05,7.0667,4.7333
1.84765625,4.977796691691464e-05,-6.3310132661936195e-06,0.0009995117,1.2677086056305808e-05,7.0667,4.7333
1.8515625,4.1479085671778456e-05,-1.609440296635384e-05,0.0009995117,7.307221721217687e-06,7.0667,4.7333
1.85546875,3.806189927672238e-05,-1.9023419876401904e-05,0.0009995117,1.0724408116273763e-05,7.0667,4.7333
1.859375,3.562105185168232e-05,-3.401996356145554e-06,0.0009995117,2.1464136786450005e-05,7.0667,4.7333
1.86328125,4.34317636118105e-05,-4.72979446097488e-07,0.0009995117,2.292864524147404e-05,7.0667,4.7333
1.8671875,4.977796691691464e-05,-1.44931841611351e-06,0.0009995117,2.6345831636530114e-05,7.0667,4.7333
1.87109375,2.292864524147404e-05,1.5117933481345863e-05,0.0009995117,4.196725515678646e-05,7.0667,4.7333
1.875,2.6834001121538125e-05,1.9999628331425975e-05,0.0009995117,4.440810258182652e-05,7.0667,4.7333
1.87890625,5.71005091920348e-05,1.6094272451361885e-05,0.0009995117,2.488132318150608e-05,7.0667,4.7333
1.8828125,6.051769558709088e-05,1.1700747086289786e-05,0.0009995117,2.0487797816433986e-05,7.0667,4.7333
1.88671875,5.758867867704282e-05,1.1700747086289786e-05,0.0009995117,2.878667906157017e-05,7.0667,4.7333
1.890625,5.5636000737010774e-05,2.7322170606546137e-05,0.0009995117,4.5872611036850557e-05,7.0667,4.7333
1.89453125,5.417149228198674e-05,3.5132882366674316e-05,0.0009995117,5.319515331197072e-05,7.0667,4.7333
1.8984375,4.4896272066834534e-05,3.401865841153599e-06,0.0009995117,4.538444155184254e-05,7.0667,4.7333
1.90234375,3.5132882366674316e-05,-2.488145369649804e-05,0.0009995117,3.3668373911650276e-05,7.0667,4.7333
1.90625,3.90382382467384e-05,2.913696356145588e-06,0.0009995117,2.3904984211490058e-05,7.0667,4.7333
1.91015625,3.90382382467384e-05,2.1952306271458016e-05,0.0009995117,1.902328936140995e-05,7.0667,4.7333
1.9140625,2.3416814726482047e-05,3.220386545662624e-05,0.0009995117,2.1464136786450005e-05,7.0667,4.7333
1.91796875,3.0251187516594204e-05,3.318020442664227e-05,0.0009995117,3.562105185168232e-05,7.0667,4.7333
1.921875,5.319515331197072e-05,1.937357386129566e-06,0.000998993019922179,4.5872611036850557e-05,7.0667,4.7333
1.92578125,5.1730644856946685e-05,-4.866504811169587e-06,0.0009995117,4.440810258182652e-05,7.0667,4.7333
1.9296875,4.4896272066834534e-05,8.77173017624172e-06,0.000998993019922179,4.977796691691464e-05,7.0667,4.7333
1.93359375,4.4896272066834534e-05,3.46447128816663e-05,0.000995575833527123,5.5636000737010774e-05,7.0667,4.7333
1.9375,4.636078052185856e-05,3.7573729791714366e-05,0.0009931349861020827,3.220386545662624e-05,7.0667,4.7333
1.94140625,4.245542464179448e-05,1.2188916571297797e-05,0.0009911823081620507,1.2677086056305808e-05,7.0667,4.7333
1.9453125,4.245542464179448e-05,2.878667906157017e-05,0.0009858124438269628,1.9999628331425975e-05,7.0667,4.7333
1.94921875,4.245542464179448e-05,4.977796691691464e-05,0.0009770253930968186,4.050274670176243e-05,7.0667,4.7333
1.953125,3.46447128816663e-05,5.856501764705884e-05,0.0009657974949416342,5.905318713206685e-05,7.0667,4.7333
1.95703125,3.4156543396658294e-05,5.612417022201878e-05,0.0009677501728816663,5.612417022201878e-05,7.0667,4.7333
1.9609375,3.610922133669034e-05,3.220386545662624e-05,0.0009755608846417944,3.90382382467384e-05,7.0667,4.7333
1.96484375,3.610922133669034e-05,1.5117933481345863e-05,0.0009716555287617303,2.0975967301441994e-05,7.0667,4.7333
1.96875,3.806189927672238e-05,1.7070611421377907e-05,0.0009477352239963378,1.951145884641796e-05,7.0667,4.7333
1.97265625,2.878667906157017e-05,1.6094272451361885e-05,0.0009286966140810254,3.8550068761730395e-05,7.0667,4.7333
1.9765625,1.902328936140995e-05,1.9999628331425975e-05,0.0009277202751110093,3.171569597161824e-05,7.0667,4.7333
1.98046875,2.3416814726482047e-05,3.3668373911650276e-05,0.0009267439361409933,1.2188916571297797e-05,7.0667,4.7333
1.984375,2.9274848546578178e-05,3.7573729791714366e-05,0.000911610682105745,3.220386545662624e-05,7.0667,4.7333
1.98828125,4.4896272066834534e-05,3.806189927672238e-05,0.0009033118008606088,6.0029526102082876e-05,7.0667,4.7333
1.9921875,5.075430588693066e-05,4.34317636118105e-05,0.000913075190560769,5.758867867704282e-05,7.0667,4.7333
1.99609375,4.440810258182652e-05,6.247037352712293e-05,0.0009218622412909132,3.90382382467384e-05,7.0667,4.7333
2.0,3.269203494163426e-05,6.393488198214696e-05,0.0009247912582009613,3.269203494163426e-05,7.0667,4.7333
2.00390625,2.6834001121538125e-05,3.46447128816663e-05,0.0009155160379858091,3.0739357001602215e-05,7.0667,4.7333
2.0078125,3.171569597161824e-05,1.1700747086289786e-05,0.0008930602416754406,4.0990916186770444e-05,7.0667,4.7333
2.01171875,3.4156543396658294e-05,8.283560691233709e-06,0.0008710926148500801,4.831345846189061e-05,7.0667,4.7333
2.015625,2.878667906157017e-05,2.829850957656216e-05,0.0008598342061020829,4.001457721675442e-05,7.0667,4.7333
2.01953125,4.245542464179448e-05,4.831345846189061e-05,0.0008701162758800641,3.7085560306706354e-05,7.0667,4.7333
2.0234375,4.245542464179448e-05,4.831345846189061e-05,0.0008715807843350881,3.5132882366674316e-05,7.0667,4.7333
2.02734375,2.1464136786450005e-05,3.7085560306706354e-05,0.0008578815281620508,3.0739357001602215e-05,7.0667,4.7333
2.03125,2.6345831636530114e-05,1.2188916571297797e-05,0.0008603223755870908,2.3416814726482047e-05,7.0667,4.7333
2.03515625,3.806189927672238e-05,8.77173017624172e-06,0.000865204070437171,1.951145884641796e-05,7.0667,4.7333
2.0390625,4.684895000686658e-05,3.0739357001602215e-05,0.0008476299689768826,2.878667906157017e-05,7.0667,4.7333
2.04296875,2.488132318150608e-05,4.684895000686658e-05,0.0008237096642114901,2.3904984211490058e-05,7.0667,4.7333
2.046875,9.610184161135442e-07,4.391993309681851e-05,0.000824197833696498,1.2677086056305808e-05,7.0667,4.7333
2.05078125,2.6834001121538125e-05,2.6345831636530114e-05,0.0008237096642114901,2.3904984211490058e-05,7.0667,4.7333
2.0546875,4.294359412680248e-05,2.2440475756466028e-05,0.0008212688167864499,2.878667906157017e-05,7.0667,4.7333
2.05859375,4.1479085671778456e-05,2.9274848546578178e-05,0.0008354257318516823,2.6834001121538125e-05,7.0667,4.7333
2.0625,3.952640773174641e-05,2.829850957656216e-05,0.0008305440370016022,3.5132882366674316e-05,7.0667,4.7333
2.06640625,3.562105185168232e-05,3.269203494163426e-05,0.0008071119017212177,4.196725515678646e-05,7.0667,4.7333
2.0703125,3.806189927672238e-05,2.9274848546578178e-05,0.0007939313256260013,3.806189927672238e-05,7.0667,4.7333
2.07421875,4.245542464179448e-05,2.829850957656216e-05,0.0008066237322362096,3.610922133669034e-05,7.0667,4.7333
2.078125,3.90382382467384e-05,2.9274848546578178e-05,0.0008149226134813457,3.269203494163426e-05,7.0667,4.7333
2.08203125,3.1227526486610226e-05,2.1952306271458016e-05,0.0008105290881162738,6.819052236209676e-06,7.0667,4.7333
2.0859375,2.7322170606546137e-05,2.0487797816433986e-05,0.0007997893594460975,-5.354674296177598e-06,7.0667,4.7333
2.08984375,2.829850957656216e-05,2.488132318150608e-05,0.0007900259697459373,1.7070611421377907e-05,7.0667,4.7333
2.09375,3.5132882366674316e-05,4.196725515678646e-05,0.0007958840035660334,3.806189927672238e-05,7.0667,4.7333
2.09765625,3.7085560306706354e-05,4.391993309681851e-05,0.0007997893594460975,4.001457721675442e-05,7.0667,4.7333
2.1015625,3.269203494163426e-05,4.34317636118105e-05,0.0007949076645960174,3.8550068761730395e-05,7.0667,4.7333
2.10546875,3.269203494163426e-05,1.902328936140995e-05,0.0007944194951110094,3.562105185168232e-05,7.0667,4.7333
2.109375,2.9274848546578178e-05,-5.842843781185608e-06,0.0007914904782009613,1.8046950391393927e-05,7.0667,4.7333
2.11328125,2.6834001121538125e-05,2.292864524147404e-05,0.000779774410560769,1.365342502632183e-05,7.0667,4.7333
2.1171875,2.5369492666514095e-05,4.294359412680248e-05,0.0007875851223208973,3.3668373911650276e-05,7.0667,4.7333
2.12109375,3.171569597161824e-05,4.4896272066834534e-05,0.0007831915969558251,3.4156543396658294e-05,7.0667,4.7333
2.125,4.245542464179448e-05,2.878667906157017e-05,0.0007573186142504006,1.5606102966353874e-05,7.0667,4.7333
2.12890625,4.294359412680248e-05,9.748069146257742e-06,0.0007514605804303044,2.3416814726482047e-05,7.0667,4.7333
2.1328125,3.562105185168232e-05,1.4629763996337851e-05,0.0007485315635202563,3.90382382467384e-05,7.0667,4.7333
2.13671875,3.1227526486610226e-05,2.878667906157017e-05,0.0007373036653650721,4.391993309681851e-05,7.0667,4.7333
2.140625,2.6834001121538125e-05,3.1227526486610226e-05,0.0007240925786770429,3.806189927672238e-05,7.0667,4.7333
2.14453125,2.5369492666514095e-05,2.488132318150608e-05,0.0007094474941268025,3.1227526486610226e-05,7.0667,4.7333
2.1484375,4.0990916186770444e-05,2.7810340091554148e-05,0.0007123765110368506,3.269203494163426e-05,7.0667,4.7333
2.15234375,3.7573729791714366e-05,4.294359412680248e-05,0.0007206753922819868,3.562105185168232e-05,7.0667,4.7333
2.15625,1.4629763996337851e-05,4.636078052185856e-05,0.0007221399007370107,4.001457721675442e-05,7.0667,4.7333
2.16015625,2.7810340091554148e-05,4.196725515678646e-05,0.0007196990533119707,3.659739082169834e-05,7.0667,4.7333
2.1640625,5.514783125200276e-05,4.050274670176243e-05,0.0007148173584618906,3.171569597161824e-05,7.0667,4.7333
2.16796875,5.465966176699475e-05,3.318020442664227e-05,0.0007114001720668346,3.171569597161824e-05,7.0667,4.7333
2.171875,4.636078052185856e-05,3.4156543396658294e-05,0.0007109120025818265,3.171569597161824e-05,7.0667,4.7333
2.17578125,4.1479085671778456e-05,4.001457721675442e-05,0.0007250689176470588,2.976301803158619e-05,7.0667,4.7333
2.1796875,3.7085560306706354e-05,4.831345846189061e-05,0.0007211635617669947,3.562105185168232e-05,7.0667,4.7333
2.18359375,2.7810340091554148e-05,5.075430588693066e-05,0.0007040776297917143,4.050274670176243e-05,7.0667,4.7333
2.1875,1.8535119876401938e-05,4.684895000686658e-05,0.0007011486128816663,3.318020442664227e-05,7.0667,4.7333
2.19140625,2.0975967301441994e-05,2.878667906157017e-05,0.0007070066467017624,2.5369492666514095e-05,7.0667,4.7333
2.1953125,3.562105185168232e-05,7.307221721217687e-06,0.0007050539687617304,2.2440475756466028e-05,7.0667,4.7333
2.19921875,4.34317636118105e-05,1.755878090638592e-05,0.0007011486128816663,2.3904984211490058e-05,7.0667,4.7333
2.203125,2.1952306271458016e-05,3.269203494163426e-05,0.0006933379011215381,3.3668373911650276e-05,7.0667,4.7333
2.20703125,1.2677086056305808e-05,3.7573729791714366e-05,0.0006689294268711376,3.7573729791714366e-05,7.0667,4.7333
2.2109375,3.562105185168232e-05,4.294359412680248e-05,0.0006586778676859693,3.659739082169834e-05,7.0667,4.7333
2.21484375,4.9289797431906635e-05,5.2218814341954696e-05,0.0006713702742961776,4.245542464179448e-05,7.0667,4.7333
2.21875,4.977796691691464e-05,4.001457721675442e-05,0.0006747874606912337,3.8550068761730395e-05,7.0667,4.7333
2.22265625,4.34317636118105e-05,2.3416814726482047e-05,0.0006655122404760815,2.488132318150608e-05,7.0667,4.7333
2.2265625,3.659739082169834e-05,2.1952306271458016e-05,0.0006567251897459373,2.0487797816433986e-05,7.0667,4.7333
2.23046875,3.5132882366674316e-05,2.5857662151522106e-05,0.0006537961728358893,2.5369492666514095e-05,7.0667,4.7333
2.234375,3.0739357001602215e-05,2.9274848546578178e-05,0.0006562370202609293,2.976301803158619e-05,7.0667,4.7333
2.23828125,3.806189927672238e-05,3.90382382467384e-05,0.000642568274680705,4.050274670176243e-05,7.0667,4.7333
2.2421875,3.610922133669034e-05,5.612417022201878e-05,0.0006206006478553445,4.440810258182652e-05,7.0667,4.7333
2.24609375,2.976301803158619e-05,4.880162794689862e-05,0.0006152307835202564,3.7085560306706354e-05,7.0667,4.7333
2.25,3.0739357001602215e-05,1.8046950391393927e-05,0.0006166952919752803,3.318020442664227e-05,7.0667,4.7333
2.25390625,2.439315369649807e-05,-4.3783353261615755e-06,0.0006298758680704967,9.259899661249731e-06,7.0667,4.7333
2.2578125,1.755878090638592e-05,-4.72979446097488e-07,0.0006288995291004806,-7.795521721217652e-06,7.0667,4.7333
2.26171875,2.3416814726482047e-05,7.795391206225697e-06,0.0006235296647653925,2.5369492666514095e-05,7.0667,4.7333
2.265625,4.4896272066834534e-05,1.0724408116273763e-05,0.0006166952919752803,4.391993309681851e-05,7.0667,4.7333
2.26953125,4.636078052185856e-05,1.5606102966353874e-05,0.0006142544445502403,3.7573729791714366e-05,7.0667,4.7333
2.2734375,3.610922133669034e-05,2.5857662151522106e-05,0.0006201124783703364,3.8550068761730395e-05,7.0667,4.7333
2.27734375,4.196725515678646e-05,3.1227526486610226e-05,0.0006186479699153125,3.3668373911650276e-05,7.0667,4.7333
2.28125,3.659739082169834e-05,2.292864524147404e-05,0.0006166952919752803,2.7810340091554148e-05,7.0667,4.7333
2.28515625,2.829850957656216e-05,2.0975967301441994e-05,0.000600097529485008,3.269203494163426e-05,7.0667,4.7333
2.2890625,2.3416814726482047e-05,1.4629763996337851e-05,0.0005849337648569467,2.5857662151522106e-05,7.0667,4.7333
2.29296875,2.292864524147404e-05,1.4141594511329842e-05,0.0006035147158800641,2.488132318150608e-05,7.0667,4.7333
2.296875,3.8550068761730395e-05,1.365342502632183e-05,0.0006079082412451362,3.610922133669034e-05,7.0667,4.7333
2.30078125,2.829850957656216e-05,1.5117933481345863e-05,0.000601073868455024,2.878667906157017e-05,7.0667,4.7333
2.3046875,1.0724408116273763e-05,1.3165255541313818e-05,0.0006030265463950561,2.5857662151522106e-05,7.0667,4.7333
2.30859375,2.9274848546578178e-05,1.7070611421377907e-05,0.0005883509512520028,1.9999628331425975e-05,7.0667,4.7333
2.3125,3.806189927672238e-05,1.951145884641796e-05,0.0005805402394918745,5.354543781185643e-06,7.0667,4.7333
2.31640625,3.7085560306706354e-05,1.951145884641796e-05,0.0005917681376470589,2.7322170606546137e-05,7.0667,4.7333
2.3203125,4.1479085671778456e-05,2.1464136786450005e-05,0.0005883509512520028,4.5872611036850557e-05,7.0667,4.7333
2.32421875,2.6834001121538125e-05,2.1464136786450005e-05,0.0005751703751567865,3.7085560306706354e-05,7.0667,4.7333
2.328125,1.4629763996337851e-05,4.5872611036850557e-05,0.0005688241718516823,3.610922133669034e-05,7.0667,4.7333
2.33203125,2.878667906157017e-05,4.4896272066834534e-05,0.0005693123413366903,4.1479085671778456e-05,7.0667,4.7333
2.3359375,3.0251187516594204e-05,2.3904984211490058e-05,0.0005737058667017624,4.1479085671778456e-05,7.0667,4.7333
2.33984375,3.318020442664227e-05,2.0975967301441994e-05,0.0005785875615518426,3.7085560306706354e-05,7.0667,4.7333
2.34375,4.636078052185856e-05,2.439315369649807e-05,0.0005727295277317464,2.1464136786450005e-05,7.0667,4.7333
2.34765625,4.0990916186770444e-05,2.5369492666514095e-05,0.0005698005108216984,1.5606102966353874e-05,7.0667,4.7333
2.3515625,2.7810340091554148e-05,2.439315369649807e-05,0.0005751703751567865,2.0975967301441994e-05,7.0667,4.7333
2.35546875,1.4629763996337851e-05,3.5132882366674316e-05,0.0005673596633966583,1.4629763996337851e-05,7.0667,4.7333
2.359375,7.795391206225697e-06,3.5132882366674316e-05,0.0005698005108216984,2.1464136786450005e-05,7.0667,4.7333
2.36328125,1.8046950391393927e-05,2.7322170606546137e-05,0.0005766348836118105,4.538444155184254e-05,7.0667,4.7333
2.3671875,3.0251187516594204e-05,2.7322170606546137e-05,0.0005556435957564661,4.9289797431906635e-05,7.0667,4.7333
2.37109375,2.7322170606546137e-05,3.562105185168232e-05,0.0005512500703913939,4.7337119491874584e-05,7.0667,4.7333
2.375,2.7810340091554148e-05,3.0251187516594204e-05,0.0005595489516365301,5.465966176699475e-05,7.0667,4.7333
2.37890625,2.9274848546578178e-05,2.7322170606546137e-05,0.0005629661380315862,5.2218814341954696e-05,7.0667,4.7333
2.3828125,2.1952306271458016e-05,2.878667906157017e-05,0.000556619934726482,3.7085560306706354e-05,7.0667,4.7333
2.38671875,2.439315369649807e-05,2.0487797816433986e-05,0.0005395340027512017,2.6345831636530114e-05,7.0667,4.7333
2.390625,2.7810340091554148e-05,1.7070611421377907e-05,0.0005380694942961775,2.6834001121538125e-05,7.0667,4.7333
2.39453125,1.8046950391393927e-05,2.976301803158619e-05,0.00054978556193637,2.878667906157017e-05,7.0667,4.7333
2.3984375,1.6094272451361885e-05,3.562105185168232e-05,0.00054978556193637,3.8550068761730395e-05,7.0667,4.7333
2.40234375,3.1227526486610226e-05,2.5369492666514095e-05,0.0005502737314213779,4.294359412680248e-05,7.0667,4.7333
2.40625,3.220386545662624e-05,3.890035326161609e-06,0.0005610134600915541,4.391993309681851e-05,7.0667,4.7333
2.41015625,2.439315369649807e-05,1.937357386129566e-06,0.0005341641384161136,4.684895000686658e-05,7.0667,4.7333
2.4140625,2.3416814726482047e-05,1.8535119876401938e-05,0.000510732003135729,3.7573729791714366e-05,7.0667,4.7333
2.41796875,2.3416814726482047e-05,1.9999628331425975e-05,0.0005180545454108492,2.2440475756466028e-05,7.0667,4.7333
2.421875,1.4629763996337851e-05,2.829850957656216e-05,0.000511220172620737,2.7810340091554148e-05,7.0667,4.7333
2.42578125,2.292864524147404e-05,2.976301803158619e-05,0.0005190308843808653,3.562105185168232e-05,7.0667,4.7333
2.4296875,3.3668373911650276e-05,3.3668373911650276e-05,0.0005175663759258411,3.7573729791714366e-05,7.0667,4.7333
2.43359375,3.4156543396658294e-05,4.4896272066834534e-05,0.0005048739693156328,4.245542464179448e-05,7.0667,4.7333
2.4375,3.318020442664227e-05,3.610922133669034e-05,0.0005185427148958572,3.90382382467384e-05,7.0667,4.7333
2.44140625,2.3416814726482047e-05,2.7322170606546137e-05,0.0005244007487159533,3.659739082169834e-05,7.0667,4.7333
2.4453125,2.1464136786450005e-05,2.9274848546578178e-05,0.0005209835623208972,2.3904984211490058e-05,7.0667,4.7333
2.44921875,3.1227526486610226e-05,2.6345831636530114e-05,0.0005165900369558252,1.2188916571297797e-05,7.0667,4.7333
2.453125,3.269203494163426e-05,2.976301803158619e-05,0.0005014567829205768,1.9999628331425975e-05,7.0667,4.7333
2.45703125,2.292864524147404e-05,3.171569597161824e-05,0.0005048739693156328,3.1227526486610226e-05,7.0667,4.7333
2.4609375,2.878667906157017e-05,2.292864524147404e-05,0.0005287942740810253,4.196725515678646e-05,7.0667,4.7333
2.46484375,3.562105185168232e-05,1.8535119876401938e-05,0.0005214717318059053,3.806189927672238e-05,7.0667,4.7333
2.46875,3.659739082169834e-05,1.3165255541313818e-05,0.0005068266472556649,1.951145884641796e-05,7.0667,4.7333
2.47265625,4.440810258182652e-05,1.0236238631265752e-05,0.0005009686134355688,2.829850957656216e-05,7.0667,4.7333
2.4765625,3.659739082169834e-05,1.1700747086289786e-05,0.000510732003135729,4.5872611036850557e-05,7.0667,4.7333
2.48046875,3.3668373911650276e-05,7.307221721217687e-06,0.0005151255285008011,4.050274670176243e-05,7.0667,4.7333
2.484375,3.4156543396658294e-05,6.819052236209676e-06,0.0004921815627054245,3.5132882366674316e-05,7.0667,4.7333
2.48828125,2.7810340091554148e-05,1.6094272451361885e-05,0.0004746074612451362,4.0990916186770444e-05,7.0667,4.7333
2.4921875,2.6834001121538125e-05,2.0975967301441994e-05,0.00048339451197528037,4.440810258182652e-05,7.0667,4.7333
2.49609375,2.829850957656216e-05,2.829850957656216e-05,0.0004912052237354085,3.4156543396658294e-05,7.0667,4.7333
2.5,2.976301803158619e-05,3.269203494163426e-05,0.00048144183403524835,1.8046950391393927e-05,7.0667,4.7333
2.50390625,2.6834001121538125e-05,2.6834001121538125e-05,0.00048729986785534446,2.5369492666514095e-05,7.0667,4.7333
2.5078125,1.902328936140995e-05,3.4156543396658294e-05,0.0004897407152803845,3.0251187516594204e-05,7.0667,4.7333
2.51171875,1.7070611421377907e-05,3.269203494163426e-05,0.0004926697321904326,1.951145884641796e-05,7.0667,4.7333
2.515625,3.4156543396658294e-05,3.562105185168232e-05,0.0004916933932204166,1.6094272451361885e-05,7.0667,4.7333
2.51953125,4.7337119491874584e-05,4.245542464179448e-05,0.0004902288847653926,1.951145884641796e-05,7.0667,4.7333
2.5234375,3.3668373911650276e-05,5.075430588693066e-05,0.00048144183403524835,3.269203494163426e-05,7.0667,4.7333
2.52734375,3.659739082169834e-05,4.5872611036850557e-05,0.0004755838002151522,3.8550068761730395e-05,7.0667,4.7333
2.53125,5.1730644856946685e-05,2.0975967301441994e-05,0.0004765601391851683,2.1952306271458016e-05,7.0667,4.7333
2.53515625,5.71005091920348e-05,2.3904984211490058e-05,0.0004765601391851683,1.0236238631265752e-05,7.0667,4.7333
2.5390625,4.4896272066834534e-05,2.6834001121538125e-05,0.00048534718991531244,1.9999628331425975e-05,7.0667,4.7333
2.54296875,3.7085560306706354e-05,2.829850957656216e-05,0.00048144183403524835,3.562105185168232e-05,7.0667,4.7333
2.546875,4.050274670176243e-05,3.318020442664227e-05,0.000467773088455024,4.636078052185856e-05,7.0667,4.7333
2.55078125,4.0990916186770444e-05,2.6834001121538125e-05,0.00046630858,4.294359412680248e-05,7.0667,4.7333
2.5546875,3.46447128816663e-05,2.829850957656216e-05,0.00047509563073014425,3.318020442664227e-05,7.0667,4.7333
2.55859375,2.7322170606546137e-05,2.2440475756466028e-05,0.0004804654950652323,2.976301803158619e-05,7.0667,4.7333
2.5625,3.171569597161824e-05,1.755878090638592e-05,0.0004907170542504005,3.171569597161824e-05,7.0667,4.7333
2.56640625,3.659739082169834e-05,2.5857662151522106e-05,0.0004770483086701762,2.0487797816433986e-05,7.0667,4.7333
2.5703125,3.610922133669034e-05,1.8046950391393927e-05,0.0004574910186770428,1.8046950391393927e-05,7.0667,4.7333
2.57421875,2.6834001121538125e-05,1.9999628331425975e-05,0.00046383722198214695,3.1227526486610226e-05,7.0667,4.7333
2.578125,2.5369492666514095e-05,3.318020442664227e-05,0.0004838826814602884,2.5857662151522106e-05,7.0667,4.7333
2.58203125,3.269203494163426e-05,3.220386545662624e-05,0.0004926697321904326,1.951145884641796e-05,7.0667,4.7333
2.5859375,3.7573729791714366e-05,2.878667906157017e-05,0.00047070210536507206,2.878667906157017e-05,7.0667,4.7333
2.58984375,4.196725515678646e-05,3.4156543396658294e-05,0.0004628608830121309,2.5857662151522106e-05,7.0667,4.7333
2.59375,3.610922133669034e-05,3.7573729791714366e-05,0.000465789899922179,2.5369492666514095e-05,7.0667,4.7333
2.59765625,4.636078052185856e-05,3.318020442664227e-05,0.00046383722198214695,4.050274670176243e-05,7.0667,4.7333
2.6015625,5.2218814341954696e-05,3.610922133669034e-05,0.00045651467970702676,4.0990916186770444e-05,7.0667,4.7333
2.60546875,4.1479085671778456e-05,3.0251187516594204e-05,0.0004364997308216983,3.806189927672238e-05,7.0667,4.7333
2.609375,3.4156543396658294e-05,1.8535119876401938e-05,0.00043747606979171436,3.659739082169834e-05,7.0667,4.7333
2.61328125,3.171569597161824e-05,2.3416814726482047e-05,0.00044821579846189064,2.7810340091554148e-05,7.0667,4.7333
2.6171875,3.269203494163426e-05,3.0251187516594204e-05,0.0004501684764019226,1.951145884641796e-05,7.0667,4.7333
2.62109375,3.0251187516594204e-05,4.196725515678646e-05,0.00043747606979171436,1.3165255541313818e-05,7.0667,4.7333
2.625,2.829850957656216e-05,4.391993309681851e-05,0.00041306759554131384,2.3416814726482047e-05,7.0667,4.7333
2.62890625,3.46447128816663e-05,4.391993309681851e-05,0.00040574505326619365,3.5132882366674316e-05,7.0667,4.7333
2.6328125,3.8550068761730395e-05,4.880162794689862e-05,0.00042136647678644995,3.7085560306706354e-05,7.0667,4.7333
2.63671875,3.46447128816663e-05,4.1479085671778456e-05,0.0004311298664866102,3.806189927672238e-05,7.0667,4.7333
2.640625,3.220386545662624e-05,3.46447128816663e-05,0.0004306416970016022,3.659739082169834e-05,7.0667,4.7333
2.64453125,2.878667906157017e-05,1.2188916571297797e-05,0.0004306416970016022,3.952640773174641e-05,7.0667,4.7333
2.6484375,3.0739357001602215e-05,-1.44931841611351e-06,0.0004345470528816663,4.4896272066834534e-05,7.0667,4.7333
2.65234375,3.5132882366674316e-05,-6.3310132661936195e-06,0.00043210620545662624,3.952640773174641e-05,7.0667,4.7333
2.65625,3.3668373911650276e-05,-1.804708090638588e-05,0.00040232786687113755,3.1227526486610226e-05,7.0667,4.7333
2.66015625,3.562105185168232e-05,-1.951158936140992e-05,0.00040232786687113755,4.294359412680248e-05,7.0667,4.7333
2.6640625,3.952640773174641e-05,-3.415667391165024e-05,0.00039256447717097735,4.977796691691464e-05,7.0667,4.7333
2.66796875,4.001457721675442e-05,-6.982355691004805e-05,0.0003374013253650721,3.8550068761730395e-05,7.0667,4.7333
2.671875,3.5132882366674316e-05,-7.470525176012816e-05,0.00033004827249713894,3.659739082169834e-05,7.0667,4.7333
2.67578125,4.294359412680248e-05,-7.128806536507208e-05,0.00032419023867704284,4.34317636118105e-05,7.0667,4.7333
2.6796875,5.5636000737010774e-05,-9.764921755550467e-05,0.00029392373060654615,4.440810258182652e-05,7.0667,4.7333
2.68359375,5.8076848162050824e-05,-0.000112294302105745,0.0002660980699610895,4.4896272066834534e-05,7.0667,4.7333
2.6875,5.612417022201878e-05,-0.00015525321678644996,0.00022558000270542458,4.294359412680248e-05,7.0667,4.7333
2.69140625,5.5636000737010774e-05,-0.00017819718258182648,0.0002123994266102083,4.391993309681851e-05,7.0667,4.7333
2.6953125,5.71005091920348e-05,-0.00018991325022201875,0.00020117152845502406,5.319515331197072e-05,7.0667,4.7333
2.69921875,5.856501764705884e-05,-0.0002197220994003204,0.00017136267927672237,5.612417022201878e-05,7.0667,4.7333
2.703125,5.612417022201878e-05,-0.00024315423468070495,0.0001586702726665141,6.051769558709088e-05,7.0667,4.7333
2.70703125,5.5636000737010774e-05,-0.0002714680648111696,0.0001415843406912337,6.491122095216298e-05,7.0667,4.7333
2.7109375,5.465966176699475e-05,-0.0002773260986312657,0.00011082966313572902,6.149403455710691e-05,7.0667,4.7333
2.71484375,5.026613640192266e-05,-0.00027000355635614556,0.00011717586644083316,6.247037352712293e-05,7.0667,4.7333
2.71875,5.417149228198674e-05,-0.00024803592953078505,0.00013914349326619364,6.787074845502406e-05,7.0667,4.7333
2.72265625,5.8076848162050824e-05,-0.00025535847180590523,0.0001313327815060655,6.787074845502406e-05,7.0667,4.7333
2.7265625,5.758867867704282e-05,-0.00028708948833142594,0.00010838881571068896,6.051769558709088e-05,7.0667,4.7333
2.73046875,5.270698382696271e-05,-0.0002670745394460975,0.00010887698519569697,5.612417022201878e-05,7.0667,4.7333
2.734375,5.368332279697873e-05,-0.00023631986189059278,0.00013084461202105745,6.10058650720989e-05,7.0667,4.7333
2.73828125,4.0990916186770444e-05,-0.00022850915013046462,0.0001630637980315862,6.051769558709088e-05,7.0667,4.7333
2.7421875,2.976301803158619e-05,-0.00020751786227512012,0.00019186579764705886,4.7825288976882595e-05,7.0667,4.7333
2.74609375,5.514783125200276e-05,-0.00019137775867704277,0.00017331535721675442,3.318020442664227e-05,7.0667,4.7333
2.75,6.884708742504007e-05,-0.00016696928442664225,0.00017380352670176243,2.6834001121538125e-05,7.0667,4.7333
2.75390625,6.491122095216298e-05,-0.00016306392854657814,0.0002084940707301442,2.976301803158619e-05,7.0667,4.7333
2.7578125,6.738257897001604e-05,-0.00015476504730144196,0.0002397369177706569,4.538444155184254e-05,7.0667,4.7333
2.76171875,6.787074845502406e-05,-0.00010009006498054473,0.00026805074790112155,4.684895000686658e-05,7.0667,4.7333
2.765625,6.393488198214696e-05,-7.763426867017622e-05,0.0002685389173861296,4.1479085671778456e-05,7.0667,4.7333
2.76953125,5.417149228198674e-05,-8.446864146028837e-05,0.0002695152563561456,4.538444155184254e-05,7.0667,4.7333
2.7734375,3.7573729791714366e-05,-5.8076978677042786e-05,0.0003046634592767224,5.1730644856946685e-05,7.0667,4.7333
2.77734375,3.7573729791714366e-05,-3.610935185168229e-05,0.0003349604779400321,5.417149228198674e-05,7.0667,4.7333
2.78125,4.391993309681851e-05,-3.122765700160218e-05,0.0003471647150652323,4.977796691691464e-05,7.0667,4.7333
2.78515625,4.050274670176243e-05,-2.3416945241474e-05,0.0003676678334355688,3.8550068761730395e-05,7.0667,4.7333
2.7890625,2.7810340091554148e-05,-2.195243678644997e-05,0.00037596671468070495,2.3416814726482047e-05,7.0667,4.7333
2.79296875,5.842713266193654e-06,1.937357386129566e-06,0.0003842655959258412,2.3416814726482047e-05,7.0667,4.7333
2.796875,1.6582441936369896e-05,3.7573729791714366e-05,0.0004116030870862898,2.3904984211490058e-05,7.0667,4.7333
2.80078125,3.0251187516594204e-05,4.1479085671778456e-05,0.000420878307301442,2.0975967301441994e-05,7.0667,4.7333
2.8046875,2.1464136786450005e-05,4.294359412680248e-05,0.00042380732421149007,1.902328936140995e-05,7.0667,4.7333
2.80859375,1.6582441936369896e-05,6.442305146715498e-05,0.0004296653580315862,2.1952306271458016e-05,7.0667,4.7333
2.8125,2.292864524147404e-05,8.544484991531244e-05,0.00044968030691691467,9.748069146257742e-06,7.0667,4.7333
2.81640625,2.7810340091554148e-05,9.374373116044863e-05,0.0004609082050720989,-1.937487901121521e-06,7.0667,4.7333
2.8203125,2.0487797816433986e-05,9.520823961547266e-05,0.00046383722198214695,1.0236238631265752e-05,7.0667,4.7333
2.82421875,1.1212577601281776e-05,0.00010301895137560084,0.00048095366455024036,1.8046950391393927e-05,7.0667,4.7333
2.828125,5.842713266193654e-06,0.00010790064622568095,0.0004843708509452964,2.1952306271458016e-05,7.0667,4.7333
2.83203125,1.4491879011215552e-06,0.00011327051056076907,0.0004951105796154726,2.878667906157017e-05,7.0667,4.7333
2.8359375,-1.44931841611351e-06,0.0001284037645960174,0.0004916933932204166,2.7322170606546137e-05,7.0667,4.7333
2.83984375,4.7284893110553325e-07,0.0001367026458411536,0.00048729986785534446,2.5369492666514095e-05,7.0667,4.7333
2.84375,3.890035326161609e-06,0.00012986827305104144,0.0004882762068253605,2.488132318150608e-05,7.0667,4.7333
2.84765625,7.795391206225697e-06,0.00011571135798580912,0.0004902288847653926,2.292864524147404e-05,7.0667,4.7333
2.8515625,-3.890165841153565e-06,0.00010741247674067293,0.0004985277660105287,2.1952306271458016e-05,7.0667,4.7333
2.85546875,-1.072453863126572e-05,0.00010545979880064089,0.0004995041049805448,1.1212577601281776e-05,7.0667,4.7333
2.859375,-4.866504811169587e-06,0.00010008993446555277,0.0005009686134355688,7.795391206225697e-06,7.0667,4.7333
2.86328125,-1.44931841611351e-06,0.00010448345983062488,0.0004926697321904326,4.7284893110553325e-07,7.0667,4.7333
2.8671875,1.4491879011215552e-06,0.00010301895137560084,0.0004843708509452964,-4.866504811169587e-06,7.0667,4.7333
2.87109375,-2.9138268711375426e-06,9.667274807049669e-05,0.00048193000352025634,1.1212577601281776e-05,7.0667,4.7333
2.875,-2.9138268711375426e-06,0.00010448345983062488,0.00048681169837033647,1.3165255541313818e-05,7.0667,4.7333
2.87890625,1.4141594511329842e-05,0.00012254573077592128,0.0004921815627054245,2.292864524147404e-05,7.0667,4.7333
2.8828125,1.755878090638592e-05,0.0001279155951110094,0.00047948915609521633,4.440810258182652e-05,7.0667,4.7333
2.88671875,1.4491879011215552e-06,0.00011961671386587322,0.0004687494274250401,4.831345846189061e-05,7.0667,4.7333
2.890625,7.795391206225697e-06,0.00010594796828564891,0.00047265478330510413,4.050274670176243e-05,7.0667,4.7333
2.89453125,8.283560691233709e-06,9.081471425040057e-05,0.0004838826814602884,4.0990916186770444e-05,7.0667,4.7333
2.8984375,-1.121270811627373e-05,9.472007013046466e-05,0.0004946224101304646,3.90382382467384e-05,7.0667,4.7333
2.90234375,-7.795521721217652e-06,0.00010448345983062488,0.0004921815627054245,2.5857662151522106e-05,7.0667,4.7333
2.90625,4.378204811169621e-06,9.520823961547266e-05,0.00047851281712520024,2.3416814726482047e-05,7.0667,4.7333
2.91015625,4.378204811169621e-06,0.00010253078189059284,0.00046826125794003205,2.829850957656216e-05,7.0667,4.7333
2.9140625,-2.9138268711375426e-06,0.00011668769695582514,0.0004736311222751201,2.292864524147404e-05,7.0667,4.7333
2.91796875,-5.354674296177598e-06,0.0001230339002609293,0.0004790009866102083,9.748069146257742e-06,7.0667,4.7333
2.921875,1.937357386129566e-06,0.00011619952747081714,0.00047997732558022427,1.8535119876401938e-05,7.0667,4.7333
2.92578125,8.77173017624172e-06,0.0001015544429205768,0.00047509563073014425,4.050274670176243e-05,7.0667,4.7333
2.9296875,4.866374296177632e-06,0.00010692430725566493,0.00045993186610208286,4.4896272066834534e-05,7.0667,4.7333
2.93359375,7.795391206225697e-06,0.00011424684953078509,0.0004521211543419547,4.245542464179448e-05,7.0667,4.7333
2.9375,1.1212577601281776e-05,0.00011424684953078509,0.00045065664588693065,3.8550068761730395e-05,7.0667,4.7333
2.94140625,9.610184161135442e-07,0.00011278234107576106,0.00044479861206683455,2.3416814726482047e-05,7.0667,4.7333
2.9453125,7.307221721217687e-06,0.00010643613777065691,0.00043259437494163423,1.4141594511329842e-05,7.0667,4.7333
2.94921875,6.330882751201665e-06,0.00010594796828564891,0.0004301535275165942,3.1227526486610226e-05,7.0667,4.7333
2.953125,4.866374296177632e-06,0.000110341493650721,0.00043161803597161825,4.294359412680248e-05,7.0667,4.7333
2.95703125,2.0487797816433986e-05,0.00010936515468070498,0.0004433341036118105,4.050274670176243e-05,7.0667,4.7333
2.9609375,2.9274848546578178e-05,0.00010057810395056078,0.0004389405782467384,4.001457721675442e-05,7.0667,4.7333
2.96484375,2.5857662151522106e-05,7.90986466102083e-05,0.00041550844296635384,4.294359412680248e-05,7.0667,4.7333
2.96875,2.1952306271458016e-05,8.007498558022432e-05,0.00041013857863126573,3.562105185168232e-05,7.0667,4.7333
2.97265625,2.2440475756466028e-05,7.372878227512018e-05,0.00041697295142137787,3.220386545662624e-05,7.0667,4.7333
2.9765625,2.439315369649807e-05,8.007498558022432e-05,0.0004267363411215381,3.952640773174641e-05,7.0667,4.7333
2.98046875,1.7070611421377907e-05,9.520823961547266e-05,0.0004296653580315862,4.245542464179448e-05,7.0667,4.7333
2.984375,1.1700747086289786e-05,8.886203631036852e-05,0.00042429549369649806,2.488132318150608e-05,7.0667,4.7333
2.98828125,2.1952306271458016e-05,8.446851094529643e-05,0.00041648478193636993,1.5117933481345863e-05,7.0667,4.7333
2.9921875,2.292864524147404e-05,8.056315506523234e-05,0.0004106267481162737,3.171569597161824e-05,7.0667,4.7333
2.99609375,2.7810340091554148e-05,9.276739219043261e-05,0.00041892562936140994,4.440810258182652e-05,7.0667,4.7333
3.0,3.220386545662624e-05,0.00011375868004577707,0.0004106267481162737,4.34317636118105e-05,7.0667,4.7333
3.00390625,2.6834001121538125e-05,9.179105322041659e-05,0.0003940289856260014,3.8550068761730395e-05,7.0667,4.7333
3.0078125,2.488132318150608e-05,8.007498558022432e-05,0.0003959816635660334,2.976301803158619e-05,7.0667,4.7333
3.01171875,2.5857662151522106e-05,8.935020579537654e-05,0.00039451715511100937,2.2440475756466028e-05,7.0667,4.7333
3.015625,2.1952306271458016e-05,8.251583300526438e-05,0.00038328925695582514,2.829850957656216e-05,7.0667,4.7333
3.01953125,2.2440475756466028e-05,7.714596867017625e-05,0.00036815600292057683,3.269203494163426e-05,7.0667,4.7333
3.0234375,2.6834001121538125e-05,7.079976536507211e-05,0.0003520464099153124,3.3668373911650276e-05,7.0667,4.7333
3.02734375,2.292864524147404e-05,6.0029526102082876e-05,0.0003505819014602884,2.3904984211490058e-05,7.0667,4.7333
3.03125,2.1952306271458016e-05,6.835891794003205e-05,0.00035351091837033645,2.913696356145588e-06,7.0667,4.7333
3.03515625,1.2188916571297797e-05,6.393488198214696e-05,0.00034911739300526437,1.6094272451361885e-05,7.0667,4.7333
3.0390625,1.1700747086289786e-05,5.270698382696271e-05,0.0003637624775555047,4.050274670176243e-05,7.0667,4.7333
3.04296875,3.1227526486610226e-05,5.075430588693066e-05,0.0003725495282856489,3.90382382467384e-05,7.0667,4.7333
3.046875,3.7085560306706354e-05,4.245542464179448e-05,0.0003520464099153124,3.171569597161824e-05,7.0667,4.7333
3.05078125,3.0251187516594204e-05,4.636078052185856e-05,0.0003422830202151522,3.318020442664227e-05,7.0667,4.7333
3.0546875,2.292864524147404e-05,5.417149228198674e-05,0.00036278613858548866,3.610922133669034e-05,7.0667,4.7333
3.05859375,2.9274848546578178e-05,6.5887559922179e-05,0.0003735258672556649,3.5132882366674316e-05,7.0667,4.7333
3.0625,3.0739357001602215e-05,6.10058650720989e-05,0.00035936895219043256,3.90382382467384e-05,7.0667,4.7333
3.06640625,2.439315369649807e-05,4.831345846189061e-05,0.00035595176579537657,3.562105185168232e-05,7.0667,4.7333
3.0703125,2.7810340091554148e-05,7.226427382009615e-05,0.0003544872573403525,3.269203494163426e-05,7.0667,4.7333
3.07421875,3.0251187516594204e-05,6.884708742504007e-05,0.00034374752867017625,3.806189927672238e-05,7.0667,4.7333
3.078125,1.5606102966353874e-05,5.319515331197072e-05,0.00034570020661020827,2.7810340091554148e-05,7.0667,4.7333
3.08203125,1.3165255541313818e-05,6.5887559922179e-05,0.0003549754268253605,1.8535119876401938e-05,7.0667,4.7333
3.0859375,1.5117933481345863e-05,5.905318713206685e-05,0.0003408185117601282,2.3904984211490058e-05,7.0667,4.7333
3.08984375,1.902328936140995e-05,5.8076848162050824e-05,0.000333984138970016,2.7810340091554148e-05,7.0667,4.7333
3.09375,2.3904984211490058e-05,7.128793485008013e-05,0.0003466765455802243,2.829850957656216e-05,7.0667,4.7333
3.09765625,1.6582441936369896e-05,6.884708742504007e-05,0.0003486292235202564,2.6345831636530114e-05,7.0667,4.7333
3.1015625,2.6834001121538125e-05,5.417149228198674e-05,0.0003447238676401923,2.0487797816433986e-05,7.0667,4.7333
3.10546875,3.318020442664227e-05,4.1479085671778456e-05,0.0003364249863950561,2.5369492666514095e-05,7.0667,4.7333
3.109375,2.3416814726482047e-05,4.245542464179448e-05,0.00032907193352712296,3.8550068761730395e-05,7.0667,4.7333
3.11328125,2.0487797816433986e-05,5.612417022201878e-05,0.000330536441982147,4.245542464179448e-05,7.0667,4.7333
3.1171875,2.292864524147404e-05,6.787074845502406e-05,0.0003408185117601282,3.5132882366674316e-05,7.0667,4.7333
3.12109375,2.6345831636530114e-05,6.051769558709088e-05,0.0003359368169100481,3.806189927672238e-05,7.0667,4.7333
3.125,2.6345831636530114e-05,3.610922133669034e-05,0.0003413066812451362,3.659739082169834e-05,7.0667,4.7333
3.12890625,2.2440475756466028e-05,4.831345846189061e-05,0.00033837766433508814,2.488132318150608e-05,7.0667,4.7333
3.1328125,2.6345831636530114e-05,5.856501764705884e-05,0.00031345051000686655,1.4141594511329842e-05,7.0667,4.7333
3.13671875,2.829850957656216e-05,5.758867867704282e-05,0.0003144268489768826,2.439315369649807e-05,7.0667,4.7333
3.140625,2.0975967301441994e-05,6.247037352712293e-05,0.0003178440353719387,3.610922133669034e-05,7.0667,4.7333
3.14453125,1.8046950391393927e-05,4.9289797431906635e-05,0.00031882037434195466,2.829850957656216e-05,7.0667,4.7333
3.1484375,2.3904984211490058e-05,3.46447128816663e-05,0.0003158913574319066,2.439315369649807e-05,7.0667,4.7333
3.15234375,2.0487797816433986e-05,3.0739357001602215e-05,0.0003158913574319066,2.439315369649807e-05,7.0667,4.7333
3.15625,1.1700747086289786e-05,3.7085560306706354e-05,0.00032809559455710687,2.7810340091554148e-05,7.0667,4.7333
3.16015625,1.8535119876401938e-05,4.440810258182652e-05,0.0003246784081620508,3.4156543396658294e-05,7.0667,4.7333
3.1640625,2.488132318150608e-05,4.4896272066834534e-05,0.0003154031879468986,3.3668373911650276e-05,7.0667,4.7333
3.16796875,2.1952306271458016e-05,3.0251187516594204e-05,0.0003197967133119707,4.0990916186770444e-05,7.0667,4.7333
3.171875,2.0975967301441994e-05,2.7810340091554148e-05,0.00031686769640192265,3.5132882366674316e-05,7.0667,4.7333
3.17578125,2.7322170606546137e-05,3.90382382467384e-05,0.00032419023867704284,1.1700747086289786e-05,7.0667,4.7333
3.1796875,2.878667906157017e-05,4.7825288976882595e-05,0.00032614291661707485,1.5117933481345863e-05,7.0667,4.7333
3.18359375,2.1952306271458016e-05,5.2218814341954696e-05,0.00031100966258182654,3.8550068761730395e-05,7.0667,4.7333
3.1875,2.3416814726482047e-05,4.880162794689862e-05,0.00030075810339665824,5.026613640192266e-05,7.0667,4.7333
3.19140625,2.6345831636530114e-05,5.514783125200276e-05,0.0003046634592767224,4.9289797431906635e-05,7.0667,4.7333
3.1953125,2.439315369649807e-05,6.442305146715498e-05,0.0003139386794918746,4.196725515678646e-05,7.0667,4.7333
3.19921875,2.3904984211490058e-05,5.270698382696271e-05,0.0003197967133119707,3.7573729791714366e-05,7.0667,4.7333
3.203125,1.2188916571297797e-05,3.90382382467384e-05,0.0003149150184618906,2.7810340091554148e-05,7.0667,4.7333
3.20703125,1.3165255541313818e-05,2.7810340091554148e-05,0.0003046634592767224,2.0487797816433986e-05,7.0667,4.7333
3.2109375,1.9999628331425975e-05,2.6345831636530114e-05,0.0003095451541268025,3.220386545662624e-05,7.0667,4.7333
3.21484375,2.3904984211490058e-05,2.6345831636530114e-05,0.0003158913574319066,3.7573729791714366e-05,7.0667,4.7333
3.21875,3.0739357001602215e-05,3.3668373911650276e-05,0.0003119860015518425,3.562105185168232e-05,7.0667,4.7333
3.22265625,2.3904984211490058e-05,3.4156543396658294e-05,0.0002988054254566263,3.952640773174641e-05,7.0667,4.7333
3.2265625,2.878667906157017e-05,1.8535119876401938e-05,0.0002919710526665141,4.050274670176243e-05,7.0667,4.7333
3.23046875,2.7810340091554148e-05,2.3904984211490058e-05,0.00029001837472648206,3.269203494163426e-05,7.0667,4.7333
3.234375,2.1464136786450005e-05,3.90382382467384e-05,0.00029001837472648206,2.0975967301441994e-05,7.0667,4.7333
3.23828125,3.0739357001602215e-05,2.9274848546578178e-05,0.0002929473916365301,2.2440475756466028e-05,7.0667,4.7333
3.2421875,3.318020442664227e-05,1.1700747086289786e-05,0.0002924592221515221,2.7322170606546137e-05,7.0667,4.7333
3.24609375,2.7322170606546137e-05,1.1212577601281776e-05,0.00028318400193636987,2.9274848546578178e-05,7.0667,4.7333
3.25,2.7322170606546137e-05,1.1212577601281776e-05,0.00028513667987640194,1.9999628331425975e-05,7.0667,4.7333
3.25390625,2.6345831636530114e-05,2.829850957656216e-05,0.000287577527301442,3.401865841153599e-06,7.0667,4.7333
3.2578125,2.439315369649807e-05,4.4896272066834534e-05,0.00029099471369649804,1.5606102966353874e-05,7.0667,4.7333
3.26171875,2.5369492666514095e-05,3.0739357001602215e-05,0.00029099471369649804,2.878667906157017e-05,7.0667,4.7333
3.265625,2.0487797816433986e-05,1.5117933481345863e-05,0.00028123132399633785,4.1479085671778456e-05,7.0667,4.7333
3.26953125,1.1700747086289786e-05,7.795391206225697e-06,0.0002846485103913939,5.124247537193867e-05,7.0667,4.7333
3.2734375,4.378204811169621e-06,1.6582441936369896e-05,0.0002861130188464179,5.124247537193867e-05,7.0667,4.7333
3.27734375,-5.354674296177598e-06,3.318020442664227e-05,0.00030417528979171434,5.2218814341954696e-05,7.0667,4.7333
3.28125,-1.4141725026321795e-05,2.7322170606546137e-05,0.00031735586588693064,5.5636000737010774e-05,7.0667,4.7333
3.28515625,-1.560623348134583e-05,2.292864524147404e-05,0.0003163795269169146,6.295854301213094e-05,7.0667,4.7333
3.2890625,-1.755891142137787e-05,2.5369492666514095e-05,0.00032126122176699473,5.856501764705884e-05,7.0667,4.7333
3.29296875,-2.146426730144196e-05,3.7085560306706354e-05,0.0003364249863950561,4.977796691691464e-05,7.0667,4.7333
3.296875,-3.464484339665826e-05,5.612417022201878e-05,0.0003549754268253605,5.270698382696271e-05,7.0667,4.7333
3.30078125,-4.1479216186770404e-05,4.5872611036850557e-05,0.0003549754268253605,6.738257897001604e-05,7.0667,4.7333
3.3046875,-3.122765700160218e-05,3.318020442664227e-05,0.0003466765455802243,6.491122095216298e-05,7.0667,4.7333
3.30859375,-2.0487928331425938e-05,4.245542464179448e-05,0.0003374013253650721,4.440810258182652e-05,7.0667,4.7333
3.3125,-1.121270811627373e-05,5.417149228198674e-05,0.0003295601030121309,2.829850957656216e-05,7.0667,4.7333
3.31640625,-1.3653555541313785e-05,6.640624000000002e-05,0.00033447230845502405,3.659739082169834e-05,7.0667,4.7333
3.3203125,-1.560623348134583e-05,6.344671249713895e-05,0.00033691315588006406,7.568146021515222e-05,7.0667,4.7333
3.32421875,-7.307352236209642e-06,4.977796691691464e-05,0.00032614291661707485,9.032654476539255e-05,7.0667,4.7333
3.328125,-7.795521721217652e-06,4.1479085671778456e-05,0.00031686769640192265,7.861047712520029e-05,7.0667,4.7333
3.33203125,-1.937487901121521e-06,4.538444155184254e-05,0.00032907193352712296,7.226427382009615e-05,7.0667,4.7333
3.3359375,1.0236238631265752e-05,5.5636000737010774e-05,0.00033447230845502405,6.491122095216298e-05,7.0667,4.7333
3.33984375,5.354543781185643e-06,6.393488198214696e-05,0.00032809559455710687,5.1730644856946685e-05,7.0667,4.7333
3.34375,6.819052236209676e-06,5.417149228198674e-05,0.0003246784081620508,4.0990916186770444e-05,7.0667,4.7333
3.34765625,1.1700747086289786e-05,4.7825288976882595e-05,0.00032028488279697875,3.8550068761730395e-05,7.0667,4.7333
3.3515625,2.913696356145588e-06,5.319515331197072e-05,0.0003071043067017624,4.880162794689862e-05,7.0667,4.7333
3.35546875,2.4255268711375773e-06,5.5636000737010774e-05,0.00031296234052185856,5.954135661707486e-05,7.0667,4.7333
3.359375,9.259899661249731e-06,4.977796691691464e-05,0.00033151278095216297,4.977796691691464e-05,7.0667,4.7333
3.36328125,7.307221721217687e-06,4.050274670176243e-05,0.00031882037434195466,3.171569597161824e-05,7.0667,4.7333
3.3671875,8.283560691233709e-06,4.196725515678646e-05,0.0003310246114671549,3.3668373911650276e-05,7.0667,4.7333
3.37109375,1.6582441936369896e-05,5.075430588693066e-05,0.00034570020661020827,3.7085560306706354e-05,7.0667,4.7333
3.375,9.259899661249731e-06,6.149403455710691e-05,0.0003393540033051042,4.001457721675442e-05,7.0667,4.7333
3.37890625,3.401865841153599e-06,4.9289797431906635e-05,0.0003466765455802243,5.368332279697873e-05,7.0667,4.7333
3.3828125,1.5117933481345863e-05,3.8550068761730395e-05,0.00035155824043030443,6.0029526102082876e-05,7.0667,4.7333
3.38671875,1.7070611421377907e-05,4.245542464179448e-05,0.0003408185117601282,5.514783125200276e-05,7.0667,4.7333
3.390625,1.0236238631265752e-05,3.7573729791714366e-05,0.00033248911992217895,4.34317636118105e-05,7.0667,4.7333
3.39453125,1.7070611421377907e-05,4.1479085671778456e-05,0.00033788949485008015,4.636078052185856e-05,7.0667,4.7333
3.3984375,2.6834001121538125e-05,3.4156543396658294e-05,0.000333984138970016,5.368332279697873e-05,7.0667,4.7333
3.40234375,2.5857662151522106e-05,2.976301803158619e-05,0.0003193085438269627,4.391993309681851e-05,7.0667,4.7333
3.40625,2.1952306271458016e-05,2.6834001121538125e-05,0.00029441190009155414,3.562105185168232e-05,7.0667,4.7333
3.41015625,2.0975967301441994e-05,2.7322170606546137e-05,0.0002729324427512017,3.562105185168232e-05,7.0667,4.7333
3.4140625,2.7322170606546137e-05,4.245542464179448e-05,0.00028318400193636987,3.610922133669034e-05,7.0667,4.7333
3.41796875,3.0739357001602215e-05,4.977796691691464e-05,0.00029636457803158616,4.196725515678646e-05,7.0667,4.7333
3.421875,2.5369492666514095e-05,3.8550068761730395e-05,0.00027488512069123375,4.636078052185856e-05,7.0667,4.7333
3.42578125,2.3416814726482047e-05,4.1479085671778456e-05,0.0002568228497459373,3.8550068761730395e-05,7.0667,4.7333
3.4296875,2.6345831636530114e-05,4.4896272066834534e-05,0.00025877552768596934,3.1227526486610226e-05,7.0667,4.7333
3.43359375,1.902328936140995e-05,4.001457721675442e-05,0.0002709797648111696,2.976301803158619e-05,7.0667,4.7333
3.4375,2.913696356145588e-06,3.952640773174641e-05,0.00026463356150606545,3.7085560306706354e-05,7.0667,4.7333
3.44140625,4.866374296177632e-06,2.5369492666514095e-05,0.00025535834129091325,4.636078052185856e-05,7.0667,4.7333
3.4453125,2.3416814726482047e-05,2.6345831636530114e-05,0.00026072820562600136,5.417149228198674e-05,7.0667,4.7333
3.44921875,3.171569597161824e-05,1.2677086056305808e-05,0.0002573110192309453,4.9289797431906635e-05,7.0667,4.7333
3.453125,2.9274848546578178e-05,7.795391206225697e-06,0.00027390878172121766,4.538444155184254e-05,7.0667,4.7333
3.45703125,3.171569597161824e-05,3.3668373911650276e-05,0.00028123132399633785,4.196725515678646e-05,7.0667,4.7333
3.4609375,3.220386545662624e-05,3.7573729791714366e-05,0.00027488512069123375,2.2440475756466028e-05,7.0667,4.7333
3.46484375,3.220386545662624e-05,3.90382382467384e-05,0.00027586145966124973,5.354543781185643e-06,7.0667,4.7333
3.46875,2.488132318150608e-05,2.6345831636530114e-05,0.00027390878172121766,2.5369492666514095e-05,7.0667,4.7333
3.47265625,2.439315369649807e-05,1.9999628331425975e-05,0.0002597518666559854,5.124247537193867e-05,7.0667,4.7333
3.4765625,2.488132318150608e-05,2.0487797816433986e-05,0.0002597518666559854,4.831345846189061e-05,7.0667,4.7333
3.48046875,1.9999628331425975e-05,2.3416814726482047e-05,0.00026268088356603343,4.245542464179448e-05,7.0667,4.7333
3.484375,2.3416814726482047e-05,2.5369492666514095e-05,0.00024413044313572902,3.8550068761730395e-05,7.0667,4.7333
3.48828125,3.171569597161824e-05,1.5606102966353874e-05,0.00023631973137560084,4.196725515678646e-05,7.0667,4.7333
3.4921875,3.3668373911650276e-05,2.829850957656216e-05,0.00024022508725566493,3.8550068761730395e-05,7.0667,4.7333
3.49609375,3.3668373911650276e-05,3.7085560306706354e-05,0.00025584651077592124,2.6834001121538125e-05,7.0667,4.7333
3.5,3.0251187516594204e-05,3.90382382467384e-05,0.00026024003614099337,2.878667906157017e-05,7.0667,4.7333
3.50390625,2.7322170606546137e-05,3.659739082169834e-05,0.0002504766464408331,3.659739082169834e-05,7.0667,4.7333
3.5078125,3.220386545662624e-05,1.902328936140995e-05,0.00024998847695582513,4.001457721675442e-05,7.0667,4.7333
3.51171875,2.829850957656216e-05,6.330882751201665e-06,0.000243642273650721,3.3668373911650276e-05,7.0667,4.7333
3.515625,2.3416814726482047e-05,2.1464136786450005e-05,0.00024168959571068896,3.269203494163426e-05,7.0667,4.7333
3.51953125,2.439315369649807e-05,3.4156543396658294e-05,0.00025340566335088123,3.171569597161824e-05,7.0667,4.7333
3.5234375,2.6834001121538125e-05,2.1952306271458016e-05,0.0002538938328358892,2.829850957656216e-05,7.0667,4.7333
3.52734375,2.3416814726482047e-05,3.5132882366674316e-05,0.000243642273650721,3.269203494163426e-05,7.0667,4.7333
3.53125,1.7070611421377907e-05,3.7085560306706354e-05,0.0002392487482856489,3.806189927672238e-05,7.0667,4.7333
3.53515625,2.6834001121538125e-05,3.220386545662624e-05,0.00024608312107576104,3.0251187516594204e-05,7.0667,4.7333
3.5390625,4.050274670176243e-05,3.5132882366674316e-05,0.0002470594600457771,1.5117933481345863e-05,7.0667,4.7333
3.54296875,4.5872611036850557e-05,2.2440475756466028e-05,0.00023631973137560084,1.365342502632183e-05,7.0667,4.7333
3.546875,3.90382382467384e-05,1.365342502632183e-05,0.00024022508725566493,3.0739357001602215e-05,7.0667,4.7333
3.55078125,3.220386545662624e-05,1.4629763996337851e-05,0.00024608312107576104,4.050274670176243e-05,7.0667,4.7333
3.5546875,3.269203494163426e-05,2.6834001121538125e-05,0.0002397369177706569,3.7085560306706354e-05,7.0667,4.7333
3.55859375,3.0739357001602215e-05,3.8550068761730395e-05,0.00024022508725566493,3.171569597161824e-05,7.0667,4.7333
3.5625,2.878667906157017e-05,2.488132318150608e-05,0.00022655634167544062,2.488132318150608e-05,7.0667,4.7333
3.56640625,2.7322170606546137e-05,1.3165255541313818e-05,0.00021532844352025636,2.292864524147404e-05,7.0667,4.7333
3.5703125,3.0739357001602215e-05,1.6094272451361885e-05,0.00023534339240558483,2.0975967301441994e-05,7.0667,4.7333
3.57421875,3.171569597161824e-05,2.292864524147404e-05,0.00025828735820096135,2.292864524147404e-05,7.0667,4.7333
3.578125,2.0487797816433986e-05,2.829850957656216e-05,0.0002529174938658732,2.292864524147404e-05,7.0667,4.7333
3.58203125,1.4629763996337851e-05,2.1464136786450005e-05,0.00025096481592584116,1.755878090638592e-05,7.0667,4.7333
3.5859375,1.8535119876401938e-05,6.330882751201665e-06,0.00024950030747081714,2.1464136786450005e-05,7.0667,4.7333
3.58984375,2.3904984211490058e-05,8.77173017624172e-06,0.0002392487482856489,3.1227526486610226e-05,7.0667,4.7333
3.59375,3.562105185168232e-05,1.951145884641796e-05,0.00023339071446555276,3.806189927672238e-05,7.0667,4.7333
3.59765625,4.196725515678646e-05,2.7322170606546137e-05,0.00023876057880064088,3.318020442664227e-05,7.0667,4.7333
3.6015625,4.294359412680248e-05,3.318020442664227e-05,0.0002470594600457771,3.610922133669034e-05,7.0667,4.7333
3.60546875,4.4896272066834534e-05,2.488132318150608e-05,0.000243642273650721,3.4156543396658294e-05,7.0667,4.7333
3.609375,3.952640773174641e-05,1.2677086056305808e-05,0.00025340566335088123,1.6582441936369896e-05,7.0667,4.7333
3.61328125,4.001457721675442e-05,3.8550068761730395e-05,0.000287577527301442,2.0975967301441994e-05,7.0667,4.7333
3.6171875,4.538444155184254e-05,4.196725515678646e-05,0.00028074315451132986,3.659739082169834e-05,7.0667,4.7333
3.62109375,4.7337119491874584e-05,8.77173017624172e-06,0.00024071325674067292,3.610922133669034e-05,7.0667,4.7333
3.625,4.831345846189061e-05,1.937357386129566e-06,0.0002211864773403525,1.2677086056305808e-05,7.0667,4.7333
3.62890625,5.075430588693066e-05,1.0236238631265752e-05,0.00021825746043030442,-7.795521721217652e-06,7.0667,4.7333
3.6328125,5.270698382696271e-05,1.1700747086289786e-05,0.00021874562991531246,-7.307352236209642e-06,7.0667,4.7333
3.63671875,5.954135661707486e-05,3.401865841153599e-06,0.0002119112571252003,3.401865841153599e-06,7.0667,4.7333
3.640625,7.568146021515222e-05,-4.866504811169587e-06,0.00020312420639505608,7.307221721217687e-06,7.0667,4.7333
3.64453125,8.983837528038453e-05,-7.795521721217652e-06,0.00019381847558709087,2.913696356145588e-06,7.0667,4.7333
3.6484375,0.00010008993446555277,5.842713266193654e-06,0.00018698410279697873,-1.2677216571297761e-05,7.0667,4.7333
3.65234375,0.00010497162931563287,2.2440475756466028e-05,0.00018844861125200276,-1.7070741936369862e-05,7.0667,4.7333
3.65625,0.00010790064622568095,1.4141594511329842e-05,0.0001913776281620508,-1.121270811627373e-05,7.0667,4.7333
3.66015625,0.00010545979880064089,1.6582441936369896e-05,0.0001943066450720989,-1.3165386056305774e-05,7.0667,4.7333
3.6640625,9.276739219043261e-05,2.9274848546578178e-05,0.00020947040970016023,-1.9023419876401904e-05,7.0667,4.7333
3.66796875,8.30040024902724e-05,3.46447128816663e-05,0.00021337576558022432,-2.3905114726482013e-05,7.0667,4.7333
3.671875,8.886203631036852e-05,3.659739082169834e-05,0.0002041005453650721,-2.2440606271457983e-05,7.0667,4.7333
3.67578125,9.862542601052873e-05,3.46447128816663e-05,0.00021435210455024033,-1.8535250391393893e-05,7.0667,4.7333
3.6796875,0.0001010662734355688,3.5132882366674316e-05,0.00022362732476539254,-1.2189047086289752e-05,7.0667,4.7333
3.68359375,9.911359549553675e-05,3.5132882366674316e-05,0.00021044674867017627,-4.3783353261615755e-06,7.0667,4.7333
3.6875,9.374373116044863e-05,3.659739082169834e-05,0.00019970702000000003,-7.795521721217652e-06,7.0667,4.7333
3.69140625,8.886203631036852e-05,4.196725515678646e-05,0.0001913776281620508,-1.121270811627373e-05,7.0667,4.7333
3.6953125,8.105132455024035e-05,4.440810258182652e-05,0.00020214786742504004,-6.3310132661936195e-06,7.0667,4.7333
3.69921875,6.884708742504007e-05,4.0990916186770444e-05,0.00021435210455024033,3.890035326161609e-06,7.0667,4.7333
3.703125,7.128793485008013e-05,3.7085560306706354e-05,0.0002089822402151522,7.307221721217687e-06,7.0667,4.7333
3.70703125,7.861047712520029e-05,3.46447128816663e-05,0.00021093491815518426,4.378204811169621e-06,7.0667,4.7333
3.7109375,7.763413815518427e-05,3.3668373911650276e-05,0.00020507688433508815,-1.937487901121521e-06,7.0667,4.7333
3.71484375,7.665779918516825e-05,4.001457721675442e-05,0.0002123994266102083,1.4491879011215552e-06,7.0667,4.7333
3.71875,7.03115958800641e-05,4.001457721675442e-05,0.0002202101383703365,1.365342502632183e-05,7.0667,4.7333
3.72265625,6.0029526102082876e-05,3.562105185168232e-05,0.00021728112146028838,1.937357386129566e-06,7.0667,4.7333
3.7265625,5.66123397070268e-05,3.5132882366674316e-05,0.00021581661300526436,-4.72979446097488e-07,7.0667,4.7333
3.73046875,5.465966176699475e-05,3.318020442664227e-05,0.00021386393506523234,1.755878090638592e-05,7.0667,4.7333
3.734375,5.612417022201878e-05,4.1479085671778456e-05,0.00022411549425040055,2.2440475756466028e-05,7.0667,4.7333
3.73828125,6.247037352712293e-05,4.684895000686658e-05,0.00022997352807049672,2.0487797816433986e-05,7.0667,4.7333
3.7421875,5.954135661707486e-05,3.8550068761730395e-05,0.00022313915528038454,1.8535119876401938e-05,7.0667,4.7333
3.74609375,5.758867867704282e-05,3.806189927672238e-05,0.0002167929519752804,1.6094272451361885e-05,7.0667,4.7333
3.75,5.856501764705884e-05,4.1479085671778456e-05,0.00021728112146028838,1.1700747086289786e-05,7.0667,4.7333
3.75390625,5.270698382696271e-05,4.538444155184254e-05,0.00021093491815518426,1.1212577601281776e-05,7.0667,4.7333
3.7578125,5.2218814341954696e-05,5.026613640192266e-05,0.0002041005453650721,1.755878090638592e-05,7.0667,4.7333
3.76171875,5.1730644856946685e-05,4.440810258182652e-05,0.00020556505382009614,2.3904984211490058e-05,7.0667,4.7333
3.765625,5.270698382696271e-05,3.8550068761730395e-05,0.00020995857918516825,2.3904984211490058e-05,7.0667,4.7333
3.76953125,5.66123397070268e-05,4.1479085671778456e-05,0.0002080059012451362,2.488132318150608e-05,7.0667,4.7333
3.7734375,5.465966176699475e-05,4.538444155184254e-05,0.00021776929094529643,2.829850957656216e-05,7.0667,4.7333
3.77734375,5.368332279697873e-05,5.465966176699475e-05,0.00022948535858548867,2.292864524147404e-05,7.0667,4.7333
3.78125,4.831345846189061e-05,4.831345846189061e-05,0.00022753268064545665,1.2677086056305808e-05,7.0667,4.7333
3.78515625,4.391993309681851e-05,4.001457721675442e-05,0.00023192620601052873,1.2677086056305808e-05,7.0667,4.7333
3.7890625,5.124247537193867e-05,3.952640773174641e-05,0.00024413044313572902,1.8535119876401938e-05,7.0667,4.7333
3.79296875,4.5872611036850557e-05,3.220386545662624e-05,0.0002304616975555047,1.951145884641796e-05,7.0667,4.7333
3.796875,4.7337119491874584e-05,3.7085560306706354e-05,0.00022899718910048068,1.8046950391393927e-05,7.0667,4.7333
3.80078125,5.417149228198674e-05,3.269203494163426e-05,0.000242665934680705,2.7810340091554148e-05,7.0667,4.7333
3.8046875,4.9289797431906635e-05,2.5369492666514095e-05,0.00022850901961547266,3.562105185168232e-05,7.0667,4.7333
3.80859375,4.7337119491874584e-05,3.5132882366674316e-05,0.0002309498670405127,2.6834001121538125e-05,7.0667,4.7333
3.8125,5.1730644856946685e-05,3.7085560306706354e-05,0.00024510678210574506,3.4156543396658294e-05,7.0667,4.7333
3.81640625,5.075430588693066e-05,4.34317636118105e-05,0.0002397369177706569,4.34317636118105e-05,7.0667,4.7333
3.8203125,4.684895000686658e-05,4.294359412680248e-05,0.00021728112146028838,3.171569597161824e-05,7.0667,4.7333
3.82421875,2.6834001121538125e-05,2.829850957656216e-05,0.00020263603691004809,2.2440475756466028e-05,7.0667,4.7333
3.828125,8.77173017624172e-06,2.7322170606546137e-05,0.0002084940707301442,9.748069146257742e-06,7.0667,4.7333
3.83203125,3.0739357001602215e-05,2.7810340091554148e-05,0.00021825746043030442,1.5606102966353874e-05,7.0667,4.7333
3.8359375,5.8076848162050824e-05,2.2440475756466028e-05,0.00021386393506523234,3.659739082169834e-05,7.0667,4.7333
3.83984375,5.71005091920348e-05,2.488132318150608e-05,0.00020751773176012819,3.269203494163426e-05,7.0667,4.7333
3.84375,4.880162794689862e-05,2.7810340091554148e-05,0.00020312420639505608,2.7322170606546137e-05,7.0667,4.7333
3.84765625,4.440810258182652e-05,3.46447128816663e-05,0.00021484027403524837,2.7810340091554148e-05,7.0667,4.7333
3.8515625,4.7337119491874584e-05,3.318020442664227e-05,0.0002304616975555047,2.488132318150608e-05,7.0667,4.7333
3.85546875,4.7337119491874584e-05,4.245542464179448e-05,0.00022997352807049672,1.5117933481345863e-05,7.0667,4.7333
3.859375,4.538444155184254e-05,4.001457721675442e-05,0.00022167464682536052,1.4141594511329842e-05,7.0667,4.7333
3.86328125,4.636078052185856e-05,2.0975967301441994e-05,0.0002084940707301442,3.269203494163426e-05,7.0667,4.7333
3.8671875,3.7573729791714366e-05,1.1212577601281776e-05,0.00019970702000000003,4.684895000686658e-05,7.0667,4.7333
3.87109375,3.318020442664227e-05,1.902328936140995e-05,0.0002041005453650721,4.34317636118105e-05,7.0667,4.7333
3.875,3.562105185168232e-05,3.952640773174641e-05,0.00021532844352025636,3.562105185168232e-05,7.0667,4.7333
3.87890625,3.7085560306706354e-05,3.7573729791714366e-05,0.0002128875960952163,1.8046950391393927e-05,7.0667,4.7333
3.8828125,3.3668373911650276e-05,2.5369492666514095e-05,0.00021093491815518426,1.1212577601281776e-05,7.0667,4.7333
3.88671875,1.902328936140995e-05,2.5369492666514095e-05,0.00021581661300526436,2.0975967301441994e-05,7.0667,4.7333
3.890625,1.0236238631265752e-05,2.1464136786450005e-05,0.00021337576558022432,3.220386545662624e-05,7.0667,4.7333
3.89453125,1.755878090638592e-05,1.7070611421377907e-05,0.00022460366373540857,3.220386545662624e-05,7.0667,4.7333
3.8984375,2.488132318150608e-05,1.6582441936369896e-05,0.00023827240931563289,2.3904984211490058e-05,7.0667,4.7333
3.90234375,3.0739357001602215e-05,1.755878090638592e-05,0.0002343670534355688,2.9274848546578178e-05,7.0667,4.7333
3.90625,3.318020442664227e-05,1.2188916571297797e-05,0.00021874562991531246,2.3416814726482047e-05,7.0667,4.7333
3.91015625,3.220386545662624e-05,1.0724408116273763e-05,0.00020751773176012819,1.9999628331425975e-05,7.0667,4.7333
3.9140625,3.610922133669034e-05,2.1464136786450005e-05,0.00021337576558022432,3.8550068761730395e-05,7.0667,4.7333
3.91796875,3.659739082169834e-05,3.220386545662624e-05,0.00023876057880064088,5.368332279697873e-05,7.0667,4.7333
3.921875,2.3904984211490058e-05,3.1227526486610226e-05,0.00022997352807049672,4.9289797431906635e-05,7.0667,4.7333
3.92578125,1.9999628331425975e-05,2.6834001121538125e-05,0.00019088945867704282,3.90382382467384e-05,7.0667,4.7333
3.9296875,3.0739357001602215e-05,3.90382382467384e-05,0.00018405508588693065,3.0251187516594204e-05,7.0667,4.7333
3.93359375,2.7810340091554148e-05,5.8076848162050824e-05,0.00020068335897001601,1.365342502632183e-05,7.0667,4.7333
3.9375,2.6834001121538125e-05,4.0990916186770444e-05,0.00020214786742504004,2.1952306271458016e-05,7.0667,4.7333
3.94140625,2.6345831636530114e-05,2.3416814726482047e-05,0.000199188339922179,4.245542464179448e-05,7.0667,4.7333
3.9453125,2.3416814726482047e-05,2.1952306271458016e-05,0.00019970702000000003,4.4896272066834534e-05,7.0667,4.7333
3.94921875,2.2440475756466028e-05,2.3416814726482047e-05,0.00018796044176699477,4.34317636118105e-05,7.0667,4.7333
3.953125,3.220386545662624e-05,3.7573729791714366e-05,0.00021142308764019228,3.46447128816663e-05,7.0667,4.7333
3.95703125,3.562105185168232e-05,3.0739357001602215e-05,0.00022558000270542458,1.2677086056305808e-05,7.0667,4.7333
3.9609375,2.488132318150608e-05,4.0990916186770444e-05,0.0002211864773403525,1.755878090638592e-05,7.0667,4.7333
3.96484375,2.1464136786450005e-05,4.0990916186770444e-05,0.00020654139279011218,4.1479085671778456e-05,7.0667,4.7333
3.96875,1.6582441936369896e-05,2.4255268711375773e-06,0.0001860077638269627,5.319515331197072e-05,7.0667,4.7333
3.97265625,7.307221721217687e-06,-1.5118063996337817e-05,0.0001860077638269627,3.806189927672238e-05,7.0667,4.7333
3.9765625,-2.425657386129532e-06,-1.2189047086289752e-05,0.00019625932301213094,1.3165255541313818e-05,7.0667,4.7333
3.98046875,-7.307352236209642e-06,-1.3653555541313785e-05,0.0002089822402151522,1.1700747086289786e-05,7.0667,4.7333
3.984375,-1.560623348134583e-05,-3.073948751659417e-05,0.00018356691640192266,3.46447128816663e-05,7.0667,4.7333
3.98828125,-2.8786809576562122e-05,-4.636091103685052e-05,0.00016599281494163425,7.372878227512018e-05,7.0667,4.7333
3.9921875,-4.050287721675439e-05,-4.53845720668345e-05,0.00016648098442664225,8.593301940032045e-05,7.0667,4.7333
3.99609375,-5.3683453311970684e-05,-3.366850442664224e-05,0.00017038634030670636,6.933525691004809e-05,7.0667,4.7333
4.0,-5.465979228198671e-05,-3.464484339665826e-05,0.0001669691539116503,6.787074845502406e-05,7.0667,4.7333
4.00390625,-4.5872741551842505e-05,-4.97780974319066e-05,0.0001513477303913939,8.153949403524835e-05,7.0667,4.7333
4.0078125,-2.8298640091554114e-05,-4.2455555156786426e-05,0.00014646603554131383,7.665779918516825e-05,7.0667,4.7333
4.01171875,-1.4141725026321795e-05,-1.2677216571297761e-05,0.00015427674730144199,7.42169517601282e-05,7.0667,4.7333
4.015625,-1.7070741936369862e-05,-1.121270811627373e-05,0.00016843366236667432,7.958681609521631e-05,7.0667,4.7333
4.01953125,-2.146426730144196e-05,-3.366850442664224e-05,0.00017819705206683454,6.295854301213094e-05,7.0667,4.7333
4.0234375,-1.121270811627373e-05,-3.5133012881666264e-05,0.00019772383146715496,3.7573729791714366e-05,7.0667,4.7333
4.02734375,-1.121270811627373e-05,-3.1715826486610186e-05,0.0002128875960952163,4.7337119491874584e-05,7.0667,4.7333
4.03125,-1.999975884641793e-05,-2.634596215152207e-05,0.00021825746043030442,5.856501764705884e-05,7.0667,4.7333
4.03515625,-2.195243678644997e-05,-1.4629894511329806e-05,0.0002123994266102083,6.344671249713895e-05,7.0667,4.7333
4.0390625,-1.755891142137787e-05,-1.3653555541313785e-05,0.00019333030610208288,6.982342639505609e-05,7.0667,4.7333
4.04296875,-9.260030176241686e-06,-1.999975884641793e-05,0.00019235396713206685,5.5636000737010774e-05,7.0667,4.7333
4.046875,-6.3310132661936195e-06,-2.536962318150605e-05,0.00019235396713206685,5.5636000737010774e-05,7.0667,4.7333
4.05078125,-6.3310132661936195e-06,-1.3165386056305774e-05,0.0001943066450720989,5.2218814341954696e-05,7.0667,4.7333
4.0546875,-1.3165386056305774e-05,2.913696356145588e-06,0.00018893678073701075,3.5132882366674316e-05,7.0667,4.7333
4.05859375,-1.0236369146257707e-05,5.842713266193654e-06,0.0001864959333119707,3.4156543396658294e-05,7.0667,4.7333
4.0625,-1.44931841611351e-06,2.4255268711375773e-06,0.00019186579764705886,3.8550068761730395e-05,7.0667,4.7333
4.06640625,5.354543781185643e-06,-6.819182751201631e-06,0.0001952829840421149,4.636078052185856e-05,7.0667,4.7333
4.0703125,1.5117933481345863e-05,-3.401996356145554e-06,0.0001952829840421149,5.319515331197072e-05,7.0667,4.7333
4.07421875,1.4629763996337851e-05,4.866374296177632e-06,0.00020019518948500802,4.538444155184254e-05,7.0667,4.7333
4.078125,1.0724408116273763e-05,9.259899661249731e-06,0.00021093491815518426,2.829850957656216e-05,7.0667,4.7333
4.08203125,1.2677086056305808e-05,1.0724408116273763e-05,0.00021728112146028838,4.245542464179448e-05,7.0667,4.7333
4.0859375,1.2188916571297797e-05,2.4255268711375773e-06,0.0002221628163103685,5.270698382696271e-05,7.0667,4.7333
4.08984375,-1.5320553902477717e-08,-3.401996356145554e-06,0.0002089822402151522,4.0990916186770444e-05,7.0667,4.7333
4.09375,-6.819182751201631e-06,3.401865841153599e-06,0.00020312420639505608,4.538444155184254e-05,7.0667,4.7333
4.09765625,6.819052236209676e-06,1.4629763996337851e-05,0.000199188339922179,5.075430588693066e-05,7.0667,4.7333
4.1015625,5.842713266193654e-06,1.5117933481345863e-05,0.0001811260689768826,5.612417022201878e-05,7.0667,4.7333
4.10546875,3.401865841153599e-06,9.259899661249731e-06,0.0001816142384618906,4.9289797431906635e-05,7.0667,4.7333
4.109375,1.2677086056305808e-05,2.1952306271458016e-05,0.0001860077638269627,4.196725515678646e-05,7.0667,4.7333
4.11328125,1.3165255541313818e-05,3.90382382467384e-05,0.00018210240794689863,4.196725515678646e-05,7.0667,4.7333
4.1171875,1.7070611421377907e-05,3.0251187516594204e-05,0.00018454325537193867,4.050274670176243e-05,7.0667,4.7333
4.12109375,1.4141594511329842e-05,3.0251187516594204e-05,0.00019577115352712292,3.46447128816663e-05,7.0667,4.7333
4.125,1.4141594511329842e-05,3.0739357001602215e-05,0.00019625932301213094,2.7810340091554148e-05,7.0667,4.7333
4.12890625,2.6834001121538125e-05,2.3904984211490058e-05,0.00018991311970702678,3.0251187516594204e-05,7.0667,4.7333
4.1328125,3.0739357001602215e-05,2.0487797816433986e-05,0.00018991311970702678,3.318020442664227e-05,7.0667,4.7333
4.13671875,3.0251187516594204e-05,2.6834001121538125e-05,0.00019821200095216298,3.269203494163426e-05,7.0667,4.7333
4.140625,3.220386545662624e-05,3.0739357001602215e-05,0.00020312420639505608,2.829850957656216e-05,7.0667,4.7333
4.14453125,2.6345831636530114e-05,1.2188916571297797e-05,0.00019186579764705886,1.6094272451361885e-05,7.0667,4.7333
4.1484375,2.1952306271458016e-05,1.365342502632183e-05,0.0001947948145571069,2.5369492666514095e-05,7.0667,4.7333
4.15234375,2.7322170606546137e-05,2.0975967301441994e-05,0.00020361237588006412,4.196725515678646e-05,7.0667,4.7333
4.15625,2.488132318150608e-05,2.829850957656216e-05,0.00019772383146715496,4.34317636118105e-05,7.0667,4.7333
4.16015625,2.1464136786450005e-05,2.829850957656216e-05,0.00018796044176699477,4.050274670176243e-05,7.0667,4.7333
4.1640625,2.7810340091554148e-05,2.439315369649807e-05,0.0001864959333119707,3.7085560306706354e-05,7.0667,4.7333
4.16796875,2.3416814726482047e-05,1.951145884641796e-05,0.00019284213661707484,4.001457721675442e-05,7.0667,4.7333
4.171875,1.7070611421377907e-05,2.3416814726482047e-05,0.0002041005453650721,4.34317636118105e-05,7.0667,4.7333
4.17578125,3.0739357001602215e-05,3.5132882366674316e-05,0.0002089822402151522,4.1479085671778456e-05,7.0667,4.7333
4.1796875,3.269203494163426e-05,2.7810340091554148e-05,0.0002041005453650721,3.562105185168232e-05,7.0667,4.7333
4.18359375,2.976301803158619e-05,1.2677086056305808e-05,0.00018307874691691464,3.7085560306706354e-05,7.0667,4.7333
4.1875,3.5132882366674316e-05,-4.3783353261615755e-06,0.00017038634030670636,3.610922133669034e-05,7.0667,4.7333
4.19140625,3.806189927672238e-05,-1.2677216571297761e-05,0.00016501647597161822,3.610922133669034e-05,7.0667,4.7333
4.1953125,3.8550068761730395e-05,-2.2928775756465994e-05,0.00014646603554131383,4.001457721675442e-05,7.0667,4.7333
4.19921875,3.3668373911650276e-05,-4.7825419491874556e-05,0.00012645108665598537,4.196725515678646e-05,7.0667,4.7333
4.203125,4.1479085671778456e-05,-7.22644043350881e-05,9.276739219043261e-05,4.684895000686658e-05,7.0667,4.7333
